|-------------------------------------------------------------------------|
|   File Name : in_temp.dat
|   Subject   : temperature profiles used for initial guess atmosphere
|   File Type : input of gmtr
|   Data Type : atmospherical data
|   Author/s  : WRF-Chem
|   Date      : Fri Jul 26 15:39:24 2024
|-------------------------------------------------------------------------|

 WRF-Chem temperature
#
 values of T (K)    (8f10.5)
#
 354.97500 345.04800 334.58700 324.11500 313.32600 302.53700 291.65000 280.76700
 269.93100 259.19300 248.62200 238.61700 229.08700 220.35500 212.54000 205.53500
 199.46400 194.49300 191.14300 189.19000 188.08900 188.01400 188.72400 189.90600
 191.46900 193.38200 195.40300 197.55600 199.80700 202.06000 204.28800 206.47900
 208.55200 210.37800 212.02500 213.65900 214.99800 216.11800 217.17200 218.25900
 219.49400 220.64500 221.67900 222.61400 223.54500 224.98200 226.57100 228.19000
 229.79700 231.81100 233.86500 235.97200 238.24200 240.55300 242.89900 245.25300
 247.48800 249.53500 251.36600 252.84800 254.09800 255.16700 256.02700 256.25300
 256.09500 255.54300 253.93500 252.56600 251.38400 250.24500 249.05200 247.70100
 246.01600 243.99600 241.78400 239.39300 236.81300 234.22300 231.65800 229.14400
 226.74000 224.47300 222.33500 220.32500 218.44000 216.67700 214.96200 213.47200
 212.20000 211.10800 210.26000 209.63900 209.24400 209.03100 209.05800 209.33300
 209.78400 210.62600 211.33100 212.39100 213.62500 214.84668 217.72949 219.47640
 220.32566 220.86828 220.88710 220.27371 219.43733 218.84250 219.04934 220.86203
 222.60583 225.72206 229.03064 232.61777 236.12270 239.51333 242.70767 245.68587
 248.41061 250.90679 253.19353 254.91714 256.48655 257.94920 259.39966 260.69384
 261.81714 262.77997 263.71679 264.54570 265.26305 265.89772 266.47676 267.00133
 267.47312 267.89325 268.26027 268.72800
 366.78100 356.33500 345.76700 334.63300 323.03600 311.23000 299.10000 286.90300
 274.61500 262.51200 250.52100 239.82200 229.94400 221.04800 213.23000 206.23200
 200.06600 195.00400 191.58600 189.62800 188.66500 188.72900 189.56400 190.87200
 192.59700 194.69200 196.95500 199.31400 201.75900 204.23900 206.32700 208.16900
 209.79500 210.94000 211.16900 211.39700 211.33400 211.03900 210.67200 210.30200
 209.91900 209.62900 209.43700 209.30100 209.22900 209.56000 209.94600 210.33500
 211.12800 212.30600 213.55600 215.33900 217.26700 219.31000 221.40500 223.48800
 225.54800 227.63200 229.72900 231.83500 233.96400 236.13600 238.39200 240.76200
 243.38300 245.63400 247.63600 249.40100 250.81800 251.94100 252.76300 253.07900
 253.11600 252.89000 252.25000 251.19800 249.80400 247.96500 245.87400 243.70700
 241.49800 239.30200 237.12200 234.96100 232.82100 230.68800 228.71400 226.87100
 225.15400 223.62600 222.25600 221.02800 219.91000 218.87000 217.97400 217.11500
 216.35700 215.53700 214.63500 213.99900 213.44900 212.85855 212.01316 212.61654
 214.26826 216.08686 218.14273 220.53346 223.40855 226.78828 231.49734 235.90155
 239.42278 243.28576 247.23140 251.11907 254.80144 258.23331 261.38913 264.27520
 266.89312 269.26852 271.44504 273.08845 274.58484 275.98591 277.39845 278.65879
 279.75272 280.69038 281.56708 282.34086 283.01050 283.60295 284.14348 284.63317
 285.07358 285.46577 285.80838 286.24500
 381.81900 372.39900 361.20600 349.77600 337.62200 324.85300 311.81000 298.35300
 284.86000 271.32400 258.56100 246.30400 236.08700 226.79600 218.44800 211.29000
 205.52200 200.89400 197.38100 194.84800 193.01500 192.31500 192.25000 192.43100
 192.91200 193.53700 194.13600 194.71200 195.26200 195.83100 196.39300 196.97600
 197.60400 198.14900 198.58400 199.05700 199.69500 200.37800 201.05400 201.70800
 202.31300 202.85700 203.35500 203.86200 204.56900 205.29700 206.02600 206.98700
 208.19300 209.44100 210.96900 212.57600 214.46200 216.51300 218.63000 220.85300
 223.34100 225.96200 228.73900 231.69700 234.70600 237.70600 240.69200 243.65700
 246.73700 249.69900 252.52100 255.06300 257.29000 259.23300 260.63300 261.68000
 262.46100 262.79800 262.69100 262.22400 261.06900 259.52500 257.70700 255.50700
 253.00100 250.30200 247.39800 244.45200 241.65400 239.05400 236.73300 234.59000
 232.59500 230.72500 228.83400 226.82600 224.66600 222.38700 220.10400 217.71500
 215.45900 213.06600 210.54600 208.09300 205.35400 202.08130 196.05959 200.71215
 209.01611 216.90438 223.84126 229.78593 235.00632 240.20838 245.98943 250.68668
 254.32982 257.93487 261.55666 264.96801 268.15192 271.06452 273.76717 276.25691
 278.57680 280.74479 282.77456 284.60533 286.27232 287.81705 289.31715 290.65561
 291.81734 292.81312 293.70701 294.49387 295.17482 295.77730 296.32696 296.82492
 297.27278 297.67160 298.02000 298.46400
 399.33000 389.90700 379.81300 368.66800 357.52200 345.30100 333.07400 320.22700
 307.21600 293.84800 280.37600 267.29600 254.61000 242.98700 232.15100 221.97700
 212.67200 204.28600 197.66900 192.82100 189.48600 187.45200 186.81400 187.08900
 187.78100 189.05400 190.64800 192.54200 194.63000 196.75200 198.67100 200.15800
 201.53500 202.48700 202.97500 203.34000 203.53900 203.49700 203.38500 203.24700
 203.00500 202.78600 202.60300 202.43700 202.42600 202.88800 203.42000 203.95100
 204.89500 205.99200 207.30100 208.95800 210.73800 213.10000 215.56400 218.18000
 220.96600 223.91800 226.96100 230.09200 233.29300 236.55700 239.95500 243.53700
 246.84500 249.39000 251.54200 253.47400 255.19500 256.48400 257.43100 258.05900
 258.21200 258.04000 257.58200 256.64300 255.23900 253.50700 251.40800 249.05600
 246.57600 243.99400 241.38900 238.83000 236.34400 233.98600 231.96900 230.11800
 228.42300 226.89900 225.54800 224.29700 223.10500 221.96500 220.95800 220.11300
 219.49000 218.92000 218.32500 217.88100 217.42300 216.96366 216.35568 216.80261
 217.73415 218.28582 218.64258 219.10077 220.44626 222.53987 226.38451 230.35736
 233.59734 237.39164 241.29814 245.22796 248.98002 252.51130 255.78595 258.80109
 261.54781 264.05210 266.34239 268.04198 269.58951 271.01303 272.35754 273.55718
 274.59842 275.49092 276.28989 276.99307 277.60161 278.14001 278.63122 279.07623
 279.47646 279.83287 280.14422 280.54100
 399.73800 389.78500 379.66200 368.15100 356.64100 344.35000 331.79200 318.88800
 305.72600 292.49300 279.20900 266.73800 254.69600 244.21100 234.45700 225.43300
 217.56900 210.45100 204.30000 199.30600 195.45800 192.57600 191.02700 190.38600
 190.23900 190.53400 191.16600 191.92500 192.79500 193.76600 194.73200 195.31200
 195.80000 196.05200 196.11500 196.11500 196.03900 195.72300 195.34000 194.98900
 194.75100 194.79200 195.13300 195.59800 196.50600 198.13600 199.85800 201.56600
 204.17900 206.82300 209.89300 213.28400 216.82800 220.60500 224.38700 228.20900
 232.03200 235.82500 239.56000 243.25800 246.84500 250.20100 253.70900 257.46800
 261.53000 264.22100 266.60100 268.68100 270.32900 271.74100 272.83600 273.47400
 273.89800 274.00200 273.75700 273.28800 272.37100 271.10000 269.58900 267.77900
 265.81600 263.72100 261.39300 258.91600 256.29800 253.42300 250.33100 247.11400
 243.83700 240.52900 237.24900 233.99900 230.72800 227.51500 224.25400 220.95200
 217.62700 213.65600 210.12100 206.78900 204.01000 201.99491 199.07309 198.76551
 199.40006 200.48994 201.46112 202.31912 203.45100 204.96110 207.47502 210.85391
 213.70530 217.29629 220.99574 224.72316 228.28753 231.64854 234.68024 237.40893
 239.70644 241.60899 243.46854 245.67368 247.68154 249.52395 251.24767 252.78566
 254.12057 255.26479 256.23740 257.09036 257.82852 258.48160 259.07744 259.61723
 260.10271 260.53504 260.91270 261.39400
 399.73800 389.78500 379.66200 368.15100 356.64100 344.35000 331.79200 318.88800
 305.72600 292.49300 279.20900 266.73800 254.69600 244.21100 234.45700 225.43300
 217.56900 210.45100 204.30000 199.30600 195.45800 192.57600 191.02700 190.38600
 190.23900 190.53400 191.16600 191.92500 192.79500 193.76600 194.73200 195.31200
 195.80000 196.05200 196.11500 196.11500 196.03900 195.72300 195.34000 194.98900
 194.75100 194.79200 195.13300 195.59800 196.50600 198.13600 199.85800 201.56600
 204.17900 206.82300 209.89300 213.28400 216.82800 220.60500 224.38700 228.20900
 232.03200 235.82500 239.56000 243.25800 246.84500 250.20100 253.70900 257.46800
 261.53000 264.22100 266.60100 268.68100 270.32900 271.74100 272.83600 273.47400
 273.89800 274.00200 273.75700 273.28800 272.37100 271.10000 269.58900 267.77900
 265.81600 263.72100 261.39300 258.91600 256.29800 253.42300 250.33100 247.11400
 243.83700 240.52900 237.24900 233.99900 230.72800 227.51500 224.25400 220.95200
 217.62700 213.65600 210.12100 206.78900 204.01000 201.99491 199.07309 198.76551
 199.40006 200.48994 201.46112 202.31912 203.45100 204.96110 207.47502 210.85391
 213.70530 217.29629 220.99574 224.72316 228.28753 231.64854 234.68024 237.40893
 239.70644 241.60899 243.46854 245.67368 247.68154 249.52395 251.24767 252.78566
 254.12057 255.26479 256.23740 257.09036 257.82852 258.48160 259.07744 259.61723
 260.10271 260.53504 260.91270 261.39400
 399.33000 389.90700 379.81300 368.66800 357.52200 345.30100 333.07400 320.22700
 307.21600 293.84800 280.37600 267.29600 254.61000 242.98700 232.15100 221.97700
 212.67200 204.28600 197.66900 192.82100 189.48600 187.45200 186.81400 187.08900
 187.78100 189.05400 190.64800 192.54200 194.63000 196.75200 198.67100 200.15800
 201.53500 202.48700 202.97500 203.34000 203.53900 203.49700 203.38500 203.24700
 203.00500 202.78600 202.60300 202.43700 202.42600 202.88800 203.42000 203.95100
 204.89500 205.99200 207.30100 208.95800 210.73800 213.10000 215.56400 218.18000
 220.96600 223.91800 226.96100 230.09200 233.29300 236.55700 239.95500 243.53700
 246.84500 249.39000 251.54200 253.47400 255.19500 256.48400 257.43100 258.05900
 258.21200 258.04000 257.58200 256.64300 255.23900 253.50700 251.40800 249.05600
 246.57600 243.99400 241.38900 238.83000 236.34400 233.98600 231.96900 230.11800
 228.42300 226.89900 225.54800 224.29700 223.10500 221.96500 220.95800 220.11300
 219.49000 218.92000 218.32500 217.88100 217.42300 216.96366 216.35568 216.80261
 217.73415 218.28582 218.64258 219.10077 220.44626 222.53987 226.38451 230.35736
 233.59734 237.39164 241.29814 245.22796 248.98002 252.51130 255.78595 258.80109
 261.54781 264.05210 266.34239 268.04198 269.58951 271.01303 272.35754 273.55718
 274.59842 275.49092 276.28989 276.99307 277.60161 278.14001 278.63122 279.07623
 279.47646 279.83287 280.14422 280.54100
 381.81900 372.39900 361.20600 349.77600 337.62200 324.85300 311.81000 298.35300
 284.86000 271.32400 258.56100 246.30400 236.08700 226.79600 218.44800 211.29000
 205.52200 200.89400 197.38100 194.84800 193.01500 192.31500 192.25000 192.43100
 192.91200 193.53700 194.13600 194.71200 195.26200 195.83100 196.39300 196.97600
 197.60400 198.14900 198.58400 199.05700 199.69500 200.37800 201.05400 201.70800
 202.31300 202.85700 203.35500 203.86200 204.56900 205.29700 206.02600 206.98700
 208.19300 209.44100 210.96900 212.57600 214.46200 216.51300 218.63000 220.85300
 223.34100 225.96200 228.73900 231.69700 234.70600 237.70600 240.69200 243.65700
 246.73700 249.69900 252.52100 255.06300 257.29000 259.23300 260.63300 261.68000
 262.46100 262.79800 262.69100 262.22400 261.06900 259.52500 257.70700 255.50700
 253.00100 250.30200 247.39800 244.45200 241.65400 239.05400 236.73300 234.59000
 232.59500 230.72500 228.83400 226.82600 224.66600 222.38700 220.10400 217.71500
 215.45900 213.06600 210.54600 208.09300 205.35400 202.08130 196.05959 200.71215
 209.01611 216.90438 223.84126 229.78593 235.00632 240.20838 245.98943 250.68668
 254.32982 257.93487 261.55666 264.96801 268.15192 271.06452 273.76717 276.25691
 278.57680 280.74479 282.77456 284.60533 286.27232 287.81705 289.31715 290.65561
 291.81734 292.81312 293.70701 294.49387 295.17482 295.77730 296.32696 296.82492
 297.27278 297.67160 298.02000 298.46400
 366.78100 356.32678 345.75056 334.60834 323.00312 311.18890 299.05069 286.84547
 274.54925 262.43803 250.43881 239.73159 229.84537 220.94115 213.11493 206.10871
 199.93449 194.86428 191.43806 189.47184 188.50062 188.55640 189.38318 190.68296
 192.39974 194.48652 196.74130 199.09208 201.52887 204.00065 206.08043 207.91421
 209.53199 210.66877 210.88955 211.10933 211.03811 210.73489 210.35967 209.98146
 209.59024 209.29202 209.09180 208.94758 208.86736 209.19014 209.56792 209.94870
 210.73348 211.90326 213.14505 214.91983 216.83961 218.87439 220.96117 223.03595
 225.08773 227.16351 229.25229 231.35007 233.47085 235.63464 237.88242 240.24420
 242.85698 245.09976 247.09354 248.85032 250.25910 251.37388 252.18766 252.49544
 252.52423 252.29001 251.64179 250.58157 249.17935 247.33213 245.23291 243.05769
 240.84047 238.63625 236.44803 234.27882 232.13060 229.98938 228.00716 226.15594
 224.43072 222.89450 221.51628 220.28006 219.15384 218.10562 217.20141 216.33419
 215.56797 214.73975 213.82953 213.18531 212.62709 212.51543 212.26424 213.54268
 215.21077 217.12198 218.15401 218.25581 219.45302 222.96400 228.32693 233.01628
 236.78395 240.55589 244.24161 247.79315 251.15555 253.92403 256.33582 258.94397
 262.09534 264.80035 266.86670 268.71304 270.62021 272.60208 274.34375 275.90710
 277.38074 278.90411 280.42953 281.79480 282.98129 284.03348 284.99960 285.88071
 286.67917 287.39600 288.02881 288.86920
 366.78100 356.32656 345.75011 334.60767 323.00223 311.18778 299.04934 286.84390
 274.54745 262.43601 250.43657 239.72912 229.84268 220.93824 213.11179 206.10535
 199.93091 194.86046 191.43402 189.46758 188.49613 188.55169 189.37825 190.67780
 192.39436 194.48092 196.73547 199.08603 201.52258 203.99414 206.07370 207.90725
 209.52481 210.66137 210.88192 211.10148 211.03004 210.72659 210.35115 209.97271
 209.58126 209.28282 209.08238 208.93793 208.85749 209.18005 209.55760 209.93816
 210.72272 211.89227 213.13383 214.90839 216.82794 218.86250 220.94906 223.02361
 225.07517 227.15073 229.23928 231.33684 233.45740 235.62095 237.86851 240.23007
 242.84262 245.08518 247.07874 248.83529 250.24385 251.35841 252.17196 252.47952
 252.50808 252.27363 251.62519 250.56475 249.16230 247.31486 245.21541 243.03997
 240.82253 238.61808 236.42964 234.26020 232.11175 229.97031 227.98787 226.13642
 224.41098 222.87454 221.49609 220.25965 219.13321 218.08476 217.18032 216.31288
 215.54643 214.71799 213.80755 213.16310 212.60466 212.53127 212.36888 213.66553
 215.31088 217.17769 218.25475 218.41138 219.58168 222.99345 228.27266 232.89799
 236.64212 240.41556 244.11366 247.66118 250.96907 253.68768 256.12711 258.81964
 261.94577 264.61050 266.67892 268.55545 270.48386 272.46820 274.19995 275.76465
 277.25925 278.82339 280.35513 281.72177 282.90720 283.96078 284.92731 285.80875
 286.60748 287.32480 287.95795 288.79947
 366.78100 356.32657 345.75013 334.60770 323.00227 311.18784 299.04940 286.84397
 274.54754 262.43611 250.43667 239.72924 229.84281 220.93838 213.11194 206.10551
 199.93108 194.86065 191.43421 189.46778 188.49635 188.55192 189.37848 190.67805
 192.39462 194.48119 196.73575 199.08632 201.52289 203.99446 206.07402 207.90759
 209.52516 210.66173 210.88229 211.10186 211.03043 210.72700 210.35156 209.97313
 209.58170 209.28326 209.08283 208.93840 208.85797 209.18053 209.55810 209.93867
 210.72324 211.89280 213.13437 214.90894 216.82851 218.86307 220.94964 223.02421
 225.07578 227.15134 229.23991 231.33748 233.45805 235.62161 237.86918 240.23075
 242.84332 245.08588 247.07945 248.83602 250.24459 251.35915 252.17272 252.48029
 252.50886 252.27442 251.62599 250.56556 249.16312 247.31569 245.21626 243.04083
 240.82339 238.61896 236.43053 234.26110 232.11266 229.97123 227.98880 226.13737
 224.41193 222.87550 221.49707 220.26064 219.13420 218.08577 217.18134 216.31391
 215.54747 214.71904 213.80861 213.16418 212.60574 212.56071 212.46394 213.80151
 215.39937 217.21367 218.36282 218.57988 219.72557 223.03427 228.22292 232.78117
 236.49049 240.26471 243.97977 247.52014 250.77313 253.44841 255.91962 258.69327
 261.79218 264.41653 266.48651 268.39523 270.34824 272.33826 274.06146 275.62744
 277.14291 278.74734 280.28281 281.65012 282.83600 283.88980 284.85635 285.73773
 286.53693 287.25357 287.88849 288.72989
 366.78100 356.32657 345.75014 334.60771 323.00228 311.18785 299.04942 286.84399
 274.54756 262.43613 250.43670 239.72927 229.84283 220.93840 213.11197 206.10554
 199.93111 194.86068 191.43425 189.46782 188.49639 188.55196 189.37853 190.67810
 192.39467 194.48124 196.73581 199.08638 201.52295 203.99452 206.07409 207.90766
 209.52523 210.66180 210.88237 211.10193 211.03050 210.72707 210.35164 209.97321
 209.58178 209.28335 209.08292 208.93849 208.85806 209.18063 209.55820 209.93877
 210.72334 211.89291 213.13448 214.90905 216.82862 218.86319 220.94976 223.02433
 225.07590 227.15147 229.24004 231.33760 233.45817 235.62174 237.86931 240.23088
 242.84345 245.08602 247.07959 248.83616 250.24473 251.35930 252.17287 252.48044
 252.50901 252.27458 251.62615 250.56572 249.16329 247.31586 245.21643 243.04100
 240.82357 238.61914 236.43070 234.26127 232.11284 229.97141 227.98898 226.13755
 224.41212 222.87569 221.49726 220.26083 219.13440 218.08597 217.18154 216.31411
 215.54768 214.71925 213.80882 213.16439 212.60596 212.59128 212.56487 213.94176
 215.46689 217.24998 218.46738 218.76161 219.89149 223.08578 228.17409 232.66661
 236.33737 240.11169 243.83809 247.36298 250.56407 253.20642 255.71341 258.56345
 261.63431 264.21942 266.28854 268.23108 270.21249 272.21130 273.92911 275.49750
 277.02765 278.67813 280.21634 281.58249 282.76816 283.82150 284.78796 285.66867
 286.46756 287.18301 287.81940 288.65900
 366.78100 356.32657 345.75014 334.60771 323.00228 311.18785 299.04942 286.84399
 274.54756 262.43613 250.43670 239.72928 229.84285 220.93842 213.11199 206.10556
 199.93113 194.86070 191.43427 189.46784 188.49641 188.55198 189.37855 190.67812
 192.39469 194.48126 196.73583 199.08640 201.52297 203.99454 206.07411 207.90769
 209.52526 210.66183 210.88240 211.10197 211.03054 210.72711 210.35168 209.97325
 209.58182 209.28339 209.08296 208.93853 208.85810 209.18067 209.55824 209.93881
 210.72338 211.89295 213.13452 214.90909 216.82867 218.86324 220.94981 223.02438
 225.07595 227.15152 229.24009 231.33766 233.45823 235.62180 237.86937 240.23094
 242.84351 245.08608 247.07965 248.83622 250.24479 251.35936 252.17293 252.48050
 252.50907 252.27465 251.62622 250.56579 249.16336 247.31593 245.21650 243.04107
 240.82364 238.61921 236.43078 234.26135 232.11292 229.97149 227.98906 226.13763
 224.41220 222.87577 221.49734 220.26091 219.13448 218.08606 217.18163 216.31420
 215.54777 214.71934 213.80891 213.16448 212.60605 212.62355 212.67175 214.07574
 215.52646 217.28604 218.57231 218.95323 220.07562 223.14404 228.12833 232.55046
 236.18938 239.96188 243.68668 247.18629 250.33977 252.96112 255.50861 258.42972
 261.47275 264.01962 266.08765 268.06348 270.07785 272.08868 273.80460 275.37369
 276.90094 278.60968 280.15421 281.51987 282.70462 283.75720 284.72266 285.60263
 286.40076 287.11725 287.74963 288.59244
 366.78100 356.32662 345.75024 334.60786 323.00248 311.18810 299.04972 286.84434
 274.54796 262.43658 250.43720 239.72982 229.84344 220.93906 213.11268 206.10630
 199.93192 194.86154 191.43516 189.46878 188.49740 188.55302 189.37963 190.67925
 192.39587 194.48249 196.73711 199.08773 201.52435 203.99597 206.07559 207.90921
 209.52683 210.66345 210.88407 211.10369 211.03231 210.72893 210.35355 209.97517
 209.58379 209.28541 209.08503 208.94065 208.86027 209.18289 209.56051 209.94113
 210.72575 211.89537 213.13699 214.91161 216.83123 218.86585 220.95247 223.02709
 225.07871 227.15433 229.24295 231.34057 233.46119 235.62481 237.87243 240.23405
 242.84667 245.08929 247.08290 248.83952 250.24814 251.36276 252.17638 252.48400
 252.51262 252.27824 251.62986 250.56948 249.16710 247.31972 245.22034 243.04496
 240.82758 238.62320 236.43482 234.26544 232.11706 229.97568 227.99330 226.14192
 224.41654 222.88016 221.50178 220.26540 219.13902 218.09064 217.18626 216.31888
 215.55250 214.72412 213.81374 213.16936 212.61098 212.65991 212.78096 214.20534
 215.58070 217.31728 218.68118 219.14568 220.27119 223.21216 228.09018 232.43762
 236.04916 239.81711 243.52707 246.99290 250.10138 252.70996 255.30019 258.28607
 261.30350 263.81586 265.88437 267.89453 269.94592 271.97366 273.69315 275.26404
 276.80307 278.52936 280.07947 281.44629 282.63229 283.68536 284.65149 285.53156
 286.32965 287.04639 287.67899 288.52246
 366.78100 356.32675 345.75049 334.60824 323.00299 311.18874 299.05048 286.84523
 274.54898 262.43772 250.43847 239.73122 229.84497 220.94071 213.11446 206.10821
 199.93395 194.86370 191.43745 189.47120 188.49994 188.55569 189.38244 190.68219
 192.39893 194.48568 196.74043 199.09117 201.52792 203.99967 206.07942 207.91316
 209.53091 210.66766 210.88840 211.10815 211.03690 210.73365 210.35839 209.98014
 209.58889 209.29063 209.09038 208.94613 208.86588 209.18862 209.56637 209.94712
 210.73186 211.90161 213.14336 214.91811 216.83785 218.87260 220.95935 223.03410
 225.08584 227.16159 229.25034 231.34808 233.46883 235.63258 237.88033 240.24207
 242.85482 245.09757 247.09131 248.84806 250.25681 251.37156 252.18530 252.49305
 252.52180 252.28754 251.63929 250.57904 249.17679 247.32953 245.23028 243.05503
 240.83777 238.63352 236.44527 234.27602 232.12776 229.98651 228.00426 226.15300
 224.42775 222.89150 221.51325 220.27699 219.15074 218.10249 217.19824 216.33098
 215.56473 214.73648 213.82622 213.18197 212.62372 212.70134 212.88879 214.32957
 215.63156 217.34923 218.79445 219.33089 220.47272 223.29039 228.05969 232.33752
 235.91765 239.67822 243.36484 246.78644 249.84750 252.44919 255.08476 258.12894
 261.12436 263.60852 265.68155 267.72775 269.81650 271.86459 273.59332 275.17044
 276.72073 278.44913 280.00046 281.36807 282.55402 283.60956 284.57477 285.45505
 286.25369 286.97037 287.60327 288.44751
 366.78100 356.32693 345.75086 334.60880 323.00373 311.18966 299.05159 286.84652
 274.55046 262.43939 250.44032 239.73325 229.84719 220.94312 213.11705 206.11098
 199.93691 194.86685 191.44078 189.47471 188.50364 188.55957 189.38651 190.68644
 192.40337 194.49030 196.74524 199.09617 201.53310 204.00503 206.08496 207.91890
 209.53683 210.67376 210.89469 211.11462 211.04356 210.74049 210.36542 209.98735
 209.59628 209.29822 209.09815 208.95408 208.87401 209.19695 209.57488 209.95581
 210.74074 211.91067 213.15261 214.92754 216.84747 218.88240 220.96933 223.04427
 225.09620 227.17213 229.26106 231.35900 233.47993 235.64386 237.89179 240.25372
 242.86666 245.10959 247.10352 248.86045 250.26938 251.38432 252.19825 252.50618
 252.53511 252.30104 251.65298 250.59291 249.19084 247.34377 245.24471 243.06964
 240.85257 238.64850 236.46043 234.29137 232.14330 230.00223 228.02016 226.16909
 224.44403 222.90796 221.52989 220.29382 219.16775 218.11969 217.21562 216.34855
 215.58248 214.75442 213.84435 213.20028 212.64221 212.74675 212.99641 214.44418
 215.68217 217.38850 218.91092 219.50955 220.67400 223.37312 228.03352 232.25235
 235.79715 239.54544 243.20016 246.56557 249.57932 252.18265 254.86528 257.95969
 260.93521 263.39850 265.48471 267.56766 269.69363 271.76028 273.50174 275.09082
 276.64209 278.36963 279.92117 281.28836 282.47549 283.53131 284.49677 285.37738
 286.17599 286.89319 287.52664 288.37183
 366.78100 356.32718 345.75136 334.60955 323.00473 311.19091 299.05309 286.84827
 274.55245 262.44164 250.44282 239.73600 229.85018 220.94636 213.12054 206.11473
 199.94091 194.87109 191.44527 189.47945 188.50864 188.56482 189.39200 190.69218
 192.40936 194.49654 196.75173 199.10291 201.54009 204.01227 206.09245 207.92663
 209.54482 210.68200 210.90318 211.12336 211.05254 210.74972 210.37491 209.99709
 209.60627 209.30845 209.10863 208.96482 208.88500 209.20818 209.58636 209.96754
 210.75272 211.92291 213.16509 214.94027 216.86045 218.89563 220.98281 223.05800
 225.11018 227.18636 229.27554 231.37372 233.49491 235.65909 237.90727 240.26945
 242.88263 245.12581 247.12000 248.87718 250.28636 251.40154 252.21572 252.52390
 252.55309 252.31927 251.67145 250.61163 249.20981 247.36299 245.26418 243.08936
 240.87254 238.66872 236.48090 234.31209 232.16427 230.02345 228.04163 226.19081
 224.46599 222.93018 221.55236 220.31654 219.19072 218.14290 217.23908 216.37227
 215.60645 214.77863 213.86881 213.22499 212.66718 212.79625 213.10266 214.55028
 215.73441 217.43745 219.03210 219.68486 220.87215 223.45703 228.00793 232.17596
 235.68724 239.42050 243.03534 246.33417 249.29974 251.91156 254.64330 257.78049
 260.73959 263.18835 265.29346 267.41455 269.57767 271.66245 273.42004 275.02225
 276.56799 278.29242 279.84229 281.21100 282.39828 283.45273 284.41907 285.29987
 286.09900 286.81659 287.45020 288.29684
 366.78100 356.32746 345.75191 334.61037 323.00583 311.19228 299.05474 286.85019
 274.55465 262.44411 250.44556 239.73902 229.85348 220.94993 213.12439 206.11885
 199.94530 194.87576 191.45022 189.48467 188.51413 188.57058 189.39804 190.69850
 192.41595 194.50341 196.75887 199.11032 201.54778 204.02024 206.10069 207.93515
 209.55361 210.69106 210.91252 211.13297 211.06243 210.75989 210.38534 210.00780
 209.61726 209.31971 209.12017 208.97663 208.89708 209.22054 209.59899 209.98045
 210.76591 211.93636 213.17882 214.95428 216.87473 218.91019 220.99765 223.07310
 225.12556 227.20202 229.29147 231.38993 233.51138 235.67584 237.92430 240.28675
 242.90021 245.14367 247.13812 248.89558 250.30504 251.42049 252.23495 252.54341
 252.57286 252.33932 251.69177 250.63223 249.23069 247.38414 245.28560 243.11106
 240.89451 238.69097 236.50343 234.33488 232.18734 230.04679 228.06525 226.21471
 224.49016 222.95462 221.57708 220.34153 219.21599 218.16845 217.26490 216.39836
 215.63282 214.80527 213.89573 213.25218 212.69464 212.84724 213.20808 214.64796
 215.78952 217.49188 219.15593 219.85683 221.06699 223.54059 227.98334 232.10179
 235.58797 239.30423 242.87027 246.09242 249.01103 251.64006 254.42361 257.59756
 260.53937 262.97409 265.10385 267.26804 269.46878 271.57318 273.35040 274.96457
 276.50012 278.21844 279.76703 281.13443 282.32202 283.37701 284.34283 285.22363
 286.02283 286.74106 287.37564 288.22275
 366.78100 356.32778 345.75255 334.61133 323.00710 311.19388 299.05665 286.85243
 274.55720 262.44698 250.44875 239.74253 229.85730 220.95408 213.12885 206.12363
 199.95041 194.88118 191.45596 189.49073 188.52051 188.57728 189.40506 190.70583
 192.42361 194.51138 196.76716 199.11893 201.55671 204.02948 206.11026 207.94503
 209.56381 210.70159 210.92336 211.14414 211.07391 210.77169 210.39746 210.02024
 209.63001 209.33279 209.13356 208.99034 208.91111 209.23489 209.61366 209.99544
 210.78122 211.95199 213.19477 214.97054 216.89132 218.92709 221.01487 223.09064
 225.14342 227.22019 229.30997 231.40874 233.53052 235.69529 237.94407 240.30685
 242.92062 245.16440 247.15917 248.91695 250.32672 251.44250 252.25727 252.56605
 252.59582 252.36260 251.71537 250.65615 249.25492 247.40870 245.31047 243.13625
 240.92003 238.71680 236.52958 234.36135 232.21413 230.07390 228.09268 226.24245
 224.51823 222.98300 221.60578 220.37055 219.24533 218.19810 217.29488 216.42866
 215.66343 214.83621 213.92698 213.28376 212.72653 212.89999 213.30983 214.74861
 215.83534 217.54805 219.29036 220.03262 221.25142 223.62178 227.95120 232.02901
 235.50133 239.20354 242.71376 245.85202 248.72263 251.36923 254.20143 257.40433
 260.32544 262.75195 264.91702 267.13098 269.37103 271.49490 273.29245 274.92078
 276.44177 278.14767 279.69254 281.05862 282.24457 283.29913 284.26550 285.14612
 285.94540 286.66296 287.29889 288.14725
 366.78100 356.32806 345.75313 334.61219 323.00826 311.19532 299.05839 286.85445
 274.55952 262.44958 250.45165 239.74571 229.86078 220.95784 213.13291 206.12797
 199.95504 194.88610 191.46117 189.49623 188.52630 188.58336 189.41143 190.71249
 192.43055 194.51862 196.77468 199.12675 201.56481 204.03788 206.11894 207.95401
 209.57307 210.71114 210.93320 211.15427 211.08433 210.78240 210.40846 210.03153
 209.64159 209.34466 209.14572 209.00279 208.92385 209.24792 209.62698 210.00904
 210.79511 211.96617 213.20924 214.98530 216.90637 218.94243 221.03050 223.10656
 225.15963 227.23669 229.32676 231.42582 233.54789 235.71295 237.96202 240.32508
 242.93915 245.18321 247.17828 248.93634 250.34640 251.46247 252.27753 252.58660
 252.61666 252.38373 251.73679 250.67786 249.27692 247.43099 245.33305 243.15912
 240.94318 238.74025 236.55331 234.38538 232.23844 230.09851 228.11757 226.26764
 224.54370 223.00877 221.63183 220.39689 219.27196 218.22502 217.32209 216.45615
 215.69122 214.86428 213.95535 213.31241 212.75548 212.95038 213.41081 214.84843
 215.88312 217.59019 219.41891 220.19379 221.46303 223.70708 227.95375 231.98251
 235.42439 239.10637 242.55374 245.59990 248.41354 251.07539 253.96092 257.19513
 260.10400 262.53778 264.74884 267.01138 269.28625 271.42856 273.24554 274.88544
 276.39838 278.07346 279.61450 280.98163 282.16995 283.22375 284.19177 285.07245
 285.87234 286.59152 287.22812 288.07675
 366.78100 356.32843 345.75386 334.61329 323.00971 311.19714 299.06057 286.85700
 274.56243 262.45286 250.45529 239.74972 229.86514 220.96257 213.13800 206.13343
 199.96086 194.89229 191.46772 189.50315 188.53357 188.59100 189.41943 190.72086
 192.43929 194.52772 196.78415 199.13657 201.57500 204.04843 206.12986 207.96529
 209.58472 210.72315 210.94558 211.16700 211.09743 210.79586 210.42229 210.04572
 209.65615 209.35958 209.16101 209.01843 208.93986 209.26429 209.64372 210.02615
 210.81258 211.98401 213.22744 215.00386 216.92529 218.96172 221.05015 223.12658
 225.18001 227.25744 229.34786 231.44729 233.56972 235.73515 237.98458 240.34801
 242.96244 245.20687 247.20229 248.96072 250.37115 251.48758 252.30301 252.61244
 252.64287 252.41030 251.76372 250.70515 249.30458 247.45901 245.36144 243.18787
 240.97230 238.76972 236.58315 234.41558 232.26901 230.12944 228.14887 226.29930
 224.57573 223.04115 221.66458 220.43001 219.30544 218.25887 217.35630 216.49073
 215.72616 214.89958 213.99101 213.34844 212.79187 213.00386 213.50470 214.93481
 215.97295 217.60838 219.49210 220.46988 221.64441 223.85765 227.92322 231.88992
 235.33354 239.00490 242.38712 245.33592 248.08765 250.76872 253.71562 256.98587
 259.89307 262.34042 264.59714 266.90527 269.21216 271.37039 273.20752 274.85928
 276.36212 278.00134 279.53867 280.90518 282.09293 283.15051 284.11673 284.99756
 285.79956 286.51855 287.15497 288.00650
 366.78100 356.32895 345.75490 334.61484 323.01179 311.19974 299.06369 286.86064
 274.56658 262.45753 250.46048 239.75543 229.87138 220.96932 213.14527 206.14122
 199.96917 194.90112 191.47706 189.51301 188.54396 188.60191 189.43086 190.73280
 192.45175 194.54070 196.79765 199.15059 201.58954 204.06349 206.14544 207.98139
 209.60133 210.74028 210.96323 211.18518 211.11613 210.81507 210.44202 210.06597
 209.67692 209.38087 209.18281 209.04076 208.96271 209.28766 209.66761 210.05055
 210.83750 212.00945 213.25340 215.03035 216.95229 218.98924 221.07819 223.15514
 225.20909 227.28703 229.37798 231.47793 233.60088 235.76683 238.01677 240.38072
 242.99567 245.24062 247.23657 248.99551 250.40646 251.52341 252.33936 252.64931
 252.68025 252.44820 251.80215 250.74410 249.34404 247.49899 245.40194 243.22889
 241.01384 238.81178 236.62573 234.45868 232.31263 230.17358 228.19352 226.34447
 224.62142 223.08737 221.71132 220.47726 219.35321 218.30716 217.40511 216.54006
 215.77600 214.94995 214.04190 213.39985 212.84380 213.06407 213.58449 215.02232
 216.06668 217.66151 219.58797 220.71130 221.79868 223.96979 227.88420 231.81282
 235.25882 238.91275 242.21721 245.05643 247.75107 250.46555 253.48038 256.78671
 259.69360 262.15329 264.45691 266.81061 269.14740 271.31982 273.17526 274.83597
 276.30637 277.95493 279.47272 280.83588 282.02325 283.07806 284.04501 284.92691
 285.72842 286.44720 287.08737 287.93573
 366.78100 356.32933 345.75566 334.61598 323.01331 311.20164 299.06597 286.86330
 274.56962 262.46095 250.46428 239.75961 229.87594 220.97426 213.15059 206.14692
 199.97525 194.90758 191.48390 189.52023 188.55156 188.60989 189.43922 190.74155
 192.46087 194.55020 196.80753 199.16086 201.60019 204.07451 206.15684 207.99317
 209.61350 210.75283 210.97615 211.19848 211.12981 210.82914 210.45647 210.08079
 209.69212 209.39645 209.19878 209.05711 208.97943 209.30476 209.68509 210.06842
 210.85575 212.02807 213.27240 215.04973 216.97206 219.00939 221.09871 223.17604
 225.23037 227.30870 229.40003 231.50036 233.62368 235.79001 238.04034 240.40467
 243.02000 245.26532 247.26165 249.02098 250.43231 251.54964 252.36596 252.67629
 252.70762 252.47595 251.83028 250.77260 249.37293 247.52826 245.43159 243.25892
 241.04424 238.84257 236.65690 234.49023 232.34456 230.20588 228.22621 226.37754
 224.65487 223.12120 221.74552 220.51185 219.38818 218.34251 217.44084 216.57617
 215.81249 214.98682 214.07915 213.43748 212.88181 213.11548 213.66753 215.10896
 216.14415 217.74771 219.69855 220.92331 221.95932 224.05733 227.87169 231.76862
 235.19141 238.80504 242.01726 244.74989 247.40541 250.16530 253.25261 256.59418
 259.50259 261.98016 264.32922 266.72739 269.09253 271.27817 273.15057 274.81992
 276.32114 277.86285 279.38745 280.75589 281.94766 283.00534 283.97537 284.85941
 285.66287 286.38318 287.02301 287.87750
 366.78100 356.32954 345.75608 334.61663 323.01417 311.20271 299.06725 286.86480
 274.57134 262.46288 250.46642 239.76197 229.87851 220.97705 213.15359 206.15014
 199.97868 194.91122 191.48776 189.52431 188.55585 188.61439 189.44393 190.74648
 192.46602 194.55556 196.81310 199.16665 201.60619 204.08073 206.16327 207.99982
 209.62036 210.75990 210.98344 211.20599 211.13753 210.83707 210.46461 210.08916
 209.70070 209.40524 209.20778 209.06632 208.98887 209.31441 209.69495 210.07849
 210.86604 212.03858 213.28312 215.06066 216.98321 219.02075 221.11029 223.18783
 225.24238 227.32092 229.41246 231.51300 233.63655 235.80309 238.05363 240.41817
 243.03372 245.27926 247.27580 249.03534 250.44689 251.56443 252.38097 252.69151
 252.72306 252.49160 251.84614 250.78868 249.38923 247.54477 245.44831 243.27585
 241.06140 238.85994 236.67448 234.50802 232.36256 230.22411 228.24465 226.39619
 224.67373 223.14028 221.76482 220.53136 219.40790 218.36245 217.46099 216.59653
 215.83307 215.00762 214.10016 213.45870 212.90324 213.15707 213.75679 215.18678
 216.21721 217.86958 219.82092 221.10718 222.11591 224.14136 227.88074 231.72641
 235.11165 238.66771 241.78596 244.43221 247.06189 249.86890 253.02951 256.40506
 259.32129 261.82233 264.21902 266.65796 269.04605 271.24118 273.12823 274.80551
 276.29669 277.80182 279.32306 280.69296 281.88486 282.94394 283.91354 284.79700
 285.59998 286.32251 286.96237 287.81851
 366.78100 356.32978 345.75656 334.61735 323.01513 311.20391 299.06869 286.86648
 274.57326 262.46504 250.46882 239.76461 229.88139 220.98017 213.15695 206.15373
 199.98252 194.91530 191.49208 189.52886 188.56065 188.61943 189.44921 190.75199
 192.47178 194.56156 196.81934 199.17312 201.61290 204.08769 206.17047 208.00725
 209.62803 210.76782 210.99160 211.21438 211.14616 210.84595 210.47373 210.09851
 209.71029 209.41507 209.21786 209.07664 208.99942 209.32520 209.70599 210.08977
 210.87755 212.05033 213.29512 215.07290 216.99568 219.03346 221.12324 223.20103
 225.25581 227.33459 229.42637 231.52716 233.65094 235.81772 238.06850 240.43329
 243.04907 245.29485 247.29163 249.05141 250.46320 251.58098 252.39776 252.70854
 252.74033 252.50911 251.86389 250.80667 249.40746 247.56324 245.46702 243.29480
 241.08058 238.87937 236.69415 234.52793 232.38271 230.24450 228.26528 226.41706
 224.69484 223.16163 221.78641 220.55319 219.42997 218.38475 217.48354 216.61932
 215.85610 215.03088 214.12367 213.48245 212.92723 213.19861 213.83978 215.25854
 216.30659 218.00943 219.95389 221.26102 222.27168 224.22719 227.89424 231.67006
 235.01547 238.51041 241.53889 244.11322 246.72015 249.57671 252.81262 256.22345
 259.15115 261.67801 264.12286 266.60144 269.00876 271.20987 273.10614 274.78537
 276.26169 277.74908 279.26807 280.63797 281.82996 282.88919 283.85907 284.74249
 285.54510 286.26776 286.90613 287.76587
 366.78100 356.33000 345.75700 334.61801 323.01601 311.20501 299.07001 286.86801
 274.57502 262.46702 250.47102 239.76702 229.88402 220.98303 213.16003 206.15703
 199.98603 194.91903 191.49604 189.53304 188.56504 188.62404 189.45404 190.75705
 192.47705 194.56705 196.82505 199.17905 201.61906 204.09406 206.17706 208.01406
 209.63507 210.77507 210.99907 211.22207 211.15407 210.85408 210.48208 210.10708
 209.71908 209.42408 209.22709 209.08609 209.00909 209.33509 209.71609 210.10010
 210.88810 212.06110 213.30610 215.08410 217.00711 219.04511 221.13511 223.21311
 225.26811 227.34712 229.43912 231.54012 233.66412 235.83112 238.08213 240.44713
 243.06313 245.30913 247.30613 249.06614 250.47814 251.59614 252.41314 252.72414
 252.75615 252.52515 251.88015 250.82315 249.42415 247.58016 245.48416 243.31216
 241.09816 238.89716 236.71217 234.54617 232.40117 230.26317 228.28418 226.43618
 224.71418 223.18118 221.80618 220.57319 219.45019 218.40519 217.50419 216.64019
 215.87720 215.05220 214.14520 213.50420 212.94920 213.23741 213.91833 215.32748
 216.41461 218.15105 220.08727 221.40637 222.44263 224.31540 227.90068 231.60854
 234.90839 238.33607 241.27728 243.78441 246.37376 249.28926 252.60513 256.05304
 258.99646 261.54892 264.03754 266.55246 268.97849 271.18442 273.08728 274.76367
 276.22565 277.70111 279.21811 280.58844 281.77988 282.83798 283.80832 284.69254
 285.49481 286.21744 286.85849 287.71512
 366.78100 356.33001 345.75703 334.61804 323.01606 311.20507 299.07009 286.86810
 274.57511 262.46713 250.47114 239.76716 229.88417 220.98319 213.16020 206.15721
 199.98623 194.91924 191.49626 189.53327 188.56528 188.62430 189.45431 190.75733
 192.47734 194.56736 196.82537 199.17938 201.61940 204.09441 206.17743 208.01444
 209.63546 210.77547 210.99948 211.22250 211.15451 210.85453 210.48254 210.10756
 209.71957 209.42458 209.22760 209.08661 209.00963 209.33564 209.71666 210.10067
 210.88868 212.06170 213.30671 215.08473 217.00774 219.04575 221.13577 223.21378
 225.26880 227.34781 229.43983 231.54084 233.66485 235.83187 238.08288 240.44790
 243.06391 245.30993 247.30694 249.06695 250.47897 251.59698 252.41400 252.72501
 252.75703 252.52604 251.88105 250.82407 249.42508 247.58110 245.48511 243.31313
 241.09914 238.89815 236.71317 234.54718 232.40220 230.26421 228.28522 226.43724
 224.71525 223.18227 221.80728 220.57430 219.45131 218.40632 217.50534 216.64135
 215.87837 215.05338 214.14640 213.50541 212.95042 213.26361 214.00357 215.39401
 216.52925 218.29710 220.21251 221.55096 222.63193 224.41362 227.89818 231.55138
 234.79520 238.13913 240.98903 243.43887 246.02881 249.01117 252.40753 255.89365
 258.85562 261.43338 263.96451 266.51285 268.95370 271.16302 273.06714 274.74167
 276.19733 277.65808 279.17227 280.54153 281.73349 282.79181 283.76178 284.64487
 285.44827 286.17053 286.81076 287.66901
 366.78100 356.32984 345.75668 334.61752 323.01535 311.20419 299.06903 286.86687
 274.57371 262.46555 250.46938 239.76522 229.88206 220.98090 213.15774 206.15458
 199.98342 194.91625 191.49309 189.52993 188.56177 188.62061 189.45045 190.75328
 192.47312 194.56296 196.82080 199.17464 201.61448 204.08932 206.17215 208.00899
 209.62983 210.76967 210.99351 211.21635 211.14818 210.84802 210.47586 210.10070
 209.71254 209.41738 209.22022 209.07905 209.00189 209.32773 209.70857 210.09241
 210.88025 212.05308 213.29792 215.07576 216.99860 219.03644 221.12628 223.20412
 225.25895 227.33779 229.42963 231.53047 233.65431 235.82115 238.07198 240.43682
 243.05266 245.29850 247.29534 249.05518 250.46702 251.58485 252.40169 252.71253
 252.74437 252.51321 251.86805 250.81088 249.41172 247.56756 245.47140 243.29924
 241.08508 238.88392 236.69875 234.53259 232.38743 230.24927 228.27011 226.42195
 224.69978 223.16662 221.79146 220.55830 219.43514 218.38998 217.48882 216.62465
 215.86149 215.03633 214.12917 213.48801 212.93285 213.27782 214.09285 215.46349
 216.64394 218.44563 220.33305 221.68330 222.82500 224.53496 227.89690 231.49895
 234.67523 237.91324 240.66373 243.07587 245.69212 248.74760 252.22131 255.74722
 258.72717 261.33127 263.89618 266.47412 268.92944 271.14316 273.05219 274.73544
 276.19687 277.62015 279.12796 280.49704 281.68893 282.74762 283.71719 284.60049
 285.40225 286.12781 286.76801 287.63129
 366.78100 356.32958 345.75615 334.61673 323.01430 311.20288 299.06745 286.86503
 274.57160 262.46318 250.46675 239.76233 229.87890 220.97748 213.15405 206.15063
 199.97920 194.91178 191.48835 189.52493 188.55650 188.61508 189.44465 190.74723
 192.46680 194.55638 196.81395 199.16753 201.60710 204.08168 206.16425 208.00083
 209.62140 210.76098 210.98455 211.20713 211.13870 210.83828 210.46585 210.09043
 209.70200 209.40658 209.20915 209.06773 208.99030 209.31588 209.69645 210.08003
 210.86760 212.04018 213.28475 215.06233 216.98490 219.02248 221.11206 223.18963
 225.24421 227.32278 229.41436 231.51493 233.63851 235.80508 238.05566 240.42023
 243.03581 245.28138 247.27796 249.03753 250.44911 251.56668 252.38326 252.69383
 252.72541 252.49398 251.84856 250.79113 249.39171 247.54728 245.45086 243.27843
 241.06401 238.86258 236.67716 234.51073 232.36531 230.22688 228.24746 226.39903
 224.67661 223.14318 221.76776 220.53433 219.41091 218.36548 217.46406 216.59963
 215.83621 215.01078 214.10336 213.46193 212.90651 213.28540 214.18057 215.54250
 216.76062 218.58871 220.45367 221.80498 223.00621 224.68411 227.91466 231.44775
 234.54608 237.65906 240.29761 242.69186 245.36064 248.50006 252.04851 255.61531
 258.61575 261.24432 263.83606 266.43454 268.89728 271.10654 273.01331 274.70044
 276.15695 277.61179 279.12564 280.49619 281.68823 282.74997 283.72263 284.61151
 285.42511 286.15787 286.80417 287.67001
 366.78100 356.32924 345.75547 334.61571 323.01294 311.20118 299.06541 286.86265
 274.56889 262.46012 250.46336 239.75859 229.87483 220.97306 213.14930 206.14554
 199.97377 194.90601 191.48224 189.51848 188.54971 188.60795 189.43719 190.73942
 192.45866 194.54789 196.80513 199.15836 201.59760 204.07184 206.15407 207.99031
 209.61054 210.74978 210.97302 211.19525 211.12649 210.82572 210.45296 210.07719
 209.68843 209.39267 209.19490 209.05314 208.97537 209.30061 209.68084 210.06408
 210.85132 212.02355 213.26779 215.04502 216.96726 219.00449 221.09373 223.17097
 225.22520 227.30344 229.39467 231.49491 233.61814 235.78438 238.03462 240.39885
 243.01409 245.25932 247.25556 249.01479 250.42603 251.54327 252.35950 252.66974
 252.70097 252.46921 251.82344 250.76568 249.36592 247.52115 245.42439 243.25162
 241.03686 238.83509 236.64933 234.48257 232.33680 230.19804 228.21827 226.36951
 224.64674 223.11298 221.73722 220.50345 219.37969 218.33392 217.43216 216.56740
 215.80363 214.97787 214.07010 213.42834 212.87257 213.28625 214.26366 215.63405
 216.87833 218.72191 220.57181 221.91911 223.17464 224.85410 227.96004 231.39824
 234.40137 237.36774 239.89723 242.29503 245.03372 248.26376 251.88644 255.49562
 258.52173 261.17245 263.78464 266.39975 268.86639 271.06989 272.96643 274.64737
 276.09598 277.60245 279.12534 280.49548 281.68900 282.75089 283.72369 284.61487
 285.43011 286.16473 286.81146 287.67392
 366.78100 356.32875 345.75449 334.61424 323.01098 311.19873 299.06247 286.85922
 274.56496 262.45571 250.45845 239.75320 229.86895 220.96669 213.14244 206.13818
 199.96593 194.89767 191.47342 189.50916 188.53991 188.59765 189.42640 190.72815
 192.44689 194.53564 196.79238 199.14513 201.58387 204.05762 206.13936 207.97511
 209.59486 210.73360 210.95635 211.17809 211.10884 210.80758 210.43433 210.05807
 209.66882 209.37256 209.17431 209.03206 208.95380 209.27855 209.65829 210.04104
 210.82778 211.99953 213.24327 215.02002 216.94176 218.97851 221.06726 223.14400
 225.19775 227.27549 229.36624 231.46598 233.58873 235.75447 238.00422 240.36796
 242.98271 245.22746 247.22320 248.98195 250.39269 251.50944 252.32518 252.63493
 252.66567 252.43342 251.78717 250.72891 249.32866 247.48340 245.38615 243.21289
 240.99764 238.79538 236.60913 234.44187 232.29562 230.15637 228.17611 226.32686
 224.60360 223.06935 221.69309 220.45884 219.33458 218.28833 217.38607 216.52082
 215.75657 214.93031 214.02206 213.37980 212.82355 213.27689 214.34796 215.73816
 216.99654 218.84541 220.68092 222.02995 223.33661 225.03801 228.02954 231.35872
 234.24408 237.04604 239.46950 241.88881 244.71185 248.04126 251.73895 255.38559
 258.43811 261.11133 263.73972 266.37048 268.84128 271.03738 272.91946 274.58545
 276.03860 277.59229 279.12024 280.48984 281.68295 282.74268 283.71548 284.60629
 285.42160 286.15662 286.80145 287.66525
 366.78100 356.32819 345.75338 334.61257 323.00877 311.19596 299.05915 286.85534
 274.56053 262.45072 250.45291 239.74710 229.86230 220.95949 213.13468 206.12987
 199.95706 194.88825 191.46344 189.49863 188.52883 188.58602 189.41421 190.71540
 192.43359 194.52178 196.77797 199.13016 201.56836 204.04155 206.12274 207.95793
 209.57712 210.71531 210.93750 211.15869 211.08889 210.78708 210.41327 210.03646
 209.64665 209.34984 209.15103 209.00822 208.92942 209.25361 209.63280 210.01499
 210.80118 211.97237 213.21556 214.99175 216.91295 218.94914 221.03733 223.11352
 225.16671 227.24390 229.33409 231.43329 233.55548 235.72067 237.96986 240.33305
 242.94724 245.19143 247.18662 248.94482 250.35501 251.47120 252.28639 252.59558
 252.62577 252.39296 251.74615 250.68735 249.28654 247.44073 245.34292 243.16911
 240.95330 238.75049 236.56368 234.39588 232.24907 230.10926 228.12845 226.27864
 224.55483 223.02002 221.64321 220.40841 219.28360 218.23679 217.33398 216.46817
 215.70336 214.87655 213.96774 213.32494 212.76813 213.26163 214.42757 215.86229
 217.12039 218.95137 220.77844 222.13150 223.48811 225.22322 228.12057 231.32544
 234.07921 236.69786 239.01424 241.47801 244.41132 247.84058 251.60365 255.28287
 258.36124 261.05457 263.69629 266.33966 268.81305 271.00284 272.87628 274.53903
 276.02084 277.57535 279.10284 280.47253 281.66376 282.72287 283.69601 284.58621
 285.40277 286.13690 286.78305 287.64328
 366.78100 356.32740 345.75179 334.61019 323.00559 311.19198 299.05438 286.84978
 274.55417 262.44357 250.44496 239.73836 229.85276 220.94915 213.12355 206.11795
 199.94434 194.87474 191.44914 189.48353 188.51293 188.56933 189.39672 190.69712
 192.41451 194.50191 196.75731 199.10870 201.54610 204.01850 206.09889 207.93329
 209.55169 210.68908 210.91048 211.13088 211.06027 210.75767 210.38306 210.00546
 209.61486 209.31725 209.11765 208.97405 208.89444 209.21784 209.59624 209.97763
 210.76303 211.93343 213.17582 214.95122 216.87162 218.90701 220.99441 223.06980
 225.12220 227.19860 229.28799 231.38639 233.50779 235.67218 237.92058 240.28298
 242.89637 245.13977 247.13417 248.89156 250.30096 251.41635 252.23075 252.53915
 252.56854 252.33494 251.68734 250.62773 249.22613 247.37953 245.28092 243.10632
 240.88972 238.68611 236.49851 234.32990 232.18230 230.04170 228.06009 226.20949
 224.48489 222.94928 221.57168 220.33608 219.21047 218.16287 217.25927 216.39266
 215.62706 214.79946 213.88985 213.24625 212.68864 213.23259 214.51770 215.98442
 217.25917 219.07268 220.85097 222.20583 223.63927 225.41765 228.20601 231.30011
 233.91684 236.33240 238.53496 241.05890 244.10854 247.64886 251.47507 255.18530
 258.29828 261.01572 263.66656 266.31879 268.78781 270.96143 272.81189 274.44254
 275.91208 277.59686 279.11914 280.48096 281.66943 282.72580 283.69489 284.58252
 285.39410 286.12582 286.75409 287.59726
 366.78100 356.32625 345.74951 334.60676 323.00102 311.18627 299.04753 286.84178
 274.54503 262.43329 250.43354 239.72580 229.83905 220.93431 213.10756 206.10081
 199.92607 194.85532 191.42858 189.46183 188.49009 188.54534 189.37160 190.67085
 192.38710 194.47336 196.72761 199.07787 201.51412 203.98538 206.06463 207.89788
 209.51514 210.65139 210.87165 211.09090 211.01916 210.71541 210.33966 209.96092
 209.56917 209.27043 209.06968 208.92494 208.84419 209.16644 209.54370 209.92395
 210.70821 211.87746 213.11872 214.89297 216.81222 218.84648 220.93273 223.00699
 225.05824 227.13350 229.22175 231.31901 233.43926 235.60251 237.84977 240.21102
 242.82328 245.06553 247.05879 248.81504 250.22329 251.33755 252.15080 252.45806
 252.48631 252.25157 251.60282 250.54207 249.13933 247.29158 245.19184 243.01609
 240.79835 238.59360 236.40485 234.23511 232.08636 229.94462 227.96187 226.11013
 224.38438 222.84763 221.46889 220.23214 219.10540 218.05665 217.15191 216.28416
 215.51742 214.68867 213.77792 213.13318 212.57443 213.18463 214.62628 216.11510
 217.41455 219.18794 220.90703 222.24454 223.74217 225.57199 228.31619 231.31793
 233.75856 235.94954 238.05461 240.65485 243.83694 247.48305 251.37273 255.12167
 258.26193 260.98712 263.63489 266.28738 268.75006 270.91251 272.75897 274.43979
 275.97598 277.50601 279.03357 280.40042 281.58832 282.64584 283.61295 284.50128
 285.31528 286.04642 286.67917 287.52673
 366.78100 356.32548 345.74797 334.60445 322.99794 311.18242 299.04291 286.83639
 274.53887 262.42636 250.42584 239.71733 229.82981 220.92429 213.09678 206.08926
 199.91375 194.84223 191.41472 189.44720 188.47468 188.52917 189.35465 190.65314
 192.36862 194.45411 196.70759 199.05707 201.49256 203.96304 206.04153 207.87401
 209.49049 210.62598 210.84546 211.06395 210.99143 210.68692 210.31040 209.93088
 209.53837 209.23885 209.03734 208.89182 208.81031 209.13179 209.50827 209.88776
 210.67124 211.83973 213.08021 214.85369 216.77218 218.80566 220.89115 222.96463
 225.01512 227.08960 229.17708 231.27357 233.39305 235.55554 237.80202 240.16251
 242.77399 245.01547 247.00796 248.76344 250.17093 251.28441 252.09689 252.40338
 252.43086 252.19535 251.54583 250.48432 249.08080 247.23228 245.13177 242.95525
 240.73674 238.53122 236.34171 234.17119 232.02167 229.87916 227.89564 226.04313
 224.31661 222.77909 221.39958 220.16206 219.03455 217.98503 217.07952 216.21100
 215.44348 214.61397 213.70245 213.05694 212.49742 213.15858 214.72354 216.22336
 217.56595 219.31200 220.99969 222.28569 223.76263 225.72461 228.29784 231.20190
 233.51735 235.51396 237.50163 240.18462 243.55026 247.34615 251.34824 255.20471
 258.40933 261.11462 263.68878 266.28851 268.70706 270.80215 272.56290 274.15652
 275.88028 277.47842 278.99051 280.34967 281.53076 282.57913 283.53918 284.42062
 285.21973 285.93689 286.55878 287.35132
 366.78100 356.32561 345.74823 334.60484 322.99846 311.18307 299.04369 286.83730
 274.53992 262.42753 250.42715 239.71876 229.83138 220.92599 213.09861 206.09122
 199.91583 194.84445 191.41706 189.44968 188.47729 188.53191 189.35752 190.65614
 192.37175 194.45737 196.71098 199.06060 201.49621 203.96683 206.04544 207.87805
 209.49467 210.63028 210.84990 211.06851 210.99613 210.69174 210.31536 209.93597
 209.54359 209.24420 209.04282 208.89743 208.81605 209.13766 209.51428 209.89389
 210.67750 211.84612 213.08673 214.86035 216.77896 218.81258 220.89819 222.97181
 225.02242 227.09704 229.18465 231.28127 233.40088 235.56350 237.81011 240.17072
 242.78234 245.02395 247.01657 248.77218 250.17980 251.29341 252.10603 252.41264
 252.44026 252.20487 251.55549 250.49410 249.09072 247.24233 245.14194 242.96556
 240.74717 238.54179 236.35240 234.18202 232.03263 229.89025 227.90686 226.05448
 224.32809 222.79071 221.41132 220.17394 219.04655 217.99716 217.09178 216.22339
 215.45601 214.62662 213.71524 213.06985 212.51047 213.18217 214.78044 216.30273
 217.69569 219.41786 221.06874 222.31824 223.84792 225.88046 228.23508 231.14279
 233.33989 235.16597 236.97026 239.73669 243.26585 247.23009 251.32597 255.19524
 258.42816 261.15002 263.72278 266.27386 268.64886 270.69772 272.42633 274.10873
 275.77850 277.38535 278.87415 280.22827 281.41010 282.46085 283.43106 284.32492
 285.17987 285.94788 286.61877 287.47379
 366.78100 356.32550 345.74800 334.60451 322.99801 311.18251 299.04301 286.83651
 274.53902 262.42652 250.42602 239.71752 229.83002 220.92453 213.09703 206.08953
 199.91403 194.84254 191.41504 189.44754 188.47504 188.52954 189.35505 190.65355
 192.36905 194.45455 196.70805 199.05756 201.49306 203.96356 206.04206 207.87456
 209.49107 210.62657 210.84607 211.06457 210.99207 210.68758 210.31108 209.93158
 209.53908 209.23958 209.03809 208.89259 208.81109 209.13259 209.50910 209.88860
 210.67210 211.84060 213.08110 214.85461 216.77311 218.80661 220.89211 222.96561
 225.01612 227.09062 229.17812 231.27462 233.39412 235.55663 237.80313 240.16363
 242.77513 245.01663 247.00914 248.76464 250.17214 251.28564 252.09814 252.40465
 252.43215 252.19665 251.54715 250.48565 249.08216 247.23366 245.13316 242.95666
 240.73817 238.53267 236.34317 234.17267 232.02317 229.88068 227.89718 226.04468
 224.31818 222.78068 221.40119 220.16369 219.03619 217.98669 217.08119 216.21270
 215.44520 214.61570 213.70420 213.05870 212.49921 213.19156 214.84315 216.38089
 217.76382 219.49292 221.13757 222.46135 224.03900 226.03882 228.27911 231.17888
 233.19180 234.82642 236.51305 239.35970 243.02315 247.15271 251.30339 255.15034
 258.37775 261.11923 263.70667 266.26413 268.63922 270.68103 272.43997 274.14520
 275.76724 277.30246 278.74234 280.09656 281.28470 282.35144 283.35132 284.31223
 285.19342 285.97812 286.66360 287.53720
 366.78100 356.32460 345.74621 334.60181 322.99441 311.17802 299.03762 286.83022
 274.53183 262.41843 250.41703 239.70763 229.81924 220.91284 213.08444 206.07605
 199.89965 194.82725 191.39886 189.43046 188.45706 188.51067 189.33527 190.63287
 192.34748 194.43208 196.68468 199.03329 201.46789 203.93749 206.01510 207.84670
 209.46230 210.59690 210.81551 211.03311 210.95971 210.65432 210.27692 209.89652
 209.50313 209.20273 209.00033 208.85394 208.77154 209.09214 209.46775 209.84635
 210.62895 211.79656 213.03616 214.80876 216.72636 218.75897 220.84357 222.91617
 224.96578 227.03938 229.12598 231.22159 233.34019 235.50179 237.74740 240.10700
 242.71760 244.95821 246.94981 248.70441 250.11102 251.22362 252.03522 252.34083
 252.36743 252.13103 251.48063 250.41824 249.01384 247.16444 245.06305 242.88565
 240.66625 238.45986 236.26946 234.09806 231.94767 229.80427 227.81987 225.96648
 224.23908 222.70068 221.32029 220.08189 218.95349 217.90309 216.99670 216.12730
 215.35890 214.52851 213.61611 212.96971 212.40932 213.15588 214.93474 216.52220
 217.77275 219.51067 221.23843 222.65016 224.22665 226.19286 228.42487 231.27321
 233.10771 234.51088 236.05919 239.00623 242.77406 246.97151 251.16162 254.99278
 258.24533 261.03763 263.67813 266.27036 268.67160 270.75851 272.51379 274.23593
 275.83057 277.32095 278.73264 280.09033 281.27878 282.35193 283.35608 284.33490
 285.22742 286.02219 286.71649 287.60129
 366.78100 356.32339 345.74378 334.59816 322.98955 311.17194 299.03033 286.82171
 274.52210 262.40749 250.40488 239.69426 229.80465 220.89704 213.06743 206.05781
 199.88020 194.80659 191.37698 189.40736 188.43275 188.48514 189.30853 190.60491
 192.31830 194.40169 196.65308 199.00046 201.43385 203.90224 205.97863 207.80901
 209.42340 210.55679 210.77418 210.99056 210.91595 210.60934 210.23073 209.84911
 209.45450 209.15289 208.94928 208.80166 208.71805 209.03744 209.41183 209.78921
 210.57060 211.73699 212.97538 214.74676 216.66315 218.69454 220.77793 222.84931
 224.89770 226.97009 229.05548 231.14986 233.26725 235.42764 237.67203 240.03041
 242.63980 244.87919 246.86958 248.62296 250.02835 251.13974 251.95013 252.25451
 252.27990 252.04229 251.39068 250.32706 248.92145 247.07084 244.96823 242.78961
 240.56900 238.36139 236.16978 233.99716 231.84555 229.70094 227.71533 225.86071
 224.13210 222.59249 221.21088 219.97126 218.84165 217.79004 216.88243 216.01181
 215.24220 214.41059 213.49698 212.84936 212.28775 213.10164 215.03615 216.70004
 217.85077 219.57510 221.34119 222.75987 224.32401 226.26215 228.55301 231.30292
 232.98491 234.12151 235.54662 238.60036 242.56918 246.84224 251.03365 254.86436
 258.14853 260.97635 263.64523 266.25015 268.67126 270.77173 272.49503 274.24213
 275.88135 277.38864 278.77078 280.10428 281.28955 282.35205 283.34445 284.28943
 285.17126 285.95651 286.64252 287.51675
 366.78100 356.32165 345.74030 334.59295 322.98260 311.16325 299.01989 286.80954
 274.50819 262.39184 250.38749 239.67514 229.78379 220.87444 213.04309 206.03174
 199.85239 194.77703 191.34568 189.37433 188.39798 188.44863 189.27028 190.56493
 192.27658 194.35823 196.60788 198.95352 201.38517 203.85182 205.92647 207.75512
 209.36777 210.49942 210.71507 210.92972 210.85337 210.54502 210.16466 209.78131
 209.38496 209.08161 208.87626 208.72691 208.64156 208.95921 209.33186 209.70751
 210.48716 211.65180 212.88845 214.65810 216.57275 218.60240 220.68405 222.75370
 224.80035 226.87100 228.95465 231.04730 233.16294 235.32159 237.56424 239.92089
 242.52854 244.76619 246.75484 248.50649 249.91014 251.01979 251.82843 252.13108
 252.15473 251.91538 251.26203 250.19668 248.78933 246.93698 244.83263 242.65228
 240.42993 238.22057 236.02722 233.85287 231.69952 229.55317 227.56582 225.70947
 223.97912 222.43777 221.05442 219.81307 218.68171 217.62836 216.71901 215.84666
 215.07531 214.24196 213.32661 212.67726 212.11391 213.01569 215.15259 216.85498
 217.97139 219.68326 221.43066 222.83215 224.41705 226.32271 228.63623 231.28967
 232.77502 233.70122 235.09111 238.27432 242.39162 246.73172 250.94638 254.75203
 258.07355 260.93106 263.63416 266.26096 268.69711 270.79709 272.50833 274.20981
 275.87302 277.40472 278.80075 280.12451 281.30646 282.36691 283.35275 284.27362
 285.14282 285.91684 286.59302 287.45471
 366.78100 356.32038 345.73775 334.58913 322.97751 311.15689 299.01226 286.80064
 274.49802 262.38039 250.37477 239.66115 229.76853 220.85790 213.02528 206.01266
 199.83203 194.75541 191.32279 189.35016 188.37254 188.42192 189.24230 190.53567
 192.24605 194.32643 196.57480 198.91918 201.34956 203.81494 205.88831 207.71569
 209.32707 210.45744 210.67182 210.88520 210.80758 210.49795 210.11633 209.73171
 209.33408 209.02946 208.82284 208.67222 208.58559 208.90197 209.27335 209.64772
 210.42610 211.58948 212.82485 214.59323 216.50661 218.53499 220.61536 222.68374
 224.72912 226.79849 228.88087 230.97225 233.08663 235.24400 237.48538 239.84076
 242.44713 244.68351 246.67089 248.42127 249.82364 250.93202 251.73940 252.04077
 252.06315 251.82253 251.16791 250.10128 248.69266 246.83904 244.73341 242.55179
 240.32817 238.11754 235.92292 233.74730 231.59268 229.44505 227.45643 225.59881
 223.86718 222.32456 220.93994 219.69732 218.56469 217.51007 216.59945 215.72582
 214.95320 214.11858 213.20196 212.55133 211.98671 212.95045 215.22984 217.05296
 218.08080 219.80409 221.55484 222.99910 224.59343 226.42519 228.85883 231.25452
 232.58258 233.37703 234.78593 237.89429 242.28833 246.67009 250.72049 254.58054
 257.94116 260.85422 263.62149 266.28531 268.74274 270.86615 272.65540 274.31375
 275.96289 277.47650 278.84869 280.10748 281.27090 282.32388 283.30038 284.18701
 284.97031 285.64600 286.23413 286.98364
 366.78100 356.31970 345.73640 334.58709 322.97479 311.15349 299.00819 286.79589
 274.49258 262.37428 250.36798 239.65368 229.76038 220.84907 213.01577 206.00247
 199.82117 194.74386 191.31056 189.33726 188.35896 188.40766 189.22735 190.52005
 192.22975 194.30945 196.55715 198.90084 201.33054 203.79524 205.86794 207.69464
 209.30533 210.43503 210.64873 210.86143 210.78313 210.47282 210.09052 209.70522
 209.30692 209.00162 208.79431 208.64301 208.55571 208.87141 209.24210 209.61580
 210.39350 211.55620 212.79090 214.55859 216.47129 218.49899 220.57869 222.64639
 224.69108 226.75978 228.84148 230.93218 233.04588 235.20257 237.44327 239.79797
 242.40367 244.63937 246.62606 248.37576 249.77746 250.88516 251.69185 251.99255
 252.01425 251.77295 251.11765 250.05034 248.64104 246.78674 244.68044 242.49814
 240.27383 238.06253 235.86723 233.69093 231.53563 229.38732 227.39802 225.53972
 223.80742 222.26412 220.87881 219.63551 218.50221 217.44691 216.53561 215.66130
 214.88800 214.05270 213.13540 212.48409 211.91879 212.91377 215.26453 217.24857
 218.27887 219.91943 221.65820 223.14252 224.70532 226.49937 229.01143 231.14632
 232.33626 233.06783 234.52510 237.78944 242.13435 246.49019 250.58664 254.43307
 257.82712 260.80994 263.59323 266.26529 268.71927 270.85458 272.68283 274.35315
 276.02805 277.55444 278.92807 280.16879 281.31406 282.35962 283.33188 284.21710
 285.01163 285.71689 286.33475 287.18195
 366.78100 356.31877 345.73454 334.58431 322.97108 311.14885 299.00262 286.78940
 274.48517 262.36594 250.35871 239.64348 229.74925 220.83702 213.00279 205.98856
 199.80633 194.72810 191.29387 189.31965 188.34042 188.38819 189.20696 190.49873
 192.20750 194.28627 196.53304 198.87581 201.30458 203.76835 205.84012 207.66589
 209.27567 210.40444 210.61721 210.82898 210.74975 210.43852 210.05529 209.66906
 209.26983 208.96360 208.75537 208.60314 208.51492 208.82969 209.19946 209.57223
 210.34900 211.51077 212.74454 214.51131 216.42308 218.44985 220.52862 222.59539
 224.63916 226.70694 228.78771 230.87748 232.99025 235.14602 237.38579 239.73956
 242.34433 244.57910 246.56487 248.31364 249.71441 250.82119 251.62696 251.92673
 251.94750 251.70527 251.04904 249.98081 248.57058 246.71535 244.60812 242.42489
 240.19966 237.98744 235.79121 233.61398 231.45775 229.30852 227.31829 225.45906
 223.72583 222.18160 220.79537 219.55114 218.41691 217.36068 216.44846 215.57323
 214.79900 213.96277 213.04454 212.39231 211.82608 212.87193 215.34288 217.32922
 218.41542 220.04974 221.74135 223.21613 224.77502 226.51543 228.98227 231.00645
 232.01759 232.67123 234.26778 237.69313 242.04103 246.42450 250.58197 254.43805
 257.84229 260.84641 263.62460 266.27313 268.70770 270.83139 272.63007 274.27939
 275.95831 277.52029 278.92862 280.19580 281.35083 282.39215 283.34717 284.23300
 285.05771 285.76712 286.39145 287.24484
 366.78100 356.31826 345.73351 334.58277 322.96903 311.14629 298.99954 286.78580
 274.48106 262.36132 250.35357 239.63783 229.74309 220.83035 212.99560 205.98086
 199.79812 194.71937 191.28463 189.30989 188.33015 188.37740 189.19566 190.48692
 192.19518 194.27343 196.51969 198.86195 201.29021 203.75346 205.82472 207.64998
 209.25924 210.38749 210.59975 210.81101 210.73126 210.41952 210.03578 209.64904
 209.24929 208.94255 208.73381 208.58107 208.49232 208.80658 209.17584 209.54810
 210.32435 211.48561 212.71887 214.48512 216.39638 218.42264 220.50090 222.56715
 224.61041 226.67767 228.75793 230.84718 232.95944 235.11470 237.35396 239.70721
 242.31147 244.54573 246.53098 248.27924 249.67950 250.78576 251.59101 251.89027
 251.91053 251.66779 251.01104 249.94230 248.53156 246.67582 244.56807 242.38433
 240.15859 237.94584 235.74910 233.57136 231.41462 229.26487 227.27413 225.41439
 223.68065 222.13590 220.74916 219.50442 218.36968 217.31293 216.40019 215.52445
 214.74971 213.91296 212.99422 212.34148 211.77473 212.85580 215.40997 217.40050
 218.54773 220.19150 221.82169 223.27907 224.84073 226.52219 228.94489 230.85999
 231.73584 232.32944 234.06123 237.59216 241.96284 246.38562 250.56076 254.44548
 257.88232 260.91241 263.68610 266.31622 268.73322 270.84973 272.59692 274.18451
 275.87100 277.47873 278.95355 280.28647 281.46106 282.50732 283.46500 284.34961
 285.17068 285.88605 286.51349 287.37317
 366.78100 356.31846 345.73393 334.58339 322.96985 311.14732 299.00078 286.78724
 274.48271 262.36317 250.35563 239.64010 229.74556 220.83303 212.99849 205.98395
 199.80142 194.72288 191.28834 189.31381 188.33427 188.38173 189.20020 190.49166
 192.20012 194.27859 196.52505 198.86751 201.29598 203.75944 205.83090 207.65637
 209.26583 210.39430 210.60676 210.81822 210.73869 210.42715 210.04361 209.65708
 209.25754 208.95100 208.74247 208.58993 208.50139 208.81586 209.18532 209.55778
 210.33425 211.49571 212.72917 214.49564 216.40710 218.43357 220.51203 222.57849
 224.62196 226.68942 228.76988 230.85935 232.97181 235.12727 237.36674 239.72020
 242.32466 244.55913 246.54459 248.29305 249.69352 250.79998 251.60544 251.90491
 251.92537 251.68283 251.02630 249.95776 248.54723 246.69169 244.58415 242.40062
 240.17508 237.96254 235.76601 233.58847 231.43193 229.28240 227.29186 225.43232
 223.69879 222.15425 220.76771 219.52318 218.38864 217.33210 216.41957 215.54403
 214.76950 213.93296 213.01442 212.36189 211.79535 212.87550 215.42751 217.54466
 218.70041 220.30602 221.91461 223.33856 224.89279 226.50514 228.90735 230.69035
 231.44090 231.99568 233.83434 237.46565 241.89281 246.33154 250.50859 254.41077
 257.88000 260.93814 263.71201 266.32672 268.73251 270.84851 272.57333 274.14133
 275.82196 277.48615 279.00281 280.35864 281.53915 282.58801 283.54810 284.43475
 285.24963 285.97052 286.59882 287.46066
 366.78100 356.31826 345.73352 334.58278 322.96905 311.14631 298.99957 286.78583
 274.48109 262.36135 250.35362 239.63788 229.74314 220.83040 212.99566 205.98092
 199.79819 194.71945 191.28471 189.30997 188.33023 188.37749 189.19576 190.48702
 192.19528 194.27354 196.51980 198.86206 201.29033 203.75359 205.82485 207.65011
 209.25937 210.38763 210.59989 210.81116 210.73142 210.41968 210.03594 209.64920
 209.24946 208.94273 208.73399 208.58125 208.49251 208.80677 209.17603 209.54830
 210.32456 211.48582 212.71908 214.48534 216.39660 218.42287 220.50113 222.56739
 224.61065 226.67791 228.75817 230.84744 232.95970 235.11496 237.35422 239.70748
 242.31174 244.54601 246.53127 248.27953 249.67979 250.78605 251.59131 251.89057
 251.91084 251.66810 251.01136 249.94262 248.53188 246.67614 244.56841 242.38467
 240.15893 237.94619 235.74945 233.57171 231.41498 229.26524 227.27450 225.41476
 223.68102 222.13628 220.74955 219.50481 218.37007 217.31333 216.40059 215.52485
 214.75012 213.91338 212.99464 212.34190 211.77516 212.87244 215.46486 217.69319
 218.85365 220.37807 221.98672 223.42740 224.95042 226.51875 228.88904 230.52016
 231.14368 231.66745 233.60358 237.33234 241.81566 246.27164 250.46169 254.37326
 257.86798 260.94873 263.72659 266.32608 268.72440 270.84567 272.56561 274.13797
 275.81293 277.50018 279.02838 280.38666 281.56836 282.61819 283.58130 284.46680
 285.28296 286.01132 286.63806 287.50488
 366.78100 356.31749 345.73199 334.58048 322.96598 311.14247 298.99497 286.78046
 274.47496 262.35445 250.34594 239.62944 229.73393 220.82043 212.98492 205.96942
 199.78591 194.70640 191.27090 189.29539 188.31489 188.36138 189.17888 190.46937
 192.17687 194.25436 196.49985 198.84135 201.26884 203.73134 205.80183 207.62633
 209.23482 210.36232 210.57381 210.78430 210.70380 210.39129 210.00679 209.61928
 209.21878 208.91127 208.70177 208.54826 208.45875 208.77225 209.14074 209.51224
 210.28773 211.44823 212.68072 214.44621 216.35671 218.38220 220.45970 222.52519
 224.56769 226.63418 228.71368 230.80217 232.91366 235.06816 237.30665 239.65915
 242.26264 244.49614 246.48063 248.22813 249.62762 250.73311 251.53761 251.83610
 251.85560 251.61209 250.95459 249.88508 248.47357 246.61707 244.50856 242.32406
 240.09755 237.88405 235.68654 233.50804 231.35053 229.20002 227.20852 225.34801
 223.61351 222.06800 220.68050 219.43499 218.29949 217.24198 216.32847 215.45197
 214.67646 213.83896 212.91945 212.26595 211.69844 212.84024 215.53784 217.83652
 218.97664 220.45482 222.00179 223.44398 225.06085 226.63530 228.93115 230.37334
 230.82898 231.30336 233.31621 237.19150 241.75824 246.22636 250.41852 254.33235
 257.84314 260.94754 263.74301 266.33493 268.73117 270.86356 272.57812 274.14102
 275.81110 277.51169 279.04364 280.40408 281.58676 282.63773 283.60211 284.48849
 285.30316 286.04050 286.66699 287.53888
 366.78100 356.31682 345.73064 334.57847 322.96329 311.13911 298.99093 286.77576
 274.46958 262.34840 250.33922 239.62204 229.72587 220.81169 212.97551 205.95933
 199.77516 194.69498 191.25880 189.28262 188.30145 188.34727 189.16409 190.45391
 192.16073 194.23756 196.48238 198.82320 201.25002 203.71185 205.78167 207.60549
 209.21331 210.34013 210.55096 210.76078 210.67960 210.36642 209.98125 209.59307
 209.19189 208.88371 208.67353 208.51936 208.42918 208.74200 209.10982 209.48065
 210.25547 211.41529 212.64711 214.41194 216.32176 218.34658 220.42340 222.48822
 224.53005 226.59587 228.67469 230.76251 232.87334 235.02716 237.26498 239.61680
 242.21962 244.45245 246.43627 248.18309 249.58191 250.68674 251.49056 251.78838
 251.80720 251.56302 250.90485 249.83467 248.42249 246.56531 244.45614 242.27096
 240.04378 237.82960 235.63142 233.45225 231.29407 229.14289 227.15071 225.28954
 223.55436 222.00818 220.62000 219.37383 218.23765 217.17947 216.26529 215.38811
 214.61194 213.77376 212.85358 212.19940 211.63123 212.81430 215.60945 217.98882
 219.06879 220.52161 222.05991 223.55339 225.08910 226.64049 228.98798 230.41063
 230.54688 230.75157 233.06812 237.13658 241.72063 246.19310 250.37558 254.27502
 257.79645 260.93283 263.75894 266.35306 268.75287 270.90149 272.60788 274.15103
 275.81064 277.52527 279.06470 280.42590 281.60907 282.66101 283.62677 284.51257
 285.32950 286.06305 286.69586 287.57098
 366.78100 356.31630 345.72961 334.57691 322.96122 311.13652 298.98782 286.77213
 274.46543 262.34374 250.33404 239.61634 229.71965 220.80495 212.96826 205.95156
 199.76687 194.68617 191.24947 189.27278 188.29108 188.33639 189.15269 190.44199
 192.14830 194.22460 196.46891 198.80921 201.23551 203.69682 205.76612 207.58943
 209.19673 210.32303 210.53334 210.74264 210.66095 210.34725 209.96155 209.57286
 209.17116 208.86247 208.65177 208.49707 208.40638 208.71868 209.08599 209.45629
 210.23060 211.38990 212.62120 214.38551 216.29481 218.31912 220.39542 222.45972
 224.50103 226.56633 228.64464 230.73194 232.84224 234.99555 237.23285 239.58416
 242.18646 244.41876 246.40207 248.14837 249.54668 250.65098 251.45428 251.75159
 251.76989 251.52520 250.86650 249.79581 248.38311 246.52541 244.41572 242.23002
 240.00233 237.78763 235.58893 233.40924 231.25054 229.09885 227.10615 225.24445
 223.50876 221.96206 220.57337 219.32667 218.18997 217.13128 216.21658 215.33889
 214.56219 213.72349 212.80280 212.14810 211.57941 212.79898 215.68039 218.12524
 219.16125 220.57306 222.16704 223.72575 225.13521 226.60506 228.94043 230.32185
 230.26944 230.34193 232.88963 237.09050 241.68132 246.15147 250.31795 254.20586
 257.74057 260.91562 263.77780 266.37747 268.78278 270.94687 272.64694 274.16882
 275.81531 277.54120 279.08380 280.44669 281.63052 282.68323 283.64966 284.53696
 285.35217 286.08853 286.72311 287.60458
 366.78100 356.31593 345.72887 334.57580 322.95973 311.13466 298.98560 286.76953
 274.46246 262.34040 250.33033 239.61226 229.71519 220.80013 212.96306 205.94599
 199.76093 194.67986 191.24279 189.26572 188.28366 188.32859 189.14452 190.43345
 192.13939 194.21532 196.45925 198.79919 201.22512 203.68605 205.75498 207.57792
 209.18485 210.31078 210.52072 210.72965 210.64758 210.33351 209.94745 209.55838
 209.15631 208.84725 208.63618 208.48111 208.39004 208.70198 209.06891 209.43884
 210.21278 211.37171 212.60264 214.36657 216.27551 218.29944 220.37537 222.43931
 224.48024 226.54517 228.62310 230.71004 232.81997 234.97290 237.20983 239.56077
 242.16270 244.39463 246.37757 248.12350 249.52143 250.62536 251.42830 251.72523
 251.74316 251.49810 250.83903 249.76796 248.35489 246.49683 244.38676 242.20069
 239.97263 237.75756 235.55849 233.37842 231.21936 229.06729 227.07422 225.21216
 223.47609 221.92902 220.53995 219.29289 218.15582 217.09675 216.18169 215.30362
 214.52655 213.68748 212.76642 212.11135 211.54228 212.79416 215.75183 218.23169
 219.26833 220.62962 222.25505 223.90575 225.26450 226.62679 228.81625 230.06433
 229.95679 230.06900 232.74483 237.03036 241.63863 246.10858 250.25914 254.14009
 257.69382 260.90488 263.80020 266.40253 268.80920 270.98459 272.67511 274.17770
 275.82440 277.55994 279.10858 280.47403 281.65997 282.71460 283.68301 284.57205
 285.38803 286.12674 286.77408 287.65604
 366.78100 356.31585 345.72870 334.57555 322.95940 311.13425 298.98511 286.76896
 274.46181 262.33966 250.32951 239.61136 229.71421 220.79906 212.96191 205.94476
 199.75961 194.67846 191.24132 189.26417 188.28202 188.32687 189.14272 190.43157
 192.13742 194.21327 196.45712 198.79697 201.22282 203.68368 205.75253 207.57538
 209.18223 210.30808 210.51793 210.72678 210.64463 210.33048 209.94433 209.55518
 209.15304 208.84389 208.63274 208.47759 208.38644 208.69829 209.06514 209.43499
 210.20884 211.36769 212.59854 214.36239 216.27125 218.29510 220.37095 222.43480
 224.47565 226.54050 228.61835 230.70520 232.81505 234.96790 237.20475 239.55561
 242.15746 244.38931 246.37216 248.11801 249.51586 250.61971 251.42256 251.71941
 251.73726 251.49211 250.83297 249.76182 248.34867 246.49052 244.38037 242.19422
 239.96607 237.75092 235.55177 233.37162 231.21247 229.06032 227.06718 225.20503
 223.46888 221.92173 220.53258 219.28543 218.14828 217.08913 216.17398 215.29583
 214.51868 213.67954 212.75839 212.10324 211.53409 212.80702 215.81445 218.31924
 219.37560 220.72920 222.32883 224.02438 225.41647 226.69363 228.67581 229.76196
 229.64439 229.84369 232.60529 236.96735 241.60287 246.06927 250.20477 254.07933
 257.65097 260.89624 263.82056 266.42230 268.82974 271.01288 272.69791 274.18893
 275.83286 277.57199 279.12418 280.49307 281.68036 282.73697 283.70804 284.59982
 285.41599 286.15891 286.81317 287.72260
 366.78100 356.31602 345.72904 334.57606 322.96008 311.13510 298.98612 286.77014
 274.46316 262.34118 250.33120 239.61322 229.71624 220.80126 212.96428 205.94730
 199.76232 194.68134 191.24436 189.26738 188.28541 188.33043 189.14645 190.43547
 192.14149 194.21751 196.46153 198.80155 201.22757 203.68859 205.75761 207.58063
 209.18765 210.31367 210.52369 210.73271 210.65073 210.33675 209.95077 209.56179
 209.15981 208.85083 208.63985 208.48487 208.39389 208.70591 209.07293 209.44295
 210.21697 211.37599 212.60701 214.37103 216.28005 218.30407 220.38009 222.44411
 224.48513 226.55015 228.62817 230.71519 232.82522 234.97824 237.21526 239.56628
 242.16830 244.40032 246.38334 248.12936 249.52738 250.63140 251.43442 251.73144
 251.74946 251.50448 250.84550 249.77452 248.36154 246.50356 244.39358 242.20760
 239.97962 237.76464 235.56566 233.38568 231.22670 229.07472 227.08174 225.21976
 223.48378 221.93680 220.54782 219.30084 218.16386 217.10488 216.18990 215.31192
 214.53494 213.69596 212.77498 212.12001 211.55103 212.83472 215.86755 218.39749
 219.47342 220.85294 222.42909 224.09782 225.53250 226.76201 228.55196 229.48514
 229.33307 229.62123 232.47044 236.90346 241.57764 246.03735 250.15793 254.02411
 257.60953 260.88623 263.83948 266.44168 268.84851 271.03647 272.71869 274.20538
 275.83633 277.57635 279.12973 280.49921 281.68820 282.74597 283.71713 284.60846
 285.42657 286.16934 286.82159 287.73956
 366.78100 356.31625 345.72951 334.57676 322.96101 311.13626 298.98752 286.77177
 274.46502 262.34328 250.33353 239.61578 229.71903 220.80429 212.96754 205.95079
 199.76604 194.68530 191.24855 189.27180 188.29006 188.33531 189.15156 190.44081
 192.14707 194.22332 196.46757 198.80783 201.23408 203.69533 205.76458 207.58784
 209.19509 210.32134 210.53160 210.74085 210.65910 210.34535 209.95961 209.57086
 209.16911 208.86036 208.64962 208.49487 208.40412 208.71638 209.08363 209.45388
 210.22813 211.38739 212.61864 214.38289 216.29215 218.31640 220.39265 222.45690
 224.49816 226.56341 228.64166 230.72892 232.83917 234.99242 237.22967 239.58093
 242.18318 244.41543 246.39868 248.14494 249.54319 250.64744 251.45070 251.74795
 251.76620 251.52145 250.86271 249.79196 248.37921 246.52147 244.41172 242.22597
 239.99822 237.78348 235.58473 233.40498 231.24624 229.09449 227.10174 225.23999
 223.50425 221.95750 220.56875 219.32200 218.18526 217.12651 216.21176 215.33402
 214.55727 213.71852 212.79777 212.14303 211.57428 212.86717 215.92177 218.46352
 219.56839 220.97998 222.55214 224.16524 225.61505 226.80911 228.44751 229.23155
 229.01842 229.40651 232.35062 236.84637 241.55396 246.00694 250.11620 253.97366
 257.56873 260.87418 263.85437 266.45865 268.86539 271.05295 272.73181 274.21399
 275.83859 277.57788 279.13318 280.50369 281.69284 282.74985 283.72229 284.61383
 285.43018 286.17038 286.82520 287.74649
 366.78100 356.31647 345.72995 334.57742 322.96190 311.13737 298.98885 286.77332
 274.46680 262.34527 250.33575 239.61822 229.72169 220.80717 212.97064 205.95412
 199.76959 194.68907 191.25254 189.27602 188.29449 188.33996 189.15644 190.44591
 192.15239 194.22886 196.47334 198.81381 201.24029 203.70176 205.77124 207.59471
 209.20218 210.32866 210.53913 210.74861 210.66708 210.35356 209.96803 209.57951
 209.17798 208.86945 208.65893 208.50440 208.41388 208.72635 209.09383 209.46430
 210.23878 211.39825 212.62973 214.39420 216.30367 218.32815 220.40462 222.46910
 224.51057 226.57605 228.65452 230.74200 232.85247 235.00594 237.24342 239.59489
 242.19737 244.42984 246.41332 248.15979 249.55827 250.66274 251.46622 251.76369
 251.78216 251.53764 250.87911 249.80859 248.39606 246.53854 244.42901 242.24349
 240.01596 237.80144 235.60291 233.42338 231.26486 229.11333 227.12081 225.25928
 223.52376 221.97723 220.58871 219.34218 218.20565 217.14713 216.23260 215.35508
 214.57855 213.74003 212.81950 212.16498 211.59645 212.89999 215.97977 218.51472
 219.66685 221.10667 222.67407 224.24176 225.68089 226.82948 228.35983 228.98549
 228.71477 229.21510 232.24167 236.78874 241.52028 245.97322 250.07907 253.93018
 257.53107 260.85855 263.86395 266.47314 268.87909 271.06250 272.73660 274.21524
 275.83728 277.57724 279.13419 280.50366 281.69403 282.75244 283.72330 284.61395
 285.42920 286.16861 286.82101 287.74533
 366.78100 356.31675 345.73049 334.57824 322.96299 311.13873 298.99048 286.77523
 274.46897 262.34772 250.33847 239.62121 229.72496 220.81071 212.97445 205.95820
 199.77395 194.69369 191.25744 189.28119 188.29993 188.34568 189.16243 190.45217
 192.15892 194.23567 196.48041 198.82116 201.24791 203.70966 205.77940 207.60315
 209.21090 210.33764 210.54839 210.75814 210.67688 210.36363 209.97838 209.59012
 209.18887 208.88062 208.67036 208.51611 208.42586 208.73860 209.10635 209.47710
 210.25184 211.41159 212.64334 214.40808 216.31783 218.34258 220.41932 222.48407
 224.52582 226.59156 228.67031 230.75806 232.86880 235.02255 237.26030 239.61204
 242.21479 244.44754 246.43128 248.17803 249.57678 250.68152 251.48527 251.78302
 251.80176 251.55751 250.89926 249.82900 248.41675 246.55950 244.45024 242.26499
 240.03774 237.82348 235.62523 233.44598 231.28772 229.13647 227.14422 225.28297
 223.54771 222.00146 220.61321 219.36695 218.23070 217.17245 216.25819 215.38094
 214.60469 213.76643 212.84618 212.19193 211.62367 212.93587 216.03610 218.56076
 219.76717 221.23083 222.79025 224.33122 225.73329 226.82990 228.28598 228.74309
 228.43073 229.05046 232.13908 236.72643 241.47774 245.93576 250.04474 253.89314
 257.49667 260.84030 263.86624 266.48404 268.89005 271.06677 272.73740 274.21277
 275.83459 277.57480 279.13284 280.50244 281.69312 282.75146 283.72253 284.61453
 285.42819 286.16693 286.81851 287.75058
 366.78100 356.31709 345.73118 334.57927 322.96435 311.14044 298.99253 286.77762
 274.47171 262.35080 250.34189 239.62497 229.72906 220.81515 212.97924 205.96333
 199.77942 194.69950 191.26359 189.28768 188.30677 188.35286 189.16995 190.46004
 192.16712 194.24421 196.48930 198.83039 201.25748 203.71957 205.78966 207.61374
 209.22183 210.34892 210.56001 210.77010 210.68919 210.37628 209.99136 209.60345
 209.20254 208.89463 208.68472 208.53081 208.44089 208.75398 209.12207 209.49316
 210.26825 211.42834 212.66043 214.42551 216.33560 218.36069 220.43778 222.50287
 224.54496 226.61105 228.69013 230.77822 232.88931 235.04340 237.28149 239.63358
 242.23667 244.46975 246.45384 248.20093 249.60002 250.70511 251.50920 251.80729
 251.82637 251.58246 250.92455 249.85464 248.44273 246.58582 244.47690 242.29199
 240.06508 237.85117 235.65326 233.47435 231.31644 229.16552 227.17361 225.31270
 223.57779 222.03188 220.64397 219.39806 218.26214 217.20423 216.29032 215.41341
 214.63750 213.79959 212.87968 212.22576 211.65785 212.97530 216.08789 218.60724
 219.86397 221.34647 222.90724 224.43143 225.76903 226.82123 228.21973 228.50589
 228.16489 228.91048 232.04712 236.66121 241.42969 245.89622 250.01196 253.85945
 257.46414 260.81927 263.86203 266.49060 268.89630 271.06406 272.73209 274.20956
 275.83200 277.57397 279.13190 280.50327 281.69412 282.75296 283.72382 284.61438
 285.43048 286.17126 286.82715 287.75369
 366.78100 356.31744 345.73187 334.58031 322.96575 311.14218 298.99462 286.78006
 274.47449 262.35393 250.34537 239.62880 229.73324 220.81968 212.98411 205.96855
 199.78499 194.70542 191.26986 189.29429 188.31373 188.36017 189.17760 190.46804
 192.17548 194.25291 196.49835 198.83979 201.26722 203.72966 205.80010 207.62453
 209.23297 210.36041 210.57184 210.78228 210.70172 210.38915 210.00459 209.61703
 209.21646 208.90890 208.69934 208.54577 208.45621 208.76965 209.13808 209.50952
 210.28496 211.44539 212.67783 214.44327 216.35370 218.37914 220.45658 222.52201
 224.56445 226.63088 228.71032 230.79876 232.91019 235.06463 237.30307 239.65550
 242.25894 244.49238 246.47681 248.22425 249.62369 250.72912 251.53356 251.83200
 251.85143 251.60787 250.95031 249.88074 248.46918 246.61262 244.50405 242.31949
 240.09293 237.87936 235.68180 233.50324 231.34567 229.19511 227.20355 225.34298
 223.60842 222.06286 220.67529 219.42973 218.29416 217.23660 216.32304 215.44647
 214.67091 213.83335 212.91378 212.26022 211.69266 213.01450 216.13748 218.65332
 219.95248 221.45900 223.02412 224.53163 225.79826 226.81474 228.15260 228.27910
 227.91638 228.79073 231.96999 236.59744 241.37862 245.85385 249.97818 253.82698
 257.43149 260.79388 263.85092 266.49448 268.89825 271.05191 272.72006 274.20068
 275.83151 277.57614 279.13501 280.50668 281.69836 282.75800 283.73099 284.62164
 285.43759 286.17816 286.83374 287.76462
 366.78100 356.31780 345.73260 334.58140 322.96721 311.14401 298.99681 286.78261
 274.47741 262.35721 250.34901 239.63281 229.73762 220.82442 212.98922 205.97402
 199.79082 194.71162 191.27642 189.30122 188.32103 188.36783 189.18563 190.47643
 192.18423 194.26203 196.50783 198.84963 201.27744 203.74024 205.81104 207.63584
 209.24464 210.37244 210.58424 210.79504 210.71485 210.40265 210.01845 209.63125
 209.23105 208.92385 208.71465 208.56145 208.47226 208.78606 209.15486 209.52666
 210.30246 211.46326 212.69606 214.46186 216.37267 218.39847 220.47627 222.54207
 224.58487 226.65167 228.73147 230.82027 232.93208 235.08688 237.32568 239.67848
 242.28228 244.51608 246.50088 248.24868 249.64849 250.75429 251.55909 251.85789
 251.87769 251.63449 250.97729 249.90809 248.49690 246.64070 244.53250 242.34830
 240.12210 237.90890 235.71170 233.53350 231.37631 229.22611 227.23491 225.37471
 223.64051 222.09531 220.70811 219.46291 218.32772 217.27052 216.35732 215.48112
 214.70592 213.86872 212.94952 212.29632 211.72913 213.05382 216.18358 218.69952
 220.03117 221.56963 223.14331 224.62311 225.82085 226.82034 228.08612 228.05667
 227.67905 228.68770 231.90770 236.53612 241.32303 245.80872 249.94536 253.79735
 257.39810 260.76376 263.83279 266.49301 268.89459 271.03033 272.69946 274.19070
 275.83246 277.57999 279.13971 280.51251 281.70493 282.76523 283.73810 284.62964
 285.44580 286.18628 286.84174 287.77264
 366.78100 356.31813 345.73325 334.58238 322.96850 311.14563 298.99875 286.78488
 274.48000 262.36013 250.35225 239.63638 229.74150 220.82863 212.99375 205.97888
 199.79600 194.71713 191.28225 189.30738 188.32750 188.37463 189.19275 190.48388
 192.19200 194.27013 196.51626 198.85838 201.28651 203.74963 205.82076 207.64588
 209.25501 210.38313 210.59526 210.80638 210.72651 210.41463 210.03076 209.64388
 209.24401 208.93713 208.72826 208.57538 208.48651 208.80063 209.16976 209.54188
 210.31801 211.47913 212.71226 214.47839 216.38951 218.41564 220.49376 222.55989
 224.60301 226.67014 228.75026 230.83939 232.95151 235.10664 237.34576 239.69889
 242.30301 244.53714 246.52226 248.27039 249.67051 250.77664 251.58176 251.88089
 251.90101 251.65814 251.00127 249.93239 248.52152 246.66564 244.55777 242.37389
 240.14802 237.93514 235.73827 233.56039 231.40352 229.25364 227.26277 225.40289
 223.66902 222.12414 220.73727 219.49239 218.35752 217.30064 216.38777 215.51189
 214.73702 213.90014 212.98127 212.32840 211.76152 213.09093 216.23180 218.74182
 220.10556 221.67592 223.26106 224.71686 225.85776 226.82433 228.01015 227.84834
 227.45923 228.59741 231.85355 236.47502 241.26813 245.76476 249.91322 253.76759
 257.36313 260.72858 263.80820 266.48865 268.88766 271.00461 272.67566 274.17062
 275.83737 277.58841 279.14804 280.52203 281.71475 282.77469 283.74844 284.63980
 285.45752 286.19818 286.85281 287.78851
 366.78100 356.31864 345.73428 334.58393 322.97057 311.14821 299.00185 286.78850
 274.48414 262.36478 250.35742 239.64207 229.74771 220.83535 213.00099 205.98663
 199.80428 194.72592 191.29156 189.31720 188.33785 188.38549 189.20413 190.49577
 192.20442 194.28306 196.52970 198.87234 201.30099 203.76463 205.83627 207.66191
 209.27155 210.40020 210.61284 210.82448 210.74512 210.43377 210.05041 209.66405
 209.26469 208.95834 208.74998 208.59762 208.50926 208.82390 209.19355 209.56619
 210.34283 211.50447 212.73812 214.50476 216.41640 218.44304 220.52169 222.58833
 224.63197 226.69961 228.78025 230.86990 232.98254 235.13818 237.37782 239.73147
 242.33611 244.57075 246.55639 248.30504 249.70568 250.81232 251.61796 251.91761
 251.93825 251.69589 251.03953 249.97117 248.56082 246.70546 244.59810 242.41474
 240.18939 237.97703 235.78067 233.60331 231.44696 229.29760 227.30724 225.44788
 223.71452 222.17017 220.78381 219.53945 218.40509 217.34874 216.43638 215.56102
 214.78666 213.95031 213.03195 212.37959 211.81323 213.13783 216.26733 218.78954
 220.18404 221.77483 223.37328 224.80290 225.88713 226.84831 227.94186 227.64165
 227.24734 228.51447 231.81082 236.41809 241.20869 245.71503 249.88040 253.74113
 257.32986 260.69162 263.77875 266.47977 268.87506 270.97089 272.64612 274.17395
 275.83441 277.58844 279.15018 280.52539 281.71991 282.78186 283.75620 284.64758
 285.46408 286.20422 286.85968 287.79718
 366.78100 356.31923 345.73546 334.58569 322.97292 311.15115 299.00538 286.79261
 274.48884 262.37007 250.36330 239.64853 229.75476 220.84300 213.00923 205.99546
 199.81369 194.73592 191.30215 189.32838 188.34961 188.39784 189.21707 190.50930
 192.21853 194.29776 196.54499 198.88822 201.31745 203.78168 205.85391 207.68014
 209.29037 210.41960 210.63283 210.84506 210.76629 210.45552 210.07276 209.68699
 209.28822 208.98245 208.77468 208.62291 208.53514 208.85037 209.22060 209.59383
 210.37106 211.53329 212.76752 214.53475 216.44698 218.47421 220.55344 222.62067
 224.66490 226.73313 228.81436 230.90459 233.01782 235.17405 237.41428 239.76852
 242.37375 244.60898 246.59521 248.34444 249.74567 250.85290 251.65913 251.95936
 251.98059 251.73882 251.08305 250.01528 248.60551 246.75074 244.64397 242.46120
 240.23643 238.02466 235.82889 233.65212 231.49635 229.34758 227.35781 225.49904
 223.76628 222.22251 220.83674 219.59297 218.45920 217.40343 216.49166 215.61689
 214.84312 214.00735 213.08958 212.43781 211.87204 213.18839 216.29840 218.83157
 220.26085 221.90347 223.45891 224.84334 225.94629 226.89384 227.86975 227.44713
 227.05241 228.44168 231.75995 236.35216 241.14575 245.67151 249.85889 253.72359
 257.30127 260.65329 263.74319 266.46310 268.85187 270.92444 272.60117 274.02707
 275.90320 277.64575 279.18213 280.54721 281.73520 282.79391 283.76669 284.65564
 285.47046 286.21216 286.86703 287.80301
 366.78100 356.31981 345.73661 334.58742 322.97522 311.15403 299.00884 286.79664
 274.49345 262.37525 250.36906 239.65487 229.76167 220.85048 213.01728 206.00409
 199.82290 194.74570 191.31251 189.33931 188.36112 188.40993 189.22973 190.52254
 192.23234 194.31215 196.55995 198.90376 201.33357 203.79837 205.87118 207.69798
 209.30879 210.43860 210.65240 210.86521 210.78701 210.47682 210.09463 209.70943
 209.31124 209.00604 208.79885 208.64766 208.56046 208.87627 209.24707 209.62088
 210.39869 211.56149 212.79630 214.56410 216.47691 218.50472 220.58452 222.65233
 224.69713 226.76594 228.84775 230.93855 233.05236 235.20916 237.44997 239.80478
 242.41058 244.64639 246.63319 248.38300 249.78481 250.89261 251.69942 252.00022
 252.02203 251.78084 251.12564 250.05845 248.64925 246.79506 244.68886 242.50667
 240.28248 238.07128 235.87609 233.69989 231.54470 229.39651 227.40731 225.54912
 223.81692 222.27373 220.88854 219.64534 218.51215 217.45695 216.54576 215.67157
 214.89837 214.06318 213.14598 212.49479 211.92960 213.23761 216.32793 218.87869
 220.31728 222.00473 223.64659 224.96173 225.89444 226.83319 227.81335 227.35481
 226.90271 228.31068 231.70168 236.29964 241.09586 245.64287 249.84386 253.70743
 257.27188 260.61191 263.70300 266.44308 268.82761 270.87863 272.55759 274.01309
 275.87772 277.64276 279.19351 280.56143 281.75089 282.80969 283.78137 284.67145
 285.48795 286.22687 286.88202 287.82010
 366.78100 356.32031 345.73762 334.58893 322.97724 311.15655 299.01186 286.80017
 274.49748 262.37979 250.37410 239.66041 229.76772 220.85703 213.02434 206.01165
 199.83096 194.75427 191.32158 189.34889 188.37121 188.42052 189.24083 190.53414
 192.24445 194.32476 196.57307 198.91738 201.34769 203.81300 205.88631 207.71362
 209.32493 210.45524 210.66955 210.88286 210.80517 210.49548 210.11379 209.72910
 209.33141 209.02672 208.82003 208.66934 208.58265 208.89896 209.27027 209.64458
 210.42289 211.58620 212.82151 214.58982 216.50313 218.53144 220.61175 222.68006
 224.72537 226.79468 228.87700 230.96831 233.08262 235.23993 237.48124 239.83655
 242.44286 244.67917 246.66648 248.41679 249.81910 250.92741 251.73472 252.03603
 252.05834 251.81765 251.16296 250.09627 248.68758 246.83389 244.72820 242.54651
 240.32282 238.11213 235.91744 233.74175 231.58706 229.43937 227.45068 225.59299
 223.86130 222.31861 220.93392 219.69123 218.55854 217.50385 216.59316 215.71947
 214.94679 214.11210 213.19541 212.54472 211.98003 213.28249 216.35973 218.91985
 220.38875 222.06783 223.79851 225.10757 225.91093 226.78773 227.70235 227.26497
 226.79843 228.19275 231.65622 236.25859 241.05153 245.61261 249.82283 253.68849
 257.24216 260.57010 263.66144 266.41913 268.79761 270.82614 272.50748 273.94373
 275.89163 277.66107 279.20755 280.57254 281.76096 282.81833 283.78873 284.67816
 285.49091 286.23041 286.88409 287.82162
 366.78100 356.32083 345.73865 334.59048 322.97931 311.15913 299.01496 286.80379
 274.50161 262.38444 250.37927 239.66609 229.77392 220.86375 213.03157 206.01940
 199.83923 194.76306 191.33088 189.35871 188.38154 188.43136 189.25219 190.54602
 192.25684 194.33767 196.58650 198.93132 201.36215 203.82798 205.90180 207.72963
 209.34146 210.47228 210.68711 210.90094 210.82376 210.51459 210.13342 209.74924
 209.35207 209.04790 208.84172 208.69155 208.60538 208.92220 209.29403 209.66886
 210.44769 211.61151 212.84734 214.61617 216.52999 218.55882 220.63965 222.70847
 224.75430 226.82413 228.90695 230.99878 233.11361 235.27143 237.51326 239.86909
 242.47591 244.71274 246.70057 248.45139 249.85422 250.96305 251.77087 252.07270
 252.09553 251.85535 251.20118 250.13501 248.72683 246.87366 244.76849 242.58732
 240.36414 238.15397 235.95980 233.78462 231.63045 229.48328 227.49510 225.63793
 223.90676 222.36458 220.98041 219.73824 218.60606 217.55189 216.64172 215.76854
 214.99637 214.16220 213.24602 212.59585 212.03168 213.32803 216.39081 218.95029
 220.47729 222.14557 223.86856 225.22131 226.03075 226.81660 227.53401 227.14136
 226.72728 228.09901 231.61555 236.22261 241.00603 245.57709 249.80118 253.67307
 257.21664 260.53149 263.62057 266.39435 268.76602 270.77231 272.45587 273.91074
 275.87289 277.65628 279.20758 280.57559 281.76529 282.82346 283.79514 284.68323
 285.49481 286.23370 286.88980 287.82492
 366.78100 356.32149 345.73999 334.59248 322.98197 311.16247 299.01896 286.80845
 274.50694 262.39044 250.38593 239.67342 229.78192 220.87241 213.04090 206.02940
 199.84989 194.77438 191.34288 189.37137 188.39486 188.44536 189.26685 190.56134
 192.27283 194.35433 196.60382 198.94931 201.38081 203.84730 205.92179 207.75029
 209.36278 210.49427 210.70977 210.92426 210.84775 210.53925 210.15874 209.77523
 209.37872 209.07522 208.86971 208.72020 208.63470 208.95219 209.32468 209.70018
 210.47967 211.64416 212.88066 214.65015 216.56464 218.59414 220.67563 222.74512
 224.79161 226.86211 228.94560 231.03809 233.15359 235.31208 237.55457 239.91107
 242.51856 244.75605 246.74455 248.49604 249.89953 251.00903 251.81752 252.12001
 252.14350 251.90400 251.25049 250.18498 248.77748 246.92497 244.82046 242.63996
 240.41745 238.20794 236.01444 233.83993 231.68642 229.53992 227.55241 225.69590
 223.96539 222.42389 221.04038 219.79887 218.66737 217.61386 216.70435 215.83185
 215.06034 214.22683 213.31133 212.66182 212.09831 213.38120 216.41217 218.98022
 220.56357 222.24051 223.91078 225.29922 226.17242 226.87770 227.37138 227.01263
 226.66003 228.01257 231.57368 236.18527 240.95848 245.54085 249.78201 253.65938
 257.19193 260.49368 263.57980 266.36755 268.73315 270.71826 272.40207 273.90457
 275.85645 277.64417 279.19955 280.57053 281.76184 282.82245 283.79391 284.68234
 285.49463 286.23309 286.88556 287.82251
 366.78100 356.32222 345.74144 334.59467 322.98489 311.16611 299.02333 286.81355
 274.51278 262.39700 250.39322 239.68144 229.79066 220.88189 213.05111 206.04033
 199.86155 194.78677 191.35600 189.38522 188.40944 188.46066 189.28288 190.57811
 192.29033 194.37255 196.62277 198.96899 201.40122 203.86844 205.94366 207.77288
 209.38611 210.51833 210.73455 210.94977 210.87399 210.56622 210.18644 209.80366
 209.40788 209.10510 208.90033 208.75155 208.66677 208.98499 209.35821 209.73444
 210.51466 211.67988 212.91710 214.68732 216.60255 218.63277 220.71499 222.78521
 224.83243 226.90366 228.98788 231.08110 233.19732 235.35654 237.59977 239.95699
 242.56521 244.80343 246.79265 248.54488 249.94910 251.05932 251.86854 252.17176
 252.19599 251.95721 251.30443 250.23965 248.83287 246.98110 244.87732 242.69754
 240.47576 238.26698 236.07421 233.90043 231.74765 229.60187 227.61510 225.75932
 224.02954 222.48876 221.10598 219.86521 218.73443 217.68165 216.77287 215.90109
 215.13032 214.29754 213.38276 212.73398 212.17120 213.43723 216.42834 219.01294
 220.64159 222.33102 223.96262 225.36241 226.29588 226.94135 227.25485 226.89186
 226.56857 227.92117 231.53340 236.14827 240.91307 245.50711 249.76212 253.64337
 257.16422 260.45059 263.53253 266.33231 268.68973 270.65610 272.34369 273.93594
 275.83826 277.62448 279.18585 280.55884 281.75186 282.81296 283.78546 284.67429
 285.48810 286.22406 286.87601 287.81134
 366.78100 356.32289 345.74278 334.59667 322.98756 311.16944 299.02733 286.81822
 274.51811 262.40300 250.39989 239.68878 229.79867 220.89056 213.06045 206.05033
 199.87222 194.79811 191.36800 189.39789 188.42278 188.47467 189.29756 190.59345
 192.30634 194.38922 196.64011 198.98700 201.41989 203.88778 205.96367 207.79356
 209.40745 210.54034 210.75723 210.97311 210.89800 210.59089 210.21178 209.82967
 209.43456 209.13245 208.92834 208.78023 208.69612 209.01500 209.38889 209.76578
 210.54667 211.71256 212.95045 214.72134 216.63723 218.66812 220.75101 222.82189
 224.86978 226.94167 229.02656 231.12045 233.23734 235.39723 237.64112 239.99901
 242.60790 244.84678 246.83667 248.58956 249.99445 251.10534 251.91523 252.21912
 252.24401 252.00590 251.35379 250.28967 248.88356 247.03245 244.92934 242.75023
 240.52912 238.32101 236.12890 233.95579 231.80368 229.65856 227.67245 225.81734
 224.08823 222.54812 221.16601 219.92590 218.79579 217.74368 216.83557 215.96445
 215.19434 214.36223 213.44812 212.80001 212.23790 213.48906 216.44505 219.04584
 220.71552 222.40883 224.01961 225.41658 226.39993 227.00595 227.18568 226.77219
 226.44756 227.82901 231.49886 236.11545 240.87289 245.47624 249.74199 253.62502
 257.13501 260.40704 263.48239 266.28961 268.63718 270.58444 272.27182 273.94730
 275.81125 277.59567 279.15997 280.53638 281.73141 282.79541 283.76767 284.65762
 285.46771 286.20566 286.85614 287.79309
 366.78100 356.32355 345.74410 334.59865 322.99020 311.17275 299.03130 286.82285
 274.52340 262.40895 250.40650 239.69605 229.80659 220.89914 213.06969 206.06024
 199.88279 194.80934 191.37989 189.41044 188.43599 188.48854 189.31209 190.60864
 192.32219 194.40574 196.65729 199.00484 201.43839 203.90694 205.98349 207.81404
 209.42859 210.56214 210.77968 210.99623 210.92178 210.61533 210.23688 209.85543
 209.46098 209.15953 208.95608 208.80863 208.72518 209.04473 209.41928 209.79683
 210.57838 211.74493 212.98348 214.75503 216.67158 218.70313 220.78668 222.85823
 224.90677 226.97932 229.06487 231.15942 233.27697 235.43752 237.68207 240.04062
 242.65017 244.88972 246.88027 248.63382 250.03937 251.15092 251.96147 252.26602
 252.29157 252.05412 251.40267 250.33922 248.93377 247.08332 244.98086 242.80241
 240.58196 238.37451 236.18306 234.01061 231.85916 229.71471 227.72926 225.87481
 224.14636 222.60691 221.22546 219.98601 218.85656 217.80511 216.89766 216.02721
 215.25776 214.42631 213.51286 212.86541 212.30396 213.54024 216.46111 219.07919
 220.79092 222.48088 224.07268 225.46072 226.48987 227.07417 227.14734 226.64362
 226.30212 227.74237 231.47093 236.08766 240.83768 245.44724 249.72105 253.60532
 257.10587 260.36365 263.43295 266.24384 268.58099 270.51157 272.20001 273.93948
 275.77808 277.55930 279.12564 280.50378 281.70020 282.76495 283.73724 284.62903
 285.43961 286.17606 286.82657 287.76471
 366.78100 356.32428 345.74556 334.60083 322.99311 311.17639 299.03567 286.82795
 274.52923 262.41550 250.41378 239.70406 229.81534 220.90862 213.07989 206.07117
 199.89445 194.82173 191.39301 189.42429 188.45056 188.50384 189.32812 190.62540
 192.33968 194.42395 196.67623 199.02451 201.45879 203.92807 206.00534 207.83662
 209.45190 210.58618 210.80446 211.02174 210.94801 210.64229 210.26457 209.88385
 209.49013 209.18940 208.98668 208.83996 208.75724 209.07752 209.45280 209.83107
 210.61335 211.78063 213.01991 214.79219 216.70946 218.74174 220.82602 222.89830
 224.94758 227.02086 229.10713 231.20241 233.32069 235.48197 237.72725 240.08652
 242.69680 244.93708 246.92836 248.68264 250.08891 251.20119 252.01247 252.31775
 252.34403 252.10731 251.45658 250.39386 248.98914 247.13942 245.03770 242.85997
 240.64025 238.43353 236.24281 234.07109 231.92037 229.77664 227.79192 225.93820
 224.21048 222.67176 221.29103 220.05231 218.92359 217.87287 216.96615 216.09643
 215.32770 214.49698 213.58426 212.93754 212.37682 213.59531 216.47411 219.11230
 220.86835 222.55042 224.11995 225.49879 226.56735 227.14687 227.12927 226.50594
 226.14014 227.66322 231.44795 236.06503 240.80766 245.41861 249.69864 253.58339
 257.07404 260.32056 263.38229 266.19537 268.52478 270.43973 272.12814 273.91934
 275.73602 277.51337 279.08237 280.46082 281.65976 282.72348 283.69717 284.58829
 285.40005 286.13623 286.78748 287.72308
 366.78100 356.32503 345.74706 334.60309 322.99612 311.18015 299.04019 286.83322
 274.53525 262.42228 250.42131 239.71234 229.82437 220.91840 213.09043 206.08246
 199.90649 194.83452 191.40656 189.43859 188.46562 188.51965 189.34468 190.64271
 192.35774 194.44277 196.69580 199.04483 201.47986 203.94990 206.02793 207.85996
 209.47599 210.61102 210.83005 211.04808 210.97511 210.67014 210.29317 209.91320
 209.52023 209.22027 209.01830 208.87233 208.79036 209.11139 209.48742 209.86645
 210.64948 211.81751 213.05754 214.83057 216.74861 218.78164 220.86667 222.93970
 224.98973 227.06376 229.15079 231.24682 233.36585 235.52788 237.77391 240.13395
 242.74498 244.98601 246.97804 248.73307 250.14010 251.25313 252.06516 252.37119
 252.39822 252.16225 251.51228 250.45032 249.04635 247.19738 245.09641 242.91944
 240.70047 238.49450 236.30453 234.13356 231.98359 229.84062 227.85666 226.00369
 224.27672 222.73875 221.35878 220.12081 218.99284 217.94287 217.03690 216.16793
 215.39996 214.56999 213.65803 213.01206 212.45209 213.65053 216.48199 219.13957
 220.94939 222.62009 224.16367 225.53459 226.63623 227.22287 227.11902 226.35768
 225.96536 227.59111 231.43141 236.04967 240.78479 245.39487 249.67830 253.56465
 257.04779 260.28131 263.33322 266.14658 268.46658 270.36795 272.06442 273.90067
 275.68472 277.45828 279.02744 280.40796 281.60666 282.67154 283.64664 284.53723
 285.35016 286.08411 286.73486 287.67032
 366.78100 356.32586 345.74871 334.60557 322.99942 311.18428 299.04513 286.83899
 274.54184 262.42970 250.42955 239.72141 229.83427 220.92912 213.10198 206.09483
 199.91969 194.84854 191.42140 189.45425 188.48211 188.53696 189.36282 190.66168
 192.37753 194.46339 196.71724 199.06710 201.50295 203.97381 206.05266 207.88552
 209.50237 210.63823 210.85809 211.07694 211.00480 210.70065 210.32451 209.94536
 209.55322 209.25407 209.05293 208.90778 208.82664 209.14850 209.52535 209.90521
 210.68906 211.85792 213.09877 214.87263 216.79148 218.82534 220.91119 222.98505
 225.03591 227.11076 229.19862 231.29547 233.41533 235.57818 237.82504 240.18589
 242.79775 245.03960 247.03246 248.78832 250.19617 251.31003 252.12288 252.42974
 252.45759 252.22245 251.57330 250.51216 249.10901 247.26087 245.16073 242.98458
 240.76644 238.56129 236.37215 234.20200 232.05286 229.91071 227.92757 226.07542
 224.34928 222.81214 221.43299 220.19585 219.06870 218.01956 217.11441 216.24627
 215.47912 214.64998 213.73883 213.09369 212.53455 213.70998 216.48708 219.16463
 221.02689 222.68654 224.20525 225.56445 226.69586 227.31184 227.12575 226.21692
 225.79298 227.52083 231.41420 236.03636 240.76210 245.36433 249.64799 253.53384
 257.00845 260.23096 263.27805 266.09702 268.41940 270.31671 271.99496 273.85107
 275.63672 277.40698 278.97577 280.35519 281.55341 282.61908 283.59283 284.48520
 285.29648 286.03159 286.68500 287.61758
 366.78100 356.32664 345.75027 334.60791 323.00255 311.18818 299.04982 286.84446
 274.54809 262.43673 250.43737 239.73000 229.84364 220.93928 213.11291 206.10655
 199.93218 194.86182 191.43546 189.46909 188.49773 188.55337 189.38000 190.67964
 192.39628 194.48291 196.73755 199.08819 201.52482 203.99646 206.07610 207.90973
 209.52737 210.66401 210.88464 211.10428 211.03292 210.72955 210.35419 209.97583
 209.58446 209.28610 209.08574 208.94137 208.86101 209.18365 209.56128 209.94192
 210.72655 211.89619 213.13783 214.91246 216.83210 218.86674 220.95337 223.02801
 225.07965 227.15528 229.24392 231.34156 233.46219 235.62583 237.87347 240.23510
 242.84774 245.09038 247.08401 248.84065 250.24929 251.36392 252.17756 252.48520
 252.51383 252.27947 251.63111 250.57074 249.16838 247.32101 245.22165 243.04629
 240.82892 238.62456 236.43620 234.26683 232.11847 229.97711 227.99474 226.14338
 224.41802 222.88165 221.50329 220.26693 219.14056 218.09220 217.18784 216.32047
 215.55411 214.72575 213.81538 213.17102 212.61266 213.76617 216.49147 219.18320
 221.10938 222.74301 224.23776 225.59302 226.74501 227.39854 227.13998 226.08528
 225.62926 227.45740 231.40106 236.02882 240.74455 245.33540 249.61853 253.50578
 256.97491 260.18765 263.22763 266.05304 268.38062 270.27246 271.89767 273.71591
 275.59567 277.36960 278.92825 280.30145 281.49567 282.55743 283.53220 284.42169
 285.23544 285.97375 286.62558 287.55835
 366.78100 356.32742 345.75183 334.61025 323.00567 311.19208 299.05450 286.84992
 274.55433 262.44375 250.44517 239.73858 229.85300 220.94942 213.12383 206.11825
 199.94467 194.87508 191.44950 189.48392 188.51333 188.56975 189.39717 190.69758
 192.41500 194.50242 196.75784 199.10925 201.54667 204.01909 206.09950 207.93392
 209.55234 210.68975 210.91117 211.13159 211.06100 210.75842 210.38384 210.00625
 209.61567 209.31809 209.11850 208.97492 208.89534 209.21875 209.59717 209.97859
 210.76400 211.93442 213.17684 214.95225 216.87267 218.90809 220.99550 223.07092
 225.12334 227.19975 229.28917 231.38759 233.50900 235.67342 237.92184 240.28425
 242.89767 245.14109 247.13550 248.89292 250.30234 251.41775 252.23217 252.54059
 252.57001 252.33642 251.68884 250.62926 249.22767 247.38109 245.28251 243.10792
 240.89134 238.68776 236.50017 234.33159 232.18401 230.04342 228.06184 226.21126
 224.48667 222.95109 221.57351 220.33792 219.21234 218.16476 217.26117 216.39459
 215.62901 214.80142 213.89184 213.24826 212.69067 213.82201 216.49490 219.20390
 221.18874 222.81001 224.25586 225.60497 226.80244 227.49840 227.15945 225.96756
 225.47864 227.39189 231.38440 236.02179 240.72598 245.30351 249.58449 253.47034
 256.93338 260.13461 263.16705 265.99548 268.32034 270.20551 271.88498 273.71518
 275.53030 277.29581 278.85480 280.22748 281.42117 282.48328 283.45752 284.34857
 285.16284 285.90283 286.55682 287.49146
 366.78100 356.32833 345.75365 334.61298 323.00930 311.19663 299.05995 286.85628
 274.56160 262.45193 250.45425 239.74858 229.86390 220.96123 213.13655 206.13188
 199.95920 194.89053 191.46585 189.50118 188.53150 188.58883 189.41715 190.71848
 192.43680 194.52513 196.78145 199.13378 201.57210 204.04543 206.12675 207.96208
 209.58140 210.71973 210.94205 211.16338 211.09370 210.79203 210.41835 210.04168
 209.65200 209.35533 209.15665 209.01398 208.93530 209.25963 209.63895 210.02128
 210.80760 211.97893 213.22225 214.99858 216.91990 218.95623 221.04456 223.12088
 225.17421 227.25153 229.34186 231.44118 233.56351 235.72883 237.97816 240.34148
 242.95581 245.20013 247.19546 248.95378 250.36411 251.48043 252.29576 252.60508
 252.63541 252.40273 251.75606 250.69738 249.29671 247.45103 245.35336 243.17968
 240.96401 238.76133 236.57466 234.40698 232.26031 230.12063 228.13996 226.29028
 224.56661 223.03193 221.65526 220.42058 219.29591 218.24923 217.34656 216.48088
 215.71621 214.88953 213.98086 213.33818 212.78151 213.88370 216.48770 219.22891
 221.26987 222.85214 224.28403 225.61272 226.83723 227.60847 227.20071 225.85136
 225.32477 227.32768 231.36861 236.01941 240.71278 245.27164 249.54642 253.42986
 256.88751 260.08023 263.10751 265.94324 268.27374 270.16101 271.87842 273.68170
 275.46277 277.22177 278.77722 280.14740 281.33865 282.40009 283.37292 284.26593
 285.07953 285.82101 286.47711 287.41006
 366.78100 356.32905 345.75509 334.61514 323.01219 311.20023 299.06428 286.86132
 274.56737 262.45842 250.46146 239.75651 229.87256 220.97060 213.14665 206.14270
 199.97074 194.90279 191.47883 189.51488 188.54593 188.60397 189.43302 190.73507
 192.45411 194.54316 196.80021 199.15325 201.59230 204.06634 206.14839 207.98444
 209.60448 210.74353 210.96658 211.18862 211.11967 210.81872 210.44576 210.06981
 209.68086 209.38490 209.18695 209.04499 208.96704 209.29209 209.67213 210.05518
 210.84223 212.01427 213.25832 215.03537 216.95741 218.99446 221.08350 223.16055
 225.21460 227.29264 229.38369 231.48374 233.60678 235.77283 238.02288 240.38692
 243.00197 245.24701 247.24306 249.00211 250.41315 251.53020 252.34625 252.65629
 252.68734 252.45539 251.80943 250.75148 249.35152 247.50657 245.40962 243.23666
 241.02171 238.81976 236.63380 234.46685 232.32090 230.18194 228.20199 226.35303
 224.63008 223.09613 221.72017 220.48622 219.36227 218.31631 217.41436 216.54941
 215.78545 214.95950 214.05154 213.40959 212.85364 213.93571 216.49222 219.23262
 221.37920 222.90439 224.23451 225.62624 226.93654 227.71890 227.22202 225.74374
 225.18849 227.27547 231.35881 236.02235 240.70168 245.23846 249.50543 253.38939
 256.84689 260.03381 263.05457 265.89960 268.24112 270.12769 271.86084 273.52991
 275.35739 277.11563 278.66821 280.03833 281.23105 282.29196 283.26810 284.16080
 284.97815 285.72162 286.37979 287.31732
 366.78100 356.32972 345.75643 334.61715 323.01487 311.20359 299.06830 286.86602
 274.57274 262.46446 250.46817 239.76389 229.88061 220.97932 213.15604 206.15276
 199.98148 194.91419 191.49091 189.52763 188.55935 188.61806 189.44778 190.75050
 192.47022 194.55993 196.81765 199.17137 201.61108 204.08580 206.16852 208.00524
 209.62595 210.76567 210.98939 211.21211 211.14382 210.84354 210.47126 210.09597
 209.70769 209.41241 209.21513 209.07384 208.99656 209.32228 209.70300 210.08671
 210.87443 212.04715 213.29187 215.06958 216.99230 219.03002 221.11973 223.19745
 225.25217 227.33089 229.42260 231.52332 233.64704 235.81376 238.06447 240.42919
 243.04491 245.29062 247.28734 249.04706 250.45878 251.57649 252.39321 252.70393
 252.73565 252.50436 251.85908 250.80180 249.40252 247.55823 245.46195 243.28967
 241.07538 238.87410 236.68882 234.52254 232.37725 230.23897 228.25969 226.41141
 224.68912 223.15584 221.78056 220.54727 219.42399 218.37871 217.47743 216.61314
 215.84986 215.02458 214.11730 213.47601 212.92073 213.98433 216.49721 219.23912
 221.45900 222.98665 224.23807 225.64357 226.99794 227.76279 227.21802 225.68591
 225.10948 227.23358 231.34438 236.02046 240.68491 245.19946 249.46088 253.34863
 256.80728 259.98557 262.99905 265.85004 268.19806 270.08295 271.82251 273.50998
 275.27338 277.01489 278.56534 279.93475 281.12604 282.18991 283.16495 284.05939
 284.87616 285.62317 286.28119 287.21378
 366.78100 356.33050 345.75801 334.61951 323.01801 311.20752 299.07302 286.87152
 274.57903 262.47153 250.47603 239.77254 229.89004 220.98954 213.16705 206.16455
 199.99406 194.92756 191.50506 189.54257 188.57507 188.63457 189.46508 190.76858
 192.48908 194.57959 196.83809 199.19259 201.63310 204.10860 206.19210 208.02961
 209.65111 210.79161 211.01612 211.23962 211.17212 210.87263 210.50113 210.12663
 209.73914 209.44464 209.24814 209.10765 209.03115 209.35765 209.73916 210.12366
 210.91217 212.08567 213.33117 215.10968 217.03318 219.07168 221.16219 223.24069
 225.29619 227.37570 229.46820 231.56970 233.69421 235.86171 238.11321 240.47872
 243.09522 245.34172 247.33923 249.09973 250.51223 251.63074 252.44824 252.75974
 252.79225 252.56175 251.91725 250.86076 249.46226 247.61876 245.52327 243.35177
 241.13828 238.93778 236.75328 234.58779 232.44329 230.30579 228.32730 226.47980
 224.75830 223.22581 221.85131 220.61881 219.49632 218.45182 217.55132 216.68783
 215.92533 215.10083 214.19434 213.55384 212.99934 214.03801 216.49196 219.25916
 221.52310 223.05350 224.26918 225.65904 227.02773 227.77953 227.21503 225.68279
 225.08783 227.19289 231.31647 236.01131 240.66486 245.16008 249.41774 253.30969
 256.76740 259.93594 262.94174 265.79849 268.15472 270.04108 271.78296 273.47330
 275.19556 276.92120 278.46762 279.83716 281.02829 282.09128 283.06558 283.96103
 284.77811 285.52368 286.18350 287.11395
 366.78100 356.33128 345.75956 334.62183 323.02111 311.21139 299.07767 286.87695
 274.58522 262.47850 250.48378 239.78106 229.89934 220.99961 213.17789 206.17617
 200.00645 194.94073 191.51900 189.55728 188.59056 188.65084 189.48212 190.78639
 192.50767 194.59895 196.85823 199.21351 201.65478 204.13106 206.21534 208.05362
 209.67590 210.81717 211.04245 211.26673 211.20001 210.90129 210.53056 210.15684
 209.77012 209.47640 209.28067 209.14095 209.06523 209.39251 209.77479 210.16006
 210.94934 212.12362 213.36990 215.14918 217.07345 219.11273 221.20401 223.28329
 225.33957 227.41984 229.51312 231.61540 233.74068 235.90896 238.16123 240.52751
 243.14479 245.39207 247.39035 249.15162 250.56490 251.68418 252.50246 252.81474
 252.84801 252.61829 251.97457 250.91885 249.52113 247.67840 245.58368 243.41296
 241.20024 239.00052 236.81679 234.65207 232.50835 230.37163 228.39391 226.54718
 224.82646 223.29474 221.92102 220.68930 219.56757 218.52385 217.62413 216.76141
 215.99969 215.17596 214.27024 213.63052 213.07680 214.09050 216.48546 219.27899
 221.59337 223.10785 224.29532 225.66312 227.04228 227.80139 227.21968 225.70244
 225.09392 227.15152 231.28038 236.00037 240.64716 245.12495 249.37823 253.27206
 256.72763 259.88828 262.88599 265.74847 268.11395 270.00406 271.74393 273.42349
 275.11801 276.82678 278.36996 279.73901 280.92978 281.99176 282.96628 283.86005
 284.67712 285.42343 286.08423 287.00739
 366.78100 356.33198 345.76095 334.62393 323.02391 311.21488 299.08186 286.88184
 274.59081 262.48479 250.49077 239.78874 229.90772 221.00870 213.18767 206.18665
 200.01763 194.95260 191.53158 189.57056 188.60453 188.66551 189.49749 190.80246
 192.52444 194.61642 196.87639 199.23237 201.67435 204.15132 206.23630 208.07528
 209.69825 210.84023 211.06621 211.29118 211.22516 210.92714 210.55711 210.18409
 209.79807 209.50504 209.31002 209.17100 209.09597 209.42395 209.80693 210.19290
 210.98288 212.15786 213.40483 215.18481 217.10979 219.14976 221.24174 223.32172
 225.37869 227.45967 229.55365 231.65662 233.78260 235.95158 238.20455 240.57153
 243.18951 245.43748 247.43646 249.19844 250.61241 251.73239 252.55137 252.86434
 252.89832 252.66930 252.02627 250.97125 249.57423 247.73220 245.63818 243.46816
 241.25613 239.05711 236.87409 234.71006 232.56704 230.43102 228.45399 226.60797
 224.88795 223.35692 221.98390 220.75288 219.63185 218.58883 217.68981 216.82778
 216.06676 215.24374 214.33871 213.69969 213.14667 214.13840 216.48146 219.29417
 221.66615 223.16159 224.31375 225.65573 227.04338 227.82463 227.22885 225.72623
 225.11002 227.11765 231.24631 235.99237 240.63388 245.09430 249.34152 253.23563
 256.68976 259.84198 262.83188 265.69928 268.07309 269.96686 271.70374 273.37274
 275.03998 276.73126 278.27094 279.63910 280.82840 281.88815 282.86307 283.75677
 284.57224 285.31989 285.97672 286.90170
 366.78100 356.33261 345.76223 334.62584 323.02645 311.21806 299.08568 286.88629
 274.59590 262.49052 250.49713 239.79574 229.91536 221.01697 213.19658 206.19619
 200.02781 194.96342 191.54303 189.58265 188.61726 188.67887 189.51149 190.81710
 192.53971 194.63232 196.89294 199.24955 201.69216 204.16978 206.25539 208.09500
 209.71861 210.86123 211.08784 211.31345 211.24807 210.95068 210.58129 210.20891
 209.82352 209.53113 209.33674 209.19836 209.12397 209.45258 209.83620 210.22281
 211.01342 212.18904 213.43665 215.21726 217.14287 219.18349 221.27610 223.35671
 225.41433 227.49594 229.59055 231.69417 233.82078 235.99039 238.24400 240.61162
 243.23023 245.47884 247.47846 249.24107 250.65568 251.77629 252.59591 252.90952
 252.94413 252.71575 252.07336 251.01897 249.62259 247.78120 245.68781 243.51842
 241.30704 239.10865 236.92626 234.76288 232.62049 230.48510 228.50872 226.66333
 224.94394 223.41355 222.04117 220.81078 219.69039 218.64801 217.74962 216.88823
 216.12784 215.30546 214.40107 213.76268 213.21030 214.18292 216.48087 219.30795
 221.73320 223.21703 224.33029 225.64270 227.03093 227.83647 227.23827 225.75331
 225.13220 227.09555 231.22063 235.98875 240.62491 245.06789 249.30765 253.20131
 256.65479 259.79916 262.78107 265.65121 268.03210 269.92789 271.65985 273.31937
 274.96359 276.63791 278.17297 279.53979 280.72797 281.78888 282.76300 283.65433
 284.47034 285.21387 285.87326 286.79019
 366.78100 356.33320 345.76340 334.62760 323.02881 311.22101 299.08921 286.89041
 274.60061 262.49581 250.50301 239.80222 229.92242 221.02462 213.20482 206.20502
 200.03722 194.97343 191.55363 189.59383 188.62903 188.69123 189.52443 190.83063
 192.55384 194.64704 196.90824 199.26544 201.70864 204.18684 206.27304 208.11325
 209.73745 210.88065 211.10785 211.33405 211.26925 210.97246 210.60366 210.23186
 209.84706 209.55526 209.36146 209.22366 209.14987 209.47907 209.86327 210.25047
 211.04167 212.21787 213.46607 215.24728 217.17348 219.21468 221.30788 223.38908
 225.44728 227.52949 229.62469 231.72889 233.85609 236.02629 238.28049 240.64869
 243.26790 245.51710 247.51730 249.28050 250.69570 251.81690 252.63710 252.95131
 252.98651 252.75871 252.11691 251.06311 249.66731 247.82652 245.73372 243.56492
 241.35412 239.15632 236.97452 234.81172 232.66993 230.53513 228.55933 226.71453
 224.99573 223.46593 222.09413 220.86434 219.74454 218.70274 217.80494 216.94414
 216.18434 215.36255 214.45875 213.82095 213.26915 214.22519 216.48392 219.31969
 221.79427 223.27408 224.34882 225.62848 227.00627 227.82933 227.24283 225.78520
 225.16383 227.08643 231.20406 235.98994 240.62067 245.04626 249.27872 253.17166
 256.62363 259.75949 262.73163 265.60190 267.98865 269.88754 271.61481 273.26529
 274.89227 276.54611 278.07425 279.43973 280.62808 281.68597 282.65915 283.54822
 284.36374 285.10382 285.76117 286.67352
 366.78100 356.33373 345.76447 334.62920 323.03094 311.22367 299.09241 286.89414
 274.60487 262.50061 250.50834 239.80808 229.92881 221.03155 213.21228 206.21302
 200.04575 194.98248 191.56322 189.60395 188.63969 188.70242 189.53616 190.84289
 192.56662 194.66036 196.92209 199.27983 201.72356 204.20230 206.28903 208.12976
 209.75450 210.89823 211.12597 211.35270 211.28844 210.99217 210.62390 210.25264
 209.86837 209.57711 209.38384 209.24658 209.17331 209.50305 209.88778 210.27551
 211.06725 212.24398 213.49272 215.27445 217.20119 219.24292 221.33665 223.41839
 225.47712 227.55986 229.65559 231.76033 233.88806 236.05879 238.31353 240.68226
 243.30200 245.55173 247.55247 249.31620 250.73193 251.85367 252.67440 252.98914
 253.02487 252.79761 252.15634 251.10308 249.70781 247.86754 245.77528 243.60701
 241.39675 239.19948 237.01822 234.85595 232.71468 230.58042 228.60515 226.76089
 225.04262 223.51336 222.14209 220.91282 219.79356 218.75229 217.85503 216.99476
 216.23550 215.41423 214.51096 213.87370 213.32243 214.26482 216.49133 219.32663
 221.84866 223.33438 224.37221 225.61493 226.97015 227.80075 227.23889 225.82391
 225.20749 227.08887 231.19597 235.99506 240.62123 245.03218 249.25732 253.14815
 256.59689 259.72290 262.68378 265.54962 267.93814 269.83856 271.56165 273.20529
 274.82254 276.46112 277.98538 279.34903 280.53598 281.59525 282.56537 283.45612
 284.27185 285.01501 285.67523 286.58127
 366.78100 356.33421 345.76541 334.63062 323.03283 311.22604 299.09524 286.89745
 274.60866 262.50486 250.51307 239.81328 229.93448 221.03769 213.21890 206.22011
 200.05331 194.99052 191.57173 189.61293 188.64914 188.71235 189.54656 190.85376
 192.57797 194.67218 196.93438 199.29259 201.73680 204.21600 206.30321 208.14442
 209.76963 210.91383 211.14204 211.36925 211.30545 211.00966 210.64187 210.27108
 209.88728 209.59649 209.40370 209.26690 209.19411 209.52432 209.90952 210.29773
 211.08994 212.26715 213.51635 215.29856 217.22577 219.26797 221.36218 223.44439
 225.50359 227.58680 229.68301 231.78822 233.91642 236.08763 238.34284 240.71204
 243.33225 245.58246 247.58367 249.34787 250.76408 251.88629 252.70749 253.02270
 253.05891 252.83211 252.19132 251.13853 249.74374 247.90394 245.81215 243.64436
 241.43456 239.23777 237.05698 234.89519 232.75439 230.62060 228.64581 226.80201
 225.08422 223.55543 222.18463 220.95584 219.83705 218.79626 217.89946 217.03967
 216.28088 215.46008 214.55729 213.92050 213.36971 214.30135 216.50246 219.33099
 221.89473 223.39642 224.40443 225.60646 226.92671 227.74704 227.21664 225.86412
 225.26454 227.10333 231.19591 236.00574 240.62956 245.02840 249.24501 253.13156
 256.57489 259.68982 262.63797 265.49609 267.88409 269.78418 271.50220 273.14169
 274.75546 276.37711 277.89645 279.25995 280.44513 281.50290 282.47070 283.36200
 284.17706 284.92685 285.59100 286.47528
 366.78100 356.33464 345.76629 334.63193 323.03457 311.22822 299.09786 286.90050
 274.61215 262.50879 250.51743 239.81808 229.93972 221.04336 213.22501 206.22665
 200.06030 194.99794 191.57958 189.62123 188.65787 188.72151 189.55616 190.86380
 192.58844 194.68309 196.94573 199.30437 201.74902 204.22866 206.31630 208.15795
 209.78359 210.92823 211.15688 211.38452 211.32116 211.02581 210.65845 210.28809
 209.90474 209.61438 209.42203 209.28567 209.21331 209.54396 209.92960 210.31824
 211.11089 212.28853 213.53817 215.32082 217.24846 219.29110 221.38575 223.46839
 225.52803 227.61168 229.70832 231.81396 233.94261 236.11425 238.36989 240.73954
 243.36018 245.61082 247.61247 249.37711 250.79375 251.91640 252.73804 253.05369
 253.09033 252.86397 252.22362 251.17126 249.77690 247.93755 245.84619 243.67883
 241.46948 239.27312 237.09276 234.93141 232.79105 230.65769 228.68334 226.83998
 225.12262 223.59427 222.22391 220.99555 219.87720 218.83684 217.94048 217.08113
 216.32277 215.50241 214.60006 213.96370 213.41335 214.33609 216.51614 219.33356
 221.93648 223.46033 224.43774 225.59633 226.87642 227.67847 227.18164 225.89230
 225.31247 227.12628 231.20511 236.02097 240.65048 245.04068 249.24643 253.12679
 256.56256 259.66553 262.59680 265.44241 267.82129 269.71350 271.42023 273.05460
 274.67139 276.29514 277.81674 279.18011 280.36713 281.42139 282.38635 283.27493
 284.09448 284.85510 285.50479 286.38159
 366.78100 356.33501 345.76702 334.63302 323.03603 311.23004 299.10005 286.90305
 274.61506 262.51207 250.52108 239.82208 229.94409 221.04810 213.23011 206.23211
 200.06612 195.00413 191.58614 189.62814 188.66515 188.72916 189.56417 190.87217
 192.59718 194.69219 196.95520 199.31420 201.75921 204.23922 206.32723 208.16923
 209.79524 210.94025 211.16926 211.39726 211.33427 211.03928 210.67229 210.30229
 209.91930 209.62931 209.43732 209.30132 209.22933 209.56034 209.94635 210.33535
 211.12836 212.30637 213.55638 215.33938 217.26739 219.31040 221.40541 223.48841
 225.54842 227.63243 229.72944 231.83544 233.96445 236.13646 238.39247 240.76247
 243.38348 245.63449 247.63650 249.40150 250.81851 251.94152 252.76353 253.07953
 253.11654 252.89055 252.25056 251.19856 249.80457 247.96558 245.87459 243.70759
 241.49860 239.30261 237.12262 234.96162 232.82163 230.68864 228.71465 226.87165
 225.15466 223.62667 222.25668 221.02869 219.91069 218.87070 217.97471 217.11572
 216.35772 215.53773 214.63574 213.99975 213.44975 214.36656 216.53264 219.33820
 221.96126 223.52527 224.48819 225.59674 226.81920 227.58112 227.12596 225.92378
 225.37410 227.14378 231.21568 236.04677 240.67368 245.05602 249.25050 253.12154
 256.55057 259.64224 262.56293 265.40039 267.78604 269.68414 271.38214 273.01111
 274.62375 276.20468 277.68430 279.03082 280.21051 281.25925 282.21454 283.09515
 283.92957 284.71039 285.34778 286.21634
 366.78100 356.33506 345.76712 334.63319 323.03625 311.23031 299.10037 286.90344
 274.61550 262.51256 250.52162 239.82269 229.94475 221.04881 213.23087 206.23294
 200.06700 195.00506 191.58712 189.62919 188.66625 188.73031 189.56537 190.87344
 192.59850 194.69356 196.95662 199.31569 201.76075 204.24081 206.32887 208.17094
 209.79700 210.94206 211.17112 211.39919 211.33625 211.04131 210.67437 210.30444
 209.92150 209.63156 209.43962 209.30369 209.23175 209.56281 209.94887 210.33794
 211.13100 212.30906 213.55912 215.34219 217.27025 219.31331 221.40837 223.49144
 225.55150 227.63556 229.73262 231.83869 233.96775 236.13981 238.39587 240.76593
 243.38700 245.63806 247.64012 249.40518 250.82225 251.94531 252.76737 253.08343
 253.12050 252.89456 252.25462 251.20268 249.80875 247.96981 245.87887 243.71193
 241.50300 239.30706 237.12712 234.96618 232.82625 230.69331 228.71937 226.87643
 225.15950 223.63156 222.26162 221.03368 219.91575 218.87581 217.97987 217.12093
 216.36300 215.54306 214.64112 214.00518 213.45525 214.38016 216.56538 219.34003
 221.96715 223.58409 224.55057 225.61903 226.78116 227.48662 227.04387 225.88890
 225.38239 227.19252 231.23686 236.05855 240.72084 245.10323 249.28157 253.14458
 256.56305 259.63977 262.53424 265.35013 267.71671 269.59839 271.27835 272.89600
 274.50574 276.13483 277.65167 279.01413 280.20035 281.26147 282.24979 283.15955
 283.98230 284.69797 285.32510 286.18509
 366.78100 356.33541 345.76781 334.63422 323.03762 311.23203 299.10243 286.90584
 274.61825 262.51565 250.52506 239.82646 229.94887 221.05328 213.23568 206.23809
 200.07249 195.01090 191.59330 189.63571 188.67312 188.73752 189.57293 190.88133
 192.60674 194.70214 196.96555 199.32496 201.77036 204.25077 206.33917 208.18158
 209.80799 210.95339 211.18280 211.41120 211.34861 211.05401 210.68742 210.31783
 209.93523 209.64564 209.45404 209.31845 209.24685 209.57826 209.96467 210.35407
 211.14748 212.32588 213.57629 215.35969 217.28810 219.33151 221.42691 223.51032
 225.57072 227.65513 229.75254 231.85894 233.98835 236.16075 238.41716 240.78756
 243.40897 245.66038 247.66278 249.42819 250.84559 251.96900 252.79140 253.10781
 253.14522 252.91962 252.28003 251.22843 249.83484 247.99625 245.90565 243.73906
 241.53046 239.33487 237.15527 234.99468 232.85509 230.72249 228.74890 226.90630
 225.18971 223.66211 222.29252 221.06493 219.94733 218.90774 218.01214 217.15355
 216.39596 215.57636 214.67477 214.03917 213.48958 214.41008 216.58490 219.34087
 221.98917 223.63683 224.59093 225.63330 226.74657 227.40996 226.98663 225.85527
 225.35925 227.16231 231.27875 236.14049 240.78416 245.17024 249.32614 253.16411
 256.57471 259.62997 262.50217 265.28192 267.62231 269.49060 271.15128 272.77768
 274.40912 276.01270 277.52164 278.88431 280.07019 281.13058 282.12988 283.02060
 283.71292 284.36526 284.95007 285.68732
 366.78100 356.33675 345.77051 334.63826 323.04302 311.23877 299.11053 286.91528
 274.62904 262.52779 250.53855 239.84130 229.96506 221.07081 213.25457 206.25832
 200.09408 195.03383 191.61759 189.66134 188.70010 188.76585 189.60261 190.91236
 192.63912 194.73587 197.00063 199.36138 201.80814 204.28989 206.37965 208.22340
 209.85116 210.99791 211.22867 211.45842 211.39718 211.10393 210.73869 210.37044
 209.98920 209.70095 209.51071 209.37646 209.30622 209.63897 210.02673 210.41748
 211.21224 212.39199 213.64375 215.42850 217.35826 219.40301 221.49977 223.58452
 225.64628 227.73203 229.83079 231.93854 234.06930 236.24305 238.50081 240.87256
 243.49532 245.74807 247.75183 249.51858 250.93734 252.06209 252.88585 253.20360
 253.24236 253.01811 252.37987 251.32962 249.93738 248.10013 246.01089 243.84564
 241.63840 239.44415 237.26591 235.10666 232.96842 230.83717 228.86493 227.02368
 225.30844 223.78219 222.41395 221.18770 220.07146 219.03321 218.13897 217.28172
 216.52548 215.70723 214.80699 214.17274 213.62450 214.49643 216.55643 219.32329
 222.05627 223.70352 224.60362 225.58658 226.65045 227.30463 226.94901 225.91978
 225.42435 227.17447 231.26724 236.14748 240.81100 245.20419 249.36153 253.19530
 256.60483 259.65250 262.51248 265.28024 267.60382 269.39838 271.03314 272.61337
 274.24948 275.89944 277.38171 278.65601 279.73441 280.78305 281.74960 282.55637
 283.18854 283.85031 284.47360 285.28561
 366.78100 356.33737 345.77174 334.64012 323.04549 311.24186 299.11423 286.91960
 274.63398 262.53335 250.54472 239.84809 229.97246 221.07883 213.26321 206.26758
 200.10395 195.04432 191.62869 189.67307 188.71244 188.77881 189.61618 190.92655
 192.65393 194.75130 197.01667 199.37804 201.82541 204.30778 206.39816 208.24253
 209.87090 211.01827 211.24964 211.48002 211.41939 211.12676 210.76213 210.39450
 210.01388 209.72625 209.53662 209.40299 209.33336 209.66673 210.05511 210.44648
 211.24185 212.42222 213.67459 215.45997 217.39034 219.43571 221.53308 223.61845
 225.68083 227.76720 229.86657 231.97494 234.10631 236.28068 238.53906 240.91143
 243.53480 245.78817 247.79254 249.55992 250.97929 252.10466 252.92903 253.24740
 253.28678 253.06315 252.42552 251.37589 249.98426 248.14763 246.05901 243.89438
 241.68775 239.49412 237.31649 235.15787 233.02024 230.88961 228.91798 227.07735
 225.36273 223.83710 222.46947 221.24384 220.12821 219.09058 218.19696 217.34033
 216.58470 215.76707 214.86744 214.23382 213.68619 214.54869 216.60210 219.24706
 222.05896 223.63864 224.47952 225.51770 226.63495 227.31694 226.91220 226.11795
 225.35951 227.09288 231.18634 236.14526 240.86745 245.25525 249.41280 253.23570
 256.65039 259.70746 262.56647 265.26700 267.55896 269.39224 270.93967 272.56314
 274.14557 275.69092 277.08929 278.22003 279.20944 280.20514 281.16006 282.04190
 282.85886 283.59128 284.23114 285.04654
 366.78100 356.33629 345.76958 334.63688 323.04117 311.23646 299.10775 286.91204
 274.62533 262.52363 250.53392 239.83621 229.95950 221.06479 213.24809 206.25138
 200.08667 195.02596 191.60925 189.65255 188.69084 188.75613 189.59242 190.90171
 192.62800 194.72430 196.98859 199.34888 201.79517 204.27646 206.36576 208.20905
 209.83634 210.98263 211.21292 211.44222 211.38051 211.08680 210.72109 210.35238
 209.97067 209.68197 209.49126 209.35655 209.28584 209.61813 210.00543 210.39572
 211.19001 212.36930 213.62059 215.40488 217.33418 219.37847 221.47476 223.55905
 225.62034 227.70564 229.80393 231.91122 234.04151 236.21480 238.47210 240.84339
 243.46568 245.71797 247.72126 249.48755 250.90585 252.03014 252.85343 253.17072
 253.20901 252.98431 252.34560 251.29489 249.90218 248.06447 245.97477 243.80906
 241.60135 239.40664 237.22793 235.06822 232.92952 230.79781 228.82510 226.98339
 225.26768 223.74098 222.37227 221.14556 220.02885 218.99014 218.09543 217.23773
 216.48102 215.66231 214.76160 214.12689 213.57819 214.51100 216.75786 219.21918
 221.87419 223.43884 224.42993 225.62621 226.80234 227.41856 226.85333 226.29387
 225.15437 227.07198 231.18639 236.10150 240.84218 245.27628 249.42041 253.21965
 256.62918 259.70612 262.59903 265.31348 267.62473 269.45633 271.00833 272.51846
 274.09186 275.62628 276.88657 278.02957 279.23291 280.34674 281.52151 282.59470
 283.55994 284.41946 285.17032 286.12723
 366.78100 356.33564 345.76828 334.63492 323.03856 311.23320 299.10384 286.90748
 274.62012 262.51776 250.52740 239.82904 229.95168 221.05632 213.23896 206.24160
 200.07624 195.01488 191.59752 189.64016 188.67780 188.74244 189.57808 190.88672
 192.61236 194.70800 196.97164 199.33128 201.77692 204.25756 206.34620 208.18884
 209.81549 210.96113 211.19077 211.41941 211.35705 211.06269 210.69633 210.32697
 209.94461 209.65525 209.46389 209.32853 209.25717 209.58881 209.97545 210.36509
 211.15873 212.33737 213.58801 215.37165 217.30029 219.34393 221.43957 223.52321
 225.58385 227.66849 229.76613 231.87277 234.00241 236.17505 238.43169 240.80233
 243.42397 245.67561 247.67825 249.44389 250.86153 251.98517 252.80781 253.12445
 253.16209 252.93673 252.29737 251.24601 249.85265 248.01429 245.92393 243.75757
 241.54921 239.35385 237.17449 235.01413 232.87477 230.74241 228.76905 226.92669
 225.21033 223.68297 222.31361 221.08625 219.96889 218.92953 218.03417 217.17581
 216.41846 215.59910 214.69774 214.06238 213.51302 214.48538 216.82010 219.28937
 221.67819 223.42863 224.59816 225.78641 226.71896 227.20293 226.84225 226.17917
 225.17484 227.11882 231.21349 236.08641 240.85745 245.27669 249.40010 253.17317
 256.56778 259.65607 262.56726 265.31555 267.68579 269.57062 271.13477 272.61108
 274.13998 275.64322 276.97937 278.28934 279.49667 280.59714 281.66260 282.64676
 283.53192 284.32016 285.00873 285.88626
 366.78100 356.33711 345.77121 334.63932 323.04443 311.24053 299.11264 286.91775
 274.63185 262.53096 250.54207 239.84517 229.96928 221.07538 213.25949 206.26360
 200.09970 195.03981 191.62392 189.66802 188.70713 188.77324 189.61034 190.92045
 192.64756 194.74466 197.00977 199.37088 201.81798 204.30009 206.39020 208.23430
 209.86241 211.00952 211.24062 211.47073 211.40983 211.11694 210.75205 210.38415
 210.00326 209.71537 209.52547 209.39158 209.32169 209.65479 210.04290 210.43401
 211.22911 212.40922 213.66133 215.44643 217.37654 219.42165 221.51875 223.60386
 225.66597 227.75207 229.85118 231.95929 234.09039 236.26450 238.52260 240.89471
 243.51782 245.77092 247.77503 249.54214 250.96124 252.08635 252.91046 253.22856
 253.26767 253.04378 252.40588 251.35599 249.96410 248.12720 246.03831 243.87342
 241.66652 239.47263 237.29474 235.13584 232.99795 230.86705 228.89516 227.05427
 225.33937 223.81348 222.44559 221.21969 220.10380 219.06591 218.17201 217.31512
 216.55923 215.74133 214.84144 214.20755 213.65965 214.56644 216.75563 219.41757
 221.59093 223.44478 224.82297 225.76727 226.51105 226.99387 226.84418 226.09044
 225.28339 227.16948 231.24718 236.10100 240.87332 245.30817 249.40234 253.15080
 256.50583 259.55917 262.47357 265.23917 267.62842 269.53101 271.08554 272.53589
 274.03885 275.51666 276.84909 278.07382 279.27438 280.35873 281.36224 282.30911
 283.16071 283.91907 284.58154 285.42581
 366.78100 356.33769 345.77238 334.64107 323.04676 311.24345 299.11614 286.92183
 274.63653 262.53622 250.54791 239.85160 229.97629 221.08298 213.26767 206.27236
 200.10905 195.04974 191.63443 189.67912 188.71881 188.78550 189.62319 190.93388
 192.66158 194.75927 197.02496 199.38665 201.83434 204.31703 206.40772 208.25241
 209.88110 211.02879 211.26048 211.49117 211.43086 211.13855 210.77424 210.40693
 210.02663 209.73932 209.55001 209.41670 209.34739 209.68108 210.06977 210.46146
 211.25715 212.43784 213.69053 215.47622 217.40691 219.45260 221.55029 223.63598
 225.69868 227.78537 229.88506 231.99375 234.12544 236.30013 238.55882 240.93151
 243.55520 245.80889 247.81358 249.58127 251.00096 252.12665 252.95134 253.27003
 253.30973 253.08642 252.44911 251.39980 250.00849 248.17218 246.08387 243.91956
 241.71325 239.51994 237.34263 235.18432 233.04701 230.91670 228.94539 227.10509
 225.39078 223.86547 222.49816 221.27285 220.15754 219.12023 218.22692 217.37061
 216.61530 215.79799 214.89868 214.26537 213.71806 214.61172 216.79535 219.40669
 221.65698 223.45872 224.93872 225.76619 226.46898 226.93192 226.78905 226.08315
 225.44098 227.33681 231.33751 236.14766 240.90335 245.34695 249.47264 253.20650
 256.52814 259.53448 262.40884 265.15164 267.53522 269.47260 271.07663 272.51639
 273.99930 275.43204 276.76453 278.11551 279.36841 280.56711 281.68234 282.69269
 283.60135 284.41055 285.11743 286.01828
 366.78100 356.33642 345.76983 334.63725 323.04166 311.23708 299.10850 286.91291
 274.62633 262.52475 250.53516 239.83758 229.96099 221.06641 213.24983 206.25324
 200.08866 195.02808 191.61149 189.65491 188.69332 188.75874 189.59516 190.90457
 192.63099 194.72741 196.99182 199.35224 201.79865 204.28007 206.36949 208.21290
 209.84032 210.98674 211.21715 211.44657 211.38498 211.09140 210.72582 210.35723
 209.97565 209.68706 209.49648 209.36190 209.29131 209.62373 210.01115 210.40156
 211.19598 212.37539 213.62681 215.41123 217.34064 219.38506 221.48148 223.56589
 225.62731 227.71272 229.81114 231.91856 234.04897 236.22239 238.47981 240.85122
 243.47364 245.72605 247.72947 249.49589 250.91430 252.03872 252.86214 253.17955
 253.21797 252.99338 252.35480 251.30422 249.91163 248.07405 245.98447 243.81888
 241.61130 239.41671 237.23813 235.07855 232.93996 230.80838 228.83579 226.99421
 225.27863 223.75204 222.38346 221.15688 220.04029 219.00171 218.10712 217.24954
 216.49296 215.67437 214.77379 214.13921 213.59062 214.56248 216.91135 219.33009
 221.73633 223.42741 224.87195 225.85130 226.56932 226.91081 226.71335 225.91006
 225.42055 227.37195 231.39287 236.20341 240.96861 245.41620 249.53270 253.26416
 256.55957 259.57556 262.42813 265.12198 267.48505 269.47226 271.16162 272.64938
 274.08966 275.47229 276.92743 278.32465 279.62091 280.86520 282.00159 283.03107
 283.95697 284.78149 285.50177 286.41971
 366.78100 356.33680 345.77060 334.63840 323.04320 311.23900 299.11080 286.91560
 274.62939 262.52819 250.53899 239.84179 229.96559 221.07139 213.25519 206.25899
 200.09479 195.03459 191.61839 189.66219 188.70099 188.76679 189.60359 190.91339
 192.64018 194.73698 197.00178 199.36258 201.80938 204.29118 206.38098 208.22478
 209.85258 210.99938 211.23018 211.45998 211.39878 211.10558 210.74038 210.37218
 209.99097 209.70277 209.51257 209.37837 209.30817 209.64097 210.02877 210.41957
 211.21437 212.39417 213.64597 215.43077 217.36057 219.40537 221.50217 223.58697
 225.64876 227.73456 229.83336 231.94116 234.07196 236.24576 238.50356 240.87536
 243.49816 245.75096 247.75476 249.52156 250.94036 252.06516 252.88896 253.20676
 253.24555 253.02135 252.38315 251.33295 249.94075 248.10355 246.01435 243.84915
 241.64195 239.44775 237.26955 235.11035 232.97215 230.84095 228.86875 227.02754
 225.31234 223.78614 222.41794 221.19174 220.07554 219.03734 218.14314 217.28594
 216.52974 215.71154 214.81134 214.17714 213.62894 214.59500 216.93504 219.33755
 221.74988 223.40735 224.84961 226.00455 226.65196 226.82153 226.56926 225.82745
 225.44553 227.43428 231.43390 236.23491 241.01044 245.45265 249.55135 253.27405
 256.56067 259.60727 262.45715 265.10120 267.43616 269.38602 271.03616 272.53995
 273.96988 275.53989 277.11191 278.55151 279.89499 281.14594 282.28723 283.32117
 284.25107 285.07916 285.80255 286.72443
 366.78100 356.33787 345.77274 334.64161 323.04748 311.24435 299.11722 286.92309
 274.63796 262.53783 250.54970 239.85357 229.97844 221.08531 213.27019 206.27506
 200.11193 195.05280 191.63767 189.68254 188.72241 188.78928 189.62715 190.93802
 192.66589 194.76376 197.02963 199.39150 201.83937 204.32224 206.41311 208.25798
 209.88685 211.03472 211.26659 211.49746 211.43733 211.14520 210.78107 210.41394
 210.03382 209.74669 209.55756 209.42443 209.35530 209.68917 210.07804 210.46991
 211.26578 212.44665 213.69952 215.48539 217.41626 219.46213 221.56000 223.64587
 225.70874 227.79561 229.89548 232.00435 234.13622 236.31109 238.56996 240.94283
 243.56670 245.82057 247.82545 249.59332 251.01319 252.13906 252.96393 253.28280
 253.32267 253.09954 252.46241 251.41328 250.02215 248.18602 246.09789 243.93376
 241.72763 239.53450 237.35737 235.19924 233.06211 230.93198 228.96085 227.12072
 225.40659 223.88146 222.51433 221.28920 220.17408 219.13695 218.24382 217.38769
 216.63256 215.81543 214.91630 214.28317 213.73604 214.66452 216.94551 219.36678
 221.72385 223.54616 225.00755 226.02895 226.56821 226.68787 226.51332 225.80725
 225.53218 227.50830 231.46280 236.24995 241.02078 245.46529 249.55702 253.25229
 256.54031 259.60562 262.48370 265.14978 267.46753 269.38318 270.98932 272.42191
 273.96661 275.76190 277.40198 279.02029 280.47171 281.75583 282.92737 283.98874
 284.94330 285.79337 286.53595 287.48227
 366.78100 356.33838 345.77376 334.64314 323.04952 311.24690 299.12028 286.92666
 274.64204 262.54242 250.55480 239.85918 229.98455 221.09193 213.27731 206.28269
 200.12007 195.06145 191.64683 189.69221 188.73259 188.79997 189.63835 190.94973
 192.67811 194.77649 197.04287 199.40525 201.85363 204.33701 206.42839 208.27377
 209.90315 211.05153 211.28391 211.51528 211.45566 211.16404 210.80042 210.43380
 210.05418 209.76756 209.57894 209.44632 209.37770 209.71208 210.10146 210.49384
 211.29022 212.47160 213.72498 215.51136 217.44274 219.48912 221.58750 223.67388
 225.73726 227.82464 229.92501 232.03439 234.16677 236.34215 238.60153 240.97491
 243.59929 245.85367 247.85905 249.62743 251.04781 252.17419 252.99957 253.31895
 253.35933 253.13671 252.50009 251.45147 250.06085 248.22523 246.13761 243.97399
 241.76837 239.57574 237.39912 235.24150 233.10488 230.97526 229.00464 227.16502
 225.45140 223.92678 222.56016 221.33554 220.22092 219.18430 218.29168 217.43606
 216.68144 215.86482 214.96620 214.33358 213.78696 214.70311 216.96014 219.37337
 221.72081 223.54306 225.06172 226.00146 226.48885 226.60548 226.48477 225.79610
 225.55577 227.51538 231.48058 236.25897 241.02896 245.47910 249.54642 253.21571
 256.49673 259.54575 262.42990 265.14029 267.53555 269.56665 271.25076 272.70145
 274.16458 275.98599 277.65363 279.32095 280.79135 282.09225 283.27914 284.35440
 285.32144 286.18262 286.93491 287.89365
 366.78100 356.33817 345.77334 334.64251 323.04867 311.24584 299.11901 286.92518
 274.64035 262.54052 250.55268 239.85685 229.98202 221.08919 213.27436 206.27953
 200.11669 195.05786 191.64303 189.68820 188.72837 188.79554 189.63370 190.94487
 192.67304 194.77121 197.03738 199.39955 201.84771 204.33088 206.42205 208.26722
 209.89639 211.04456 211.27673 211.50789 211.44806 211.15623 210.79240 210.42557
 210.04574 209.75890 209.57007 209.43724 209.36841 209.70258 210.09175 210.48391
 211.28008 212.46125 213.71442 215.50059 217.43176 219.47792 221.57609 223.66226
 225.72543 227.81260 229.91277 232.02193 234.15410 236.32927 238.58844 240.96161
 243.58578 245.83995 247.84511 249.61328 251.03345 252.15962 252.98479 253.30396
 253.34412 253.12129 252.48446 251.43563 250.04480 248.20897 246.12113 243.95730
 241.75147 239.55864 237.38181 235.22398 233.08714 230.95731 228.98648 227.14665
 225.43282 223.90799 222.54115 221.31632 220.20149 219.16466 218.27183 217.41600
 216.66117 215.84433 214.94550 214.31267 213.76584 214.70015 216.98087 219.36241
 221.71512 223.42032 225.03748 226.06027 226.45943 226.50093 226.37366 225.72226
 225.62708 227.56061 231.51390 236.27594 241.04060 245.49242 249.56546 253.23663
 256.49673 259.48996 262.34305 264.99792 267.39151 269.48608 271.31778 272.89111
 274.35361 276.14072 277.75656 279.28629 280.71207 281.97351 283.12439 284.16699
 285.10471 285.93976 286.66925 287.59888
 366.78100 356.33794 345.77289 334.64183 323.04778 311.24472 299.11767 286.92361
 274.63856 262.53850 250.55045 239.85439 229.97934 221.08628 213.27123 206.27617
 200.11312 195.05406 191.63901 189.68395 188.72390 188.79084 189.62879 190.93973
 192.66768 194.76562 197.03157 199.39351 201.84146 204.32440 206.41535 208.26029
 209.88924 211.03718 211.26912 211.50007 211.44001 211.14796 210.78390 210.41685
 210.03679 209.74974 209.56068 209.42763 209.35857 209.69252 210.08146 210.47341
 211.26935 212.45030 213.70324 215.48919 217.42013 219.46608 221.56402 223.64997
 225.71291 227.79986 229.89980 232.00875 234.14069 236.31564 238.57458 240.94753
 243.57147 245.82541 247.83036 249.59830 251.01825 252.14419 252.96914 253.28808
 253.32803 253.10497 252.46792 251.41886 250.02781 248.19175 246.10370 243.93964
 241.73359 239.54053 237.36348 235.20542 233.06837 230.93831 228.96726 227.12720
 225.41315 223.88809 222.52104 221.29598 220.18093 219.14387 218.25082 217.39476
 216.63971 215.82265 214.92359 214.29054 213.74348 214.69275 216.99957 219.38264
 221.63739 223.37437 224.97838 226.05305 226.41040 226.42839 226.34779 225.60115
 225.63864 227.59169 231.54306 236.28624 241.04831 245.49957 249.57436 253.26335
 256.54700 259.52576 262.34299 264.93613 267.22531 269.24329 271.09824 272.79398
 274.46301 276.22598 277.81876 279.26901 280.62164 281.85037 282.97144 283.98703
 284.90045 285.71384 286.42441 287.32996
 366.78100 356.33914 345.77527 334.64541 323.05254 311.25068 299.12481 286.93195
 274.64809 262.54922 250.56236 239.86749 229.99363 221.10177 213.28790 206.29404
 200.13217 195.07431 191.66044 189.70658 188.74772 188.81585 189.65499 190.96712
 192.69626 194.79539 197.06253 199.42567 201.87480 204.35894 206.45107 208.29721
 209.92735 211.07648 211.30962 211.54175 211.48289 211.19202 210.82916 210.46330
 210.08443 209.79857 209.61070 209.47884 209.41097 209.74611 210.13625 210.52938
 211.32652 212.50865 213.76279 215.54993 217.48206 219.52920 221.62833 223.71547
 225.77960 227.86774 229.96888 232.07901 234.21215 236.38828 238.64842 241.02255
 243.64769 245.90283 247.90896 249.67810 251.09923 252.22637 253.05251 253.37264
 253.41378 253.19191 252.55605 251.50818 250.11832 248.28346 246.19659 244.03373
 241.82886 239.63700 237.46114 235.30427 233.16841 231.03954 229.06968 227.23081
 225.51795 223.99409 222.62822 221.40436 220.29049 219.25463 218.36276 217.50790
 216.75404 215.93817 215.04031 214.40844 213.86258 214.76193 216.96634 219.42294
 221.63615 223.33578 224.91245 225.99396 226.35446 226.38126 226.30620 225.59137
 225.65970 227.64731 231.56232 236.29193 241.05403 245.50476 249.58195 253.28433
 256.58112 259.56134 262.34967 264.95425 267.24234 269.17865 270.93228 272.65671
 274.44797 276.24707 277.83203 279.26562 280.60355 281.81717 282.92444 283.92752
 284.82971 285.63309 286.33490 287.22931
 366.78100 356.34120 345.77941 334.65161 323.06081 311.26101 299.13722 286.94642
 274.66462 262.56782 250.58303 239.89023 230.01843 221.12863 213.31684 206.32504
 200.16524 195.10944 191.69765 189.74585 188.78905 188.85925 189.70046 191.01466
 192.74586 194.84706 197.11627 199.48147 201.93267 204.41888 206.51308 208.36128
 209.99348 211.14469 211.37989 211.61409 211.55729 211.26850 210.90770 210.54390
 210.16710 209.88331 209.69751 209.56771 209.50191 209.83912 210.23132 210.62652
 211.42572 212.60993 213.86613 215.65533 217.58954 219.63874 221.73994 223.82914
 225.89535 227.98555 230.08875 232.20095 234.33616 236.51436 238.77656 241.15276
 243.77997 246.03717 248.04537 249.81657 251.23978 252.36898 253.19718 253.51938
 253.56259 253.34279 252.70899 251.66319 250.27540 248.44260 246.35780 244.19701
 241.99421 239.80441 237.63061 235.47582 233.34202 231.21522 229.24742 227.41063
 225.69983 224.17803 222.81423 221.59244 220.48064 219.44684 218.55704 217.70425
 216.95245 216.13865 215.24285 214.61306 214.06926 214.88409 216.95105 219.44362
 221.68088 223.45772 225.01605 225.95483 226.27940 226.31186 226.23277 225.58167
 225.66554 227.71701 231.55768 236.27644 241.05011 245.51013 249.59735 253.30847
 256.62241 259.60406 262.35007 264.92233 267.19098 269.14362 270.92151 272.69540
 274.63449 276.48709 278.24539 279.89618 281.32480 282.58878 283.74194 284.78665
 285.72623 286.56296 287.29388 288.22537
 366.78100 356.34156 345.78013 334.65269 323.06226 311.26282 299.13939 286.94895
 274.66751 262.57108 250.58664 239.89421 230.02277 221.13333 213.32190 206.33046
 200.17103 195.11559 191.70416 189.75272 188.79628 188.86685 189.70841 191.02298
 192.75454 194.85611 197.12567 199.49123 201.94280 204.42936 206.52393 208.37249
 210.00506 211.15662 211.39218 211.62675 211.57031 211.28188 210.92144 210.55800
 210.18157 209.89813 209.71270 209.58326 209.51783 209.85539 210.24795 210.64352
 211.44308 212.62765 213.88421 215.67378 217.60834 219.65790 221.75947 223.84903
 225.91560 228.00616 230.10973 232.22229 234.35785 236.53642 238.79898 241.17555
 243.80311 246.06067 248.06924 249.84080 251.26437 252.39393 253.22250 253.54506
 253.58862 253.36919 252.73575 251.69032 250.30288 248.47045 246.38601 244.22557
 242.02314 239.83370 237.66027 235.50583 233.37240 231.24596 229.27852 227.44209
 225.73165 224.21022 222.84678 221.62534 220.51391 219.48047 218.59104 217.73860
 216.98717 216.17373 215.27829 214.64886 214.10542 214.91905 217.00664 219.42664
 221.67210 223.57584 225.09088 225.92340 226.19554 226.22331 226.30281 225.43163
 225.55257 227.60529 231.52293 236.25693 241.02484 245.49573 249.61037 253.35736
 256.68961 259.66989 262.41342 264.96802 267.25522 269.24573 271.03775 272.94165
 275.11816 277.28497 279.20886 280.89819 282.36014 283.65359 284.83368 285.90277
 286.86426 287.72052 288.46851 289.42172
 366.78100 356.34034 345.77769 334.64903 323.05738 311.25672 299.13207 286.94041
 274.65776 262.56010 250.57445 239.88079 230.00814 221.11748 213.30483 206.31217
 200.15152 195.09486 191.68221 189.72955 188.77190 188.84124 189.68159 190.99493
 192.72528 194.82562 197.09397 199.45831 201.90866 204.39400 206.48735 208.33469
 209.96604 211.11638 211.35073 211.58407 211.52642 211.23676 210.87511 210.51045
 210.13280 209.84814 209.66149 209.53083 209.46418 209.80052 210.19187 210.58621
 211.38456 212.56790 213.82324 215.61159 217.54493 219.59328 221.69362 223.78197
 225.84731 227.93666 230.03900 232.15035 234.28469 236.46204 238.72338 241.09873
 243.72507 245.98142 247.98876 249.75911 251.18145 252.30980 253.13714 253.45849
 253.50083 253.28018 252.64552 251.59887 250.21021 248.37656 246.29090 244.12925
 241.92559 239.73494 237.56028 235.40463 233.26997 231.14232 229.17366 227.33601
 225.62435 224.10170 222.73704 221.51439 220.40173 219.36708 218.47642 217.62277
 216.87011 216.05546 215.15880 214.52815 213.98349 214.87198 217.08148 219.38449
 221.65257 223.59705 225.08894 225.83409 226.06877 226.17932 226.09444 225.49239
 225.63240 227.63503 231.53723 236.26596 241.03346 245.49176 249.60095 253.35936
 256.70364 259.68723 262.41962 264.98755 267.34067 269.41653 271.24631 273.19608
 275.38272 277.51880 279.42194 281.09305 282.53928 283.81879 284.98615 286.04370
 286.99487 287.84186 288.58179 289.52475
 366.78100 356.34033 345.77766 334.64899 323.05732 311.25664 299.13197 286.94030
 274.65763 262.55996 250.57429 239.88062 230.00795 221.11728 213.30460 206.31193
 200.15126 195.09459 191.68192 189.72925 188.77158 188.84091 189.68124 190.99456
 192.72489 194.82522 197.09355 199.45788 201.90821 204.39354 206.48687 208.33420
 209.96552 211.11585 211.35018 211.58351 211.52584 211.23617 210.87450 210.50983
 210.13216 209.84748 209.66081 209.53014 209.46347 209.79980 210.19113 210.58546
 211.38379 212.56712 213.82244 215.61077 217.54410 219.59243 221.69276 223.78109
 225.84642 227.93575 230.03807 232.14940 234.28373 236.46106 238.72239 241.09772
 243.72405 245.98038 247.98771 249.75803 251.18036 252.30869 253.13602 253.45735
 253.49968 253.27901 252.64434 251.59767 250.20899 248.37532 246.28965 244.12798
 241.92431 239.73364 237.55897 235.40330 233.26863 231.14095 229.17228 227.33461
 225.62294 224.10027 222.73560 221.51293 220.40026 219.36559 218.47491 217.62124
 216.86857 216.05390 215.15723 214.52656 213.98189 214.87949 217.09961 219.37363
 221.61678 223.58405 225.07542 225.72491 225.91417 226.07898 225.91739 225.53622
 225.78169 227.73770 231.54219 236.28418 241.06299 245.51640 249.62476 253.38028
 256.73547 259.69800 262.38324 264.91360 267.25516 269.35983 271.28101 273.31827
 275.46262 277.45474 279.30017 280.92062 282.32294 283.56366 284.69562 285.72110
 286.64340 287.46472 288.18219 289.09656
 366.78100 356.34140 345.77980 334.65220 323.06160 311.26200 299.13840 286.94780
 274.66620 262.56960 250.58500 239.89240 230.02080 221.13119 213.31959 206.32799
 200.16839 195.11279 191.70119 189.74959 188.79299 188.86339 189.70479 191.01919
 192.75059 194.85199 197.12139 199.48679 201.93819 204.42459 206.51899 208.36739
 209.99979 211.15119 211.38659 211.62099 211.56439 211.27578 210.91518 210.55158
 210.17498 209.89138 209.70578 209.57618 209.51058 209.84798 210.24038 210.63578
 211.43518 212.61958 213.87598 215.66538 217.59978 219.64918 221.75058 223.83998
 225.90638 227.99678 230.10018 232.21258 234.34798 236.52637 238.78877 241.16517
 243.79257 246.04997 248.05837 249.82977 251.25317 252.38257 253.21097 253.53337
 253.57677 253.35717 252.72357 251.67797 250.29037 248.45777 246.37317 244.21257
 242.00997 239.82037 237.64677 235.49217 233.35857 231.23196 229.26436 227.42776
 225.71716 224.19556 222.83196 221.61036 220.49876 219.46516 218.57556 217.72296
 216.97136 216.15776 215.26216 214.63256 214.08896 214.93600 217.05618 219.40308
 221.57167 223.50732 225.03452 225.65166 225.81125 225.93646 225.79292 225.51619
 225.94766 227.93513 231.64256 236.30817 241.09123 245.55174 249.67807 253.44954
 256.80673 259.74954 262.36826 264.86169 267.16208 269.26501 271.25201 273.30997
 275.42535 277.29935 279.04846 280.62820 281.99530 283.20483 284.30838 285.30807
 286.20721 287.00790 287.70737 288.59875
 366.78100 356.34204 345.78108 334.65412 323.06415 311.26519 299.14223 286.95227
 274.67131 262.57535 250.59139 239.89942 230.02846 221.13950 213.32854 206.33758
 200.17862 195.12366 191.71270 189.76173 188.80577 188.87681 189.71885 191.03389
 192.76593 194.86797 197.13800 199.50404 201.95608 204.44312 206.53816 208.38720
 210.02024 211.17227 211.40831 211.64335 211.58739 211.29943 210.93947 210.57651
 210.20055 209.91758 209.73262 209.60366 209.53870 209.87674 210.26978 210.66582
 211.46585 212.65089 213.90793 215.69797 217.63301 219.68305 221.78509 223.87512
 225.94216 228.03320 230.13724 232.25028 234.38632 236.56536 238.82839 241.20543
 243.83347 246.09151 248.10055 249.87259 251.29663 252.42667 253.25570 253.57874
 253.62278 253.40382 252.77086 251.72590 250.33894 248.50697 246.42301 244.26305
 242.06109 239.87213 237.69917 235.54521 233.41224 231.28628 229.31932 227.48336
 225.77340 224.25244 222.88948 221.66851 220.55755 219.52459 218.63563 217.78367
 217.03271 216.21975 215.32479 214.69582 214.15286 214.97356 217.03282 219.41649
 221.55409 223.41470 224.97279 225.62265 225.74304 225.77988 225.67018 225.46762
 226.05753 228.06636 231.72029 236.34444 241.10735 245.57841 249.72575 253.53313
 256.90979 259.83264 262.46304 264.84442 267.07977 269.14816 271.17325 273.30975
 275.42395 277.27087 278.93503 280.49005 281.83578 283.02643 284.11270 285.09677
 285.98184 286.77002 287.45853 288.33600
 366.78100 356.34231 345.78163 334.65494 323.06526 311.26657 299.14389 286.95420
 274.67352 262.57783 250.59415 239.90246 230.03177 221.14309 213.33240 206.34172
 200.18303 195.12835 191.71766 189.76698 188.81129 188.88260 189.72492 191.04023
 192.77255 194.87486 197.14518 199.51149 201.96381 204.45112 206.54644 208.39575
 210.02906 211.18138 211.41769 211.65301 211.59732 211.30964 210.94995 210.58727
 210.21158 209.92889 209.74421 209.61552 209.55084 209.88915 210.28247 210.67878
 211.47910 212.66441 213.92173 215.71204 217.64735 219.69767 221.79998 223.89030
 225.95761 228.04893 230.15324 232.26656 234.40287 236.58218 238.84550 241.22281
 243.85113 246.10944 248.11876 249.89107 251.31539 252.44570 253.27502 253.59833
 253.64264 253.42396 252.79127 251.74659 250.35990 248.52822 246.44453 244.28485
 242.08316 239.89447 237.72179 235.56810 233.43542 231.30973 229.34305 227.50736
 225.79768 224.27699 222.91431 221.69362 220.58293 219.55025 218.66156 217.80988
 217.05919 216.24651 215.35182 214.72314 214.18045 214.99982 217.05923 219.39839
 221.54936 223.43925 224.93829 225.55495 225.63777 225.63556 225.53444 225.46127
 226.08005 228.12247 231.75597 236.38007 241.14487 245.61063 249.76636 253.59932
 257.01401 259.97342 262.36380 264.97415 267.17007 269.15607 271.14667 273.28040
 275.37982 277.23868 278.97366 280.54477 281.90439 283.10733 284.20483 285.19910
 286.09332 286.88965 287.58527 288.47180
 366.78100 356.34183 345.78067 334.65350 323.06334 311.26417 299.14101 286.95084
 274.66968 262.57351 250.58934 239.89718 230.02601 221.13685 213.32568 206.33452
 200.17535 195.12019 191.70902 189.75785 188.80169 188.87252 189.71436 191.02919
 192.76103 194.86286 197.13270 199.49853 201.95036 204.43720 206.53203 208.38087
 210.01370 211.16554 211.40137 211.63621 211.58004 211.29188 210.93171 210.56854
 210.19238 209.90921 209.72405 209.59488 209.52972 209.86755 210.26039 210.65622
 211.45605 212.64089 213.89772 215.68756 217.62239 219.67223 221.77406 223.86390
 225.93073 228.02156 230.12540 232.23823 234.37407 236.55290 238.81574 241.19257
 243.82041 246.07824 248.08707 249.85891 251.28274 252.41258 253.24141 253.56425
 253.60808 253.38892 252.75575 251.71058 250.32342 248.49125 246.40709 244.24692
 242.04476 239.85559 237.68243 235.52826 233.39509 231.26893 229.30176 227.46560
 225.75543 224.23427 222.87110 221.64994 220.53877 219.50561 218.61644 217.76427
 217.01311 216.19994 215.30478 214.67561 214.13245 214.99078 217.11838 219.35432
 221.54556 223.46982 224.90274 225.42172 225.49336 225.51175 225.37827 225.39818
 226.12169 228.18648 231.80756 236.45009 241.21935 245.67967 249.81842 253.63837
 257.07413 260.08447 262.52853 265.05490 267.22614 269.19299 271.17090 273.36353
 275.48886 277.37842 279.15616 280.73312 282.09784 283.30527 284.40686 285.40485
 286.30240 287.10168 287.79993 288.68976
 366.78100 356.34129 345.77957 334.65186 323.06115 311.26143 299.13772 286.94700
 274.66529 262.56858 250.58386 239.89115 230.01944 221.12972 213.31801 206.32630
 200.16658 195.11087 191.69915 189.74744 188.79073 188.86101 189.70230 191.01659
 192.74787 194.84916 197.11845 199.48373 201.93502 204.42130 206.51559 208.36388
 209.99616 211.14745 211.38274 211.61702 211.56031 211.27160 210.91088 210.54717
 210.17045 209.88674 209.70103 209.57131 209.50560 209.84289 210.23517 210.63046
 211.42975 212.61403 213.87032 215.65960 217.59389 219.64318 221.74446 223.83375
 225.90004 227.99032 230.09361 232.20590 234.34118 236.51947 238.78175 241.15804
 243.78533 246.04261 248.05090 249.82219 251.24547 252.37476 253.20305 253.52533
 253.56862 253.34890 252.71519 251.66948 250.28176 248.44905 246.36434 244.20362
 242.00091 239.81120 237.63748 235.48277 233.34905 231.22234 229.25463 227.41791
 225.70720 224.18549 222.82177 221.60006 220.48835 219.45463 218.56492 217.71220
 216.96049 216.14678 215.25106 214.62135 214.07764 214.97346 217.16296 219.31996
 221.51633 223.46133 224.86359 225.29454 225.31956 225.36339 225.21625 225.30040
 226.16577 228.32585 231.93323 236.54288 241.31487 245.78036 249.91615 253.69867
 257.07614 260.07584 262.66550 265.09460 267.28900 269.27191 271.24405 273.42087
 275.54453 277.40167 279.14285 280.70041 282.04834 283.24091 284.32895 285.31464
 286.20114 286.99060 287.68027 288.55914
 366.78100 356.34145 345.77991 334.65236 323.06182 311.26227 299.13873 286.94818
 274.66664 262.57009 250.58555 239.89300 230.02145 221.13191 213.32036 206.32882
 200.16927 195.11373 191.70218 189.75064 188.79409 188.86454 189.70600 191.02045
 192.75191 194.85336 197.12282 199.48827 201.93973 204.42618 206.52064 208.36909
 210.00154 211.15300 211.38845 211.62291 211.56636 211.27782 210.91727 210.55373
 210.17718 209.89364 209.70809 209.57854 209.51300 209.85045 210.24291 210.63836
 211.43782 212.62227 213.87873 215.66818 217.60263 219.65209 221.75354 223.84300
 225.90945 227.99991 230.10336 232.21582 234.35127 236.52973 238.79218 241.16863
 243.79609 246.05354 248.06200 249.83345 251.25691 252.38636 253.21482 253.53727
 253.58073 253.36118 252.72763 251.68209 250.29454 248.46200 246.37745 244.21691
 242.01436 239.82482 237.65127 235.49673 233.36318 231.23663 229.26909 227.43254
 225.72200 224.20045 222.83691 221.61536 220.50382 219.47027 218.58072 217.72818
 216.97663 216.16309 215.26754 214.63800 214.09445 214.98724 217.16885 219.32341
 221.45131 223.42780 224.83188 225.20531 225.14258 225.14111 225.09749 225.21712
 226.19821 228.45351 232.08041 236.65269 241.40532 245.87936 250.02621 253.81627
 257.13867 260.04593 262.69046 265.13666 267.37534 269.39371 271.38748 273.42117
 275.48831 277.31638 278.99637 280.55109 281.89655 283.08694 284.17300 285.15692
 286.04181 286.82983 287.51822 288.39551
 366.78100 356.34173 345.78046 334.65319 323.06292 311.26365 299.14038 286.95011
 274.66885 262.57258 250.58831 239.89604 230.02477 221.13550 213.32423 206.33296
 200.17369 195.11842 191.70715 189.75588 188.79961 188.87034 189.71208 191.02681
 192.75854 194.86027 197.13000 199.49573 201.94746 204.43419 206.52892 208.37765
 210.01038 211.16211 211.39784 211.63257 211.57631 211.28804 210.92777 210.56450
 210.18823 209.90496 209.71969 209.59042 209.52515 209.86288 210.25561 210.65134
 211.45107 212.63580 213.89254 215.68227 217.61700 219.66673 221.76846 223.85819
 225.92492 228.01565 230.11938 232.23211 234.36784 236.54657 238.80930 241.18603
 243.81376 246.07150 248.08023 249.85196 251.27569 252.40542 253.23415 253.55688
 253.60061 253.38134 252.74807 251.70280 250.31553 248.48326 246.39899 244.23873
 242.03646 239.84719 237.67392 235.51965 233.38638 231.26011 229.29284 227.45657
 225.74630 224.22503 222.86176 221.64049 220.52922 219.49596 218.60669 217.75442
 217.00315 216.18988 215.29461 214.66534 214.12207 215.00443 217.16017 219.34122
 221.37283 223.34764 224.75923 225.11784 225.02583 224.92169 224.95273 225.12012
 226.22752 228.57361 232.23343 236.77689 241.49670 245.97697 250.12161 253.91840
 257.25607 260.10220 262.67819 265.15030 267.43741 269.51254 271.54202 273.54495
 275.40576 277.18613 278.78036 280.28687 281.62762 282.81384 283.89612 284.87656
 285.75836 286.54361 287.22958 288.10376
 366.78100 356.34180 345.78061 334.65341 323.06321 311.26401 299.14082 286.95062
 274.66942 262.57322 250.58903 239.89683 230.02563 221.13643 213.32524 206.33404
 200.17484 195.11964 191.70845 189.75725 188.80105 188.87185 189.71366 191.02846
 192.76026 194.86206 197.13187 199.49767 201.94947 204.43627 206.53108 208.37988
 210.01268 211.16448 211.40029 211.63509 211.57889 211.29070 210.93050 210.56730
 210.19110 209.90791 209.72271 209.59351 209.52831 209.86612 210.25892 210.65472
 211.45452 212.63933 213.89613 215.68593 217.62073 219.67054 221.77234 223.86214
 225.92894 228.01975 230.12355 232.23635 234.37215 236.55096 238.81376 241.19056
 243.81836 246.07617 248.08497 249.85677 251.28057 252.41038 253.23918 253.56198
 253.60579 253.38659 252.75339 251.70819 250.32100 248.48880 246.40460 244.24440
 242.04221 239.85301 237.67981 235.52561 233.39242 231.26622 229.29902 227.46282
 225.75263 224.23143 222.86823 221.64703 220.53584 219.50264 218.61344 217.76124
 217.01005 216.19685 215.30165 214.67245 214.12926 215.01143 217.15439 219.35497
 221.30276 223.22304 224.63280 224.98976 224.94215 224.76889 224.77571 225.00398
 226.17039 228.65636 232.37840 236.90784 241.61256 246.08095 250.21751 254.00211
 257.35635 260.23853 262.73721 265.15323 267.44098 269.55701 271.67380 273.72302
 275.49194 277.03354 278.55231 279.94467 281.25476 282.44086 283.52298 284.50333
 285.38501 286.17017 286.85608 287.73016
 366.78100 356.34201 345.78102 334.65403 323.06404 311.26505 299.14206 286.95207
 274.67109 262.57510 250.59111 239.89912 230.02813 221.13914 213.32815 206.33716
 200.17817 195.12318 191.71219 189.76120 188.80521 188.87622 189.71824 191.03325
 192.76526 194.86727 197.13728 199.50329 201.95530 204.44231 206.53732 208.38633
 210.01934 211.17135 211.40736 211.64237 211.58639 211.29840 210.93841 210.57542
 210.19943 209.91644 209.73145 209.60246 209.53747 209.87548 210.26849 210.66450
 211.46451 212.64952 213.90654 215.69655 217.63156 219.68157 221.78358 223.87359
 225.94060 228.03161 230.13562 232.24863 234.38464 236.56365 238.82666 241.20367
 243.83168 246.08970 248.09871 249.87072 251.29473 252.42474 253.25375 253.57676
 253.62077 253.40178 252.76879 251.72380 250.33681 248.50482 246.42083 244.26085
 242.05886 239.86987 237.69688 235.54289 233.40990 231.28391 229.31692 227.48093
 225.77094 224.24995 222.88696 221.66597 220.55498 219.52200 218.63301 217.78102
 217.03003 216.21704 215.32205 214.69306 214.15007 215.02579 217.14046 219.36681
 221.25906 223.06516 224.48489 224.87593 224.81998 224.60078 224.58521 224.87616
 226.09853 228.70058 232.50893 237.04836 241.74881 246.20441 250.32167 254.07156
 257.39432 260.30869 262.84106 265.21710 267.47867 269.61172 271.75638 273.83685
 275.61548 277.03571 278.32147 279.67914 280.90616 282.08270 283.17282 284.16037
 285.04858 285.83954 286.53049 287.41101
 366.78100 356.34227 345.78154 334.65481 323.06508 311.26635 299.14362 286.95389
 274.67315 262.57742 250.59369 239.90196 230.03123 221.14250 213.33177 206.34104
 200.18231 195.12758 191.71685 189.76612 188.81039 188.88166 189.72393 191.03919
 192.77146 194.87373 197.14400 199.51027 201.96254 204.44981 206.54508 208.39435
 210.02762 211.17989 211.41616 211.65143 211.59570 211.30797 210.94823 210.58550
 210.20977 209.92704 209.74231 209.61358 209.54885 209.88712 210.28039 210.67666
 211.47693 212.66220 213.91947 215.70974 217.64501 219.69527 221.79754 223.88781
 225.95508 228.04635 230.15062 232.26389 234.40016 236.57943 238.84270 241.21997
 243.84824 246.10651 248.11578 249.88805 251.31232 252.44258 253.27185 253.59512
 253.63939 253.42066 252.78793 251.74320 250.35647 248.52474 246.44101 244.28128
 242.07955 239.89082 237.71809 235.56436 233.43162 231.30589 229.33916 227.50343
 225.79370 224.27297 222.91024 221.68951 220.57878 219.54605 218.65732 217.80559
 217.05486 216.24213 215.34740 214.71866 214.17593 215.04364 217.13173 219.38232
 221.22368 222.93652 224.35522 224.82272 224.67470 224.32831 224.39702 224.81798
 226.01900 228.75545 232.66261 237.20941 241.89503 246.33556 250.42740 254.14604
 257.43616 260.31580 262.89566 265.30914 267.58115 269.71060 271.86530 273.95972
 275.72531 277.12543 278.30060 279.52069 280.72714 281.85294 282.91937 283.88553
 284.75446 285.52826 286.20422 287.06564
 366.78100 356.34302 345.78304 334.65706 323.06808 311.27010 299.14813 286.95915
 274.67917 262.58419 250.60121 239.91023 230.04025 221.15227 213.34229 206.35231
 200.19434 195.14036 191.73038 189.78040 188.82542 188.89744 189.74046 191.05648
 192.78950 194.89252 197.16355 199.53057 201.98359 204.47161 206.56763 208.41765
 210.05167 211.20469 211.44171 211.67773 211.62276 211.33578 210.97680 210.61482
 210.23984 209.95786 209.77388 209.64590 209.58192 209.92094 210.31497 210.71199
 211.51301 212.69903 213.95705 215.74807 217.68409 219.73511 221.83813 223.92915
 225.99718 228.08920 230.19422 232.30824 234.44526 236.62528 238.88930 241.26732
 243.89634 246.15536 248.16539 249.93841 251.36343 252.49445 253.32447 253.64849
 253.69351 253.47553 252.84355 251.79957 250.41359 248.58262 246.49964 244.34066
 242.13968 239.95170 237.77972 235.62674 233.49476 231.36978 229.40380 227.56883
 225.85985 224.33987 222.97789 221.75791 220.64793 219.61595 218.72797 217.87699
 217.12701 216.31504 215.42106 214.79308 214.25110 215.08452 217.09251 219.44368
 221.17317 222.80775 224.26204 224.76198 224.56015 224.06383 224.08557 224.84062
 225.96773 228.84435 232.84291 237.38908 242.04488 246.46297 250.52605 254.21774
 257.48795 260.34940 262.92432 265.35660 267.65237 269.81262 271.98517 274.09320
 275.84058 277.20358 278.31296 279.47205 280.67590 281.79202 282.85678 283.82983
 284.70499 285.48428 286.16510 287.03271
 366.78100 356.34387 345.78474 334.65961 323.07148 311.27435 299.15322 286.96508
 274.68595 262.59182 250.60969 239.91956 230.05043 221.16330 213.35417 206.36504
 200.20791 195.15478 191.74565 189.79652 188.84238 188.91525 189.75912 191.07599
 192.80986 194.91373 197.18560 199.55347 202.00734 204.49621 206.59308 208.44395
 210.07882 211.23268 211.47055 211.70742 211.65329 211.36716 211.00903 210.64790
 210.27377 209.99264 209.80951 209.68238 209.61925 209.95912 210.35398 210.75185
 211.55372 212.74059 213.99946 215.79133 217.72820 219.78007 221.88394 223.97581
 226.04468 228.13755 230.24341 232.35828 234.49615 236.67702 238.94189 241.32076
 243.95063 246.21050 248.22137 249.99524 251.42111 252.55298 253.38385 253.70871
 253.75458 253.53745 252.90632 251.86319 250.47806 248.64793 246.56580 244.40767
 242.20754 240.02041 237.84928 235.69715 233.56601 231.44188 229.47675 227.64262
 225.93449 224.41536 223.05423 221.83510 220.72597 219.69484 218.80771 217.95758
 217.20845 216.39731 215.50418 214.87705 214.33592 215.13033 217.03922 219.50272
 221.19513 222.74794 224.20380 224.61426 224.39598 223.90979 223.83437 224.79637
 225.89703 228.89841 233.00171 237.56552 242.20074 246.59926 250.63258 254.29698
 257.55396 260.42712 263.00519 265.40973 267.68823 269.87866 272.09152 274.19815
 275.88019 277.17664 278.26367 279.41766 280.59125 281.67319 282.71124 283.70511
 284.59900 285.39499 286.09036 286.97653
 366.78100 356.34393 345.78486 334.65979 323.07171 311.27464 299.15357 286.96550
 274.68643 262.59236 250.61029 239.92022 230.05114 221.16407 213.35500 206.36593
 200.20886 195.15579 191.74672 189.79765 188.84357 188.91650 189.76043 191.07736
 192.81129 194.91522 197.18715 199.55508 202.00900 204.49793 206.59486 208.44579
 210.08072 211.23465 211.47258 211.70951 211.65543 211.36936 211.01129 210.65022
 210.27615 209.99508 209.81201 209.68494 209.62186 209.96179 210.35672 210.75465
 211.55658 212.74351 214.00244 215.79437 217.73129 219.78322 221.88715 223.97908
 226.04801 228.14094 230.24687 232.36180 234.49972 236.68065 238.94558 241.32451
 243.95444 246.21437 248.22530 249.99923 251.42515 252.55708 253.38801 253.71294
 253.75887 253.54180 252.91073 251.86765 250.48258 248.65251 246.57044 244.41237
 242.21230 240.02523 237.85416 235.70208 233.57101 231.44694 229.48187 227.64780
 225.93973 224.42066 223.05959 221.84051 220.73144 219.70037 218.81330 217.96323
 217.21416 216.40309 215.51002 214.88294 214.34187 215.13980 217.03798 219.48970
 221.28253 222.77957 224.11456 224.41611 224.20399 223.76422 223.66879 224.65855
 225.98857 229.00378 233.15303 237.73660 242.36346 246.74730 250.75314 254.39235
 257.63168 260.51321 263.11508 265.50806 267.75766 269.95856 272.20621 274.29565
 275.93295 277.14066 278.17722 279.25891 280.42606 281.49277 282.49869 283.44531
 284.29413 285.04999 285.71030 286.55179
 366.78100 356.34377 345.78455 334.65932 323.07109 311.27387 299.15264 286.96441
 274.68519 262.59096 250.60874 239.91851 230.04928 221.16206 213.35283 206.36360
 200.20638 195.15315 191.74392 189.79470 188.84047 188.91324 189.75702 191.07379
 192.80757 194.91134 197.18311 199.55089 202.00466 204.49343 206.59021 208.44098
 210.07575 211.22953 211.46730 211.70407 211.64985 211.36362 211.00539 210.64417
 210.26994 209.98872 209.80549 209.67826 209.61504 209.95481 210.34958 210.74736
 211.54913 212.73590 213.99468 215.78645 217.72322 219.77500 221.87877 223.97055
 226.03932 228.13209 230.23787 232.35264 234.49041 236.67119 238.93596 241.31473
 243.94451 246.20428 248.21505 249.98883 251.41460 252.54637 253.37715 253.70192
 253.74770 253.53047 252.89924 251.85602 250.47079 248.64056 246.55834 244.40011
 242.19988 240.01266 237.84143 235.68920 233.55798 231.43375 229.46853 227.63430
 225.92607 224.40685 223.04562 221.82639 220.71717 219.68594 218.79871 217.94849
 217.19926 216.38803 215.49481 214.86758 214.32635 215.14075 217.06480 219.45027
 221.34544 222.81540 224.00456 224.22768 224.01901 223.57054 223.52713 224.51231
 226.02785 229.13896 233.34074 237.92090 242.52556 246.89442 250.87328 254.49030
 257.71356 260.59470 263.21072 265.61609 267.86130 270.05243 272.29688 274.37961
 275.95789 277.11896 278.09433 279.13068 280.27969 281.33752 282.32996 283.25156
 284.08130 284.81854 285.46259 286.28336
 366.78100 356.34389 345.78479 334.65968 323.07158 311.27447 299.15336 286.96526
 274.68615 262.59205 250.60994 239.91984 230.05073 221.16362 213.35452 206.36541
 200.20831 195.15520 191.74609 189.79699 188.84288 188.91578 189.75967 191.07656
 192.81046 194.91435 197.18625 199.55414 202.00803 204.49693 206.59382 208.44472
 210.07961 211.23351 211.47140 211.70829 211.65419 211.36808 211.00998 210.64887
 210.27476 209.99366 209.81055 209.68345 209.62034 209.96023 210.35513 210.75302
 211.55492 212.74181 214.00070 215.79260 217.72949 219.78139 221.88528 223.97718
 226.04607 228.13896 230.24486 232.35975 234.49765 236.67854 238.94343 241.32233
 243.95222 246.21212 248.22301 249.99690 251.42280 252.55469 253.38559 253.71048
 253.75637 253.53927 252.90816 251.86506 250.47995 248.64985 246.56774 244.40963
 242.20953 240.02242 237.85132 235.69921 233.56810 231.44400 229.47889 227.64479
 225.93668 224.41757 223.05647 221.83736 220.72826 219.69715 218.81004 217.95994
 217.21083 216.39973 215.50662 214.87952 214.33841 215.15518 217.08487 219.43411
 221.36337 222.82326 223.91370 224.05855 223.81506 223.34566 223.37122 224.37924
 226.03345 229.27242 233.53467 238.10762 242.68109 247.02303 250.98695 254.58766
 257.79898 260.68533 263.30841 265.71552 267.96191 270.15482 272.39502 274.45508
 275.98566 277.08908 278.03806 279.04059 280.18951 281.25055 282.24323 283.16089
 283.99127 284.74414 285.40381 286.24451
 366.78100 356.34382 345.78465 334.65947 323.07130 311.27412 299.15295 286.96477
 274.68560 262.59142 250.60925 239.91907 230.04990 221.16272 213.35355 206.36437
 200.20719 195.15402 191.74484 189.79567 188.84149 188.91432 189.75814 191.07497
 192.80879 194.91262 197.18444 199.55227 202.00609 204.49492 206.59174 208.44256
 210.07739 211.23121 211.46904 211.70586 211.65169 211.36551 211.00734 210.64616
 210.27199 209.99081 209.80764 209.68046 209.61729 209.95711 210.35193 210.74976
 211.55158 212.73841 213.99723 215.78906 217.72588 219.77771 221.88153 223.97336
 226.04218 228.13501 230.24083 232.35566 234.49348 236.67430 238.93913 241.31795
 243.94778 246.20760 248.21843 249.99225 251.41808 252.54990 253.38073 253.70555
 253.75138 253.53420 252.90303 251.85985 250.47467 248.64450 246.56232 244.40415
 242.20397 240.01680 237.84562 235.69345 233.56227 231.43810 229.47292 227.63875
 225.93057 224.41140 223.05022 221.83104 220.72187 219.69069 218.80352 217.95334
 217.20417 216.39299 215.49982 214.87264 214.33147 215.15685 217.10689 219.41216
 221.39423 222.84712 223.82808 223.89815 223.58147 223.11523 223.21260 224.24487
 226.04082 229.40639 233.73128 238.29079 242.83151 247.14743 251.09589 254.67688
 257.88834 260.78979 263.42938 265.82410 268.05432 270.24738 272.50894 274.53842
 275.99930 277.02701 277.96701 279.00226 280.15482 281.20901 282.17587 283.07059
 283.88562 284.63742 285.28696 286.11444
 366.78100 356.34359 345.78418 334.65877 323.07036 311.27295 299.15153 286.96312
 274.68371 262.58930 250.60689 239.91648 230.04707 221.15966 213.35025 206.36084
 200.20343 195.15001 191.74060 189.79119 188.83678 188.90937 189.75296 191.06955
 192.80314 194.90673 197.17832 199.54590 201.99949 204.48808 206.58467 208.43526
 210.06985 211.22344 211.46103 211.69762 211.64321 211.35680 210.99838 210.63697
 210.26256 209.98115 209.79774 209.67033 209.60692 209.94651 210.34110 210.73869
 211.54028 212.72686 213.98545 215.77704 217.71363 219.76522 221.86881 223.96040
 226.02899 228.12158 230.22717 232.34176 234.47934 236.65993 238.92452 241.30311
 243.93270 246.19229 248.20288 249.97647 251.40206 252.53365 253.36423 253.68882
 253.73441 253.51700 252.88559 251.84218 250.45677 248.62636 246.54395 244.38554
 242.18513 239.99771 237.82630 235.67389 233.54248 231.41807 229.45266 227.61825
 225.90984 224.39043 223.02902 221.80961 220.70019 219.66878 218.78137 217.93096
 217.18155 216.37014 215.47673 214.84932 214.30791 215.14920 217.13683 219.38045
 221.42267 222.86836 223.73692 223.75095 223.35844 222.86842 223.02161 224.11047
 226.03241 229.53217 233.91980 238.47153 242.98285 247.27663 251.20959 254.77444
 257.98550 260.90408 263.56259 265.95340 268.17569 270.36835 272.63388 274.63626
 276.02655 276.98608 277.85651 278.93130 280.10196 281.15683 282.12534 283.00845
 283.81903 284.54956 285.19293 286.00577
 366.78100 356.34355 345.78411 334.65866 323.07022 311.27277 299.15132 286.96288
 274.68343 262.58898 250.60654 239.91609 230.04665 221.15920 213.34975 206.36031
 200.20286 195.14941 191.73997 189.79052 188.83608 188.90863 189.75218 191.06874
 192.80229 194.90585 197.17740 199.54495 201.99851 204.48706 206.58361 208.43417
 210.06872 211.22228 211.45983 211.69638 211.64194 211.35549 210.99705 210.63560
 210.26115 209.97971 209.79626 209.66881 209.60537 209.94492 210.33948 210.73703
 211.53858 212.72514 213.98369 215.77524 217.71180 219.76335 221.86691 223.95846
 226.02701 228.11957 230.22512 232.33968 234.47723 236.65778 238.92234 241.30089
 243.93044 246.19000 248.20055 249.97411 251.39966 252.53121 253.36177 253.68632
 253.73188 253.51443 252.88298 251.83954 250.45409 248.62364 246.54120 244.38275
 242.18231 239.99486 237.82341 235.67097 233.53952 231.41507 229.44963 227.61518
 225.90674 224.38729 223.02584 221.80640 220.69695 219.66551 218.77806 217.92761
 217.17817 216.36672 215.47327 214.84583 214.30438 215.15347 217.15955 219.35493
 221.42349 222.86334 223.64586 223.60333 223.14575 222.61308 222.80009 223.97784
 226.02208 229.65445 234.10109 238.65039 243.14076 247.41585 251.33305 254.88409
 258.09753 261.03146 263.70398 266.09271 268.30353 270.48199 272.73877 274.72873
 276.07312 277.00610 277.83591 278.90771 280.06042 281.11581 282.08514 282.96860
 283.77219 284.49844 285.13379 285.94983
 366.78100 356.34382 345.78463 334.65945 323.07126 311.27408 299.15290 286.96471
 274.68553 262.59135 250.60916 239.91898 230.04979 221.16261 213.35343 206.36424
 200.20706 195.15387 191.74469 189.79551 188.84132 188.91414 189.75795 191.07477
 192.80859 194.91240 197.18422 199.55204 202.00585 204.49467 206.59148 208.44230
 210.07712 211.23093 211.46875 211.70556 211.65138 211.36520 211.00701 210.64583
 210.27164 209.99046 209.80728 209.68009 209.61691 209.95673 210.35154 210.74936
 211.55117 212.73799 213.99681 215.78862 217.72544 219.77725 221.88107 223.97289
 226.04170 228.13452 230.24034 232.35515 234.49297 236.67378 238.93860 241.31742
 243.94723 246.20705 248.21786 249.99168 251.41750 252.54931 253.38013 253.70494
 253.75076 253.53358 252.90239 251.85921 250.47403 248.64384 246.56166 244.40347
 242.20329 240.01611 237.84492 235.69274 233.56155 231.43737 229.47219 227.63800
 225.92982 224.41063 223.04945 221.83027 220.72108 219.68990 218.80272 217.95253
 217.20335 216.39216 215.49898 214.87180 214.33061 215.17467 217.16885 219.34251
 221.40376 222.84151 223.56473 223.44983 222.92690 222.35986 222.57054 223.84154
 226.01384 229.77106 234.28239 238.82509 243.30113 247.56087 251.46478 255.00497
 258.22134 261.16861 263.85403 266.23715 268.43307 270.59103 272.83057 274.80820
 276.11633 277.04022 277.87433 278.91687 280.06168 281.11880 282.08920 282.97394
 283.78082 284.50876 285.14981 285.96335
 366.78100 356.34429 345.78557 334.66086 323.07315 311.27644 299.15572 286.96801
 274.68930 262.59559 250.61387 239.92416 230.05545 221.16874 213.36002 206.37131
 200.21460 195.16188 191.75317 189.80446 188.85075 188.92403 189.76832 191.08561
 192.81990 194.92418 197.19647 199.56476 202.01904 204.50833 206.60562 208.45691
 210.09219 211.24648 211.48477 211.72206 211.66834 211.38263 211.02492 210.66421
 210.29049 210.00978 209.82707 209.70035 209.63764 209.97793 210.37322 210.77150
 211.57379 212.76108 214.02037 215.81265 217.74994 219.80223 221.90651 223.99880
 226.06809 228.16138 230.26766 232.38295 234.52124 236.70253 238.96781 241.34710
 243.97739 246.23768 248.24896 250.02325 251.44954 252.58182 253.41311 253.73840
 253.78469 253.56797 252.93726 251.89455 250.50984 248.68012 246.59841 244.44070
 242.24099 240.05427 237.88356 235.73185 233.60113 231.47742 229.51271 227.67900
 225.97128 224.45257 223.09186 221.87315 220.76443 219.73372 218.84701 217.99729
 217.24858 216.43787 215.54516 214.91844 214.37773 215.20592 217.16260 219.33928
 221.37802 222.81772 223.49496 223.29626 222.69879 222.10648 222.33449 223.70018
 226.00555 229.88155 234.45450 239.00957 243.46507 247.70673 251.59961 255.13292
 258.35529 261.31516 264.00729 266.38541 268.56281 270.69916 272.91129 274.86926
 276.14496 277.06598 277.91589 278.96832 280.11478 281.17249 282.14417 283.03165
 283.83905 284.57010 285.21170 286.02701
 366.78100 356.34479 345.78658 334.66237 323.07517 311.27896 299.15875 286.97154
 274.69333 262.60012 250.61891 239.92970 230.06150 221.17529 213.36708 206.37887
 200.22266 195.17045 191.76224 189.81403 188.86083 188.93462 189.77941 191.09720
 192.83199 194.93678 197.20957 199.57837 202.03316 204.52295 206.62074 208.47253
 210.10832 211.26311 211.50190 211.73970 211.68649 211.40128 211.04407 210.68386
 210.31065 210.03044 209.84824 209.72203 209.65982 210.00061 210.39640 210.79519
 211.59798 212.78577 214.04557 215.83836 217.77615 219.82894 221.93373 224.02652
 226.09631 228.19010 230.29690 232.41269 234.55148 236.73327 238.99906 241.37885
 244.00964 246.27044 248.28223 250.05702 251.48381 252.61660 253.44839 253.77418
 253.82097 253.60477 252.97456 251.93235 250.54814 248.71893 246.63772 244.48051
 242.28130 240.09510 237.92489 235.77368 233.64347 231.52026 229.55605 227.72284
 226.01564 224.49743 223.13722 221.91901 220.81080 219.78059 218.89438 218.04517
 217.29697 216.48676 215.59455 214.96834 214.42813 215.23813 217.15184 219.33517
 221.35667 222.79517 223.43433 223.14070 222.46426 221.84996 222.08539 223.54846
 225.99998 229.99222 234.62144 239.20302 243.63606 247.85291 251.73640 255.26616
 258.49786 261.46906 264.16412 266.53589 268.69852 270.80756 272.98279 274.91510
 276.16946 277.09225 277.94650 279.04346 280.19974 281.25876 282.23138 283.12024
 283.92975 284.66235 285.30524 286.12012
 366.78100 356.34511 345.78722 334.66333 323.07643 311.28054 299.16065 286.97376
 274.69587 262.60298 250.62208 239.93319 230.06530 221.17941 213.37152 206.38363
 200.22773 195.17584 191.76795 189.82006 188.86717 188.94128 189.78638 191.10449
 192.83960 194.94471 197.21782 199.58693 202.04203 204.53214 206.63025 208.48236
 210.11847 211.27358 211.51269 211.75079 211.69790 211.41301 211.05612 210.69623
 210.32334 210.04344 209.86155 209.73566 209.67377 210.01488 210.41099 210.81009
 211.61320 212.80131 214.06142 215.85453 217.79264 219.84574 221.95085 224.04396
 226.11407 228.20818 230.31529 232.43139 234.57050 236.75261 239.01872 241.39883
 244.02994 246.29105 248.30315 250.07826 251.50537 252.63848 253.47059 253.79670
 253.84380 253.62791 252.99802 251.95613 250.57224 248.74335 246.66245 244.50556
 242.30667 240.12078 237.95089 235.80000 233.67010 231.54721 229.58332 227.75043
 226.04354 224.52565 223.16575 221.94786 220.83997 219.81008 218.92419 218.07530
 217.32741 216.51751 215.62562 214.99973 214.45984 215.26100 217.15384 219.31978
 221.33118 222.78194 223.37404 222.98363 222.21953 221.58322 221.83371 223.41098
 225.99736 230.09006 234.78615 239.40369 243.81419 248.00095 251.87253 255.40199
 258.64319 261.62390 264.32230 266.68420 268.83905 270.91821 273.04684 274.94440
 276.18909 277.12393 277.99585 279.13681 280.30145 281.36209 282.33701 283.22763
 284.03662 284.77274 285.41483 286.23456
 366.78100 356.34541 345.78782 334.66423 323.07763 311.28204 299.16245 286.97586
 274.69827 262.60568 250.62508 239.93649 230.06890 221.18331 213.37572 206.38813
 200.23253 195.18094 191.77335 189.82576 188.87317 188.94758 189.79298 191.11139
 192.84680 194.95221 197.22562 199.59503 202.05043 204.54084 206.63925 208.49166
 210.12807 211.28348 211.52288 211.76129 211.70870 211.42411 211.06752 210.70793
 210.33534 210.05574 209.87415 209.74856 209.68697 210.02838 210.42479 210.82419
 211.62760 212.81601 214.07642 215.86983 217.80824 219.86164 221.96705 224.06046
 226.13087 228.22528 230.33269 232.44909 234.58850 236.77091 239.03732 241.41773
 244.04914 246.31054 248.32295 250.09836 251.52577 252.65918 253.49159 253.81799
 253.86540 253.64981 253.02022 251.97863 250.59504 248.76644 246.68585 244.52926
 242.33067 240.14508 237.97549 235.82490 233.69530 231.57271 229.60912 227.77653
 226.06994 224.55235 223.19275 221.97516 220.86757 219.83798 218.95239 218.10380
 217.35620 216.54661 215.65502 215.02943 214.48984 215.28221 217.15428 219.31151
 221.28580 222.76653 223.34834 222.82115 221.95329 221.29854 221.58377 223.29419
 226.01384 230.18359 234.92711 239.60475 244.01320 248.14641 252.00191 255.53017
 258.79279 261.78793 264.48392 266.82712 268.98123 271.03479 273.10495 274.94867
 276.19226 277.15900 278.04642 279.24829 280.42395 281.48422 282.46033 283.34998
 284.16238 284.89853 285.54379 286.36844
 366.78100 356.34583 345.78867 334.66550 323.07933 311.28416 299.16500 286.97883
 274.70166 262.60949 250.62933 239.94116 230.07399 221.18883 213.38166 206.39449
 200.23932 195.18816 191.78099 189.83382 188.88165 188.95649 189.80232 191.12115
 192.85699 194.96282 197.23665 199.60648 202.06232 204.55315 206.65198 208.50481
 210.14165 211.29748 211.53731 211.77615 211.72398 211.43981 211.08364 210.72448
 210.35231 210.07314 209.89197 209.76681 209.70564 210.04747 210.44431 210.84414
 211.64797 212.83680 214.09764 215.89147 217.83030 219.88413 221.98997 224.08380
 226.15463 228.24947 230.35730 232.47413 234.61396 236.79680 239.06363 241.44446
 244.07629 246.33813 248.35096 250.12679 251.55463 252.68846 253.52129 253.84812
 253.89596 253.68079 253.05162 252.01045 250.62729 248.79912 246.71895 244.56279
 242.36462 240.17945 238.01028 235.86012 233.73095 231.60878 229.64561 227.81345
 226.10728 224.59011 223.23095 222.01378 220.90661 219.87744 218.99228 218.14411
 217.39694 216.58777 215.69661 215.07144 214.53227 215.30867 217.14301 219.31512
 221.24771 222.70921 223.34309 222.73871 221.67528 220.94194 221.30522 223.22127
 226.07336 230.28928 235.05960 239.77846 244.22546 248.31236 252.12622 255.65767
 258.93579 261.95734 264.65274 266.96521 269.11267 271.15320 273.16025 274.93332
 276.15646 277.14050 278.09198 279.36343 280.54929 281.61115 282.58752 283.48059
 284.29208 285.02969 285.67346 286.51181
 366.78100 356.34611 345.78923 334.66634 323.08046 311.28557 299.16669 286.98080
 274.70392 262.61203 250.63215 239.94426 230.07738 221.19249 213.38561 206.39872
 200.24384 195.19295 191.78606 189.83918 188.88729 188.96241 189.80852 191.12764
 192.86375 194.96987 197.24398 199.61410 202.07021 204.56133 206.66044 208.51356
 210.15067 211.30679 211.54690 211.78601 211.73413 211.45024 211.09436 210.73547
 210.36359 210.08470 209.90382 209.77893 209.71805 210.06016 210.45728 210.85739
 211.66151 212.85062 214.11174 215.90585 217.84496 219.89908 222.00519 224.09931
 226.17042 228.26554 230.37365 232.49077 234.63088 236.81400 239.08111 241.46223
 244.09434 246.35646 248.36957 250.14569 251.57380 252.70791 253.54103 253.86814
 253.91626 253.70137 253.07249 252.03160 250.64872 248.82083 246.74095 244.58506
 242.38718 240.20229 238.03341 235.88352 233.75464 231.63275 229.66986 227.83798
 226.13209 224.61521 223.25632 222.03944 220.93255 219.90367 219.01878 218.17090
 217.42401 216.61513 215.72424 215.09936 214.56047 215.32697 217.13788 219.30470
 221.23930 222.64270 223.25826 222.69690 221.54121 220.51573 220.96402 223.21274
 226.16249 230.39485 235.20486 239.94951 244.40616 248.50449 252.25949 255.78035
 259.08200 262.12024 264.81143 267.08765 269.22653 271.25394 273.20099 274.91354
 276.10117 277.08609 278.15222 279.45032 280.63803 281.69998 282.67831 283.57098
 284.38611 285.12277 285.77139 286.61252
 366.78100 356.34625 345.78949 334.66674 323.08099 311.28624 299.16748 286.98173
 274.70498 262.61323 250.63347 239.94572 230.07897 221.19422 213.38746 206.40071
 200.24596 195.19521 191.78845 189.84170 188.88995 188.96520 189.81144 191.13069
 192.86694 194.97319 197.24743 199.61768 202.07393 204.56518 206.66442 208.51767
 210.15492 211.31117 211.55141 211.79066 211.73891 211.45516 211.09940 210.74065
 210.36890 210.09015 209.90939 209.78464 209.72389 210.06614 210.46338 210.86363
 211.66788 212.85713 214.11837 215.91262 217.85187 219.90612 222.01236 224.10661
 226.17786 228.27311 230.38135 232.49860 234.63885 236.82209 239.08934 241.47059
 244.10284 246.36508 248.37833 250.15458 251.58283 252.71707 253.55032 253.87757
 253.92582 253.71106 253.08231 252.04156 250.65881 248.83105 246.75130 244.59555
 242.39780 240.21304 238.04429 235.89454 233.76579 231.64403 229.68128 227.84953
 226.14378 224.62702 223.26827 222.05152 220.94477 219.91601 219.03126 218.18351
 217.43676 216.62800 215.73725 215.11250 214.57375 215.33752 217.14201 219.27982
 221.23199 222.61275 223.13376 222.56641 221.40540 220.19897 220.66219 223.11569
 226.20529 230.51323 235.35825 240.12790 244.57349 248.68565 252.43471 255.91794
 259.23901 262.26859 264.93744 267.20248 269.32370 271.32690 273.21899 274.89093
 276.06924 277.04242 278.20102 279.51233 280.69897 281.75763 282.73294 283.62445
 284.43661 285.17386 285.82367 286.67319
 366.78100 356.34638 345.78975 334.66713 323.08150 311.28688 299.16825 286.98263
 274.70600 262.61438 250.63475 239.94713 230.08050 221.19588 213.38925 206.40263
 200.24801 195.19738 191.79076 189.84413 188.89251 188.96788 189.81426 191.13363
 192.87001 194.97638 197.25076 199.62113 202.07751 204.56888 206.66826 208.52164
 210.15901 211.31539 211.55576 211.79514 211.74351 211.45989 211.10426 210.74564
 210.37401 210.09539 209.91476 209.79014 209.72951 210.07189 210.46926 210.86964
 211.67402 212.86339 214.12477 215.91914 217.85852 219.91289 222.01927 224.11364
 226.18502 228.28039 230.38877 232.50614 234.64652 236.82989 239.09727 241.47865
 244.11102 246.37340 248.38677 250.16315 251.59152 252.72590 253.55927 253.88665
 253.93502 253.72040 253.09177 252.05115 250.66852 248.84090 246.76128 244.60565
 242.40803 240.22340 238.05478 235.90515 233.77653 231.65490 229.69228 227.86065
 226.15503 224.63840 223.27978 222.06315 220.95653 219.92791 219.04328 218.19566
 217.44903 216.64041 215.74978 215.12516 214.58653 215.34709 217.14397 219.26054
 221.20662 222.59250 223.03976 222.39334 221.22984 219.92522 220.37389 222.96855
 226.23650 230.65384 235.52037 240.30490 244.74268 248.85892 252.63631 256.07504
 259.36853 262.42325 265.06271 267.29987 269.38751 271.36481 273.21747 274.85760
 276.07962 277.08673 278.23068 279.53885 280.72342 281.78232 282.75565 283.64664
 284.45932 285.19696 285.84778 286.70789
 366.78100 356.34651 345.79002 334.66753 323.08205 311.28756 299.16907 286.98358
 274.70709 262.61560 250.63611 239.94863 230.08214 221.19765 213.39116 206.40467
 200.25018 195.19969 191.79321 189.84672 188.89523 188.97074 189.81725 191.13676
 192.87327 194.97979 197.25430 199.62481 202.08132 204.57283 206.67234 208.52585
 210.16337 211.31988 211.56039 211.79990 211.74841 211.46492 211.10943 210.75095
 210.37946 210.10097 209.92048 209.79599 209.73550 210.07801 210.47553 210.87604
 211.68055 212.87006 214.13157 215.92608 217.86559 219.92011 222.02662 224.12113
 226.19264 228.28815 230.39666 232.51417 234.65469 236.83820 239.10571 241.48722
 244.11973 246.38224 248.39575 250.17227 251.60078 252.73529 253.56880 253.89631
 253.94482 253.73033 253.10185 252.06136 250.67887 248.85138 246.77189 244.61640
 242.41891 240.23443 238.06594 235.91645 233.78796 231.66647 229.70398 227.87249
 226.16701 224.65052 223.29203 222.07554 220.96905 219.94056 219.05607 218.20859
 217.46210 216.65361 215.76312 215.13863 214.60014 215.35464 217.13722 219.25056
 221.17316 222.57123 222.97646 222.20744 221.02138 219.65929 220.09419 222.81281
 226.26045 230.79759 235.69563 240.48912 244.92329 249.02571 252.83087 256.27118
 259.48450 262.50806 265.15866 267.40475 269.45969 271.39178 273.19110 274.81055
 276.12567 277.26682 278.32074 279.55692 280.71378 281.75977 282.72644 283.61520
 284.42700 285.16794 285.82111 286.69934
 366.78100 356.34656 345.79013 334.66769 323.08226 311.28782 299.16939 286.98395
 274.70752 262.61608 250.63665 239.94921 230.08277 221.19834 213.39190 206.40547
 200.25103 195.20060 191.79416 189.84773 188.89629 188.97186 189.81842 191.13798
 192.87455 194.98111 197.25568 199.62624 202.08281 204.57437 206.67394 208.52750
 210.16507 211.32163 211.56219 211.80176 211.75032 211.46689 211.11145 210.75302
 210.38158 210.10315 209.92271 209.79828 209.73784 210.08040 210.47797 210.87853
 211.68310 212.87266 214.13423 215.92879 217.86836 219.92292 222.02948 224.12405
 226.19561 228.29118 230.39974 232.51731 234.65787 236.84144 239.10900 241.49057
 244.12313 246.38569 248.39926 250.17582 251.60439 252.73895 253.57252 253.90008
 253.94865 253.73421 253.10578 252.06534 250.68290 248.85547 246.77603 244.62060
 242.42316 240.23873 238.07029 235.92086 233.79242 231.67099 229.70855 227.87711
 226.17168 224.65524 223.29681 222.08037 220.97394 219.94550 219.06107 218.21363
 217.46720 216.65876 215.76832 215.14389 214.60545 215.35687 217.13217 219.23734
 221.13945 222.53293 222.92328 222.04358 220.77419 219.41167 219.85138 222.67194
 226.28246 230.92409 235.85910 240.66489 245.09227 249.18161 253.00008 256.48029
 259.66275 262.57834 265.19516 267.47675 269.51981 271.41318 273.15933 274.75589
 276.15973 277.38766 278.44699 279.57016 280.71411 281.76117 282.72656 283.61478
 284.42776 285.16962 285.82880 286.70795
 366.78100 356.34653 345.79007 334.66760 323.08213 311.28766 299.16920 286.98373
 274.70726 262.61580 250.63633 239.94886 230.08239 221.19793 213.39146 206.40499
 200.25052 195.20006 191.79359 189.84712 188.89566 188.97119 189.81772 191.13725
 192.87379 194.98032 197.25485 199.62539 202.08192 204.57345 206.67298 208.52652
 210.16405 211.32058 211.56112 211.80065 211.74918 211.46571 211.11025 210.75178
 210.38031 210.10184 209.92138 209.79691 209.73644 210.07898 210.47651 210.87704
 211.68157 212.87111 214.13264 215.92717 217.86671 219.92124 222.02777 224.12230
 226.19384 228.28937 230.39790 232.51544 234.65597 236.83950 239.10703 241.48857
 244.12110 246.38363 248.39716 250.17370 251.60223 252.73676 253.57030 253.89783
 253.94636 253.73189 253.10343 252.06296 250.68049 248.85303 246.77356 244.61809
 242.42062 240.23616 238.06769 235.91822 233.78975 231.66829 229.70582 227.87435
 226.16889 224.65242 223.29395 222.07748 220.97102 219.94255 219.05808 218.21062
 217.46415 216.65568 215.76521 215.14075 214.60228 215.35495 217.13321 219.22731
 221.10446 222.48772 222.84853 221.90215 220.50598 219.19865 219.62589 222.52914
 226.30663 231.04338 236.00552 240.82472 245.25192 249.33879 253.16136 256.66891
 259.85760 262.70776 265.25192 267.50491 269.53662 271.43536 273.16595 274.72922
 276.11078 277.31104 278.49283 279.64572 280.79681 281.84650 282.81259 283.69678
 284.50720 285.24481 285.90073 286.78345
 354.97500 345.04800 334.58700 324.11500 313.32600 302.53700 291.65000 280.76700
 269.93100 259.19300 248.62200 238.61700 229.08700 220.35500 212.54000 205.53500
 199.46400 194.49300 191.14300 189.19000 188.08900 188.01400 188.72400 189.90600
 191.46900 193.38200 195.40300 197.55600 199.80700 202.06000 204.28800 206.47900
 208.55200 210.37800 212.02500 213.65900 214.99800 216.11800 217.17200 218.25900
 219.49400 220.64500 221.67900 222.61400 223.54500 224.98200 226.57100 228.19000
 229.79700 231.81100 233.86500 235.97200 238.24200 240.55300 242.89900 245.25300
 247.48800 249.53500 251.36600 252.84800 254.09800 255.16700 256.02700 256.25300
 256.09500 255.54300 253.93500 252.56600 251.38400 250.24500 249.05200 247.70100
 246.01600 243.99600 241.78400 239.39300 236.81300 234.22300 231.65800 229.14400
 226.74000 224.47300 222.33500 220.32500 218.44000 216.67700 214.96200 213.47200
 212.20000 211.10800 210.26000 209.63900 209.24400 209.03100 209.05800 209.33300
 209.78400 210.62600 211.33100 212.39100 213.62500 214.84668 217.72949 219.47640
 220.32566 220.86828 220.88710 220.27371 219.43733 218.84250 219.04934 220.86203
 222.60583 225.72206 229.03064 232.61777 236.12270 239.51333 242.70767 245.68587
 248.41061 250.90679 253.19353 254.91714 256.48655 257.94920 259.39966 260.69384
 261.81714 262.77997 263.71679 264.54570 265.26305 265.89772 266.47676 267.00133
 267.47312 267.89325 268.26027 268.72800
