|-------------------------------------------------------------------------|
|   File Name : in_temp.dat
|   Subject   : temperature profiles used for initial guess atmosphere
|   File Type : input of gmtr
|   Data Type : atmospherical data
|   Author/s  : WRF-Chem
|   Date      : Fri Jul 26 15:39:24 2024
|-------------------------------------------------------------------------|

 WRF-Chem temperature
#
 values of T (K)    (8f10.5)
#
 354.97500 345.04800 334.58700 324.11500 313.32600 302.53700 291.65000 280.76700
 269.93100 259.19300 248.62200 238.61700 229.08700 220.35500 212.54000 205.53500
 199.46400 194.49300 191.14300 189.19000 188.08900 188.01400 188.72400 189.90600
 191.46900 193.38200 195.40300 197.55600 199.80700 202.06000 204.28800 206.47900
 208.55200 210.37800 212.02500 213.65900 214.99800 216.11800 217.17200 218.25900
 219.49400 220.64500 221.67900 222.61400 223.54500 224.98200 226.57100 228.19000
 229.79700 231.81100 233.86500 235.97200 238.24200 240.55300 242.89900 245.25300
 247.48800 249.53500 251.36600 252.84800 254.09800 255.16700 256.02700 256.25300
 256.09500 255.54300 253.93500 252.56600 251.38400 250.24500 249.05200 247.70100
 246.01600 243.99600 241.78400 239.39300 236.81300 234.22300 231.65800 229.14400
 226.74000 224.47300 222.33500 220.32500 218.44000 216.67700 214.96200 213.47200
 212.20000 211.10800 210.26000 209.63900 209.24400 209.03100 209.05800 209.33300
 209.78400 210.62600 211.33100 212.39100 213.62500 214.84668 217.72949 219.47640
 220.32566 220.86828 220.88710 220.27371 219.43733 218.84250 219.04934 220.86203
 222.60583 225.72206 229.03064 232.61777 236.12270 239.51333 242.70767 245.68587
 248.41061 250.90679 253.19353 254.91714 256.48655 257.94920 259.39966 260.69384
 261.81714 262.77997 263.71679 264.54570 265.26305 265.89772 266.47676 267.00133
 267.47312 267.89325 268.26027 268.72800
 366.78100 356.33500 345.76700 334.63300 323.03600 311.23000 299.10000 286.90300
 274.61500 262.51200 250.52100 239.82200 229.94400 221.04800 213.23000 206.23200
 200.06600 195.00400 191.58600 189.62800 188.66500 188.72900 189.56400 190.87200
 192.59700 194.69200 196.95500 199.31400 201.75900 204.23900 206.32700 208.16900
 209.79500 210.94000 211.16900 211.39700 211.33400 211.03900 210.67200 210.30200
 209.91900 209.62900 209.43700 209.30100 209.22900 209.56000 209.94600 210.33500
 211.12800 212.30600 213.55600 215.33900 217.26700 219.31000 221.40500 223.48800
 225.54800 227.63200 229.72900 231.83500 233.96400 236.13600 238.39200 240.76200
 243.38300 245.63400 247.63600 249.40100 250.81800 251.94100 252.76300 253.07900
 253.11600 252.89000 252.25000 251.19800 249.80400 247.96500 245.87400 243.70700
 241.49800 239.30200 237.12200 234.96100 232.82100 230.68800 228.71400 226.87100
 225.15400 223.62600 222.25600 221.02800 219.91000 218.87000 217.97400 217.11500
 216.35700 215.53700 214.63500 213.99900 213.44900 212.85855 212.01316 212.61654
 214.26826 216.08686 218.14273 220.53346 223.40855 226.78828 231.49734 235.90155
 239.42278 243.28576 247.23140 251.11907 254.80144 258.23331 261.38913 264.27520
 266.89312 269.26852 271.44504 273.08845 274.58484 275.98591 277.39845 278.65879
 279.75272 280.69038 281.56708 282.34086 283.01050 283.60295 284.14348 284.63317
 285.07358 285.46577 285.80838 286.24500
 381.81900 372.39900 361.20600 349.77600 337.62200 324.85300 311.81000 298.35300
 284.86000 271.32400 258.56100 246.30400 236.08700 226.79600 218.44800 211.29000
 205.52200 200.89400 197.38100 194.84800 193.01500 192.31500 192.25000 192.43100
 192.91200 193.53700 194.13600 194.71200 195.26200 195.83100 196.39300 196.97600
 197.60400 198.14900 198.58400 199.05700 199.69500 200.37800 201.05400 201.70800
 202.31300 202.85700 203.35500 203.86200 204.56900 205.29700 206.02600 206.98700
 208.19300 209.44100 210.96900 212.57600 214.46200 216.51300 218.63000 220.85300
 223.34100 225.96200 228.73900 231.69700 234.70600 237.70600 240.69200 243.65700
 246.73700 249.69900 252.52100 255.06300 257.29000 259.23300 260.63300 261.68000
 262.46100 262.79800 262.69100 262.22400 261.06900 259.52500 257.70700 255.50700
 253.00100 250.30200 247.39800 244.45200 241.65400 239.05400 236.73300 234.59000
 232.59500 230.72500 228.83400 226.82600 224.66600 222.38700 220.10400 217.71500
 215.45900 213.06600 210.54600 208.09300 205.35400 202.08130 196.05959 200.71215
 209.01611 216.90438 223.84126 229.78593 235.00632 240.20838 245.98943 250.68668
 254.32982 257.93487 261.55666 264.96801 268.15192 271.06452 273.76717 276.25691
 278.57680 280.74479 282.77456 284.60533 286.27232 287.81705 289.31715 290.65561
 291.81734 292.81312 293.70701 294.49387 295.17482 295.77730 296.32696 296.82492
 297.27278 297.67160 298.02000 298.46400
 399.33000 389.90700 379.81300 368.66800 357.52200 345.30100 333.07400 320.22700
 307.21600 293.84800 280.37600 267.29600 254.61000 242.98700 232.15100 221.97700
 212.67200 204.28600 197.66900 192.82100 189.48600 187.45200 186.81400 187.08900
 187.78100 189.05400 190.64800 192.54200 194.63000 196.75200 198.67100 200.15800
 201.53500 202.48700 202.97500 203.34000 203.53900 203.49700 203.38500 203.24700
 203.00500 202.78600 202.60300 202.43700 202.42600 202.88800 203.42000 203.95100
 204.89500 205.99200 207.30100 208.95800 210.73800 213.10000 215.56400 218.18000
 220.96600 223.91800 226.96100 230.09200 233.29300 236.55700 239.95500 243.53700
 246.84500 249.39000 251.54200 253.47400 255.19500 256.48400 257.43100 258.05900
 258.21200 258.04000 257.58200 256.64300 255.23900 253.50700 251.40800 249.05600
 246.57600 243.99400 241.38900 238.83000 236.34400 233.98600 231.96900 230.11800
 228.42300 226.89900 225.54800 224.29700 223.10500 221.96500 220.95800 220.11300
 219.49000 218.92000 218.32500 217.88100 217.42300 216.96366 216.35568 216.80261
 217.73415 218.28582 218.64258 219.10077 220.44626 222.53987 226.38451 230.35736
 233.59734 237.39164 241.29814 245.22796 248.98002 252.51130 255.78595 258.80109
 261.54781 264.05210 266.34239 268.04198 269.58951 271.01303 272.35754 273.55718
 274.59842 275.49092 276.28989 276.99307 277.60161 278.14001 278.63122 279.07623
 279.47646 279.83287 280.14422 280.54100
 399.73800 389.78500 379.66200 368.15100 356.64100 344.35000 331.79200 318.88800
 305.72600 292.49300 279.20900 266.73800 254.69600 244.21100 234.45700 225.43300
 217.56900 210.45100 204.30000 199.30600 195.45800 192.57600 191.02700 190.38600
 190.23900 190.53400 191.16600 191.92500 192.79500 193.76600 194.73200 195.31200
 195.80000 196.05200 196.11500 196.11500 196.03900 195.72300 195.34000 194.98900
 194.75100 194.79200 195.13300 195.59800 196.50600 198.13600 199.85800 201.56600
 204.17900 206.82300 209.89300 213.28400 216.82800 220.60500 224.38700 228.20900
 232.03200 235.82500 239.56000 243.25800 246.84500 250.20100 253.70900 257.46800
 261.53000 264.22100 266.60100 268.68100 270.32900 271.74100 272.83600 273.47400
 273.89800 274.00200 273.75700 273.28800 272.37100 271.10000 269.58900 267.77900
 265.81600 263.72100 261.39300 258.91600 256.29800 253.42300 250.33100 247.11400
 243.83700 240.52900 237.24900 233.99900 230.72800 227.51500 224.25400 220.95200
 217.62700 213.65600 210.12100 206.78900 204.01000 201.99491 199.07309 198.76551
 199.40006 200.48994 201.46112 202.31912 203.45100 204.96110 207.47502 210.85391
 213.70530 217.29629 220.99574 224.72316 228.28753 231.64854 234.68024 237.40893
 239.70644 241.60899 243.46854 245.67368 247.68154 249.52395 251.24767 252.78566
 254.12057 255.26479 256.23740 257.09036 257.82852 258.48160 259.07744 259.61723
 260.10271 260.53504 260.91270 261.39400
 399.73800 389.78500 379.66200 368.15100 356.64100 344.35000 331.79200 318.88800
 305.72600 292.49300 279.20900 266.73800 254.69600 244.21100 234.45700 225.43300
 217.56900 210.45100 204.30000 199.30600 195.45800 192.57600 191.02700 190.38600
 190.23900 190.53400 191.16600 191.92500 192.79500 193.76600 194.73200 195.31200
 195.80000 196.05200 196.11500 196.11500 196.03900 195.72300 195.34000 194.98900
 194.75100 194.79200 195.13300 195.59800 196.50600 198.13600 199.85800 201.56600
 204.17900 206.82300 209.89300 213.28400 216.82800 220.60500 224.38700 228.20900
 232.03200 235.82500 239.56000 243.25800 246.84500 250.20100 253.70900 257.46800
 261.53000 264.22100 266.60100 268.68100 270.32900 271.74100 272.83600 273.47400
 273.89800 274.00200 273.75700 273.28800 272.37100 271.10000 269.58900 267.77900
 265.81600 263.72100 261.39300 258.91600 256.29800 253.42300 250.33100 247.11400
 243.83700 240.52900 237.24900 233.99900 230.72800 227.51500 224.25400 220.95200
 217.62700 213.65600 210.12100 206.78900 204.01000 201.99491 199.07309 198.76551
 199.40006 200.48994 201.46112 202.31912 203.45100 204.96110 207.47502 210.85391
 213.70530 217.29629 220.99574 224.72316 228.28753 231.64854 234.68024 237.40893
 239.70644 241.60899 243.46854 245.67368 247.68154 249.52395 251.24767 252.78566
 254.12057 255.26479 256.23740 257.09036 257.82852 258.48160 259.07744 259.61723
 260.10271 260.53504 260.91270 261.39400
 399.33000 389.90700 379.81300 368.66800 357.52200 345.30100 333.07400 320.22700
 307.21600 293.84800 280.37600 267.29600 254.61000 242.98700 232.15100 221.97700
 212.67200 204.28600 197.66900 192.82100 189.48600 187.45200 186.81400 187.08900
 187.78100 189.05400 190.64800 192.54200 194.63000 196.75200 198.67100 200.15800
 201.53500 202.48700 202.97500 203.34000 203.53900 203.49700 203.38500 203.24700
 203.00500 202.78600 202.60300 202.43700 202.42600 202.88800 203.42000 203.95100
 204.89500 205.99200 207.30100 208.95800 210.73800 213.10000 215.56400 218.18000
 220.96600 223.91800 226.96100 230.09200 233.29300 236.55700 239.95500 243.53700
 246.84500 249.39000 251.54200 253.47400 255.19500 256.48400 257.43100 258.05900
 258.21200 258.04000 257.58200 256.64300 255.23900 253.50700 251.40800 249.05600
 246.57600 243.99400 241.38900 238.83000 236.34400 233.98600 231.96900 230.11800
 228.42300 226.89900 225.54800 224.29700 223.10500 221.96500 220.95800 220.11300
 219.49000 218.92000 218.32500 217.88100 217.42300 216.96366 216.35568 216.80261
 217.73415 218.28582 218.64258 219.10077 220.44626 222.53987 226.38451 230.35736
 233.59734 237.39164 241.29814 245.22796 248.98002 252.51130 255.78595 258.80109
 261.54781 264.05210 266.34239 268.04198 269.58951 271.01303 272.35754 273.55718
 274.59842 275.49092 276.28989 276.99307 277.60161 278.14001 278.63122 279.07623
 279.47646 279.83287 280.14422 280.54100
 381.81900 372.39900 361.20600 349.77600 337.62200 324.85300 311.81000 298.35300
 284.86000 271.32400 258.56100 246.30400 236.08700 226.79600 218.44800 211.29000
 205.52200 200.89400 197.38100 194.84800 193.01500 192.31500 192.25000 192.43100
 192.91200 193.53700 194.13600 194.71200 195.26200 195.83100 196.39300 196.97600
 197.60400 198.14900 198.58400 199.05700 199.69500 200.37800 201.05400 201.70800
 202.31300 202.85700 203.35500 203.86200 204.56900 205.29700 206.02600 206.98700
 208.19300 209.44100 210.96900 212.57600 214.46200 216.51300 218.63000 220.85300
 223.34100 225.96200 228.73900 231.69700 234.70600 237.70600 240.69200 243.65700
 246.73700 249.69900 252.52100 255.06300 257.29000 259.23300 260.63300 261.68000
 262.46100 262.79800 262.69100 262.22400 261.06900 259.52500 257.70700 255.50700
 253.00100 250.30200 247.39800 244.45200 241.65400 239.05400 236.73300 234.59000
 232.59500 230.72500 228.83400 226.82600 224.66600 222.38700 220.10400 217.71500
 215.45900 213.06600 210.54600 208.09300 205.35400 202.08130 196.05959 200.71215
 209.01611 216.90438 223.84126 229.78593 235.00632 240.20838 245.98943 250.68668
 254.32982 257.93487 261.55666 264.96801 268.15192 271.06452 273.76717 276.25691
 278.57680 280.74479 282.77456 284.60533 286.27232 287.81705 289.31715 290.65561
 291.81734 292.81312 293.70701 294.49387 295.17482 295.77730 296.32696 296.82492
 297.27278 297.67160 298.02000 298.46400
 366.78100 356.34157 345.78015 334.65272 323.06229 311.26286 299.13944 286.94901
 274.66758 262.57115 250.58673 239.89430 230.02287 221.13345 213.32202 206.33059
 200.17116 195.11574 191.70431 189.75288 188.79646 188.86703 189.70860 191.02317
 192.75475 194.85632 197.12589 199.49146 201.94304 204.42961 206.52418 208.37276
 210.00533 211.15690 211.39247 211.62705 211.57062 211.28219 210.92177 210.55834
 210.18191 209.89848 209.71306 209.58363 209.51820 209.85577 210.24835 210.64392
 211.44349 212.62807 213.88464 215.67421 217.60878 219.65836 221.75993 223.84950
 225.91608 228.00665 230.11022 232.22279 234.35837 236.53694 238.79951 241.17608
 243.80366 246.06123 248.06980 249.84138 251.26495 252.39452 253.22309 253.54567
 253.58924 253.36981 252.73639 251.69096 250.30353 248.47110 246.38668 244.22625
 242.02382 239.83439 237.66097 235.50654 233.37311 231.24669 229.27926 227.44283
 225.73240 224.21098 222.84755 221.62612 220.51470 219.48127 218.59184 217.73941
 216.98799 216.17456 215.27913 214.64970 214.10628 213.11685 210.78706 209.86646
 210.31906 210.70802 212.09616 215.24295 219.48125 224.20247 229.91072 234.97569
 238.86252 242.86525 247.09229 251.25996 255.05844 258.78409 261.63647 263.58041
 266.22177 268.94775 271.47705 273.80576 275.78986 277.47940 278.97717 280.56470
 282.33234 284.02707 285.57141 286.93097 288.10898 289.15231 290.10486 290.96707
 291.74554 292.43890 293.04608 293.83475
 366.78100 356.34140 345.77980 334.65220 323.06160 311.26200 299.13840 286.94781
 274.66621 262.56961 250.58501 239.89241 230.02081 221.13121 213.31961 206.32801
 200.16841 195.11281 191.70121 189.74962 188.79302 188.86342 189.70482 191.01922
 192.75062 194.85202 197.12142 199.48682 201.93822 204.42462 206.51902 208.36743
 209.99983 211.15123 211.38663 211.62103 211.56443 211.27583 210.91523 210.55163
 210.17503 209.89143 209.70583 209.57623 209.51064 209.84804 210.24044 210.63584
 211.43524 212.61964 213.87604 215.66544 217.59984 219.64924 221.75064 223.84004
 225.90645 227.99685 230.10025 232.21265 234.34805 236.52645 238.78885 241.16525
 243.79265 246.05005 248.05845 249.82985 251.25325 252.38266 253.21106 253.53346
 253.57686 253.35726 252.72366 251.67806 250.29046 248.45786 246.37326 244.21266
 242.01006 239.82047 237.64687 235.49227 233.35867 231.23207 229.26447 227.42787
 225.71727 224.19567 222.83207 221.61047 220.49887 219.46528 218.57568 217.72308
 216.97148 216.15788 215.26228 214.63268 214.08908 213.13626 210.89194 209.97348
 210.31061 210.78375 212.14236 215.15764 219.39777 224.14778 229.82434 234.87981
 238.75883 242.75679 246.99976 251.18707 254.99315 258.73828 261.61411 263.57010
 266.22333 268.94604 271.44794 273.73340 275.73410 277.46335 278.94238 280.50049
 282.25430 283.92838 285.46634 286.82562 288.00497 289.04755 290.00174 290.86407
 291.64447 292.33502 292.94525 293.73758
 366.78100 356.34123 345.77946 334.65168 323.06091 311.26114 299.13737 286.94660
 274.66482 262.56805 250.58328 239.89051 230.01874 221.12896 213.31719 206.32542
 200.16565 195.10987 191.69810 189.74633 188.78956 188.85979 189.70101 191.01524
 192.74647 194.84770 197.11693 199.48215 201.93338 204.41961 206.51384 208.36207
 209.99429 211.14552 211.38075 211.61498 211.55821 211.26943 210.90866 210.54489
 210.16812 209.88434 209.69857 209.56880 209.50303 209.84026 210.23248 210.62771
 211.42694 212.61117 213.86740 215.65662 217.59085 219.64008 221.74131 223.83054
 225.89676 227.98699 230.09022 232.20245 234.33768 236.51590 238.77813 241.15436
 243.78159 246.03882 248.04704 249.81827 251.24150 252.37073 253.19895 253.52118
 253.56441 253.34464 252.71087 251.66509 250.27732 248.44455 246.35978 244.19901
 241.99623 239.80646 237.63269 235.47792 233.34415 231.21737 229.24960 227.41283
 225.70206 224.18029 222.81651 221.59474 220.48297 219.44920 218.55943 217.70665
 216.95488 216.14111 215.24534 214.61556 214.07179 213.15446 210.99303 210.07683
 210.32048 210.83925 212.20004 215.10541 219.28702 224.06279 229.73930 234.79120
 238.66493 242.65836 246.91431 251.11839 254.92975 258.69055 261.58386 263.55331
 266.22052 268.94141 271.41824 273.66190 275.68015 277.45209 278.91254 280.44003
 282.17862 283.83167 285.36316 286.72250 287.90192 288.94675 289.89874 290.76257
 291.54166 292.23483 292.84561 293.64212
 366.78100 356.34091 345.77883 334.65074 323.05965 311.25957 299.13548 286.94440
 274.66231 262.56522 250.58014 239.88705 230.01496 221.12488 213.31279 206.32071
 200.16062 195.10453 191.69245 189.74036 188.78327 188.85319 189.69410 191.00802
 192.73893 194.83984 197.10876 199.47367 201.92458 204.41050 206.50441 208.35233
 209.98424 211.13515 211.37007 211.60398 211.54689 211.25781 210.89672 210.53264
 210.15555 209.87146 209.68538 209.55529 209.48920 209.82612 210.21803 210.61295
 211.41186 212.59577 213.85169 215.64060 217.57451 219.62343 221.72434 223.81326
 225.87917 227.96908 230.07200 232.18391 234.31882 236.49674 238.75865 241.13457
 243.76148 246.01839 248.02631 249.79722 251.22013 252.34905 253.17696 253.49888
 253.54179 253.32170 252.68762 251.64153 250.25344 248.42036 246.33527 244.17419
 241.97110 239.78101 237.60693 235.45184 233.31775 231.19067 229.22258 227.38550
 225.67441 224.15232 222.78824 221.56615 220.45406 219.41998 218.52989 217.67681
 216.92472 216.11063 215.21455 214.58446 214.04037 213.16451 211.09991 210.17422
 210.34496 210.88536 212.24260 215.07060 219.17616 223.97089 229.66138 234.70952
 238.57539 242.56271 246.82954 251.04945 254.86560 258.63959 261.54752 263.53180
 266.21350 268.93317 271.38708 273.59128 275.62827 277.44229 278.88696 280.38474
 282.10507 283.73993 285.26221 286.62256 287.80109 288.84543 289.79953 290.66443
 291.44345 292.13837 292.74698 293.55270
 366.78100 356.34060 345.77819 334.64979 323.05838 311.25798 299.13357 286.94217
 274.65976 262.56236 250.57696 239.88355 230.01115 221.12074 213.30834 206.31593
 200.15553 195.09913 191.68672 189.73432 188.77691 188.84651 189.68710 191.00070
 192.73129 194.83189 197.10049 199.46508 201.91568 204.40127 206.49487 208.34246
 209.97406 211.12465 211.35925 211.59285 211.53544 211.24604 210.88463 210.52023
 210.14282 209.85842 209.67202 209.54161 209.47521 209.81180 210.20340 210.59799
 211.39659 212.58018 213.83578 215.62438 217.55797 219.60657 221.70716 223.79576
 225.86135 227.95095 230.05354 232.16514 234.29974 236.47733 238.73893 241.11452
 243.74112 245.99771 248.00531 249.77591 251.19850 252.32710 253.15469 253.47629
 253.51888 253.29848 252.66407 251.61767 250.22927 248.39586 246.31046 244.14905
 241.94565 239.75524 237.58084 235.42543 233.29103 231.16363 229.19522 227.35782
 225.64641 224.12401 222.75960 221.53720 220.42480 219.39039 218.49999 217.64658
 216.89418 216.07977 215.18337 214.55296 214.00856 213.17314 211.20322 210.27596
 210.37830 210.92709 212.27107 215.04459 219.07312 223.87904 229.58815 234.62953
 238.48532 242.46631 246.74382 250.97934 254.80345 258.58813 261.50854 263.50766
 266.20230 268.92111 271.35446 273.52161 275.57617 277.43256 278.86530 280.33392
 282.03656 283.65259 285.16559 286.52505 287.70496 288.75006 289.70450 290.57056
 291.34863 292.04517 292.65491 293.45889
 366.78100 356.34036 345.77773 334.64909 323.05746 311.25682 299.13219 286.94055
 274.65792 262.56028 250.57465 239.88101 230.00838 221.11774 213.30511 206.31247
 200.15184 195.09520 191.68257 189.72993 188.77229 188.84166 189.68202 190.99539
 192.72575 194.82612 197.09448 199.45885 201.90921 204.39458 206.48794 208.33531
 209.96667 211.11704 211.35140 211.58477 211.52713 211.23750 210.87586 210.51122
 210.13359 209.84895 209.66232 209.53168 209.46505 209.80141 210.19278 210.58714
 211.38551 212.56887 213.82424 215.61260 217.54597 219.59433 221.69470 223.78306
 225.84843 227.93779 230.04015 232.15152 234.28588 236.46325 238.72461 241.09998
 243.72634 245.98271 247.99007 249.76044 251.18280 252.31117 253.13853 253.45990
 253.50226 253.28163 252.64699 251.60036 250.21172 248.37808 246.29245 244.13081
 241.92718 239.73654 237.56191 235.40627 233.27164 231.14400 229.17537 227.33773
 225.62610 224.10346 222.73883 221.51619 220.40356 219.36892 218.47829 217.62465
 216.87201 216.05738 215.16074 214.53011 213.98547 213.18523 211.29785 210.38660
 210.41655 210.96574 212.29404 215.02101 218.97675 223.78497 229.51871 234.54822
 238.39401 242.37033 246.65813 250.90958 254.74409 258.53857 261.46823 263.48038
 266.18597 268.90384 271.31979 273.45349 275.52356 277.42117 278.84659 280.29117
 281.97409 283.57416 285.07510 286.43460 287.61502 288.65921 289.61374 290.48062
 291.26053 291.95731 292.57138 293.37466
 366.78100 356.34022 345.77744 334.64866 323.05688 311.25610 299.13132 286.93954
 274.65676 262.55898 250.57320 239.87942 230.00664 221.11586 213.30308 206.31030
 200.14952 195.09274 191.67996 189.72718 188.76940 188.83862 189.67884 190.99205
 192.72227 194.82249 197.09071 199.45493 201.90515 204.39037 206.48359 208.33081
 209.96203 211.11225 211.34647 211.57969 211.52191 211.23213 210.87035 210.50557
 210.12779 209.84301 209.65623 209.52545 209.45867 209.79489 210.18611 210.58033
 211.37855 212.56177 213.81699 215.60521 217.53843 219.58665 221.68687 223.77509
 225.84031 227.92953 230.03175 232.14297 234.27719 236.45441 238.71563 241.09085
 243.71707 245.97329 247.98051 249.75073 251.17294 252.30116 253.12838 253.44960
 253.49182 253.27104 252.63626 251.58948 250.20070 248.36692 246.28114 244.11936
 241.91558 239.72480 237.55002 235.39424 233.25946 231.13168 229.16290 227.32512
 225.61334 224.09056 222.72578 221.50300 220.39022 219.35544 218.46466 217.61088
 216.85810 216.04332 215.14654 214.51576 213.97098 213.20091 211.38445 210.50623
 210.45935 211.00510 212.31209 214.99498 218.88695 223.68726 229.44972 234.46434
 238.30273 242.27701 246.57417 250.84132 254.68887 258.49069 261.42578 263.44885
 266.16321 268.88007 271.28055 273.38571 275.47000 277.40454 278.82928 280.25452
 281.91812 283.50415 284.99277 286.35159 287.53302 288.57764 289.53250 290.39917
 291.17834 291.87836 292.49008 293.29892
 366.78100 356.34010 345.77720 334.64830 323.05640 311.25550 299.13060 286.93870
 274.65580 262.55790 250.57200 239.87810 230.00520 221.11430 213.30140 206.30850
 200.14760 195.09070 191.67780 189.72490 188.76700 188.83610 189.67620 190.98930
 192.71940 194.81950 197.08760 199.45170 201.90180 204.38690 206.48000 208.32710
 209.95819 211.10829 211.34239 211.57549 211.51759 211.22769 210.86579 210.50089
 210.12299 209.83809 209.65119 209.52029 209.45339 209.78949 210.18059 210.57469
 211.37279 212.55589 213.81099 215.59909 217.53219 219.58029 221.68039 223.76849
 225.83359 227.92269 230.02479 232.13589 234.26999 236.44709 238.70819 241.08329
 243.70939 245.96549 247.97259 249.74269 251.16479 252.29289 253.11999 253.44109
 253.48319 253.26229 252.62739 251.58049 250.19159 248.35769 246.27179 244.10989
 241.90599 239.71509 237.54019 235.38429 233.24939 231.12149 229.15259 227.31469
 225.60279 224.07989 222.71499 221.49209 220.37919 219.34429 218.45339 217.59949
 216.84658 216.03168 215.13478 214.50388 213.95898 213.21713 211.46704 210.62691
 210.51320 211.03934 212.32520 214.97145 218.79822 223.58771 229.38141 234.38028
 238.21222 242.18417 246.49002 250.77193 254.63602 258.44382 261.38220 263.41364
 266.13519 268.85114 271.23932 273.32004 275.41565 277.38345 278.81403 280.22607
 281.86975 283.44128 284.91699 286.27472 287.45636 288.50192 289.45773 290.32404
 291.10544 291.80502 292.41681 293.22766
 366.78100 356.33999 345.77698 334.64797 323.05596 311.25495 299.12994 286.93793
 274.65492 262.55691 250.57090 239.87689 230.00388 221.11287 213.29986 206.30685
 200.14584 195.08883 191.67582 189.72281 188.76480 188.83379 189.67378 190.98677
 192.71676 194.81675 197.08474 199.44873 201.89872 204.38371 206.47670 208.32369
 209.95468 211.10467 211.33866 211.57165 211.51364 211.22363 210.86162 210.49661
 210.11860 209.83359 209.64658 209.51557 209.44856 209.78455 210.17554 210.56953
 211.36752 212.55051 213.80550 215.59349 217.52648 219.57447 221.67446 223.76245
 225.82744 227.91643 230.01842 232.12941 234.26340 236.44039 238.70138 241.07637
 243.70236 245.95835 247.96534 249.73533 251.15732 252.28531 253.11230 253.43329
 253.47528 253.25427 252.61926 251.57225 250.18324 248.34923 246.26322 244.10121
 241.89720 239.70619 237.53118 235.37517 233.24016 231.11215 229.14314 227.30513
 225.59312 224.07011 222.70510 221.48209 220.36908 219.33407 218.44306 217.58905
 216.83604 216.02103 215.12402 214.49301 213.94800 213.23355 211.54787 210.74139
 210.58212 211.08264 212.32582 214.94774 218.71765 223.48456 229.30922 234.29163
 238.11847 242.09149 246.40587 250.70355 254.58719 258.40118 261.33990 263.37692
 266.10175 268.81662 271.19531 273.25372 275.35959 277.35660 278.80078 280.20493
 281.82800 283.38498 284.84744 286.20663 287.38617 288.43262 289.38852 290.25351
 291.03653 291.73480 292.34970 293.16248
 366.78100 356.34020 345.77740 334.64861 323.05681 311.25601 299.13121 286.93941
 274.65662 262.55882 250.57302 239.87922 230.00642 221.11563 213.30283 206.31003
 200.14923 195.09244 191.67964 189.72684 188.76904 188.83824 189.67845 190.99165
 192.72185 194.82205 197.09025 199.45446 201.90466 204.38986 206.48306 208.33026
 209.96147 211.11167 211.34587 211.57907 211.52127 211.23148 210.86968 210.50488
 210.12708 209.84229 209.65549 209.52469 209.45789 209.79409 210.18530 210.57950
 211.37770 212.56090 213.81610 215.60431 217.53751 219.58571 221.68591 223.77411
 225.83932 227.92852 230.03072 232.14192 234.27612 236.45333 238.71453 241.08973
 243.71593 245.97214 247.97934 249.74954 251.17174 252.29994 253.12715 253.44835
 253.49055 253.26975 252.63495 251.58816 250.19936 248.36556 246.27976 244.11796
 241.91417 239.72337 237.54857 235.39277 233.25797 231.13018 229.16138 227.32358
 225.61178 224.08898 222.72419 221.50139 220.38859 219.35379 218.46300 217.60920
 216.85640 216.04160 215.14480 214.51401 213.96921 213.26578 211.60620 210.87274
 210.66170 211.12427 212.33408 214.91074 218.62080 223.37746 229.23836 234.20682
 238.02937 242.00276 246.32253 250.63403 254.53973 258.35886 261.29514 263.33664
 266.06326 268.77774 271.15088 273.19089 275.30362 277.32712 278.79263 280.19351
 281.79404 283.33521 284.78265 286.13986 287.32108 288.36716 289.32324 290.19040
 290.97260 291.67181 292.28561 293.10309
 366.78100 356.34011 345.77722 334.64833 323.05643 311.25554 299.13065 286.93876
 274.65587 262.55798 250.57208 239.87819 230.00530 221.11441 213.30152 206.30863
 200.14773 195.09084 191.67795 189.72506 188.76717 188.83628 189.67638 190.98949
 192.71960 194.81971 197.08782 199.45193 201.90203 204.38714 206.48025 208.32736
 209.95847 211.10858 211.34269 211.57579 211.51790 211.22801 210.86612 210.50123
 210.12334 209.83844 209.65155 209.52066 209.45377 209.78988 210.18099 210.57509
 211.37320 212.55631 213.81142 215.59953 217.53264 219.58074 221.68085 223.76896
 225.83407 227.92318 230.02529 232.13639 234.27050 236.44761 238.70872 241.08383
 243.70994 245.96605 247.97315 249.74326 251.16537 252.29348 253.12059 253.44170
 253.48380 253.26291 252.62802 251.58113 250.19224 248.35835 246.27245 244.11056
 241.90667 239.71578 237.54089 235.38500 233.25010 231.12221 229.15332 227.31543
 225.60354 224.08065 222.71575 221.49286 220.37997 219.34508 218.45419 217.60030
 216.84741 216.03251 215.13562 214.50473 213.95984 213.28268 211.68480 210.96857
 210.78355 211.18729 212.29646 214.88513 218.54875 223.26796 229.16095 234.10989
 237.92732 241.90419 246.23225 250.55981 254.49548 258.32370 261.26074 263.30444
 266.02722 268.73840 271.10507 273.12854 275.24472 277.29031 278.78027 280.18494
 281.76505 283.28967 284.72217 286.08002 287.26050 288.30661 289.26135 290.13025
 290.91324 291.61389 292.22894 293.04379
 366.78100 356.34039 345.77778 334.64917 323.05756 311.25695 299.13234 286.94073
 274.65812 262.56051 250.57489 239.88128 230.00867 221.11806 213.30545 206.31284
 200.15223 195.09562 191.68301 189.73040 188.77279 188.84218 189.68257 190.99596
 192.72635 194.82674 197.09513 199.45952 201.90990 204.39529 206.48868 208.33607
 209.96746 211.11785 211.35224 211.58563 211.52802 211.23841 210.87680 210.51219
 210.13458 209.84997 209.66336 209.53275 209.46614 209.80253 210.19391 210.58830
 211.38669 212.57008 213.82547 215.61386 217.54725 219.59564 221.69603 223.78442
 225.84981 227.93920 230.04159 232.15298 234.28737 236.46476 238.72615 241.10154
 243.72793 245.98431 247.99170 249.76209 251.18448 252.31287 253.14026 253.46165
 253.50404 253.28343 252.64882 251.60221 250.21360 248.37999 246.29438 244.13277
 241.92916 239.73855 237.56394 235.40832 233.27371 231.14610 229.17749 227.33988
 225.62827 224.10566 222.74105 221.51844 220.40583 219.37122 218.48061 217.62700
 216.87439 216.05978 215.16317 214.53256 213.98795 213.31647 211.73209 211.10681
 210.87860 211.25594 212.32950 214.83484 218.41440 223.13794 229.07062 234.00549
 237.82649 241.81329 246.15135 250.49809 254.46599 258.30325 261.23962 263.27689
 265.98633 268.69064 271.05002 273.05771 275.17795 277.24219 278.75851 280.17624
 281.73843 283.24686 284.66580 286.02438 287.20428 288.24997 289.20709 290.07397
 290.85675 291.55798 292.17334 292.99112
 366.78100 356.34134 345.77968 334.65202 323.06136 311.26170 299.13804 286.94738
 274.66571 262.56905 250.58439 239.89173 230.02007 221.13041 213.31875 206.32709
 200.16743 195.11177 191.70011 189.74845 188.79179 188.86213 189.70346 191.01780
 192.74914 194.85048 197.11982 199.48516 201.93650 204.42284 206.51718 208.36552
 209.99786 211.14920 211.38454 211.61888 211.56222 211.27355 210.91289 210.54923
 210.17257 209.88891 209.70325 209.57359 209.50793 209.84527 210.23761 210.63295
 211.43229 212.61663 213.87297 215.66231 217.59664 219.64598 221.74732 223.83666
 225.90300 227.99334 230.09668 232.20902 234.34436 236.52270 238.78504 241.16138
 243.78872 246.04606 248.05439 249.82573 251.24907 252.37841 253.20675 253.52909
 253.57243 253.35277 252.71911 251.67345 250.28579 248.45313 246.36847 244.20781
 242.00515 239.81548 237.64182 235.48716 233.35350 231.22684 229.25918 227.42252
 225.71186 224.19020 222.82654 221.60488 220.49322 219.45956 218.56990 217.71723
 216.96557 216.15191 215.25625 214.62659 214.08293 213.38495 211.73822 211.22722
 211.07240 211.32889 212.30495 214.72226 218.23964 223.00519 229.00128 233.93304
 237.76108 241.75116 246.08997 250.45084 254.44478 258.28314 261.20682 263.23264
 265.93011 268.62991 270.98459 272.98172 275.10822 277.19028 278.73895 280.17285
 281.71744 283.20792 284.61377 285.97040 287.15021 288.19672 289.15271 290.01984
 290.80460 291.50629 292.12103 292.94135
 366.78100 356.34165 345.78030 334.65295 323.06260 311.26325 299.13990 286.94955
 274.66820 262.57185 250.58750 239.89515 230.02380 221.13445 213.32310 206.33175
 200.17239 195.11704 191.70569 189.75434 188.79799 188.86864 189.71029 191.02494
 192.75659 194.85824 197.12789 199.49354 201.94519 204.43184 206.52649 208.37514
 210.00779 211.15944 211.39509 211.62974 211.57339 211.28504 210.92469 210.56134
 210.18499 209.90164 209.71629 209.58694 209.52159 209.85924 210.25189 210.64753
 211.44718 212.63183 213.88848 215.67813 217.61278 219.66243 221.76408 223.85373
 225.92038 228.01103 230.11468 232.22733 234.36298 236.54163 238.80428 241.18093
 243.80858 246.06623 248.07488 249.84653 251.27018 252.39983 253.22848 253.55113
 253.59478 253.37543 252.74208 251.69673 250.30938 248.47703 246.39267 244.23232
 242.02997 239.84062 237.66727 235.51292 233.37957 231.25322 229.28587 227.44952
 225.73917 224.21782 222.85447 221.63312 220.52177 219.48842 218.59907 217.74672
 216.99537 216.18202 215.28667 214.65732 214.11397 213.42323 211.79324 211.29048
 211.27629 211.34468 212.22478 214.65753 218.14650 222.89912 228.97343 233.90111
 237.71886 241.70102 246.02954 250.39690 254.41466 258.24554 261.14542 263.16583
 265.86288 268.56299 270.91809 272.91159 275.04425 277.14334 278.72974 280.18054
 281.70596 283.17365 284.56473 285.92136 287.10187 288.14603 289.10385 289.97296
 290.75555 291.45691 292.07391 292.89401
 366.78100 356.34149 345.77999 334.65248 323.06198 311.26247 299.13896 286.94846
 274.66695 262.57044 250.58594 239.89343 230.02193 221.13242 213.32091 206.32941
 200.16990 195.11440 191.70289 189.75138 188.79488 188.86537 189.70687 191.02136
 192.75285 194.85435 197.12384 199.48933 201.94083 204.42732 206.52182 208.37031
 210.00280 211.15430 211.38979 211.62429 211.56778 211.27927 210.91877 210.55526
 210.17876 209.89525 209.70974 209.58024 209.51473 209.85222 210.24472 210.64021
 211.43971 212.62420 213.88069 215.67019 217.60468 219.65418 221.75567 223.84516
 225.91166 228.00215 230.10565 232.21814 234.35363 236.53213 238.79462 241.17111
 243.79861 246.05610 248.06460 249.83609 251.25958 252.38908 253.21757 253.54007
 253.58356 253.36405 252.73055 251.68504 250.29754 248.46503 246.38052 244.22002
 242.01751 239.82800 237.65450 235.49999 233.36649 231.23998 229.27247 227.43597
 225.72546 224.20396 222.84045 221.61894 220.50744 219.47393 218.58443 217.73192
 216.98041 216.16691 215.27140 214.64189 214.09839 213.43861 211.88118 211.33702
 211.39648 211.37685 212.20020 214.64322 218.09932 222.83089 228.94040 233.85474
 237.65759 241.63165 245.95190 250.32590 254.37239 258.19443 261.07257 263.09479
 265.79605 268.49850 270.85751 272.84943 274.98535 277.09796 278.72375 280.19305
 281.69861 283.14389 284.51776 285.87463 287.05344 288.10107 289.05560 289.92456
 290.70969 291.41190 292.02762 292.85129
 366.78100 356.34160 345.78020 334.65279 323.06239 311.26299 299.13959 286.94919
 274.66778 262.57138 250.58698 239.89458 230.02318 221.13377 213.32237 206.33097
 200.17157 195.11617 191.70476 189.75336 188.79696 188.86756 189.70915 191.02375
 192.75535 194.85695 197.12655 199.49214 201.94374 204.43034 206.52494 208.37354
 210.00613 211.15773 211.39333 211.62793 211.57153 211.28312 210.92272 210.55932
 210.18292 209.89952 209.71411 209.58471 209.51931 209.85691 210.24951 210.64510
 211.44470 212.62930 213.88590 215.67550 217.61009 219.65969 221.76129 223.85089
 225.91749 228.00808 230.11168 232.22428 234.35988 236.53848 238.80107 241.17767
 243.80527 246.06287 248.07146 249.84306 251.26666 252.39626 253.22486 253.54745
 253.59105 253.37165 252.73825 251.69285 250.30544 248.47304 246.38864 244.22824
 242.02584 239.83643 237.66303 235.50863 233.37523 231.24883 229.28142 227.44502
 225.73462 224.21322 222.84982 221.62841 220.51701 219.48361 218.59421 217.74181
 216.99040 216.17700 215.28160 214.65220 214.10880 213.46701 211.95172 211.40047
 211.48663 211.41922 212.21556 214.63593 218.03748 222.78134 228.89685 233.79044
 237.58011 241.55016 245.86713 250.25159 254.32971 258.14496 261.00574 263.03174
 265.73312 268.43726 270.79782 272.78915 274.92722 277.04883 278.71356 280.20419
 281.69083 283.11563 284.47369 285.83090 287.01007 288.05475 289.01123 289.88080
 290.66479 291.36914 291.98422 292.80780
 366.78100 356.34203 345.78106 334.65409 323.06413 311.26516 299.14219 286.95222
 274.67125 262.57528 250.59132 239.89935 230.02838 221.13941 213.32844 206.33747
 200.17851 195.12354 191.71257 189.76160 188.80563 188.87666 189.71870 191.03373
 192.76576 194.86779 197.13782 199.50385 201.95588 204.44292 206.53795 208.38698
 210.02001 211.17204 211.40807 211.64311 211.58714 211.29917 210.93920 210.57623
 210.20026 209.91730 209.73233 209.60336 209.53839 209.87642 210.26945 210.66549
 211.46552 212.65055 213.90758 215.69761 217.63264 219.68268 221.78471 223.87474
 225.94177 228.03280 230.13683 232.24986 234.38590 236.56493 238.82796 241.20499
 243.83302 246.09105 248.10009 249.87212 251.29615 252.42618 253.25521 253.57824
 253.62228 253.40331 252.77034 251.72537 250.33840 248.50643 246.42247 244.26250
 242.06053 239.87156 237.69859 235.54462 233.41165 231.28569 229.31872 227.48275
 225.77278 224.25181 222.88884 221.66788 220.55691 219.52394 218.63497 217.78300
 217.03203 216.21907 215.32410 214.69513 214.15216 213.51141 211.99828 211.47580
 211.57333 211.47398 212.24475 214.61809 217.96835 222.74146 228.85043 233.71785
 237.49702 241.46683 245.78362 250.18057 254.29172 258.09787 260.94098 262.96997
 265.66852 268.37180 270.73337 272.72626 274.86548 276.99664 278.69791 280.20987
 281.68228 283.08731 284.43323 285.78925 286.96857 288.01379 288.97015 289.83850
 290.62357 291.32611 291.94470 292.76794
 366.78100 356.34264 345.78229 334.65593 323.06657 311.26822 299.14586 286.95650
 274.67614 262.58079 250.59743 239.90607 230.03572 221.14736 213.33700 206.34665
 200.18829 195.13393 191.72357 189.77322 188.81786 188.88950 189.73215 191.04779
 192.78043 194.88308 197.15372 199.52036 201.97300 204.46065 206.55629 208.40593
 210.03958 211.19222 211.42886 211.66451 211.60915 211.32179 210.96243 210.60008
 210.22472 209.94236 209.75801 209.62965 209.56529 209.90394 210.29758 210.69422
 211.49487 212.68051 213.93815 215.72879 217.66444 219.71508 221.81772 223.90837
 225.97601 228.06765 230.17230 232.28594 234.42258 236.60222 238.86587 241.24351
 243.87215 246.13080 248.14044 249.91308 251.33773 252.46837 253.29801 253.62165
 253.66630 253.44794 252.81558 251.77123 250.38487 248.55351 246.47016 244.31080
 242.10944 239.92109 237.74873 235.59537 233.46301 231.33766 229.37130 227.53594
 225.82659 224.30623 222.94387 221.72352 220.61316 219.58080 218.69244 217.84109
 217.09073 216.27837 215.38402 214.75566 214.21330 213.56439 212.03175 211.55655
 211.64835 211.54558 212.28093 214.59341 217.91072 222.70544 228.80093 233.64201
 237.41266 241.38396 245.70244 250.11285 254.25479 258.04800 260.87094 262.90305
 265.60001 268.30350 270.66531 272.66165 274.80460 276.94357 278.68027 280.21494
 281.67468 283.06052 284.39319 285.74927 286.92929 287.97244 288.92935 289.79834
 290.58359 291.28668 291.90561 292.72940
 366.78100 356.34331 345.78363 334.65794 323.06925 311.27156 299.14988 286.96119
 274.68150 262.58681 250.60413 239.91344 230.04375 221.15606 213.34638 206.35669
 200.19900 195.14531 191.73563 189.78594 188.83125 188.90356 189.74688 191.06319
 192.79650 194.89981 197.17113 199.53844 201.99175 204.48006 206.57638 208.42669
 210.06100 211.21432 211.45163 211.68794 211.63325 211.34657 210.98788 210.62619
 210.25150 209.96982 209.78613 209.65844 209.59475 209.93407 210.32838 210.72569
 211.52700 212.71332 213.97163 215.76294 217.69925 219.75057 221.85388 223.94519
 226.01350 228.10582 230.21113 232.32544 234.46275 236.64307 238.90738 241.28569
 243.91501 246.17432 248.18463 249.95794 251.38326 252.51457 253.34488 253.66919
 253.71451 253.49682 252.86513 251.82144 250.43576 248.60507 246.52238 244.36369
 242.16301 239.97532 237.80363 235.65094 233.51926 231.39457 229.42888 227.59419
 225.88551 224.36582 223.00413 221.78444 220.67476 219.64307 218.75538 217.90470
 217.15501 216.34332 215.44963 214.82195 214.28026 213.61945 212.05840 211.63695
 211.71059 211.63026 212.32341 214.56900 217.87079 222.67049 228.74611 233.56285
 237.32771 241.30165 245.62256 250.04651 254.21672 257.99237 260.79181 262.83157
 265.52869 268.23224 270.59598 272.59836 274.74600 276.89322 278.66180 280.21832
 281.66489 283.03320 284.35492 285.71072 286.88965 287.93457 288.89066 289.75955
 290.54645 291.24683 291.86929 292.69168
 366.78100 356.34397 345.78494 334.65991 323.07189 311.27486 299.15383 286.96580
 274.68677 262.59274 250.61072 239.92069 230.05166 221.16463 213.35560 206.36657
 200.20955 195.15652 191.74749 189.79846 188.84443 188.91740 189.76138 191.07835
 192.81232 194.91629 197.18826 199.55623 202.01021 204.49918 206.59615 208.44712
 210.08209 211.23606 211.47403 211.71101 211.65698 211.37095 211.01292 210.65189
 210.27786 209.99684 209.81381 209.68678 209.62375 209.96372 210.35869 210.75667
 211.55864 212.74561 214.00458 215.79655 217.73352 219.78550 221.88947 223.98144
 226.05041 228.14338 230.24935 232.36432 234.50230 236.68327 238.94824 241.32721
 243.95718 246.21715 248.22813 250.00210 251.42807 252.56004 253.39101 253.71598
 253.76196 253.54493 252.91390 251.87087 250.48584 248.65581 246.57379 244.41576
 242.21573 240.02870 237.85767 235.70564 233.57462 231.45059 229.48556 227.65153
 225.94350 224.42447 223.06344 221.84442 220.73539 219.70436 218.81733 217.96730
 217.21827 216.40725 215.51422 214.88719 214.34616 213.67332 212.08366 211.71263
 211.76971 211.72095 212.37337 214.54922 217.84526 222.63359 228.68663 233.48412
 237.24568 241.22127 245.54391 249.98091 254.17607 257.92883 260.70477 262.75723
 265.45654 268.16116 270.52524 272.53540 274.68832 276.84351 278.64035 280.21613
 281.65201 283.00470 284.31766 285.67264 286.85159 287.89642 288.85175 289.72263
 290.50653 291.21121 291.83215 292.65521
 366.78100 356.34464 345.78628 334.66192 323.07456 311.27820 299.15783 286.97047
 274.69211 262.59875 250.61739 239.92803 230.05967 221.17331 213.36495 206.37659
 200.22022 195.16786 191.75950 189.81114 188.85778 188.93142 189.77606 191.09370
 192.82834 194.93298 197.20561 199.57425 202.02889 204.51853 206.61617 208.46781
 210.10345 211.25809 211.49673 211.73437 211.68101 211.39564 211.03828 210.67792
 210.30456 210.02420 209.84184 209.71548 209.65312 209.99376 210.38940 210.78803
 211.59067 212.77831 214.03795 215.83059 217.76823 219.82087 221.92551 224.01815
 226.08779 228.18142 230.28806 232.40370 234.54234 236.72398 238.98962 241.36926
 243.99990 246.26054 248.27218 250.04681 251.47345 252.60609 253.43773 253.76337
 253.81001 253.59365 252.96329 251.92093 250.53657 248.70721 246.62584 244.46848
 242.26912 240.08276 237.91240 235.76104 233.63068 231.50732 229.54296 227.70960
 226.00223 224.48387 223.12351 221.90515 220.79679 219.76643 218.88007 218.03071
 217.28235 216.47199 215.57962 214.95326 214.41290 213.72707 212.10669 211.78024
 211.83755 211.80588 212.43100 214.54280 217.82536 222.59785 228.62741 233.40518
 237.16365 241.13947 245.46455 249.91553 254.13170 257.85809 260.61108 262.68115
 265.38464 268.08960 270.45303 272.47223 274.63132 276.79419 278.61588 280.20837
 281.63550 282.97540 284.28021 285.63535 286.81448 287.85886 288.81406 289.68317
 290.46872 291.17157 291.79218 292.61496
 366.78100 356.34533 345.78766 334.66399 323.07732 311.28165 299.16198 286.97531
 274.69764 262.60497 250.62430 239.93563 230.06796 221.18229 213.37462 206.38695
 200.23128 195.17961 191.77194 189.82427 188.87160 188.94593 189.79126 191.10959
 192.84492 194.95025 197.22358 199.59291 202.04824 204.53857 206.63690 208.48923
 210.12556 211.28089 211.52022 211.75855 211.70588 211.42121 211.06454 210.70487
 210.33220 210.05253 209.87086 209.74519 209.68352 210.02485 210.42118 210.82051
 211.62384 212.81217 214.07250 215.86584 217.80417 219.85750 221.96283 224.05616
 226.12649 228.22082 230.32815 232.44448 234.58381 236.76614 239.03247 241.41280
 244.04413 246.30546 248.31779 250.09312 251.52045 252.65378 253.48611 253.81244
 253.85977 253.64410 253.01443 251.97276 250.58909 248.76042 246.67975 244.52308
 242.32441 240.13874 237.96907 235.81840 233.68873 231.56606 229.60239 227.76972
 226.06305 224.54538 223.18571 221.96804 220.86037 219.83070 218.94503 218.09636
 217.34869 216.53902 215.64735 215.02168 214.48201 213.78133 212.12592 211.83771
 211.91505 211.89471 212.49481 214.55000 217.80104 222.54959 228.57040 233.32945
 237.08203 241.05702 245.38625 249.85228 254.08574 257.78006 260.51038 262.60361
 265.31415 268.01602 270.37744 272.40787 274.57465 276.74615 278.58990 280.19827
 281.61621 282.94431 284.24393 285.59833 286.77805 287.82175 288.77728 289.64767
 290.43063 291.13605 291.75595 292.58194
 366.78100 356.34616 345.78932 334.66648 323.08063 311.28579 299.16695 286.98111
 274.70427 262.61243 250.63259 239.94475 230.07790 221.19306 213.38622 206.39938
 200.24454 195.19370 191.78686 189.84001 188.88817 188.96333 189.80949 191.12865
 192.86481 194.97097 197.24512 199.61528 202.07144 204.56260 206.66176 208.51492
 210.15208 211.30824 211.54839 211.78755 211.73571 211.45187 211.09603 210.73719
 210.36535 210.08650 209.90566 209.78082 209.71998 210.06214 210.45930 210.85946
 211.66362 212.85277 214.11393 215.90809 217.84725 219.90141 222.00757 224.10173
 226.17288 228.26804 230.37620 232.49336 234.63352 236.81668 239.08384 241.46500
 244.09715 246.35931 248.37247 250.14863 251.57679 252.71095 253.54411 253.87126
 253.91942 253.70458 253.07574 252.03490 250.65206 248.82422 246.74437 244.58853
 242.39069 240.20585 238.03701 235.88717 233.75833 231.63649 229.67364 227.84180
 226.13596 224.61912 223.26028 222.04344 220.93660 219.90775 219.02291 218.17507
 217.42823 216.61939 215.72855 215.10371 214.56487 213.84169 212.13310 211.89421
 212.00365 211.97842 212.56683 214.56274 217.76828 222.50731 228.51862 233.25554
 236.99678 240.97154 245.30824 249.79179 254.03911 257.69659 260.40500 262.52621
 265.24512 267.94110 270.29730 272.34021 274.51740 276.69772 278.56070 280.18329
 281.59402 282.91455 284.20941 285.56430 286.74261 287.78549 288.74316 289.61093
 290.39685 291.09952 291.72110 292.54712
 366.78100 356.34687 345.79074 334.66861 323.08348 311.28935 299.17122 286.98609
 274.70996 262.61883 250.63970 239.95257 230.08644 221.20231 213.39618 206.41005
 200.25592 195.20579 191.79966 189.85353 188.90240 188.97827 189.82514 191.14501
 192.88188 194.98875 197.26362 199.63449 202.09136 204.58323 206.68311 208.53698
 210.17485 211.33172 211.57259 211.81246 211.76133 211.47820 211.12307 210.76494
 210.39381 210.11568 209.93555 209.81142 209.75129 210.09416 210.49203 210.89290
 211.69777 212.88764 214.14951 215.94438 217.88425 219.93912 222.04599 224.14086
 226.21273 228.30860 230.41747 232.53534 234.67621 236.86008 239.12795 241.50982
 244.14269 246.40556 248.41943 250.19630 251.62517 252.76004 253.59391 253.92178
 253.97065 253.75652 253.12839 252.08826 250.70613 248.87900 246.79987 244.64474
 242.44761 240.26348 238.09535 235.94622 233.81809 231.69696 229.73483 227.90370
 226.19857 224.68244 223.32432 222.10819 221.00206 219.97393 219.08980 218.24267
 217.49654 216.68841 215.79828 215.17415 214.63602 213.89525 212.14511 211.93677
 212.10129 212.06790 212.63068 214.58229 217.74892 222.46814 228.46465 233.17831
 236.90919 240.88548 245.23318 249.73576 253.99461 257.60974 260.29483 262.44788
 265.17606 267.86160 270.21136 272.26718 274.45798 276.64789 278.52835 280.16364
 281.56854 282.88248 284.17511 285.52951 286.70798 287.75278 288.70828 289.57617
 290.36380 291.06757 291.68942 292.51370
 366.78100 356.34765 345.79230 334.67094 323.08659 311.29324 299.17589 286.99153
 274.71618 262.62583 250.64748 239.96112 230.09577 221.21242 213.40707 206.42171
 200.26836 195.21901 191.81366 189.86830 188.91795 188.99460 189.84225 191.16289
 192.90054 195.00819 197.28384 199.65549 202.11313 204.60578 206.70643 208.56108
 210.19972 211.35737 211.59902 211.83967 211.78931 211.50696 211.15261 210.79526
 210.42490 210.14755 209.96820 209.84485 209.78549 210.12914 210.52779 210.92944
 211.73508 212.92573 214.18838 215.98403 217.92468 219.98032 222.08797 224.18362
 226.25627 228.35291 230.46256 232.58121 234.72286 236.90750 239.17615 241.55880
 244.19245 246.45609 248.47074 250.24839 251.67804 252.81368 253.64833 253.97698
 254.02663 253.81328 253.18592 252.14657 250.76522 248.93887 246.86051 244.70616
 242.50981 240.32646 238.15910 236.01075 233.88340 231.76305 229.80169 227.97134
 226.26699 224.75164 223.39428 222.17893 221.07358 220.04623 219.16287 218.31652
 217.57117 216.76382 215.87447 215.25111 214.71376 213.95053 212.14734 211.99191
 212.18158 212.15543 212.70284 214.61174 217.74049 222.42664 228.41434 233.10626
 236.82475 240.80075 245.15977 249.68274 253.94894 257.51566 260.17484 262.36469
 265.10522 267.77872 270.11987 272.19214 274.39789 276.59906 278.49472 280.14337
 281.54306 282.85162 284.14319 285.49908 286.67578 287.72183 288.67639 289.54642
 290.33142 291.03632 291.65652 292.48215
 366.78100 356.34826 345.79352 334.67278 323.08903 311.29629 299.17955 286.99581
 274.72107 262.63133 250.65359 239.96785 230.10310 221.22036 213.41562 206.43088
 200.27814 195.22940 191.82466 189.87992 188.93017 189.00743 189.85569 191.17695
 192.91521 195.02347 197.29973 199.67199 202.13024 204.62350 206.72476 208.58002
 210.21928 211.37754 211.61980 211.86106 211.81131 211.52957 211.17583 210.81909
 210.44935 210.17261 209.99387 209.87112 209.81238 210.15664 210.55590 210.95816
 211.76442 212.95568 214.21894 216.01519 217.95645 220.01271 222.12097 224.21723
 226.29049 228.38775 230.49801 232.61726 234.75952 236.94478 239.21404 241.59730
 244.23156 246.49582 248.51108 250.28933 251.71959 252.85585 253.69111 254.02037
 254.07063 253.85789 253.23115 252.19240 250.81166 248.98592 246.90818 244.75444
 242.55870 240.37596 238.20921 236.06147 233.93473 231.81499 229.85425 228.02451
 226.32077 224.80603 223.44928 222.23454 221.12980 220.10306 219.22032 218.37458
 217.62984 216.82310 215.93435 215.31161 214.77487 213.99583 212.15524 212.04225
 212.29767 212.22653 212.77147 214.63370 217.70590 222.39014 228.36856 233.03008
 236.73621 240.71216 245.08556 249.63005 253.90033 257.41357 260.04779 262.28149
 265.03629 267.69528 270.02798 272.11850 274.34195 276.55261 278.46326 280.12250
 281.51807 282.82339 284.11414 285.46808 286.64578 287.69055 288.64627 289.51535
 290.30151 291.00589 291.62671 292.45267
 366.78100 356.34853 345.79407 334.67360 323.09013 311.29767 299.18120 286.99774
 274.72327 262.63380 250.65634 239.97087 230.10640 221.22394 213.41947 206.43501
 200.28254 195.23407 191.82961 189.88514 188.93567 189.01321 189.86174 191.18327
 192.92181 195.03034 197.30688 199.67941 202.13794 204.63148 206.73301 208.58854
 210.22808 211.38661 211.62915 211.87068 211.82121 211.53975 211.18628 210.82981
 210.46035 210.18388 210.00541 209.88295 209.82448 210.16902 210.56855 210.97108
 211.77762 212.96915 214.23268 216.02922 217.97075 220.02729 222.13582 224.23235
 226.30589 228.40342 230.51395 232.63349 234.77602 236.96155 239.23109 241.61462
 244.24916 246.51369 248.52922 250.30776 251.73829 252.87482 253.71036 254.03989
 254.09043 253.87796 253.25149 252.21303 250.83256 249.00709 246.92963 244.77616
 242.58069 240.39823 238.23176 236.08430 233.95783 231.83836 229.87790 228.04843
 226.34496 224.83050 223.47403 222.25957 221.15510 220.12863 219.24617 218.40070
 217.65623 216.84977 215.96130 215.33883 214.80237 214.02295 212.18152 212.05853
 212.37976 212.37706 212.83447 214.68394 217.74091 222.30843 228.30357 232.94136
 236.63580 240.61790 245.01103 249.57780 253.84956 257.30756 259.92108 262.20187
 264.96677 267.61066 269.93286 272.04178 274.28162 276.50400 278.42578 280.09457
 281.48654 282.79083 284.08466 285.43994 286.61755 287.66272 288.61896 289.48792
 290.27377 290.97800 291.59641 292.43057
 366.78100 356.34862 345.79425 334.67387 323.09050 311.29812 299.18174 286.99837
 274.72399 262.63462 250.65724 239.97187 230.10749 221.22511 213.42074 206.43636
 200.28399 195.23561 191.83123 189.88686 188.93748 189.01511 189.86373 191.18536
 192.92398 195.03260 197.30923 199.68185 202.14048 204.63410 206.73572 208.59135
 210.23097 211.38960 211.63222 211.87385 211.82447 211.54309 211.18972 210.83334
 210.46397 210.18759 210.00921 209.88684 209.82846 210.17309 210.57271 210.97534
 211.78196 212.97358 214.23721 216.03383 217.97546 220.03208 222.14070 224.23733
 226.31095 228.40858 230.51920 232.63883 234.78145 236.96707 239.23670 241.62032
 244.25495 246.51957 248.53519 250.31382 251.74444 252.88107 253.71669 254.04632
 254.09694 253.88456 253.25819 252.21981 250.83944 249.01406 246.93668 244.78331
 242.58793 240.40556 238.23918 236.09181 233.96543 231.84605 229.88568 228.05630
 226.35293 224.83855 223.48217 222.26780 221.16342 220.13705 219.25467 218.40930
 217.66492 216.85854 215.97017 215.34779 214.81142 214.03874 212.21323 212.08841
 212.44664 212.52803 212.86171 214.69740 217.78845 222.25607 228.24748 232.86452
 236.54961 240.53516 244.94458 249.53322 253.80432 257.20599 259.79044 262.11932
 264.89487 267.51569 269.82489 271.95499 274.21597 276.44986 278.38187 280.06238
 281.45392 282.76190 284.05460 285.41031 286.58701 287.63309 288.58826 289.45721
 290.24268 290.94559 291.56647 292.39780
 366.78100 356.34905 345.79510 334.67515 323.09221 311.30026 299.18431 287.00136
 274.72741 262.63846 250.66151 239.97657 230.11262 221.23067 213.42672 206.44277
 200.29082 195.24287 191.83893 189.89498 188.94603 189.02408 189.87313 191.19518
 192.93423 195.04329 197.32034 199.69339 202.15244 204.64649 206.74854 208.60459
 210.24465 211.40370 211.64675 211.88880 211.83985 211.55890 211.20595 210.85001
 210.48106 210.20511 210.02716 209.90521 209.84726 210.19231 210.59236 210.99542
 211.80247 212.99452 214.25857 216.05562 217.99767 220.05472 222.16378 224.26083
 226.33488 228.43293 230.54398 232.66403 234.80708 236.99314 239.26319 241.64724
 244.28229 246.54734 248.56339 250.34244 251.77350 252.91055 253.74660 254.07665
 254.12770 253.91575 253.28980 252.25186 250.87191 249.04696 246.97001 244.81706
 242.62211 240.44016 238.27422 236.12727 234.00132 231.88237 229.92242 228.09347
 226.39052 224.87658 223.52063 222.30668 221.20273 220.17678 219.29483 218.44988
 217.70594 216.89999 216.01204 215.39009 214.85414 214.07130 212.22177 212.11336
 212.51669 212.67468 212.94612 214.72496 217.81384 222.21548 228.20148 232.79451
 236.46187 240.45033 244.87572 249.48196 253.74004 257.07324 259.63986 262.01987
 264.79922 267.40439 269.70880 271.86594 274.14920 276.39511 278.34164 280.02444
 281.41370 282.72528 284.03378 285.39062 286.57043 287.61523 288.57138 289.44104
 290.22739 290.93198 291.55182 292.37894
 366.78100 356.34990 345.79681 334.67771 323.09561 311.30452 299.18942 287.00732
 274.73423 262.64613 250.67003 239.98593 230.12284 221.24174 213.43864 206.45555
 200.30445 195.25735 191.85426 189.91116 188.96306 189.04197 189.89187 191.21477
 192.95468 195.06458 197.34248 199.71639 202.17629 204.67119 206.77409 208.63100
 210.27190 211.43180 211.67571 211.91861 211.87051 211.59042 211.23832 210.88322
 210.51513 210.24003 210.06293 209.94184 209.88474 210.23064 210.63155 211.03545
 211.84335 213.03625 214.30116 216.09906 218.04196 220.09987 222.20977 224.30767
 226.38258 228.48148 230.59338 232.71429 234.85819 237.04509 239.31600 241.70090
 244.33680 246.60271 248.61961 250.39951 251.83141 252.96932 253.80622 254.13712
 254.18903 253.97793 253.35283 252.31574 250.93664 249.11254 247.03645 244.88435
 242.69025 240.50916 238.34406 236.19796 234.07287 231.95477 229.99567 228.16757
 226.46548 224.95238 223.59728 222.38419 221.28109 220.25599 219.37490 218.53080
 217.78770 216.98261 216.09551 215.47441 214.93932 214.12825 212.21201 212.12254
 212.57590 212.80942 213.08611 214.79811 217.84846 222.18616 228.16631 232.73463
 236.38831 240.37379 244.81572 249.44028 253.69186 256.95642 259.47150 261.90567
 264.69684 267.26767 269.55658 271.74530 274.06287 276.31479 278.26654 279.96021
 281.36420 282.68954 284.00146 285.35571 286.53061 287.57358 288.52914 289.39716
 290.18079 290.88361 291.50177 292.32401
 366.78100 356.34998 345.79696 334.67794 323.09592 311.30490 299.18988 287.00786
 274.73484 262.64682 250.67081 239.98679 230.12377 221.24275 213.43973 206.45671
 200.30569 195.25867 191.85565 189.91263 188.96461 189.04359 189.89357 191.21655
 192.95653 195.06651 197.34449 199.71847 202.17845 204.67344 206.77642 208.63340
 210.27438 211.43436 211.67834 211.92132 211.87330 211.59328 211.24126 210.88624
 210.51822 210.24320 210.06618 209.94516 209.88814 210.23412 210.63510 211.03908
 211.84706 213.04005 214.30503 216.10301 218.04599 220.10397 222.21395 224.31193
 226.38691 228.48589 230.59787 232.71885 234.86283 237.04981 239.32079 241.70577
 244.34175 246.60773 248.62471 250.40469 251.83668 252.97466 253.81164 254.14262
 254.19460 253.98358 253.35856 252.32154 250.94252 249.11850 247.04248 244.89046
 242.69644 240.51542 238.35040 236.20438 234.07936 231.96134 230.00232 228.17431
 226.47229 224.95927 223.60425 222.39123 221.28821 220.26319 219.38217 218.53815
 217.79513 216.99011 216.10309 215.48207 214.94705 214.14688 212.25731 212.13487
 212.57121 212.85542 213.19835 214.88048 217.88245 222.17160 228.11707 232.70810
 236.32164 240.32317 244.77312 249.40918 253.65689 256.90457 259.43625 261.89261
 264.63010 267.17896 269.45950 271.66119 273.97427 276.22318 278.17712 279.85818
 281.26541 282.61423 283.97202 285.33408 286.51480 287.56027 288.51682 289.38693
 290.17422 290.88062 291.51398 292.33945
 366.78100 356.34941 345.79582 334.67623 323.09364 311.30204 299.18645 287.00386
 274.73027 262.64168 250.66509 239.98050 230.11691 221.23531 213.43172 206.44813
 200.29654 195.24895 191.84536 189.90177 188.95318 189.03158 189.88099 191.20340
 192.94281 195.05222 197.32963 199.70304 202.16245 204.65685 206.75926 208.61567
 210.25608 211.41549 211.65890 211.90131 211.85272 211.57212 211.21953 210.86394
 210.49535 210.21976 210.04217 209.92058 209.86299 210.20839 210.60880 211.01221
 211.81962 213.01203 214.27644 216.07385 218.01626 220.07366 222.18307 224.28048
 226.35489 228.45330 230.56471 232.68512 234.82853 237.01494 239.28534 241.66975
 244.30516 246.57057 248.58698 250.36639 251.79780 252.93521 253.77161 254.10202
 254.15343 253.94184 253.31625 252.27866 250.89907 249.07448 246.99788 244.84529
 242.65070 240.46911 238.30352 236.15693 234.03134 231.91275 229.95315 228.12456
 226.42197 224.90838 223.55279 222.33920 221.23561 220.21002 219.32842 218.48383
 217.74024 216.93465 216.04706 215.42547 214.88988 214.12314 212.31651 212.20595
 212.59039 212.84486 213.21921 214.89064 217.85872 222.13426 228.06238 232.63704
 236.24457 240.25790 244.72954 249.38229 253.63716 256.87366 259.42853 261.93527
 264.64621 267.18439 269.45923 271.66992 273.96890 276.20496 278.16266 279.83615
 281.24356 282.58865 283.94778 285.31024 286.49286 287.54193 288.50266 289.37973
 290.17792 290.89407 291.54834 292.39206
 366.78100 356.34911 345.79522 334.67532 323.09243 311.30054 299.18465 287.00175
 274.72786 262.63897 250.66208 239.97718 230.11329 221.23140 213.42751 206.44361
 200.29172 195.24383 191.83994 189.89604 188.94715 189.02526 189.87437 191.19647
 192.93558 195.04469 197.32180 199.69490 202.15401 204.64812 206.75023 208.60633
 210.24644 211.40555 211.64866 211.89076 211.84187 211.56098 211.20809 210.85220
 210.48330 210.20741 210.02952 209.90763 209.84973 210.19484 210.59495 210.99806
 211.80516 212.99727 214.26138 216.05849 218.00059 220.05770 222.16681 224.26392
 226.33802 228.43613 230.54724 232.66735 234.81045 236.99656 239.26667 241.65078
 244.28588 246.55099 248.56710 250.34621 251.77731 252.91442 253.75053 254.08064
 254.13174 253.91985 253.29396 252.25607 250.87617 249.05128 246.97439 244.82150
 242.62661 240.44471 238.27882 236.13193 234.00604 231.88714 229.92725 228.09836
 226.39547 224.88157 223.52568 222.31179 221.20790 220.18200 219.30011 218.45522
 217.71133 216.90543 216.01754 215.39565 214.85976 214.10278 212.31435 212.32539
 212.70105 212.90990 213.28174 214.90627 217.79884 222.06670 228.01770 232.52202
 236.13350 240.14999 244.65622 249.33705 253.57579 256.72702 259.27014 261.86066
 264.61667 267.14111 269.41592 271.64349 273.96136 276.21161 278.17404 279.85165
 281.23706 282.56552 283.92145 285.28595 286.46765 287.51468 288.47314 289.34601
 290.13226 290.83908 291.46008 292.28671
 366.78100 356.34823 345.79347 334.67270 323.08893 311.29617 299.17940 286.99564
 274.72087 262.63110 250.65334 239.96757 230.10280 221.22004 213.41527 206.43051
 200.27774 195.22897 191.82421 189.87944 188.92967 189.00691 189.85514 191.17637
 192.91461 195.02284 197.29908 199.67131 202.12954 204.62278 206.72401 208.57924
 210.21848 211.37671 211.61895 211.86018 211.81041 211.52865 211.17488 210.81811
 210.44835 210.17158 209.99282 209.87005 209.81128 210.15552 210.55475 210.95698
 211.76322 212.95445 214.21768 216.01392 217.95515 220.01139 222.11962 224.21585
 226.28909 228.38632 230.49655 232.61579 234.75802 236.94326 239.21249 241.59572
 244.22996 246.49419 248.50942 250.28766 251.71789 252.85412 253.68936 254.01859
 254.06883 253.85606 253.22929 252.19053 250.80976 248.98399 246.90623 244.75246
 242.55670 240.37393 238.20716 236.05940 233.93263 231.81286 229.85210 228.02233
 226.31857 224.80380 223.44703 222.23227 221.12750 220.10073 219.21797 218.37220
 217.62743 216.82067 215.93190 215.30914 214.77237 214.05223 212.35080 212.46025
 212.81750 212.94547 213.33513 214.94756 217.78488 222.04102 227.97188 232.44429
 236.05821 240.08441 244.61058 249.30627 253.54222 256.65793 259.18112 261.71661
 264.44281 266.96878 269.23322 271.47028 273.83765 276.11017 278.06992 279.76343
 281.16647 282.54324 283.90125 285.26334 286.44250 287.48334 288.43771 289.30121
 290.08041 290.77710 291.39209 292.19995
 366.78100 356.34718 345.79137 334.66955 323.08473 311.29092 299.17310 286.98829
 274.71247 262.62165 250.64284 239.95602 230.09020 221.20639 213.40057 206.41476
 200.26094 195.21112 191.80531 189.85949 188.90867 188.98486 189.83204 191.15223
 192.88941 194.99659 197.27178 199.64296 202.10014 204.59233 206.69251 208.54670
 210.18488 211.34206 211.58325 211.82343 211.77261 211.48980 211.13498 210.77717
 210.40635 210.12853 209.94872 209.82490 209.76508 210.10827 210.50645 210.90764
 211.71282 212.90300 214.16519 215.96037 217.90055 219.95574 222.06292 224.15811
 226.23029 228.32647 230.43566 232.55384 234.69502 236.87921 239.14739 241.52958
 244.16276 246.42594 248.44013 250.21731 251.64649 252.78168 253.61586 253.94405
 253.99323 253.77941 253.15160 252.11178 250.72996 248.90315 246.82433 244.66952
 242.47270 240.28888 238.12107 235.97225 233.84443 231.72362 229.76180 227.93099
 226.22617 224.71035 223.35254 222.13672 221.03090 220.00309 219.11927 218.27245
 217.52664 216.71882 215.82901 215.20519 214.66737 214.01277 212.50902 212.45724
 212.79437 212.89839 213.37193 214.99139 217.81711 222.04164 227.78369 232.38631
 235.93964 240.03166 244.56137 249.19759 253.28511 256.40448 259.13345 261.99921
 264.68549 267.11411 269.38464 271.59567 273.81955 275.93497 277.82007 279.43268
 280.81216 282.25638 283.66071 284.98541 286.16907 287.23007 288.22021 289.14981
 290.00620 290.76883 291.43506 292.28409
 366.78100 356.34897 345.79494 334.67490 323.09187 311.29984 299.18381 287.00078
 274.72674 262.63771 250.66068 239.97565 230.11162 221.22959 213.42555 206.44152
 200.28949 195.24146 191.83743 189.89339 188.94436 189.02233 189.87130 191.19327
 192.93223 195.04120 197.31817 199.69114 202.15011 204.64407 206.74604 208.60201
 210.24198 211.40095 211.64392 211.88588 211.83685 211.55582 211.20279 210.84676
 210.47772 210.20169 210.02366 209.90163 209.84360 210.18856 210.58853 210.99150
 211.79847 212.99044 214.25440 216.05137 217.99334 220.05031 222.15928 224.25625
 226.33021 228.42818 230.53915 232.65912 234.80209 236.98805 239.25802 241.64199
 244.27696 246.54193 248.55789 250.33686 251.76783 252.90480 253.74077 254.07074
 254.12170 253.90967 253.28364 252.24561 250.86558 249.04054 246.96351 244.81048
 242.61545 240.43342 238.26738 236.12035 233.99432 231.87529 229.91526 228.08622
 226.38319 224.86916 223.51313 222.29910 221.19507 220.16903 219.28700 218.44197
 217.69794 216.89191 216.00387 215.38184 214.84581 214.12636 212.51765 212.40639
 212.82657 212.96829 213.53047 215.12668 217.88983 222.08551 227.70775 232.29948
 235.87027 239.99008 244.53708 249.18059 253.23767 256.31995 259.18222 262.18024
 264.93359 267.33737 269.60025 271.76349 273.87524 275.85400 277.61957 279.09668
 280.56964 282.09125 283.52380 284.88516 286.10205 287.23016 288.26630 289.20499
 290.04922 290.80106 291.45779 292.29477
 366.78100 356.35019 345.79738 334.67856 323.09675 311.30594 299.19113 287.00932
 274.73651 262.64869 250.67288 239.98907 230.12626 221.24545 213.44263 206.45982
 200.30901 195.26220 191.85939 189.91658 188.96876 189.04795 189.89814 191.22133
 192.96152 195.07170 197.34989 199.72408 202.18427 204.67946 206.78265 208.63983
 210.28102 211.44121 211.68540 211.92859 211.88077 211.60096 211.24915 210.89434
 210.52653 210.25172 210.07490 209.95409 209.89728 210.24347 210.64466 211.04885
 211.85703 213.05022 214.31541 216.11360 218.05679 220.11497 222.22516 224.32335
 226.39854 228.49773 230.60992 232.73110 234.87529 237.06248 239.33367 241.71886
 244.35504 246.62123 248.63842 250.41861 251.85080 252.98899 253.82617 254.15736
 254.20955 253.99874 253.37393 252.33711 250.95830 249.13449 247.05868 244.90687
 242.71306 240.53224 238.36743 236.22162 234.09681 231.97900 230.02018 228.19237
 226.49056 224.97775 223.62294 222.41013 221.30731 220.28250 219.40169 218.55788
 217.81507 217.01025 216.12344 215.50263 214.96782 214.18872 212.43584 212.43144
 212.88959 213.06921 213.66577 215.14050 217.84000 222.01378 227.62071 232.20184
 235.77786 239.92082 244.50192 249.13191 253.12843 256.22116 259.16791 262.19043
 264.95978 267.41864 269.71524 271.89609 274.05383 276.10736 277.94571 279.47910
 280.82111 282.18268 283.51785 284.85306 286.04150 287.12781 288.16660 289.11133
 289.96103 290.71765 291.37866 292.22101
 366.78100 356.35104 345.79908 334.68112 323.10016 311.31020 299.19624 287.01528
 274.74332 262.65636 250.68140 239.99844 230.13648 221.25652 213.45456 206.47260
 200.32264 195.27668 191.87472 189.93276 188.98580 189.06584 189.91688 191.24092
 192.98196 195.09300 197.37204 199.74708 202.20812 204.70416 206.80820 208.66624
 210.30828 211.46932 211.71436 211.95840 211.91144 211.63248 211.28152 210.92756
 210.56060 210.28664 210.11068 209.99072 209.93476 210.28180 210.68384 211.08888
 211.89792 213.09196 214.35800 216.15704 218.10108 220.16012 222.27116 224.37020
 226.44625 228.54629 230.65933 232.78137 234.92641 237.11445 239.38649 241.77253
 244.40957 246.67661 248.69465 250.47569 251.90873 253.04777 253.88581 254.21785
 254.27089 254.06093 253.43697 252.40101 251.02305 249.20009 247.12513 244.97417
 242.78121 240.60125 238.43729 236.29233 234.16837 232.05141 230.09345 228.26649
 226.56553 225.05357 223.69961 222.48765 221.38569 220.36173 219.48177 218.63881
 217.89685 217.09289 216.20693 215.58697 215.05301 214.21304 212.28307 212.56944
 213.27327 213.33475 213.87381 215.18831 217.75179 221.86444 227.50879 232.01198
 235.61330 239.77388 244.34891 248.90121 252.79469 255.85175 258.69739 261.69543
 264.46210 266.98520 269.36948 271.69330 273.97507 276.14969 278.10904 279.79309
 281.16751 282.44897 283.70126 284.92184 286.07220 287.11581 288.07968 288.96777
 289.85995 290.66776 291.37341 292.27271
 366.78100 356.35404 345.80508 334.69012 323.11216 311.32520 299.21424 287.03629
 274.76733 262.68337 250.71141 240.03145 230.17249 221.29553 213.49657 206.51761
 200.37065 195.32769 191.92873 189.98977 189.04581 189.12886 189.98290 191.30994
 193.05398 195.16802 197.45006 199.82810 202.29214 204.79118 206.89822 208.75926
 210.40430 211.56834 211.81638 212.06343 212.01947 211.74351 211.39555 211.04459
 210.68063 210.40967 210.23671 210.11975 210.06679 210.41683 210.82187 211.22991
 212.04196 213.23900 214.50804 216.31008 218.25712 220.31916 222.43320 224.53524
 226.61428 228.71732 230.83336 232.95840 235.10644 237.29748 239.57253 241.96157
 244.60161 246.87165 248.89269 250.67673 252.11277 253.25481 254.09585 254.43089
 254.48693 254.27997 253.65901 252.62605 251.25110 249.43114 247.35918 245.21122
 243.02126 240.84430 238.68334 236.54138 234.42042 232.30646 230.35150 228.52754
 226.82958 225.32063 223.96967 222.76071 221.66175 220.64079 219.76383 218.92387
 218.18491 217.38395 216.50099 215.88403 215.35307 214.36635 212.06859 212.50908
 213.59894 213.64769 214.10599 215.30554 217.72453 221.76921 227.48225 231.88562
 235.49225 239.66301 244.26413 248.82124 252.66925 255.63229 258.41205 261.39291
 264.10855 266.62115 269.04422 271.44766 273.81357 276.05585 278.05392 279.77203
 281.21698 282.51678 283.77985 284.99457 286.14026 287.17865 288.13367 289.00784
 289.80911 290.56989 291.24167 292.09781
 366.78100 356.35493 345.80686 334.69279 323.11572 311.32965 299.21958 287.04251
 274.77444 262.69137 250.72030 240.04123 230.18316 221.30709 213.50902 206.53095
 200.38488 195.34281 191.94474 190.00667 189.06360 189.14753 190.00246 191.33039
 193.07532 195.19025 197.47318 199.85211 202.31704 204.81697 206.92490 208.78683
 210.43276 211.59769 211.84662 212.09455 212.05147 211.77640 211.42933 211.07926
 210.71619 210.44612 210.27405 210.15798 210.10591 210.45684 210.86277 211.27170
 212.08463 213.28256 214.55249 216.35542 218.30335 220.36628 222.48121 224.58414
 226.66407 228.76800 230.88493 233.01086 235.15979 237.35172 239.62765 242.01758
 244.65851 246.92944 248.95137 250.73630 252.17323 253.31616 254.15809 254.49402
 254.55095 254.34488 253.72481 252.69274 251.31867 249.49960 247.42853 245.28146
 243.09239 240.91632 238.75625 236.61518 234.49511 232.38204 230.42797 228.60490
 226.90783 225.39976 224.04969 222.84162 221.74355 220.72348 219.84741 219.00834
 218.27027 217.47020 216.58813 215.97206 215.44199 214.42229 212.01315 212.37723
 213.74947 213.86198 214.26961 215.34927 217.70161 221.74319 227.48761 231.81549
 235.43608 239.60847 244.24136 248.83121 252.68539 255.62334 258.37732 261.32349
 263.99338 266.49832 268.94012 271.36972 273.75839 276.01437 277.99643 279.69363
 281.15137 282.48996 283.79950 285.05432 286.18631 287.21838 288.16776 289.03601
 289.82742 290.53851 291.16656 291.97058
 366.78100 356.35287 345.80274 334.68661 323.10748 311.31935 299.20721 287.02808
 274.75795 262.67282 250.69969 240.01856 230.15843 221.28030 213.48017 206.50004
 200.35190 195.30777 191.90764 189.96751 189.02238 189.10425 189.95712 191.28299
 193.02586 195.13873 197.41959 199.79646 202.25933 204.75720 206.86307 208.72294
 210.36681 211.52968 211.77655 212.02242 211.97728 211.70015 211.35102 210.99889
 210.63376 210.36163 210.18750 210.06937 210.01524 210.36411 210.76797 211.17484
 211.98571 213.18158 214.44945 216.25032 218.19619 220.25706 222.36993 224.47080
 226.54866 228.65053 230.76540 232.88927 235.03614 237.22601 239.49988 241.88775
 244.52662 246.79549 248.81535 250.59822 252.03309 253.17396 254.01383 254.34770
 254.40257 254.19444 253.57231 252.53818 251.16204 249.34091 247.26778 245.11865
 242.92752 240.74939 238.58726 236.44413 234.32200 232.20687 230.25073 228.42560
 226.72647 225.21634 223.86421 222.65408 221.55395 220.53182 219.65369 218.81256
 218.07242 217.27029 216.38616 215.76803 215.23590 214.32292 212.16591 212.35513
 213.85599 213.87463 214.11131 215.36807 217.73993 221.74432 227.45627 231.77985
 235.40161 239.57417 244.23055 248.85623 252.75278 255.64687 258.33466 261.26074
 263.91257 266.41449 268.86591 271.29196 273.69528 275.94696 277.87927 279.54211
 280.98013 282.38339 283.76614 285.06601 286.22012 287.25854 288.21085 289.07968
 289.87393 290.58322 291.19684 291.96930
 366.78100 356.35203 345.80106 334.68410 323.10413 311.31516 299.20219 287.02223
 274.75126 262.66529 250.69132 240.00935 230.14839 221.26942 213.46845 206.48748
 200.33852 195.29355 191.89258 189.95161 189.00564 189.08668 189.93871 191.26374
 193.00577 195.11781 197.39784 199.77387 202.23590 204.73293 206.83797 208.69700
 210.34003 211.50206 211.74810 211.99313 211.94716 211.66919 211.31922 210.96626
 210.60029 210.32732 210.15235 210.03339 209.97842 210.32645 210.72948 211.13551
 211.94555 213.14058 214.40761 216.20764 218.15268 220.21271 222.32474 224.42477
 226.50180 228.60284 230.71687 232.83990 234.98593 237.17497 239.44800 241.83503
 244.47306 246.74109 248.76013 250.54216 251.97619 253.11622 253.95526 254.28829
 254.34232 254.13335 253.51038 252.47542 251.09845 249.27648 247.20251 245.05255
 242.86058 240.68161 238.51864 236.37467 234.25171 232.13574 230.17877 228.35280
 226.65284 225.14187 223.78890 222.57793 221.47696 220.45400 219.57503 218.73306
 217.99209 217.18913 216.30416 215.68519 215.15222 214.29276 212.29253 212.37468
 213.88512 213.85965 213.95840 215.37492 217.87898 221.76430 227.31458 231.77127
 235.36041 239.56636 244.19701 248.75569 252.59117 255.59747 258.47919 261.27905
 263.91086 266.45068 268.92404 271.32333 273.65845 275.81097 277.67770 279.28693
 280.72720 282.17831 283.59860 284.90802 286.05457 287.07489 288.01440 288.86084
 289.59839 290.20187 290.72906 291.40091
 366.78100 356.35315 345.80329 334.68744 323.10858 311.32073 299.20887 287.03002
 274.76016 262.67531 250.70245 240.02160 230.16174 221.28389 213.48403 206.50418
 200.35632 195.31247 191.91261 189.97276 189.02790 189.11005 189.96319 191.28934
 193.03248 195.14563 197.42678 199.80392 202.26707 204.76521 206.87136 208.73150
 210.37565 211.53879 211.78594 212.03208 211.98723 211.71037 211.36152 211.00966
 210.64481 210.37295 210.19910 210.08124 210.02739 210.37653 210.78068 211.18782
 211.99897 213.19511 214.46326 216.26440 218.21055 220.27170 222.38484 224.48599
 226.56413 228.66628 230.78142 232.90557 235.05271 237.24286 239.51700 241.90515
 244.54429 246.81344 248.83358 250.61673 252.05187 253.19302 254.03316 254.36731
 254.42245 254.21460 253.59274 252.55889 251.18303 249.36218 247.28933 245.14047
 242.94962 240.77176 238.60991 236.46705 234.34520 232.23034 230.27449 228.44963
 226.75078 225.24092 223.88907 222.67921 221.57936 220.55750 219.67965 218.83879
 218.09894 217.29708 216.41323 215.79537 215.26352 214.37497 212.35110 212.38216
 213.79349 213.83716 214.01843 215.46591 217.96790 221.76382 227.19017 231.68588
 235.27748 239.51712 244.14496 248.63518 252.36307 255.52562 258.54904 261.33698
 263.95221 266.53168 268.98380 271.33932 273.64026 275.71838 277.52655 279.08801
 280.56528 282.07300 283.46127 284.73343 285.87650 286.90759 287.86328 288.73181
 289.51297 290.20859 290.81625 291.59067
 366.78100 356.35353 345.80407 334.68860 323.11013 311.32267 299.21120 287.03273
 274.76326 262.67880 250.70633 240.02586 230.16640 221.28893 213.48946 206.51000
 200.36253 195.31906 191.91960 189.98013 189.03566 189.11819 189.97173 191.29826
 193.04179 195.15533 197.43686 199.81439 202.27793 204.77646 206.88299 208.74353
 210.38806 211.55159 211.79912 212.04566 212.00119 211.72472 211.37626 211.02479
 210.66032 210.38886 210.21539 210.09792 210.04446 210.39399 210.79852 211.20605
 212.01759 213.21412 214.48265 216.28419 218.23072 220.29225 222.40579 224.50732
 226.58585 228.68839 230.80392 232.92845 235.07598 237.26652 239.54105 241.92958
 244.56912 246.83865 248.85918 250.64272 252.07825 253.21978 254.06031 254.39485
 254.45038 254.24291 253.62145 252.58798 251.21251 249.39205 247.31958 245.17111
 242.98065 240.80318 238.64171 236.49924 234.37778 232.26331 230.30784 228.48338
 226.78491 225.27544 223.92398 222.71451 221.61504 220.59358 219.71611 218.87564
 218.13617 217.33471 216.45124 215.83377 215.30231 214.40631 212.35222 212.39645
 213.84441 213.96239 214.19395 215.60693 218.00833 221.68980 227.15489 231.60461
 235.19980 239.46048 244.08577 248.51799 252.20937 255.40161 258.46844 261.23233
 263.84180 266.42935 268.93033 271.34525 273.68448 275.80685 277.66086 279.25278
 280.68716 282.13074 283.45670 284.70251 285.82474 286.84961 287.79724 288.62271
 289.35120 289.99991 290.56659 291.28882
 366.78100 356.35245 345.80190 334.68535 323.10580 311.31725 299.20470 287.02515
 274.75460 262.66905 250.69550 240.01395 230.15340 221.27485 213.47430 206.49375
 200.34520 195.30065 191.90010 189.95955 189.01400 189.09545 189.94790 191.27335
 193.01580 195.12825 197.40870 199.78515 202.24760 204.74505 206.85050 208.70995
 210.35340 211.51586 211.76231 212.00776 211.96221 211.68466 211.33511 210.98256
 210.61701 210.34446 210.16991 210.05136 209.99681 210.34526 210.74871 211.15516
 211.96561 213.16106 214.42851 216.22896 218.17441 220.23486 222.34731 224.44776
 226.52521 228.62666 230.74111 232.86456 235.01101 237.20046 239.47391 241.86136
 244.49981 246.76826 248.78771 250.57016 252.00461 253.14506 253.98451 254.31796
 254.37241 254.16386 253.54131 252.50676 251.13021 249.30866 247.23511 245.08556
 242.89401 240.71546 238.55291 236.40936 234.28681 232.17126 230.21471 228.38916
 226.68961 225.17906 223.82651 222.61596 221.51541 220.49286 219.61431 218.77276
 218.03221 217.22967 216.34512 215.72657 215.19402 214.34622 212.34995 212.44701
 214.03143 214.12859 214.25314 215.66798 218.00575 221.56691 227.19933 231.53711
 235.14980 239.41367 244.05612 248.50444 252.17642 255.21837 258.23981 260.98007
 263.56674 266.16541 268.74478 271.21521 273.58936 275.76666 277.67020 279.34753
 280.86478 282.26538 283.59641 284.81039 285.89517 286.87933 287.79846 288.64563
 289.41534 290.09888 290.67902 291.41833
 366.78100 356.35060 345.79820 334.67979 323.09839 311.30799 299.19359 287.01218
 274.73978 262.65238 250.67698 239.99358 230.13117 221.25077 213.44837 206.46597
 200.31556 195.26916 191.86676 189.92436 188.97695 189.05655 189.90715 191.23075
 192.97135 195.08194 197.36054 199.73514 202.19574 204.69133 206.79493 208.65253
 210.29413 211.45473 211.69932 211.94292 211.89552 211.61612 211.26471 210.91031
 210.54291 210.26851 210.09210 209.97170 209.91530 210.26190 210.66350 211.06809
 211.87669 213.07029 214.33589 216.13448 218.07808 220.13668 222.24728 224.34588
 226.42147 228.52107 230.63367 232.75527 234.89986 237.08746 239.35906 241.74466
 244.38126 246.64785 248.66545 250.44605 251.87865 253.01724 253.85484 254.18644
 254.23904 254.02863 253.40423 252.36783 250.98943 249.16603 247.09062 244.93922
 242.74582 240.56542 238.40101 236.25561 234.13121 232.01381 230.05541 228.22800
 226.52660 225.01420 223.65980 222.44739 221.34499 220.32059 219.44019 218.59679
 217.85438 217.04998 216.16358 215.54318 215.00877 214.25174 212.46315 212.51868
 214.06871 214.17476 214.25404 215.68700 218.02562 221.52048 227.20125 231.48253
 235.10783 239.37733 244.05193 248.53091 252.18309 255.19154 258.12698 260.81943
 263.40082 266.02502 268.63257 271.10800 273.47678 275.61966 277.46347 279.19638
 280.69247 282.15707 283.54453 284.77661 285.86725 286.83676 287.72827 288.56046
 289.32675 289.99954 290.48434 290.93921
 366.78100 356.34802 345.79305 334.67207 323.08809 311.29512 299.17814 286.99417
 274.71919 262.62921 250.65124 239.96526 230.10028 221.21731 213.41233 206.42735
 200.27438 195.22540 191.82042 189.87545 188.92547 189.00250 189.85052 191.17154
 192.90957 195.01759 197.29361 199.66564 202.12366 204.61668 206.71771 208.57273
 210.21175 211.36978 211.61180 211.85283 211.80285 211.52087 211.16690 210.80992
 210.43994 210.16297 209.98399 209.86101 209.80204 210.14606 210.54508 210.94711
 211.75313 212.94416 214.20718 216.00320 217.94423 220.00025 222.10827 224.20430
 226.27732 228.37434 230.48437 232.60339 234.74541 236.93044 239.19946 241.58249
 244.21651 246.48053 248.49556 250.27358 251.70360 252.83963 253.67465 254.00367
 254.05370 253.84072 253.21374 252.17477 250.79379 248.96782 246.88984 244.73586
 242.53989 240.35691 238.18993 236.04196 233.91498 231.79500 229.83403 228.00405
 226.30008 224.78510 223.42812 222.21315 221.10817 220.08119 219.19822 218.35224
 217.60726 216.80029 215.91131 215.28833 214.75136 214.11922 212.62573 212.63876
 214.01038 214.08945 214.20821 215.68054 218.05386 221.51239 227.16173 231.47003
 235.09573 239.36879 244.04727 248.53795 252.23260 255.22731 258.11807 260.80371
 263.36780 265.99454 268.62228 271.05228 273.37253 275.47430 277.34299 278.86249
 280.54822 282.06689 283.43210 284.69009 285.77182 286.73648 287.62411 288.44403
 289.17227 289.75296 290.10153 290.40756
 366.78100 356.34521 345.78742 334.66363 323.07684 311.28106 299.16127 286.97448
 274.69669 262.60390 250.62311 239.93432 230.06653 221.18075 213.37296 206.38517
 200.22938 195.17759 191.76980 189.82201 188.86922 188.94344 189.78865 191.10686
 192.84207 194.94728 197.22049 199.58970 202.04491 204.53513 206.63334 208.48555
 210.12176 211.27697 211.51618 211.75439 211.70160 211.41682 211.06003 210.70024
 210.32745 210.04766 209.86587 209.74008 209.67829 210.01951 210.41572 210.81493
 211.61814 212.80635 214.06656 215.85977 217.79798 219.85120 221.95641 224.04962
 226.11983 228.21404 230.32125 232.43746 234.57667 236.75889 239.02510 241.40531
 244.03652 246.29773 248.30994 250.08515 251.51236 252.64558 253.47779 253.80400
 253.85121 253.63542 253.00563 251.96384 250.58005 248.75126 246.67048 244.51369
 242.31490 240.12911 237.95932 235.80853 233.67874 231.55595 229.59217 227.75938
 226.05259 224.53480 223.17501 221.95722 220.84943 219.81964 218.93386 218.08507
 217.33728 216.52749 215.63570 215.00991 214.47012 213.97166 212.79399 212.79128
 214.00974 214.00175 214.10083 215.61967 218.01823 221.46785 227.08640 231.41820
 235.05685 239.34453 244.02155 248.51173 252.18286 255.32999 258.22238 260.86157
 263.43582 266.06726 268.63278 271.03918 273.32025 275.34586 276.98923 278.92267
 280.45496 281.89218 283.29947 284.49200 285.54279 286.46130 287.28345 288.01007
 288.59537 288.95255 289.08737 289.17850
 366.78100 356.34512 345.78723 334.66335 323.07646 311.28058 299.16069 286.97381
 274.69593 262.60304 250.62216 239.93327 230.06539 221.17950 213.37162 206.38374
 200.22785 195.17597 191.76808 189.82020 188.86731 188.94143 189.78655 191.10466
 192.83978 194.94489 197.21801 199.58712 202.04224 204.53236 206.63047 208.48259
 210.11870 211.27382 211.51293 211.75105 211.69817 211.41328 211.05640 210.69651
 210.32363 210.04374 209.86186 209.73598 209.67409 210.01521 210.41132 210.81044
 211.61355 212.80167 214.06179 215.85490 217.79302 219.84613 221.95125 224.04436
 226.11448 228.20860 230.31571 232.43183 234.57094 236.75306 239.01917 241.39929
 244.03041 246.29152 248.30364 250.07875 251.50587 252.63898 253.47110 253.79722
 253.84433 253.62845 252.99856 251.95668 250.57279 248.74391 246.66303 244.50614
 242.30726 240.12137 237.95149 235.80060 233.67072 231.54784 229.58395 227.75107
 226.04418 224.52630 223.16641 221.94853 220.84065 219.81076 218.92488 218.07599
 217.32811 216.51822 215.62634 215.00046 214.46057 213.97324 212.83604 212.90160
 214.08304 214.04379 214.14468 215.61665 217.99599 221.46542 226.93149 231.32759
 234.96695 239.27507 243.91138 248.29674 251.95978 255.24756 258.26144 260.95706
 263.55112 266.19867 268.73669 271.01675 273.17261 275.17746 277.14563 278.94382
 280.33310 281.58511 282.87909 283.99710 284.95624 285.80307 286.54785 287.14636
 287.48642 287.33313 287.19919 287.02850
 366.78100 356.34807 345.79313 334.67220 323.08827 311.29533 299.17840 286.99447
 274.71953 262.62960 250.65167 239.96573 230.10080 221.21787 213.41293 206.42800
 200.27507 195.22613 191.82120 189.87627 188.92634 189.00340 189.85147 191.17254
 192.91060 195.01867 197.29474 199.66680 202.12487 204.61794 206.71900 208.57407
 210.21314 211.37120 211.61327 211.85434 211.80440 211.52247 211.16854 210.81160
 210.44167 210.16474 209.98580 209.86287 209.80394 210.14800 210.54707 210.94914
 211.75520 212.94627 214.20934 216.00540 217.94647 220.00254 222.11061 224.20667
 226.27974 228.37681 230.48687 232.60594 234.74801 236.93307 239.20214 241.58521
 244.21927 246.48334 248.49841 250.27647 251.70654 252.84261 253.67767 254.00674
 254.05681 253.84387 253.21694 252.17801 250.79707 248.97114 246.89321 244.73927
 242.54334 240.36041 238.19347 236.04554 233.91861 231.79867 229.83774 228.00781
 226.30388 224.78894 223.43201 222.21708 221.11214 220.08521 219.20228 218.35634
 217.61141 216.80448 215.91554 215.29261 214.75568 214.15227 212.77837 212.92273
 214.15941 214.13979 214.30960 215.68619 217.99300 221.48688 226.77916 231.24149
 234.89204 239.21564 243.80942 248.08710 251.72548 254.99263 258.08307 260.91440
 263.58347 266.27924 268.78403 271.06985 273.08829 275.29370 277.19336 278.83948
 280.19006 281.34534 282.53320 283.57062 284.46082 285.20743 285.81107 285.87222
 285.92725 285.97623 286.01901 286.07355
 366.78100 356.35004 345.79708 334.67812 323.09616 311.30519 299.19023 287.00827
 274.73531 262.64735 250.67139 239.98743 230.12447 221.24351 213.44055 206.45758
 200.30662 195.25966 191.85670 189.91374 188.96578 189.04482 189.89486 191.21790
 192.95794 195.06797 197.34601 199.72005 202.18009 204.67513 206.77817 208.63521
 210.27625 211.43629 211.68032 211.92336 211.87540 211.59544 211.24348 210.88852
 210.52056 210.24560 210.06864 209.94768 209.89071 210.23675 210.63779 211.04183
 211.84987 213.04291 214.30795 216.10599 218.04903 220.10706 222.21710 224.31514
 226.39018 228.48922 230.60126 232.72230 234.86634 237.05338 239.32442 241.70945
 244.34549 246.61153 248.62857 250.40861 251.84065 252.97869 253.81573 254.14677
 254.19881 253.98784 253.36288 252.32592 250.94696 249.12300 247.04704 244.89508
 242.70112 240.52016 238.35519 236.20923 234.08427 231.96631 230.00735 228.17939
 226.47743 224.96447 223.60951 222.39655 221.29358 220.26862 219.38766 218.54370
 217.80074 216.99578 216.10882 215.48786 214.95290 214.29808 212.82109 212.82375
 214.23351 214.42072 214.61171 215.85510 218.03673 221.52461 226.69072 231.14114
 234.82066 239.15866 243.73743 247.96069 251.55815 254.82382 257.95584 260.83517
 263.55994 266.30103 268.82495 271.07675 273.16473 275.32425 277.10361 278.73392
 280.05774 281.19583 282.30667 283.26062 284.04013 284.54993 284.93588 285.28555
 285.60004 285.88007 286.12473 286.43649
 366.78100 356.34870 345.79440 334.67410 323.09080 311.29850 299.18220 286.99890
 274.72460 262.63530 250.65800 239.97269 230.10839 221.22609 213.42179 206.43749
 200.28519 195.23689 191.83259 189.88829 188.93899 189.01669 189.86539 191.18709
 192.92579 195.03449 197.31119 199.68389 202.14259 204.63629 206.73799 208.59369
 210.23339 211.39208 211.63478 211.87648 211.82718 211.54588 211.19258 210.83628
 210.46698 210.19068 210.01238 209.89008 209.83178 210.17648 210.57618 210.97888
 211.78558 212.97728 214.24098 216.03768 217.97938 220.03608 222.14478 224.24147
 226.31517 228.41287 230.52357 232.64327 234.78597 236.97167 239.24137 241.62507
 244.25977 246.52447 248.54017 250.31887 251.74957 252.88627 253.72197 254.05167
 254.10237 253.89007 253.26377 252.22547 250.84517 249.01986 246.94256 244.78926
 242.59396 240.41166 238.24536 236.09806 233.97176 231.85246 229.89216 228.06286
 226.35956 224.84526 223.48896 222.27466 221.17036 220.14406 219.26176 218.41646
 217.67216 216.86586 215.97756 215.35525 214.81895 214.26848 213.00142 212.74985
 214.13951 214.54897 214.86572 216.10213 218.19238 221.61024 226.68364 231.09770
 234.77705 239.10753 243.66980 247.86450 251.42026 254.67641 257.85938 260.82880
 263.63403 266.35037 268.92880 271.08640 273.22003 275.25128 277.00177 278.62363
 279.93140 281.10925 282.12415 282.98917 283.84280 284.65710 285.40002 286.07309
 286.67841 287.21744 287.68832 288.28845
 366.78100 356.34646 345.78992 334.66738 323.08184 311.28731 299.16877 286.98323
 274.70669 262.61515 250.63561 239.94807 230.08153 221.19700 213.39046 206.40392
 200.24938 195.19884 191.79230 189.84576 188.89422 188.96969 189.81615 191.13561
 192.87207 194.97853 197.25299 199.62345 202.07991 204.57138 206.67084 208.52430
 210.16176 211.31822 211.55868 211.79814 211.74660 211.46307 211.10753 210.74899
 210.37745 210.09891 209.91837 209.79383 209.73329 210.07576 210.47322 210.87368
 211.67814 212.86760 214.12906 215.92352 217.86298 219.91745 222.02391 224.11837
 226.18983 228.28529 230.39375 232.51121 234.65167 236.83514 239.10260 241.48406
 244.11652 246.37898 248.39244 250.16890 251.59736 252.73183 253.56529 253.89275
 253.94121 253.72667 253.09813 252.05759 250.67505 248.84751 246.76798 244.61244
 242.41490 240.23036 238.06182 235.91228 233.78374 231.66220 229.69967 227.86813
 226.16259 224.64605 223.28751 222.07097 220.96443 219.93589 219.05136 218.20382
 217.45728 216.64874 215.75820 215.13366 214.59512 214.17656 213.18733 212.84372
 213.97610 214.52298 215.01164 216.27159 218.33099 221.70782 226.70070 231.07289
 234.75053 239.06670 243.61031 247.77690 251.28349 254.49536 257.67072 260.71509
 263.64450 266.44849 269.06793 271.09344 273.22757 275.14969 276.97476 278.51480
 279.78583 280.90405 281.80685 282.82022 283.83005 284.72348 285.53864 286.27707
 286.94122 287.53268 288.04935 288.70776
 366.78100 356.34609 345.78918 334.66627 323.08035 311.28544 299.16653 286.98062
 274.70371 262.61180 250.63188 239.94397 230.07706 221.19215 213.38524 206.39833
 200.24342 195.19250 191.78559 189.83868 188.88677 188.96186 189.80795 191.12703
 192.86312 194.96921 197.24330 199.61339 202.06948 204.56057 206.65965 208.51274
 210.14983 211.30592 211.54601 211.78510 211.73318 211.44927 211.09336 210.73445
 210.36254 210.08363 209.90272 209.77780 209.71689 210.05898 210.45607 210.85616
 211.66025 212.84933 214.11042 215.90451 217.84360 219.89769 222.00378 224.09787
 226.16895 228.26404 230.37213 232.48922 234.62931 236.81240 239.07948 241.46057
 244.09266 246.35475 248.36784 250.14393 251.57202 252.70610 253.53919 253.86628
 253.91437 253.69946 253.07055 252.02963 250.64672 248.81881 246.73890 244.58299
 242.38508 240.20017 238.03125 235.88134 233.75243 231.63052 229.66761 227.83570
 226.12978 224.61287 223.25396 222.03705 220.93014 219.90123 219.01632 218.16840
 217.42149 216.61258 215.72167 215.09676 214.55785 214.16756 213.24686 212.98080
 213.96471 214.50204 215.04189 216.33478 218.33224 221.68636 226.68333 231.04802
 234.72179 239.02603 243.52971 247.64374 251.18004 254.43506 257.59653 260.65387
 263.64658 266.43115 269.08221 271.16788 273.25244 275.15292 276.91458 278.40622
 279.65744 280.73972 281.81030 283.02682 284.07965 285.01114 285.86096 286.63086
 287.32327 287.93988 288.47855 289.16501
 366.78100 356.34763 345.79225 334.67088 323.08651 311.29314 299.17576 286.99139
 274.71602 262.62564 250.64727 239.96090 230.09552 221.21215 213.40678 206.42141
 200.26803 195.21866 191.81329 189.86791 188.91754 188.99417 189.84179 191.16242
 192.90005 195.00768 197.28330 199.65493 202.11256 204.60518 206.70581 208.56044
 210.19906 211.35669 211.59832 211.83895 211.78857 211.50620 211.15183 210.79445
 210.42408 210.14671 209.96733 209.84396 209.78459 210.12822 210.52684 210.92847
 211.73410 212.92472 214.18735 215.98298 217.92360 219.97923 222.08686 224.18249
 226.25511 228.35174 230.46137 232.57999 234.72162 236.90625 239.17487 241.55750
 244.19113 246.45476 248.46938 250.24701 251.67664 252.81226 253.64689 253.97552
 254.02514 253.81177 253.18440 252.14503 250.76365 248.93728 246.85891 244.70453
 242.50816 240.32479 238.15741 236.00904 233.88167 231.76130 229.79992 227.96955
 226.26518 224.74980 223.39243 222.17706 221.07168 220.04431 219.16094 218.31457
 217.56919 216.76182 215.87245 215.24907 214.71170 214.24545 213.18170 213.00549
 214.01228 214.56982 215.12982 216.41748 218.35854 221.67648 226.60539 230.98328
 234.67769 238.98299 243.45743 247.53307 251.07903 254.36501 257.56271 260.65421
 263.64893 266.47296 268.97659 270.87854 273.29813 275.13635 276.82208 278.34238
 279.79318 280.94583 281.97055 283.16339 284.20956 285.13513 285.97958 286.74460
 287.43265 288.04535 288.58060 289.26273
 366.78100 356.34754 345.79208 334.67062 323.08616 311.29271 299.17525 286.99079
 274.71533 262.62487 250.64641 239.95995 230.09449 221.21103 213.40558 206.42012
 200.26666 195.21720 191.81174 189.86628 188.91582 188.99236 189.83990 191.16045
 192.89799 195.00553 197.28107 199.65261 202.11015 204.60269 206.70323 208.55777
 210.19632 211.35386 211.59540 211.83594 211.78548 211.50302 211.14856 210.79110
 210.42064 210.14318 209.96373 209.84027 209.78081 210.12435 210.52289 210.92443
 211.72997 212.92051 214.18305 215.97860 217.91914 219.97468 222.08222 224.17776
 226.25030 228.34684 230.45638 232.57492 234.71647 236.90101 239.16955 241.55209
 244.18563 246.44917 248.46371 250.24125 251.67079 252.80634 253.64088 253.96942
 254.01896 253.80550 253.17804 252.13858 250.75712 248.93066 246.85221 244.69775
 242.50129 240.31783 238.15037 236.00191 233.87445 231.75399 229.79253 227.96208
 226.25762 224.74216 223.38470 222.16924 221.06378 220.03632 219.15286 218.30640
 217.56095 216.75349 215.86403 215.24057 214.70311 214.25333 213.21771 212.97910
 213.98535 214.57176 215.23161 216.56285 218.48613 221.69902 226.57288 230.96864
 234.66696 238.94089 243.34805 247.38394 250.92676 254.22578 257.52982 260.54358
 263.48743 266.25043 268.66470 270.97430 273.34488 275.11664 276.74615 278.18613
 279.63702 280.83813 281.82468 282.89630 283.97601 284.93127 285.80280 286.59235
 287.30246 287.93484 288.48724 289.19125
 366.78100 356.34576 345.78853 334.66529 323.07905 311.28382 299.16458 286.97834
 274.70111 262.60887 250.62863 239.94040 230.07316 221.18792 213.38069 206.39345
 200.23821 195.18698 191.77974 189.83250 188.88027 188.95503 189.80079 191.11956
 192.85532 194.96108 197.23485 199.60461 202.06037 204.55114 206.64990 208.50266
 210.13943 211.29519 211.53495 211.77372 211.72148 211.43724 211.08101 210.72177
 210.34953 210.07030 209.88906 209.76382 209.70259 210.04435 210.44111 210.84087
 211.64464 212.83340 214.09416 215.88793 217.82669 219.88045 221.98622 224.07998
 226.15074 228.24551 230.35327 232.47003 234.60980 236.79256 239.05932 241.44009
 244.07185 246.33361 248.34638 250.12214 251.54990 252.68367 253.51643 253.84319
 253.89096 253.67572 253.04648 252.00525 250.62201 248.79377 246.71354 244.55730
 242.35906 240.17383 238.00459 235.85435 233.72512 231.60288 229.63964 227.80741
 226.10117 224.58393 223.22470 222.00746 220.90022 219.87099 218.98575 218.13751
 217.39028 216.58104 215.68980 215.06457 214.52533 214.19099 213.37364 212.96426
 213.93736 214.46693 215.28946 216.77240 218.66452 221.79709 226.60194 230.95038
 234.65068 238.90649 243.28302 247.28517 250.81508 254.15050 257.50720 260.47739
 263.36893 266.10434 268.65652 271.08621 273.32962 275.09180 276.67725 278.07870
 279.32614 280.41861 281.39447 282.60785 283.74542 284.75189 285.67014 286.50201
 287.25018 287.91644 288.49844 289.24017
 366.78100 356.34449 345.78599 334.66148 323.07398 311.27747 299.15696 286.96946
 274.69095 262.59744 250.61594 239.92643 230.05793 221.17142 213.36291 206.37441
 200.21790 195.16539 191.75689 189.80838 188.85488 188.92837 189.77286 191.09036
 192.82485 194.92934 197.20184 199.57033 202.02483 204.51432 206.61181 208.46331
 210.09880 211.25329 211.49179 211.72928 211.67578 211.39027 211.03276 210.67226
 210.29875 210.01824 209.83574 209.70923 209.64673 209.98722 210.38271 210.78121
 211.58370 212.77119 214.03069 215.82318 217.76068 219.81317 221.91766 224.01016
 226.07965 228.17314 230.27964 232.39513 234.53363 236.71512 238.98061 241.36011
 243.99060 246.25109 248.26259 250.03708 251.46358 252.59607 253.42756 253.75306
 253.79955 253.58304 252.95254 251.91003 250.52553 248.69602 246.61451 244.45701
 242.25750 240.07099 237.90049 235.74898 233.61848 231.49497 229.53046 227.69696
 225.98945 224.47095 223.11044 221.89193 220.78343 219.75292 218.86641 218.01691
 217.26840 216.45790 215.56539 214.93888 214.39838 214.15834 213.49393 212.97343
 213.85744 214.41466 215.39565 217.01419 218.84303 221.86830 226.65030 230.98692
 234.66302 238.86813 243.17828 247.16542 250.71257 254.10725 257.50659 260.51239
 263.37164 266.15097 268.72510 271.18970 273.30948 275.03983 276.56824 277.96848
 279.18658 280.06323 281.28220 282.56815 283.68106 284.66568 285.56400 286.37781
 287.10974 287.76154 288.33093 289.05655
 366.78100 356.34204 345.78107 334.65411 323.06415 311.26519 299.14222 286.95226
 274.67130 262.57534 250.59137 239.89941 230.02845 221.13948 213.32852 206.33756
 200.17860 195.12363 191.71267 189.76171 188.80575 188.87678 189.71882 191.03386
 192.76589 194.86793 197.13797 199.50401 201.95604 204.44308 206.53812 208.38715
 210.02019 211.17223 211.40827 211.64330 211.58734 211.29938 210.93942 210.57645
 210.20049 209.91753 209.73256 209.60360 209.53864 209.87668 210.26971 210.66575
 211.46579 212.65083 213.90786 215.69790 217.63294 219.68297 221.78501 223.87505
 225.94209 228.03312 230.13716 232.25020 234.38624 236.56527 238.82831 241.20535
 243.83338 246.09142 248.10046 249.87250 251.29653 252.42657 253.25561 253.57864
 253.62268 253.40372 252.77076 251.72579 250.33883 248.50687 246.42291 244.26294
 242.06098 239.87202 237.69905 235.54509 233.41213 231.28617 229.31920 227.48324
 225.77328 224.25232 222.88935 221.66839 220.55743 219.52446 218.63550 217.78354
 217.03258 216.21961 215.32465 214.69569 214.15273 214.08099 213.65511 213.01317
 213.67732 214.37737 215.46442 217.16371 219.00616 221.84494 226.66519 231.01158
 234.70187 238.86765 243.10434 247.08360 250.60204 254.04852 257.51041 260.56433
 263.41321 266.21216 268.86539 271.27448 273.25000 274.92987 276.47537 277.80124
 278.75067 279.51550 280.17737 280.75851 281.26144 281.70642 282.11240 282.48016
 282.81094 283.10550 283.36282 283.69073
 366.78100 356.33886 345.77473 334.64459 323.05146 311.24932 299.12319 286.93005
 274.64591 262.54678 250.55964 239.86451 229.99037 221.09824 213.28410 206.28997
 200.12783 195.06969 191.65556 189.70142 188.74229 188.81015 189.64902 190.96088
 192.68974 194.78861 197.05547 199.41834 201.86720 204.35107 206.44293 208.28879
 209.91866 211.06752 211.30039 211.53225 211.47312 211.18198 210.81884 210.45271
 210.07357 209.78744 209.59930 209.46717 209.39903 209.73390 210.12376 210.51662
 211.31349 212.49535 213.74922 215.53608 217.46795 219.51481 221.61367 223.70054
 225.76440 227.85227 229.95313 232.06300 234.19586 236.37172 238.63159 241.00545
 243.63032 245.88518 247.89105 249.65991 251.08078 252.20764 253.03350 253.35337
 253.39423 253.17210 252.53596 251.48783 250.09769 248.26255 246.17542 244.01228
 241.80715 239.61501 237.43888 235.28174 233.14560 231.01647 229.04633 227.20720
 225.49406 223.96993 222.60379 221.37965 220.26552 219.22938 218.33725 217.48211
 216.72798 215.91184 215.01371 214.38157 213.83543 213.95137 213.83876 213.00581
 213.35426 214.20961 215.48749 217.21181 219.10823 222.02844 226.67888 231.06438
 234.75037 238.92548 243.15823 247.14319 250.72461 254.22141 257.69012 260.80157
 263.63657 266.30023 269.01132 271.38031 273.27722 274.88080 276.34692 277.52405
 278.47955 279.29855 280.00729 280.62958 281.16815 281.64462 282.07935 282.47318
 282.82736 283.14279 283.41833 283.76950
 366.78100 356.34085 345.77871 334.65056 323.05942 311.25927 299.13513 286.94398
 274.66184 262.56469 250.57955 239.88640 230.01426 221.12411 213.31197 206.31982
 200.15968 195.10353 191.69139 189.73924 188.78210 188.85195 189.69281 191.00666
 192.73752 194.83837 197.10723 199.47208 201.92294 204.40879 206.50265 208.35050
 209.98236 211.13321 211.36806 211.60192 211.54477 211.25563 210.89448 210.53034
 210.15319 209.86905 209.68290 209.55276 209.48661 209.82347 210.21532 210.61018
 211.40903 212.59289 213.84874 215.63760 217.57145 219.62031 221.72116 223.81002
 225.87587 227.96573 230.06858 232.18044 234.31529 236.49315 238.75500 241.13086
 243.75771 246.01457 248.02242 249.79327 251.21613 252.34498 253.17284 253.49469
 253.53755 253.31740 252.68326 251.63711 250.24897 248.41582 246.33068 244.16953
 241.96639 239.77624 237.60210 235.44695 233.31281 231.18566 229.21752 227.38037
 225.66923 224.14708 222.78294 221.56079 220.44865 219.41450 218.52436 217.67121
 216.91907 216.10492 215.20878 214.57863 214.03448 214.01721 213.81335 213.20906
 213.31938 214.14664 215.33061 217.16342 219.08931 221.94974 226.71295 231.08644
 234.77252 238.89940 243.09964 247.11395 250.77222 254.23907 257.69321 260.88873
 263.81940 266.53830 269.07370 271.39264 273.30157 274.87396 276.28952 277.76578
 279.82678 281.70297 283.32651 284.75211 285.98584 287.07736 288.07324 288.97540
 289.78683 290.50940 291.14059 291.94501
 366.78100 356.34422 345.78544 334.66066 323.07288 311.27610 299.15532 286.96754
 274.68876 262.59498 250.61320 239.92342 230.05464 221.16786 213.35908 206.37030
 200.21352 195.16074 191.75196 189.80318 188.84940 188.92262 189.76684 191.08406
 192.81828 194.92250 197.19472 199.56294 202.01716 204.50638 206.60360 208.45482
 210.09004 211.24426 211.48248 211.71970 211.66592 211.38014 211.02236 210.66158
 210.28780 210.00702 209.82424 209.69746 209.63468 209.97490 210.37012 210.76834
 211.57056 212.75778 214.01700 215.80922 217.74644 219.79866 221.90288 223.99510
 226.06432 228.15754 230.26376 232.37898 234.51720 236.69842 238.96364 241.34286
 243.97308 246.23330 248.24452 250.01874 251.44496 252.57718 253.40840 253.73362
 253.77984 253.56306 252.93228 251.88950 250.50472 248.67494 246.59316 244.43538
 242.23560 240.04882 237.87804 235.72626 233.59548 231.47170 229.50692 227.67314
 225.96536 224.44658 223.08580 221.86702 220.75824 219.72746 218.84068 217.99090
 217.24212 216.43134 215.53856 214.91178 214.37100 214.17421 213.67513 213.34900
 213.56041 214.18549 215.33459 217.08557 218.97980 221.87492 226.63850 230.99849
 234.65779 238.73915 242.86778 246.80240 250.47539 254.01582 257.49930 260.69241
 263.65598 266.43353 269.07483 271.34064 273.23672 274.81494 276.23996 277.80777
 279.39285 281.20834 282.81299 284.22198 285.44135 286.52017 287.50443 288.39612
 289.19806 289.91223 290.53610 291.33115
 366.78100 356.34446 345.78592 334.66139 323.07385 311.27731 299.15677 286.96923
 274.69069 262.59716 250.61562 239.92608 230.05754 221.17100 213.36247 206.37393
 200.21739 195.16485 191.75631 189.80778 188.85424 188.92770 189.77216 191.08962
 192.82408 194.92855 197.20101 199.56947 202.02393 204.51339 206.61086 208.46232
 210.09778 211.25224 211.49070 211.72817 211.67463 211.38909 211.03155 210.67101
 210.29747 210.01694 209.83440 209.70786 209.64532 209.98578 210.38125 210.77971
 211.58217 212.76963 214.02909 215.82156 217.75902 219.81148 221.91594 224.00840
 226.07786 228.17133 230.27779 232.39325 234.53171 236.71317 238.97864 241.35810
 243.98856 246.24902 248.26048 250.03495 251.46141 252.59387 253.42533 253.75079
 253.79725 253.58072 252.95018 251.90764 250.52310 248.69356 246.61203 244.45449
 242.25495 240.06841 237.89787 235.74634 233.61580 231.49226 229.52772 227.69418
 225.98664 224.46811 223.10757 221.88903 220.78049 219.74995 218.86342 218.01388
 217.26534 216.45480 215.56226 214.93573 214.39519 214.20200 213.69136 213.30580
 213.57256 214.18491 215.40546 217.16884 219.08324 221.98729 226.70306 231.03058
 234.66605 238.71278 242.79649 246.66187 250.30627 253.94090 257.46808 260.67447
 263.66910 266.46399 269.05969 271.25977 273.07358 274.73691 276.15961 277.55936
 279.08173 280.69843 282.16898 283.46024 284.57767 285.56635 286.46835 287.28552
 288.02045 288.67493 289.24664 289.97525
 366.78100 356.34286 345.78272 334.65659 323.06745 311.26931 299.14717 286.95803
 274.67789 262.58276 250.59962 239.90848 230.03834 221.15020 213.34007 206.34993
 200.19179 195.13765 191.72751 189.77737 188.82224 188.89410 189.73696 191.05282
 192.78568 194.88855 197.15941 199.52627 201.97913 204.46699 206.56286 208.41272
 210.04658 211.19944 211.43630 211.67216 211.61703 211.32989 210.97075 210.60861
 210.23347 209.95134 209.76720 209.63906 209.57492 209.91378 210.30764 210.70451
 211.50537 212.69123 213.94909 215.73995 217.67582 219.72668 221.82954 223.92040
 225.98826 228.08012 230.18499 232.29885 234.43571 236.61557 238.87943 241.25730
 243.88616 246.14502 248.15488 249.92774 251.35260 252.48347 253.31333 253.63719
 253.68205 253.46391 252.83178 251.78764 250.40150 248.57036 246.48722 244.32809
 242.12695 239.93881 237.76667 235.61353 233.48139 231.35626 229.39012 227.55498
 225.84584 224.32570 222.96357 221.74343 220.63329 219.60115 218.71301 217.86187
 217.11174 216.29960 215.40546 214.77732 214.23518 214.14865 213.82318 213.30368
 213.49574 214.23210 215.43645 217.17403 219.15744 222.00621 226.74759 231.06673
 234.69884 238.72914 242.78201 246.60207 250.15862 253.88640 257.48096 260.71170
 263.71533 266.58813 269.14532 271.23117 272.94458 274.46078 275.89673 277.13290
 278.77347 280.50766 282.00833 283.32602 284.46637 285.47531 286.39578 287.22968
 287.97968 288.64755 289.23099 289.97452
 366.78100 356.34119 345.77938 334.65158 323.06077 311.26096 299.13715 286.94635
 274.66454 262.56773 250.58292 239.89012 230.01831 221.12850 213.31669 206.32489
 200.16508 195.10927 191.69746 189.74566 188.78885 188.85904 189.70023 191.01442
 192.74562 194.84681 197.11600 199.48119 201.93239 204.41858 206.51277 208.36096
 209.99316 211.14435 211.37954 211.61373 211.55693 211.26812 210.90731 210.54350
 210.16669 209.88289 209.69708 209.56727 209.50146 209.83866 210.23085 210.62604
 211.42523 212.60943 213.86562 215.65481 217.58900 219.63820 221.73939 223.82858
 225.89477 227.98497 230.08816 232.20035 234.33554 236.51373 238.77593 241.15212
 243.77931 246.03650 248.04470 249.81589 251.23908 252.36827 253.19647 253.51866
 253.56185 253.34204 252.70824 251.66243 250.27462 248.44181 246.35701 244.19620
 241.99339 239.80358 237.62977 235.47497 233.34116 231.21435 229.24654 227.40974
 225.69893 224.17712 222.81331 221.59151 220.47970 219.44589 218.55608 217.70328
 216.95147 216.13766 215.24185 214.61204 214.06824 214.10846 213.95276 213.27144
 213.32986 214.14153 215.48695 217.15607 219.12936 222.17552 226.66623 231.06667
 234.69460 238.70876 242.73907 246.53999 250.20308 253.93785 257.50430 260.76505
 263.80411 266.55972 268.97842 271.06534 272.82529 274.19980 275.61475 276.82257
 277.87091 278.76950 279.54709 280.22986 280.82074 281.34351 281.82047 282.25253
 282.64114 282.98721 283.28952 283.67480
 366.78100 356.33891 345.77481 334.64472 323.05162 311.24953 299.12344 286.93034
 274.64625 262.54716 250.56006 239.86497 229.99087 221.09878 213.28469 206.29059
 200.12850 195.07040 191.65631 189.70222 188.74312 188.81103 189.64994 190.96184
 192.69075 194.78965 197.05656 199.41947 201.86837 204.35228 206.44418 208.29009
 209.92000 211.06890 211.30181 211.53372 211.47462 211.18353 210.82043 210.45434
 210.07525 209.78915 209.60106 209.46896 209.40087 209.73578 210.12568 210.51859
 211.31550 212.49740 213.75131 215.53821 217.47012 219.51703 221.61593 223.70284
 225.76674 227.85465 229.95556 232.06546 234.19837 236.37428 238.63418 241.00809
 243.63299 245.88790 247.89381 249.66271 251.08362 252.21052 253.03643 253.35634
 253.39724 253.17515 252.53906 251.49096 250.10087 248.26577 246.17868 244.01559
 241.81049 239.61840 237.44230 235.28521 233.14912 231.02002 229.04993 227.21083
 225.49774 223.97365 222.60755 221.38346 220.26937 219.23327 218.34118 217.48608
 216.73199 215.91590 215.01780 214.38571 213.83961 214.01569 214.08937 213.23807
 213.09941 214.06747 215.55276 217.21147 219.20667 222.22891 226.70367 231.10675
 234.72301 238.72202 242.75987 246.58363 250.27492 254.05771 257.65100 260.94693
 264.05658 266.88040 269.26895 271.15381 272.86771 274.20480 275.65195 276.92599
 278.03180 278.97964 279.79984 280.52005 281.14331 281.69476 282.19785 282.65363
 283.06354 283.42859 283.74747 284.15384
 366.78100 356.33866 345.77432 334.64398 323.05064 311.24830 299.12195 286.92861
 274.64427 262.54493 250.55759 239.86225 229.98791 221.09557 213.28123 206.28689
 200.12455 195.06620 191.65186 189.69752 188.73818 188.80584 189.64450 190.95616
 192.68482 194.78348 197.05014 199.41280 201.86146 204.34511 206.43677 208.28243
 209.91209 211.06075 211.29341 211.52507 211.46573 211.17439 210.81105 210.44471
 210.06536 209.77902 209.59068 209.45834 209.39000 209.72466 210.11432 210.50698
 211.30364 212.48530 213.73896 215.52561 217.45727 219.50393 221.60259 223.68925
 225.75291 227.84057 229.94123 232.05089 234.18355 236.35921 238.61886 240.99252
 243.61718 245.87184 247.87750 249.64616 251.06682 252.19348 253.01914 253.33880
 253.37946 253.15711 252.52077 251.47243 250.08209 248.24675 246.15941 243.99607
 241.79073 239.59839 237.42205 235.26471 233.12837 230.99902 229.02868 227.18934
 225.47600 223.95166 222.58532 221.36098 220.24664 219.21030 218.31796 217.46262
 216.70827 215.89193 214.99359 214.36125 213.81491 213.98576 214.15085 213.38789
 213.11328 214.09291 215.58804 217.20302 219.23241 222.20793 226.73279 231.08681
 234.66878 238.60727 242.61421 246.45308 250.17551 253.95424 257.56061 260.87286
 263.99261 266.84076 269.27048 271.18503 272.78311 274.20633 275.62549 277.68732
 280.00482 281.99127 283.71021 285.21957 286.52579 287.68146 288.73584 289.69101
 290.55011 291.31512 291.98343 292.83511
 366.78100 356.34099 345.77897 334.65096 323.05995 311.25993 299.13592 286.94491
 274.66289 262.56588 250.58087 239.88785 230.01584 221.12583 213.31381 206.32180
 200.16179 195.10577 191.69376 189.74175 188.78473 188.85472 189.69571 191.00969
 192.74068 194.84167 197.11065 199.47564 201.92663 204.41261 206.50660 208.35459
 209.98657 211.13756 211.37255 211.60653 211.54952 211.26051 210.89949 210.53548
 210.15847 209.87445 209.68844 209.55843 209.49241 209.82940 210.22139 210.61637
 211.41536 212.59935 213.85533 215.64432 217.57831 219.62729 221.72828 223.81727
 225.88325 227.97324 230.07623 232.18821 234.32320 236.50119 238.76317 241.13916
 243.76615 246.02313 248.03112 249.80211 251.22509 252.35408 253.18207 253.50405
 253.54704 253.32703 252.69301 251.64700 250.25899 248.42597 246.34096 244.17995
 241.97693 239.78692 237.61291 235.45789 233.32388 231.19687 229.22885 227.39184
 225.68083 224.15881 222.79480 221.57279 220.46077 219.42676 218.53675 217.68374
 216.93172 216.11771 215.22170 214.59168 214.04767 214.08305 214.08455 213.58951
 213.22035 214.08015 215.57614 217.12328 219.09193 222.11227 226.70496 231.07373
 234.62173 238.49852 242.44589 246.28139 250.03818 253.87000 257.48175 260.79468
 263.91623 266.76810 269.16422 271.10181 272.72769 274.14011 275.62067 277.11520
 279.16928 281.22754 283.00861 284.57251 285.92596 287.12338 288.21588 289.20560
 290.09573 290.88840 291.58087 292.46332
 366.78100 356.34108 345.77916 334.65124 323.06032 311.26040 299.13648 286.94556
 274.66363 262.56671 250.58179 239.88887 230.01695 221.12703 213.31511 206.32319
 200.16327 195.10735 191.69543 189.74351 188.78659 188.85667 189.69774 191.01182
 192.74290 194.84398 197.11306 199.47814 201.92922 204.41530 206.50938 208.35746
 209.98954 211.14062 211.37570 211.60978 211.55285 211.26393 210.90301 210.53909
 210.16217 209.87825 209.69233 209.56241 209.49649 209.83357 210.22565 210.62073
 211.41981 212.60389 213.85997 215.64904 217.58312 219.63220 221.73328 223.82236
 225.88844 227.97852 230.08160 232.19368 234.32876 236.50684 238.76892 241.14500
 243.77208 246.02915 248.03723 249.80831 251.23139 252.36047 253.18855 253.51063
 253.55371 253.33379 252.69987 251.65395 250.26603 248.43311 246.34819 244.18727
 241.98434 239.79442 237.62050 235.46558 233.33166 231.20474 229.23682 227.39990
 225.68898 224.16706 222.80314 221.58122 220.46930 219.43538 218.54545 217.69253
 216.94061 216.12669 215.23077 214.60085 214.05693 214.08717 214.10420 213.68082
 213.25133 214.05925 215.55222 217.05037 218.96703 222.12798 226.72177 231.10574
 234.64485 238.48283 242.39105 246.22993 250.02974 253.86140 257.48169 260.79782
 263.93057 266.75729 269.15771 271.10785 272.72937 274.12543 275.82748 277.39685
 278.61545 280.47403 282.16476 283.64935 284.93411 286.07083 287.10791 288.04739
 288.89240 289.64487 290.30222 291.13989
 366.78100 356.33884 345.77469 334.64453 323.05138 311.24922 299.12306 286.92991
 274.64575 262.54660 250.55944 239.86428 229.99013 221.09797 213.28381 206.28966
 200.12750 195.06935 191.65519 189.70103 188.74188 188.80972 189.64857 190.96041
 192.68925 194.78810 197.05494 199.41779 201.86663 204.35047 206.44232 208.28816
 209.91800 211.06685 211.29969 211.53154 211.47238 211.18122 210.81807 210.45191
 210.07276 209.78660 209.59844 209.46629 209.39813 209.73298 210.12282 210.51566
 211.31251 212.49435 213.74819 215.53504 217.46688 219.51373 221.61257 223.69941
 225.76326 227.85110 229.95195 232.06179 234.19463 236.37048 238.63032 241.00417
 243.62901 245.88385 247.88970 249.65854 251.07938 252.20623 253.03207 253.35192
 253.39276 253.17060 252.53445 251.48629 250.09614 248.26098 246.17382 244.01067
 241.80551 239.61336 237.43720 235.28004 233.14389 231.01473 229.04457 227.20542
 225.49226 223.96811 222.60195 221.37779 220.26364 219.22748 218.33533 217.48017
 216.72601 215.90986 215.01170 214.37955 213.83339 213.98918 214.23354 213.67451
 213.24829 214.07610 215.59790 217.07603 218.96744 222.12140 226.70221 231.09113
 234.62173 238.42627 242.30498 246.14771 249.97743 253.81931 257.42996 260.76105
 263.91962 266.69983 269.01407 270.93536 272.63702 274.07886 275.95398 277.58881
 278.75916 280.51361 282.23206 283.74100 285.04684 286.20218 287.25626 288.21118
 289.07001 289.83481 290.50293 291.35437
 366.78100 356.33867 345.77433 334.64400 323.05066 311.24833 299.12200 286.92866
 274.64433 262.54499 250.55766 239.86233 229.98799 221.09566 213.28132 206.28699
 200.12466 195.06632 191.65199 189.69765 188.73832 188.80599 189.64465 190.95632
 192.68498 194.78365 197.05032 199.41298 201.86165 204.34531 206.43698 208.28265
 209.91231 211.06098 211.29364 211.52531 211.46598 211.17464 210.81131 210.44497
 210.06564 209.77930 209.59097 209.45864 209.39030 209.72497 210.11463 210.50730
 211.30397 212.48563 213.73930 215.52596 217.45763 219.50430 221.60296 223.68963
 225.75329 227.84096 229.94163 232.05129 234.18396 236.35962 238.61929 240.99296
 243.61762 245.87229 247.87795 249.64662 251.06729 252.19395 253.01962 253.33928
 253.37995 253.15762 252.52128 251.47295 250.08261 248.24728 246.15995 243.99661
 241.79128 239.59894 237.42261 235.26528 233.12894 230.99961 229.02927 227.18994
 225.47661 223.95227 222.58594 221.36160 220.24727 219.21094 218.31860 217.46327
 216.70893 215.89260 214.99427 214.36193 213.81560 214.00261 214.27499 213.64902
 213.26387 214.10147 215.65367 217.15494 219.01360 222.05173 226.70544 231.03635
 234.55103 238.32747 242.18227 246.02151 249.90417 253.77971 257.39453 260.74158
 263.89307 266.64102 268.91754 270.80090 272.53833 274.05728 275.91116 277.38843
 279.11758 281.07608 282.78149 284.27899 285.57492 286.72150 287.76758 288.71524
 289.56757 290.32657 290.98962 291.83459
 366.78100 356.34015 345.77729 334.64844 323.05659 311.25573 299.13088 286.93903
 274.65618 262.55832 250.57247 239.87862 230.00576 221.11491 213.30206 206.30920
 200.14835 195.09150 191.67865 189.72579 188.76794 188.83709 189.67723 190.99038
 192.72053 194.82067 197.08882 199.45297 201.90312 204.38826 206.48141 208.32856
 209.95970 211.10985 211.34400 211.57714 211.51929 211.22944 210.86759 210.50273
 210.12488 209.84003 209.65317 209.52232 209.45547 209.79161 210.18276 210.57691
 211.37506 212.55820 213.81335 215.60150 217.53464 219.58279 221.68294 223.77108
 225.83623 227.92538 230.02753 232.13867 234.27282 236.44997 238.71111 241.08626
 243.71241 245.96855 247.97570 249.74585 251.16800 252.29614 253.12329 253.44444
 253.48658 253.26573 252.63088 251.58402 250.19517 248.36132 246.27547 244.11361
 241.90976 239.71891 237.54405 235.38820 233.25335 231.12549 229.15664 227.31879
 225.60694 224.08408 222.71923 221.49638 220.38352 219.34867 218.45782 217.60396
 216.85111 216.03626 215.13941 214.50855 213.96370 214.08917 214.25746 213.71080
 213.21867 213.97115 215.56512 217.20535 219.16550 222.12590 226.77972 231.07152
 234.56358 238.31351 242.15915 245.99232 249.91841 253.82632 257.44290 260.79929
 263.95508 266.70749 268.86957 270.69125 272.42014 274.05875 275.75775 277.50964
 279.67111 281.61838 283.30344 284.78305 286.06351 287.19641 288.22998 289.16635
 290.00848 290.75842 291.41357 292.24844
 366.78100 356.34047 345.77794 334.64941 323.05788 311.25735 299.13281 286.94128
 274.65875 262.56122 250.57569 239.88216 230.00963 221.11910 213.30657 206.31404
 200.15351 195.09697 191.68444 189.73191 188.77438 188.84385 189.68432 190.99779
 192.72826 194.82873 197.09720 199.46167 201.91213 204.39760 206.49107 208.33854
 209.97001 211.12048 211.35495 211.58842 211.53089 211.24136 210.87983 210.51530
 210.13776 209.85323 209.66670 209.53617 209.46964 209.80611 210.19758 210.59205
 211.39052 212.57399 213.82946 215.61792 217.55139 219.59986 221.70033 223.78880
 225.85427 227.94374 230.04621 232.15768 234.29215 236.46962 238.73108 241.10655
 243.73302 245.98949 247.99696 249.76743 251.18990 252.31837 253.14584 253.46731
 253.50978 253.28924 252.65471 251.60818 250.21965 248.38612 246.30059 244.13906
 241.93553 239.74500 237.57047 235.41494 233.28040 231.15287 229.18434 227.34681
 225.63528 224.11275 222.74822 221.52569 220.41316 219.37863 218.48810 217.63457
 216.88203 216.06750 215.17097 214.54044 213.99591 214.10181 214.28407 213.87970
 213.26428 213.82469 215.34006 217.02287 219.10143 222.19870 226.79861 231.11644
 234.60127 238.33292 242.15952 246.01805 249.96036 253.86098 257.47583 260.82224
 263.98764 266.76764 268.93256 270.62802 272.35550 273.96704 275.80170 277.69876
 279.66071 281.54227 283.17044 284.60010 285.83734 286.93198 287.93069 288.83545
 289.64917 290.37381 291.00681 291.81354
 366.78100 356.34000 345.77699 334.64799 323.05599 311.25498 299.12998 286.93798
 274.65497 262.55697 250.57097 239.87697 230.00396 221.11296 213.29996 206.30695
 200.14595 195.08895 191.67594 189.72294 188.76494 188.83393 189.67393 190.98693
 192.71692 194.81692 197.08492 199.44891 201.89891 204.38391 206.47691 208.32390
 209.95490 211.10490 211.33889 211.57189 211.51389 211.22388 210.86188 210.49688
 210.11887 209.83387 209.64687 209.51586 209.44886 209.78486 210.17585 210.56985
 211.36785 212.55085 213.80584 215.59384 217.52684 219.57483 221.67483 223.76283
 225.82782 227.91682 230.01882 232.12981 234.26381 236.44081 238.70180 241.07680
 243.70280 245.95880 247.96579 249.73579 251.15779 252.28578 253.11278 253.43378
 253.47577 253.25477 252.61977 251.57276 250.18376 248.34976 246.26375 244.10175
 241.89775 239.70674 237.53174 235.37574 233.24074 231.11273 229.14373 227.30573
 225.59372 224.07072 222.70572 221.48271 220.36971 219.33471 218.44370 217.58970
 216.83670 216.02169 215.12469 214.49369 213.94868 214.07829 214.32613 214.00816
 213.41528 213.85503 215.20367 216.83267 218.94792 222.19904 226.69743 231.05064
 234.51057 238.21628 242.03241 245.92503 249.89017 253.78513 257.41113 260.76355
 263.93887 266.73035 268.91064 270.54239 272.27682 274.00644 275.84113 277.80673
 279.66293 281.54709 283.23126 284.71011 285.98993 287.12222 288.15527 289.09116
 289.93286 290.68243 291.33722 292.17166
 366.78100 356.33932 345.77563 334.64595 323.05326 311.25158 299.12589 286.93321
 274.64952 262.55084 250.56415 239.86947 229.99578 221.10410 213.29042 206.29673
 200.13505 195.07736 191.66368 189.70999 188.75131 188.81962 189.65894 190.97125
 192.70057 194.79988 197.06720 199.43052 201.87983 204.36415 206.45646 208.30278
 209.93309 211.08241 211.31572 211.54804 211.48935 211.19867 210.83598 210.47030
 210.09162 209.80593 209.61825 209.48656 209.41888 209.75419 210.14451 210.53782
 211.33514 212.51745 213.77177 215.55908 217.49140 219.53872 221.63803 223.72535
 225.78966 227.87798 229.97929 232.08961 234.22292 236.39924 238.65955 241.03387
 243.65918 245.91450 247.92082 249.69013 251.11145 252.23876 253.06508 253.38539
 253.42671 253.20502 252.56934 251.52165 250.13197 248.29728 246.21060 244.04792
 241.84323 239.65155 237.47586 235.31918 233.18349 231.05481 229.08512 227.24644
 225.53375 224.01007 222.64439 221.42070 220.30702 219.27133 218.37965 217.52496
 216.77128 215.95559 215.05791 214.42622 213.88054 214.06226 214.38971 213.99585
 213.46179 213.95352 215.26100 216.86072 218.97578 222.12306 226.66457 230.96924
 234.38869 238.05600 241.86787 245.78993 249.80293 253.71973 257.35977 260.72876
 263.90491 266.69647 268.89911 270.51627 272.23520 274.03513 275.95895 277.93765
 279.82840 281.80008 283.51105 285.01343 286.31363 287.46393 288.51343 289.46420
 290.31931 291.08081 291.74600 292.59375
 366.78100 356.33884 345.77469 334.64453 323.05138 311.24922 299.12307 286.92991
 274.64575 262.54660 250.55944 239.86429 229.99013 221.09798 213.28382 206.28967
 200.12751 195.06935 191.65520 189.70104 188.74189 188.80973 189.64858 190.96042
 192.68926 194.78811 197.05495 199.41780 201.86664 204.35049 206.44233 208.28817
 209.91802 211.06686 211.29971 211.53155 211.47240 211.18124 210.81809 210.45193
 210.07277 209.78662 209.59846 209.46631 209.39815 209.73300 210.12284 210.51568
 211.31253 212.49437 213.74822 215.53506 217.46691 219.51375 221.61259 223.69944
 225.76328 227.85113 229.95197 232.06182 234.19466 236.37051 238.63035 241.00419
 243.62904 245.88388 247.88973 249.65857 251.07942 252.20626 253.03210 253.35195
 253.39279 253.17064 252.53448 251.48633 250.09617 248.26101 246.17386 244.01070
 241.80555 239.61339 237.43724 235.28008 233.14393 231.01477 229.04461 227.20546
 225.49230 223.96815 222.60199 221.37784 220.26368 219.22752 218.33537 217.48021
 216.72606 215.90990 215.01175 214.37959 213.83344 214.06128 214.45398 213.99730
 213.43404 213.91861 215.27551 216.98093 219.11467 222.15776 226.70296 230.93912
 234.32050 237.95497 241.76637 245.71179 249.76054 253.69087 257.33008 260.71225
 263.87930 266.66742 268.84610 270.52206 272.28152 274.12198 276.06000 278.10019
 280.21503 282.15164 283.82745 285.29895 286.57242 287.69910 288.72702 289.65823
 290.49576 291.24161 291.89313 292.72345
 366.78100 356.33918 345.77535 334.64553 323.05271 311.25088 299.12506 286.93224
 274.64841 262.54959 250.56277 239.86795 229.99412 221.10230 213.28848 206.29465
 200.13283 195.07501 191.66118 189.70736 188.74854 188.81671 189.65589 190.96807
 192.69724 194.79642 197.06360 199.42677 201.87595 204.36013 206.45231 208.29848
 209.92866 211.07784 211.31101 211.54319 211.48437 211.19354 210.83072 210.46490
 210.08607 209.80025 209.61243 209.48060 209.41278 209.74796 210.13813 210.53131
 211.32849 212.51067 213.76484 215.55202 217.48420 219.53137 221.63055 223.71773
 225.78190 227.87008 229.97126 232.08143 234.21461 236.39079 238.65096 241.02514
 243.65032 245.90549 247.91167 249.68085 251.10203 252.22920 253.05538 253.37556
 253.41673 253.19491 252.55909 251.51126 250.12144 248.28662 246.19979 244.03697
 241.83215 239.64032 237.46450 235.30768 233.17185 231.04303 229.07321 227.23439
 225.52156 223.99774 222.63192 221.40809 220.29427 219.25845 218.36662 217.51180
 216.75798 215.94215 215.04433 214.41251 213.86668 214.09560 214.48257 214.04794
 213.46243 213.81894 215.17543 216.98169 219.17909 222.23154 226.74792 230.92456
 234.27463 237.88429 241.69659 245.66525 249.72949 253.65482 257.28949 260.67715
 263.81290 266.54715 268.73468 270.44946 272.32245 274.19614 276.16037 278.26166
 280.43170 282.37244 284.05179 285.52640 286.80252 287.93158 288.96167 289.89487
 290.73419 291.48160 292.13449 292.96658
 366.78100 356.33991 345.77683 334.64774 323.05566 311.25457 299.12949 286.93740
 274.65431 262.55623 250.57014 239.87606 230.00297 221.11189 213.29880 206.30571
 200.14463 195.08754 191.67446 189.72137 188.76329 188.83220 189.67211 190.98503
 192.71494 194.81486 197.08277 199.44669 201.89660 204.38151 206.47443 208.32134
 209.95226 211.10217 211.33609 211.56900 211.51091 211.22083 210.85874 210.49366
 210.11557 209.83049 209.64340 209.51231 209.44523 209.78114 210.17206 210.56597
 211.36389 212.54680 213.80171 215.58963 217.52254 219.57046 221.67037 223.75829
 225.82320 227.91211 230.01403 232.12494 234.25886 236.43577 238.69669 241.07160
 243.69752 245.95343 247.96034 249.73026 251.15217 252.28009 253.10700 253.42792
 253.46983 253.24874 252.61366 251.56657 250.17749 248.34340 246.25732 244.09523
 241.89114 239.70006 237.52497 235.36889 233.23380 231.10572 229.13663 227.29854
 225.58646 224.06337 222.69829 221.47520 220.36212 219.32703 218.43594 217.58186
 216.82877 216.01369 215.11660 214.48552 213.94043 214.14116 214.50046 214.11583
 213.45821 213.72871 215.07028 216.92458 219.18042 222.27594 226.81903 230.94502
 234.27194 237.86374 241.67444 245.66431 249.72986 253.65787 257.29407 260.68118
 263.77530 266.44763 268.59116 270.34872 272.35336 274.20496 276.05795 278.13226
 280.22726 282.09787 283.71661 285.13794 286.36801 287.45630 288.44919 289.34869
 290.15768 290.87811 291.50745 292.30948
 366.78100 356.34122 345.77944 334.65166 323.06088 311.26110 299.13732 286.94655
 274.66477 262.56799 250.58321 239.89043 230.01865 221.12887 213.31709 206.32531
 200.16553 195.10975 191.69797 189.74619 188.78942 188.85964 189.70086 191.01508
 192.74630 194.84752 197.11674 199.48196 201.93318 204.41940 206.51362 208.36184
 209.99406 211.14528 211.38051 211.61473 211.55795 211.26917 210.90839 210.54461
 210.16783 209.88405 209.69827 209.56849 209.50271 209.83993 210.23215 210.62738
 211.42660 212.61082 213.86704 215.65626 217.59048 219.63970 221.74092 223.83014
 225.89636 227.98658 230.08980 232.20202 234.33725 236.51547 238.77769 241.15391
 243.78113 246.03835 248.04657 249.81779 251.24101 252.37023 253.19845 253.52067
 253.56389 253.34412 252.71034 251.66456 250.27678 248.44400 246.35922 244.19844
 241.99566 239.80588 237.63210 235.47732 233.34354 231.21676 229.24898 227.41221
 225.70143 224.17965 222.81587 221.59409 220.48231 219.44853 218.55875 217.70597
 216.95419 216.14041 215.24463 214.61485 214.07108 214.20387 214.49524 214.26250
 213.44487 213.64204 214.94621 216.76617 219.07840 222.27795 226.87466 230.97961
 234.29231 237.86717 241.67662 245.68758 249.75352 253.68526 257.32449 260.71500
 263.80194 266.42856 268.54623 270.35446 272.32941 274.13260 276.00064 277.82162
 279.79919 281.65201 283.25531 284.66312 285.88147 286.95938 287.94284 288.83377
 289.63507 290.34860 290.97195 291.76636
 366.78100 356.34161 345.78023 334.65284 323.06245 311.26306 299.13968 286.94929
 274.66790 262.57152 250.58713 239.89474 230.02335 221.13397 213.32258 206.33119
 200.17181 195.11642 191.70503 189.75365 188.79726 188.86787 189.70948 191.02410
 192.75571 194.85732 197.12694 199.49255 201.94416 204.43077 206.52539 208.37400
 210.00661 211.15823 211.39384 211.62845 211.57206 211.28368 210.92329 210.55990
 210.18352 209.90013 209.71474 209.58535 209.51997 209.85758 210.25019 210.64581
 211.44542 212.63003 213.88665 215.67626 217.61087 219.66048 221.76210 223.85171
 225.91832 228.00894 230.11255 232.22516 234.36077 236.53939 238.80200 241.17861
 243.80623 246.06384 248.07245 249.84406 251.26768 252.39729 253.22590 253.54852
 253.59213 253.37274 252.73935 251.69397 250.30658 248.47419 246.38981 244.22942
 242.02703 239.83765 237.66426 235.50987 233.37648 231.25010 229.28271 227.44632
 225.73594 224.21455 222.85116 221.62977 220.51839 219.48500 218.59561 217.74323
 216.99184 216.17845 215.28306 214.65368 214.11029 214.22772 214.49133 214.35641
 213.58418 213.61078 214.83122 216.61546 218.93378 222.32918 226.82515 230.95753
 234.27225 237.83490 241.64130 245.67747 249.74896 253.66826 257.32059 260.71988
 263.81116 266.38412 268.48529 270.34595 272.28058 274.06970 276.06107 277.73517
 279.41592 281.13516 282.71527 284.10272 285.30344 286.36578 287.33499 288.21304
 289.00272 289.70596 290.32028 291.10318
 366.78100 356.34039 345.77778 334.64917 323.05756 311.25695 299.13234 286.94073
 274.65812 262.56051 250.57490 239.88129 230.00868 221.11807 213.30546 206.31285
 200.15224 195.09563 191.68302 189.73041 188.77280 188.84218 189.68257 190.99596
 192.72635 194.82674 197.09513 199.45952 201.90991 204.39530 206.48869 208.33608
 209.96747 211.11786 211.35225 211.58564 211.52803 211.23842 210.87681 210.51220
 210.13459 209.84998 209.66337 209.53276 209.46615 209.80254 210.19393 210.58832
 211.38671 212.57010 213.82549 215.61388 217.54727 219.59566 221.69605 223.78444
 225.84983 227.93922 230.04161 232.15300 234.28739 236.46478 238.72617 241.10155
 243.72794 245.98433 247.99172 249.76211 251.18450 252.31289 253.14028 253.46167
 253.50406 253.28345 252.64884 251.60223 250.21362 248.38001 246.29440 244.13279
 241.92918 239.73857 237.56396 235.40835 233.27374 231.14613 229.17752 227.33991
 225.62830 224.10569 222.74108 221.51847 220.40586 219.37125 218.48064 217.62703
 216.87442 216.05981 215.16320 214.53259 213.98798 214.18138 214.57315 214.32343
 213.71533 213.71498 214.76732 216.46431 218.85675 222.30940 226.76437 230.92116
 234.22116 237.75313 241.55591 245.62291 249.71214 253.63560 257.29312 260.68176
 263.73917 266.30270 268.40005 270.35001 272.27042 274.07977 275.89438 277.58960
 279.09113 280.61719 282.08490 283.45593 284.64246 285.69220 286.64996 287.51761
 288.29797 288.99289 289.59995 290.37360
 366.78100 356.33971 345.77643 334.64714 323.05486 311.25357 299.12829 286.93600
 274.65272 262.55443 250.56815 239.87386 230.00057 221.10929 213.29600 206.30272
 200.14143 195.08415 191.67086 189.71758 188.75929 188.82801 189.66772 190.98043
 192.71015 194.80986 197.07758 199.44129 201.89101 204.37572 206.46844 208.31515
 209.94587 211.09558 211.32930 211.56201 211.50372 211.21344 210.85115 210.48587
 210.10758 209.82230 209.63501 209.50373 209.43644 209.77216 210.16287 210.55658
 211.35430 212.53701 213.79173 215.57944 217.51216 219.55987 221.65959 223.74730
 225.81202 227.90073 230.00244 232.11316 234.24687 236.42359 238.68430 241.05902
 243.68473 245.94045 247.94716 249.71688 251.13859 252.26630 253.09302 253.41373
 253.45545 253.23416 252.59888 251.55159 250.16231 248.32802 246.24174 244.07945
 241.87516 239.68388 237.50859 235.35231 233.21702 231.08874 229.11945 227.28117
 225.56888 224.04560 222.68031 221.45702 220.34374 219.30845 218.41717 217.56288
 216.80960 215.99431 215.09703 214.46574 213.92046 214.17230 214.65947 214.31654
 213.77052 213.82939 214.72968 216.30762 218.74623 222.25404 226.75902 230.87527
 234.16156 237.69412 241.50511 245.58244 249.68393 253.62180 257.29901 260.69348
 263.74197 266.23718 268.32983 270.33206 272.30115 274.13425 275.90268 277.31650
 278.77753 280.33762 281.89471 283.26535 284.45151 285.50098 286.45844 287.32584
 288.10596 288.80069 289.40756 290.18097
 366.78100 356.34075 345.77851 334.65026 323.05902 311.25877 299.13453 286.94328
 274.66103 262.56379 250.57854 239.88530 230.01305 221.12281 213.31056 206.31831
 200.15807 195.10182 191.68958 189.73733 188.78009 188.84984 189.69059 191.00435
 192.73510 194.83586 197.10461 199.46937 201.92012 204.40587 206.49963 208.34738
 209.97914 211.12989 211.36465 211.59840 211.54115 211.25191 210.89066 210.52642
 210.14917 209.86493 209.67868 209.54843 209.48219 209.81894 210.21070 210.60545
 211.40421 212.58796 213.84371 215.63247 217.56622 219.61498 221.71573 223.80449
 225.87024 227.95999 230.06275 232.17450 234.30926 236.48701 238.74877 241.12452
 243.75127 246.00803 248.01578 249.78654 251.20929 252.33805 253.16580 253.48755
 253.53031 253.31006 252.67582 251.62957 250.24133 248.40808 246.32283 244.16159
 241.95834 239.76810 237.59385 235.43861 233.30436 231.17711 229.20887 227.37162
 225.66038 224.13813 222.77389 221.55164 220.43939 219.40515 218.51490 217.66166
 216.90941 216.09517 215.19892 214.56868 214.02443 214.24953 214.66826 214.33086
 213.77858 213.86191 214.65732 216.11137 218.64819 222.18906 226.79427 230.86900
 234.13097 237.67744 241.51385 245.60442 249.72032 253.67647 257.35983 260.74216
 263.75806 266.27472 268.41135 270.40485 272.32333 274.15338 275.89670 277.25653
 278.87476 280.75925 282.39359 283.82867 285.07059 286.16940 287.17188 288.08005
 288.89685 289.62424 290.25964 291.06943
 366.78100 356.34093 345.77887 334.65080 323.05973 311.25967 299.13560 286.94454
 274.66247 262.56540 250.58034 239.88727 230.01520 221.12514 213.31307 206.32101
 200.16094 195.10487 191.69281 189.74074 188.78367 188.85361 189.69454 191.00848
 192.73941 194.84034 197.10928 199.47421 201.92514 204.41108 206.50501 208.35295
 209.98488 211.13581 211.37075 211.60468 211.54761 211.25855 210.89748 210.53342
 210.15635 209.87228 209.68622 209.55615 209.49008 209.82702 210.21895 210.61389
 211.41282 212.59675 213.85269 215.64162 217.57555 219.62449 221.72542 223.81436
 225.88029 227.97022 230.07316 232.18509 234.32002 236.49796 238.75989 241.13583
 243.76276 246.01969 248.02763 249.79856 251.22149 252.35043 253.17836 253.50030
 253.54323 253.32316 252.68910 251.64303 250.25496 248.42190 246.33683 244.17577
 241.97270 239.78263 237.60857 235.45350 233.31943 231.19237 229.22430 227.38724
 225.67617 224.15410 222.79004 221.56797 220.45590 219.42184 218.53177 217.67870
 216.92664 216.11257 215.21651 214.58644 214.04237 214.27884 214.71388 214.34271
 213.75327 213.89075 214.62810 215.99327 218.60339 222.17903 226.76648 230.84633
 234.09654 237.65192 241.51250 245.63069 249.74913 253.69897 257.37320 260.75934
 263.78458 266.34344 268.48645 270.48102 272.48364 274.23245 275.97415 277.31296
 279.06720 280.87799 282.44495 283.82083 285.01157 286.06503 287.02618 287.89691
 288.68002 289.37741 289.98663 290.76300
 366.78100 356.34043 345.77787 334.64930 323.05774 311.25717 299.13261 286.94104
 274.65848 262.56091 250.57535 239.88178 230.00922 221.11865 213.30609 206.31352
 200.15296 195.09639 191.68383 189.73126 188.77370 188.84313 189.68357 190.99700
 192.72743 194.82787 197.09630 199.46074 201.91117 204.39661 206.49004 208.33748
 209.96891 211.11935 211.35378 211.58722 211.52965 211.24009 210.87852 210.51396
 210.13639 209.85183 209.66526 209.53470 209.46813 209.80456 210.19600 210.59043
 211.38887 212.57230 213.82774 215.61617 217.54961 219.59804 221.69848 223.78691
 225.85235 227.94178 230.04422 232.15565 234.29009 236.46752 238.72896 241.10439
 243.73083 245.98726 247.99470 249.76513 251.18756 252.31600 253.14343 253.46487
 253.50730 253.28674 252.65217 251.60561 250.21704 248.38348 246.29791 244.13635
 241.93278 239.74222 237.56765 235.41209 233.27752 231.14996 229.18139 227.34383
 225.63226 224.10969 222.74513 221.52256 220.41000 219.37543 218.48487 217.63130
 216.87874 216.06417 215.16761 214.53704 213.99248 214.26547 214.78404 214.37900
 213.69118 213.87595 214.61760 215.85718 218.52095 222.21840 226.71346 230.81303
 234.04736 237.61702 241.50046 245.63391 249.74263 253.66479 257.32965 260.69910
 263.71881 266.28580 268.43250 270.52802 272.52899 274.26245 275.99911 277.37448
 279.05264 280.94006 282.59967 284.05695 285.31808 286.43387 287.45184 288.37405
 289.20349 289.94211 290.58734 291.40964
 366.78100 356.34109 345.77917 334.65126 323.06035 311.26044 299.13652 286.94561
 274.66370 262.56679 250.58187 239.88896 230.01705 221.12714 213.31522 206.32331
 200.16340 195.10749 191.69557 189.74366 188.78675 188.85684 189.69792 191.01201
 192.74310 194.84418 197.11327 199.47836 201.92945 204.41553 206.50962 208.35771
 209.98980 211.14088 211.37597 211.61006 211.55315 211.26423 210.90332 210.53941
 210.16250 209.87858 209.69267 209.56276 209.49685 209.83393 210.22602 210.62111
 211.42019 212.60428 213.86037 215.64946 217.58354 219.63263 221.73372 223.82281
 225.88889 227.97898 230.08207 232.19416 234.32924 236.50733 238.76942 241.14551
 243.77259 246.02968 248.03777 249.80886 251.23194 252.36103 253.18912 253.51120
 253.55429 253.33438 252.70047 251.65455 250.26664 248.43373 246.34882 244.18790
 241.98499 239.79508 237.62117 235.46625 233.33234 231.20543 229.23752 227.40060
 225.68969 224.16778 222.80387 221.58195 220.47004 219.43613 218.54621 217.69330
 216.94139 216.12748 215.23156 214.60165 214.05774 214.29631 214.78639 214.46591
 213.62035 213.72452 214.52086 215.86568 218.54675 222.30780 226.72704 230.84662
 234.05721 237.61668 241.51463 245.67136 249.77043 253.65738 257.31284 260.66599
 263.62457 266.13239 268.33673 270.50092 272.51074 274.27164 275.94235 277.45502
 278.94568 280.48260 282.05179 283.47705 284.71051 285.80179 286.79742 287.69940
 288.51065 289.23303 289.86414 290.66837
 366.78100 356.34202 345.78103 334.65405 323.06406 311.26508 299.14209 286.95211
 274.67112 262.57514 250.59116 239.89917 230.02819 221.13920 213.32822 206.33723
 200.17825 195.12326 191.71228 189.76130 188.80531 188.87633 189.71834 191.03336
 192.76537 194.86739 197.13741 199.50342 201.95544 204.44245 206.53747 208.38648
 210.01950 211.17151 211.40753 211.64255 211.58656 211.29858 210.93859 210.57561
 210.19962 209.91664 209.73165 209.60267 209.53769 209.87570 210.26872 210.66473
 211.46475 212.64976 213.90678 215.69679 217.63181 219.68183 221.78384 223.87386
 225.94087 228.03189 230.13590 232.24892 234.38494 236.56395 238.82697 241.20398
 243.83200 246.09001 248.09903 249.87104 251.29506 252.42508 253.25409 253.57711
 253.62112 253.40214 252.76915 251.72417 250.33718 248.50520 246.42122 244.26123
 242.05925 239.87026 237.69728 235.54329 233.41031 231.28432 229.31734 227.48136
 225.77137 224.25039 222.88740 221.66642 220.55543 219.52245 218.63346 217.78148
 217.03050 216.21751 215.32253 214.69354 214.15056 214.34280 214.76364 214.57913
 213.66498 213.47412 214.27431 215.77231 218.48480 222.28595 226.78351 230.83313
 234.06277 237.63210 241.54666 245.69131 249.76947 253.65495 257.30759 260.63171
 263.51599 266.00351 268.30939 270.50894 272.51605 274.29095 275.91547 277.30090
 278.63754 279.94086 281.06204 282.10583 283.25415 284.30579 285.26526 286.13446
 286.91623 287.61237 288.22052 288.99554
 366.78100 356.34246 345.78192 334.65537 323.06583 311.26729 299.14475 286.95521
 274.67466 262.57912 250.59558 239.90404 230.03350 221.14496 213.33441 206.34387
 200.18533 195.13079 191.72025 189.76970 188.81416 188.88562 189.72808 191.04354
 192.77599 194.87845 197.14891 199.51537 201.96783 204.45528 206.55074 208.40020
 210.03366 211.18612 211.42258 211.65803 211.60249 211.31495 210.95541 210.59287
 210.21732 209.93478 209.75024 209.62170 209.55716 209.89561 210.28907 210.68553
 211.48599 212.67145 213.92890 215.71936 217.65482 219.70528 221.80774 223.89819
 225.96565 228.05711 230.16157 232.27503 234.41149 236.59094 238.85440 241.23186
 243.86032 246.11878 248.12823 249.90069 251.32515 252.45561 253.28507 253.60852
 253.65298 253.43444 252.80190 251.75736 250.37081 248.53927 246.45573 244.29619
 242.09465 239.90611 237.73356 235.58002 233.44748 231.32194 229.35540 227.51985
 225.81031 224.28977 222.92723 221.70669 220.59614 219.56360 218.67506 217.82352
 217.07298 216.26043 215.36589 214.73735 214.19481 214.38765 214.79860 214.55949
 213.83398 213.54120 214.19930 215.70898 218.39911 222.23120 226.84738 230.85156
 234.05209 237.58868 241.46855 245.62967 249.72298 253.60605 257.26166 260.58020
 263.42767 265.89926 268.20035 270.48856 272.57291 274.22205 275.85706 277.28012
 278.46701 279.58197 280.60370 281.58444 282.32733 282.96750 283.55157 284.08069
 284.55658 284.98038 285.35056 285.82236
 366.78100 356.34181 345.78062 334.65344 323.06325 311.26406 299.14087 286.95068
 274.66950 262.57331 250.58912 239.89693 230.02574 221.13655 213.32537 206.33418
 200.17499 195.11980 191.70861 189.75743 188.80124 188.87205 189.71386 191.02867
 192.76049 194.86230 197.13211 199.49792 201.94973 204.43654 206.53136 208.38017
 210.01298 211.16479 211.40060 211.63542 211.57923 211.29104 210.93085 210.56766
 210.19148 209.90829 209.72310 209.59391 209.52872 209.86653 210.25935 210.65516
 211.45497 212.63978 213.89659 215.68641 217.62122 219.67103 221.77284 223.86265
 225.92947 228.02028 230.12409 232.23690 234.37271 236.55152 238.81434 241.19115
 243.81896 246.07677 248.08558 249.85740 251.28121 252.41102 253.23983 253.56264
 253.60646 253.38727 252.75408 251.70889 250.32170 248.48951 246.40533 244.24514
 242.04295 239.85376 237.68057 235.52639 233.39320 231.26701 229.29982 227.46363
 225.75345 224.23226 222.86907 221.64788 220.53669 219.50350 218.61432 217.76213
 217.01094 216.19775 215.30256 214.67338 214.13019 214.41290 214.91681 214.45804
 213.88663 213.70610 214.19876 215.61244 218.34648 222.14803 226.91180 230.86319
 234.06030 237.63316 241.54677 245.67441 249.75768 253.66496 257.31232 260.54318
 263.32208 265.81787 268.21426 270.53824 272.60699 274.27945 275.85532 277.32806
 278.60449 279.41168 280.10532 280.71439 281.24146 281.70782 282.13327 282.51871
 282.86539 283.17407 283.44376 283.78745
 366.78100 356.34155 345.78009 334.65264 323.06219 311.26273 299.13928 286.94882
 274.66737 262.57092 250.58646 239.89401 230.02256 221.13310 213.32165 206.33020
 200.17074 195.11529 191.70383 189.75238 188.79593 188.86647 189.70802 191.02257
 192.75411 194.85566 197.12521 199.49075 201.94230 204.42884 206.52339 208.37194
 210.00448 211.15603 211.39158 211.62612 211.56967 211.28122 210.92076 210.55731
 210.18086 209.89740 209.71195 209.58249 209.51704 209.85459 210.24713 210.64268
 211.44223 212.62677 213.88332 215.67287 217.60741 219.65696 221.75850 223.84805
 225.91460 228.00514 230.10869 232.22124 234.35678 236.53533 238.79788 241.17442
 243.80197 246.05951 248.06806 249.83961 251.26315 252.39270 253.22125 253.54379
 253.58734 253.36789 252.73443 251.68898 250.30152 248.46907 246.38462 244.22416
 242.02171 239.83226 237.65880 235.50435 233.37090 231.24444 229.27699 227.44053
 225.73008 224.20863 222.84517 221.62372 220.51227 219.47881 218.58936 217.73691
 216.98545 216.17200 215.27654 214.64709 214.10364 214.44304 214.99625 214.46788
 213.69325 213.38193 214.09772 215.63412 218.35695 222.16489 226.89879 230.94077
 234.14316 237.73703 241.70123 245.88930 250.03667 253.99573 257.67389 260.94571
 263.75180 266.15717 268.34363 270.52115 272.58008 274.24054 275.86972 277.23770
 278.38992 279.37756 280.23221 280.98264 281.63208 282.20667 282.73087 283.20578
 283.63290 284.01328 284.34555 284.76898
 366.78100 356.34381 345.78462 334.65944 323.07125 311.27406 299.15287 286.96469
 274.68550 262.59131 250.60912 239.91893 230.04975 221.16256 213.35337 206.36418
 200.20699 195.15381 191.74462 189.79543 188.84124 188.91406 189.75787 191.07468
 192.80849 194.91230 197.18412 199.55193 202.00574 204.49455 206.59136 208.44218
 210.07699 211.23080 211.46861 211.70543 211.65124 211.36505 211.00686 210.64567
 210.27149 209.99030 209.80711 209.67992 209.61673 209.95655 210.35136 210.74917
 211.55098 212.73780 213.99661 215.78842 217.72523 219.77704 221.88086 223.97267
 226.04148 228.13429 230.24010 232.35492 234.49273 236.67354 238.93835 241.31717
 243.94698 246.20679 248.21760 249.99141 251.41723 252.54904 253.37985 253.70466
 253.75048 253.53329 252.90210 251.85891 250.47372 248.64354 246.56135 244.40316
 242.20297 240.01578 237.84460 235.69241 233.56122 231.43703 229.47185 227.63766
 225.92947 224.41028 223.04909 221.82991 220.72072 219.68953 218.80234 217.95215
 217.20297 216.39178 215.49859 214.87140 214.33022 214.54437 214.95282 214.64682
 213.73492 213.33215 213.98584 215.37424 218.17159 222.02985 226.72701 230.80904
 234.05058 237.71478 241.74712 245.99327 250.16852 254.14136 257.86740 261.26483
 264.19330 266.57019 268.66220 270.68759 272.54346 274.22150 275.87439 277.24811
 279.09286 280.84564 282.36240 283.69421 284.84677 285.86652 286.79684 287.63968
 288.39771 289.07275 289.66245 290.41394
 366.78100 356.34619 345.78938 334.66657 323.08076 311.28595 299.16714 286.98133
 274.70452 262.61271 250.63290 239.94509 230.07828 221.19347 213.38666 206.39985
 200.24504 195.19423 191.78742 189.84061 188.88880 188.96399 189.81018 191.12937
 192.86556 194.97175 197.24594 199.61613 202.07232 204.56351 206.66270 208.51589
 210.15308 211.30927 211.54946 211.78865 211.73684 211.45303 211.09722 210.73841
 210.36660 210.08779 209.90698 209.78217 209.72136 210.06355 210.46074 210.86093
 211.66512 212.85431 214.11550 215.90969 217.84888 219.90307 222.00926 224.10345
 226.17464 228.26983 230.37802 232.49521 234.63541 236.81860 239.08579 241.46698
 244.09917 246.36136 248.37455 250.15074 251.57893 252.71312 253.54631 253.87350
 253.92169 253.70688 253.07807 252.03726 250.65445 248.82664 246.74683 244.59102
 242.39321 240.20840 238.03959 235.88978 233.76097 231.63916 229.67635 227.84454
 226.13873 224.62192 223.26311 222.04630 220.93949 219.91068 219.02587 218.17806
 217.43125 216.62244 215.73163 215.10682 214.56801 214.65469 214.84927 214.75906
 214.01678 213.46989 213.93451 215.24007 218.01343 221.97070 226.41531 230.60896
 233.81903 237.50830 241.56970 245.82246 249.97304 253.90846 257.61694 261.03235
 263.99805 266.44193 268.57498 270.61835 272.49857 274.19669 275.82834 277.24884
 278.54056 280.08990 281.65649 283.03207 284.22253 285.27576 286.23666 287.10721
 287.89014 288.58734 289.19641 289.97263
 366.78100 356.34582 345.78864 334.66546 323.07928 311.28410 299.16492 286.97874
 274.70156 262.60938 250.62921 239.94103 230.07385 221.18867 213.38149 206.39431
 200.23913 195.18795 191.78077 189.83359 188.88141 188.95623 189.80205 191.12087
 192.85669 194.96251 197.23633 199.60615 202.06197 204.55279 206.65162 208.50444
 210.14126 211.29708 211.53690 211.77572 211.72354 211.43936 211.08318 210.72400
 210.35182 210.07264 209.89146 209.76628 209.70510 210.04692 210.44374 210.84356
 211.64738 212.83621 214.09703 215.89085 217.82967 219.88349 221.98931 224.08313
 226.15395 228.24877 230.35659 232.47341 234.61323 236.79605 239.06287 241.44369
 244.07551 246.33733 248.35015 250.12597 251.55380 252.68762 253.52044 253.84726
 253.89508 253.67990 253.05072 252.00954 250.62636 248.79818 246.71800 244.56182
 242.36364 240.17846 238.00928 235.85910 233.72992 231.60774 229.64456 227.81238
 226.10621 224.58903 223.22985 222.01267 220.90549 219.87631 218.99113 218.14295
 217.39577 216.58659 215.69541 215.07023 214.53105 214.64177 214.88101 214.75259
 214.03900 213.50031 213.82036 215.24329 218.04173 221.98055 226.49562 230.64629
 233.79449 237.45302 241.51013 245.79698 249.92770 253.80992 257.45886 260.81644
 263.77081 266.27783 268.47275 270.56934 272.48813 274.18445 275.76816 277.17102
 278.48163 279.71353 281.12503 282.58206 283.87726 285.02319 286.06866 287.01581
 287.86765 288.62622 289.28888 290.13339
 366.78100 356.34368 345.78436 334.65904 323.07072 311.27341 299.15209 286.96377
 274.68445 262.59013 250.60781 239.91749 230.04817 221.16085 213.35154 206.36222
 200.20490 195.15158 191.74226 189.79294 188.83862 188.91130 189.75498 191.07166
 192.80535 194.90903 197.18071 199.54839 202.00207 204.49075 206.58743 208.43811
 210.07279 211.22648 211.46416 211.70084 211.64652 211.36020 211.00188 210.64056
 210.26624 209.98492 209.80161 209.67429 209.61097 209.95065 210.34533 210.74301
 211.54469 212.73137 213.99005 215.78174 217.71842 219.77010 221.87378 223.96546
 226.03414 228.12682 230.23250 232.34718 234.48486 236.66555 238.93023 241.30891
 243.93859 246.19827 248.20895 249.98263 251.40831 252.53999 253.37068 253.69536
 253.74104 253.52372 252.89240 251.84908 250.46376 248.63344 246.55112 244.39281
 242.19249 240.00517 237.83385 235.68153 233.55021 231.42589 229.46057 227.62625
 225.91794 224.39862 223.03730 221.81798 220.70866 219.67734 218.79002 217.93970
 217.19038 216.37906 215.48575 214.85843 214.31711 214.53726 215.01608 214.80441
 213.92181 213.27838 213.64925 215.17107 217.96660 221.92435 226.58830 230.66978
 233.90077 237.54710 241.60255 245.87212 249.98988 253.84622 257.45367 260.76620
 263.68387 266.19409 268.41837 270.53613 272.48764 274.15057 275.73990 277.23242
 278.52405 279.78455 280.99179 282.31357 283.57571 284.74481 285.81146 286.77774
 287.64682 288.42072 289.09680 289.95837
 366.78100 356.34271 345.78241 334.65612 323.06682 311.26853 299.14624 286.95694
 274.67665 262.58136 250.59806 239.90677 230.03647 221.14818 213.33789 206.34759
 200.18930 195.13501 191.72471 189.77442 188.81912 188.89083 189.73354 191.04924
 192.78195 194.88465 197.15536 199.52207 201.97477 204.46248 206.55819 208.40789
 210.04160 211.19430 211.43101 211.66672 211.61142 211.32413 210.96484 210.60254
 210.22725 209.94495 209.76066 209.63237 209.56807 209.90678 210.30049 210.69719
 211.49790 212.68360 213.94131 215.73202 217.66772 219.71843 221.82113 223.91184
 225.97955 228.07125 230.17596 232.28967 234.42637 236.60608 238.86978 241.24749
 243.87620 246.13490 248.14461 249.91732 251.34202 252.47273 253.30243 253.62614
 253.67085 253.45255 252.82026 251.77596 250.38967 248.55838 246.47508 244.31579
 242.11450 239.92620 237.75391 235.60061 233.46832 231.34303 229.37673 227.54144
 225.83215 224.31185 222.94956 221.72926 220.61897 219.58668 218.69838 217.84709
 217.09679 216.28450 215.39021 214.76191 214.21962 214.49634 215.09962 214.86554
 213.93098 213.21425 213.52547 214.99419 217.83246 221.84177 226.55878 230.65234
 233.90915 237.58250 241.66515 245.95987 250.08582 253.92932 257.51041 260.79129
 263.66571 266.14850 268.37057 270.48010 272.41516 274.11105 275.71921 277.15656
 278.45590 279.76358 281.07996 282.40244 283.64603 284.79459 285.84250 286.79181
 287.64563 288.40594 289.07016 289.91663
 366.78100 356.34298 345.78296 334.65694 323.06792 311.26990 299.14788 286.95886
 274.67884 262.58382 250.60080 239.90978 230.03976 221.15175 213.34173 206.35171
 200.19369 195.13967 191.72965 189.77963 188.82461 188.89659 189.73957 191.05555
 192.78853 194.89151 197.16249 199.52947 201.98245 204.47043 206.56641 208.41639
 210.05037 211.20335 211.44033 211.67631 211.62129 211.33427 210.97526 210.61324
 210.23822 209.95620 209.77218 209.64416 209.58014 209.91912 210.31310 210.71008
 211.51106 212.69704 213.95502 215.74600 217.68198 219.73296 221.83594 223.92692
 225.99490 228.08688 230.19186 232.30584 234.44282 236.62280 238.88678 241.26477
 243.89375 246.15273 248.16271 249.93569 251.36067 252.49165 253.32163 253.64561
 253.69059 253.47257 252.84055 251.79653 250.41051 248.57949 246.49647 244.33745
 242.13643 239.94841 237.77639 235.62337 233.49135 231.36633 229.40031 227.56529
 225.85628 224.33626 222.97424 221.75422 220.64420 219.61218 218.72416 217.87314
 217.12312 216.31110 215.41708 214.78906 214.24704 214.51952 215.11775 214.93781
 213.96107 213.19620 213.42792 214.86346 217.75290 221.79303 226.52477 230.62428
 233.88820 237.59569 241.71428 246.04160 250.17952 254.01440 257.57565 260.83740
 263.70349 266.18091 268.39151 270.46136 272.35461 274.07452 275.71805 277.16833
 278.45758 279.80334 281.16440 282.49646 283.72845 284.84436 285.86243 286.78473
 287.61426 288.35294 288.99826 289.82062
 366.78100 356.34346 345.78393 334.65839 323.06986 311.27232 299.15079 286.96225
 274.68272 262.58818 250.60565 239.91511 230.04558 221.15804 213.34851 206.35897
 200.20144 195.14790 191.73836 189.78883 188.83429 188.90676 189.75022 191.06669
 192.80015 194.90362 197.17508 199.54255 201.99601 204.48448 206.58094 208.43141
 210.06587 211.21934 211.45680 211.69326 211.63873 211.35219 210.99366 210.63212
 210.25759 209.97605 209.79252 209.66498 209.60145 209.94091 210.33538 210.73284
 211.53431 212.72077 213.97924 215.77070 217.70717 219.75863 221.86209 223.95356
 226.02202 228.11449 230.21995 232.33442 234.47188 236.65235 238.91681 241.29528
 243.92474 246.18421 248.19467 249.96814 251.39360 252.52507 253.35553 253.67999
 253.72546 253.50792 252.87639 251.83285 250.44732 248.61678 246.53425 244.37571
 242.17518 239.98764 237.81611 235.66357 233.53204 231.40750 229.44197 227.60743
 225.89889 224.37936 223.01782 221.79829 220.68875 219.65722 218.76968 217.91915
 217.16961 216.35808 215.46454 214.83701 214.29547 214.55035 215.11949 215.03389
 214.00731 213.19493 213.30829 214.71680 217.67252 221.74776 226.49446 230.58005
 233.84081 237.57704 241.73225 246.08945 250.23209 254.04968 257.58557 260.83917
 263.71561 266.20523 268.41202 270.45349 272.32172 274.04398 275.71658 277.15045
 278.50833 279.89734 281.26260 282.58862 283.80502 284.89624 285.89185 286.79376
 287.60495 288.32733 288.95837 289.76257
 366.78100 356.34521 345.78742 334.66363 323.07684 311.28105 299.16126 286.97447
 274.69668 262.60389 250.62310 239.93431 230.06652 221.18073 213.37294 206.38515
 200.22936 195.17757 191.76978 189.82199 188.86920 188.94341 189.78862 191.10683
 192.84204 194.94725 197.22046 199.58967 202.04488 204.53509 206.63330 208.48552
 210.12173 211.27694 211.51615 211.75436 211.70157 211.41678 211.05999 210.70020
 210.32741 210.04762 209.86583 209.74004 209.67825 210.01946 210.41567 210.81488
 211.61809 212.80630 214.06651 215.85972 217.79793 219.85114 221.95635 224.04956
 226.11977 228.21398 230.32119 232.43740 234.57661 236.75882 239.02503 241.40524
 244.03645 246.29766 248.30987 250.08508 251.51229 252.64550 253.47771 253.80392
 253.85113 253.63534 253.00555 251.96376 250.57997 248.75118 246.67039 244.51360
 242.31481 240.12902 237.95923 235.80844 233.67865 231.55586 229.59207 227.75928
 226.05249 224.53470 223.17491 221.95712 220.84934 219.81955 218.93376 218.08497
 217.33718 216.52739 215.63560 215.00981 214.47002 214.64374 215.04962 215.12041
 214.13190 213.26024 213.21251 214.55316 217.57805 221.69670 226.46260 230.53136
 233.78255 237.54341 241.73300 246.11893 250.26201 254.05830 257.56290 260.80881
 263.69788 266.20233 268.40408 270.40979 272.25143 274.00723 275.71176 277.15283
 278.54962 279.98743 281.33847 282.61417 283.79526 284.84833 285.80905 286.67944
 287.46225 288.15933 288.76831 289.54437
 366.78100 356.34800 345.79301 334.67201 323.08801 311.29502 299.17802 286.99402
 274.71903 262.62903 250.65103 239.96504 230.10004 221.21704 213.41205 206.42705
 200.27405 195.22506 191.82006 189.87506 188.92507 189.00207 189.85007 191.17108
 192.90908 195.01708 197.29309 199.66509 202.12309 204.61610 206.71710 208.57210
 210.21111 211.36911 211.61111 211.85212 211.80212 211.52012 211.16612 210.80913
 210.43913 210.16213 209.98314 209.86014 209.80114 210.14515 210.54415 210.94615
 211.75216 212.94316 214.20616 216.00217 217.94317 219.99917 222.10718 224.20318
 226.27618 228.37319 230.48319 232.60219 234.74420 236.92920 239.19820 241.58121
 244.21521 246.47921 248.49422 250.27222 251.70222 252.83823 253.67323 254.00223
 254.05224 253.83924 253.21224 252.17325 250.79225 248.96625 246.88826 244.73426
 242.53826 240.35527 238.18827 236.04027 233.91328 231.79328 229.83228 228.00229
 226.29829 224.78329 223.42630 222.21130 221.10630 220.07931 219.19631 218.35031
 217.60532 216.79832 215.90932 215.28633 214.74933 214.79488 214.93758 215.16165
 214.31931 213.36461 213.18678 214.44212 217.49167 221.64441 226.44296 230.48341
 233.71718 237.49869 241.72076 246.14084 250.28474 254.04813 257.52698 260.76395
 263.66617 266.18622 268.37543 270.33209 272.16217 273.97327 275.72729 277.17007
 278.57306 280.04535 281.35202 282.60614 283.73120 284.72656 285.63470 286.45740
 287.19736 287.85626 288.43188 289.16544
 366.78100 356.34962 345.79623 334.67685 323.09446 311.30308 299.18770 287.00531
 274.73193 262.64354 250.66716 239.98278 230.11939 221.23801 213.43462 206.45124
 200.29986 195.25247 191.84909 189.90570 188.95732 189.03594 189.88555 191.20817
 192.94778 195.05740 197.33502 199.70863 202.16825 204.66286 206.76548 208.62210
 210.26271 211.42233 211.66594 211.90856 211.86018 211.57979 211.22741 210.87202
 210.50364 210.22826 210.05087 209.92949 209.87210 210.21772 210.61834 211.02195
 211.82957 213.02218 214.28680 216.08442 218.02703 220.08465 222.19426 224.29188
 226.36650 228.46511 230.57673 232.69734 234.84096 237.02758 239.29819 241.68281
 244.31842 246.58404 248.60066 250.38027 251.81189 252.94950 253.78612 254.11674
 254.16835 253.95697 253.33158 252.29420 250.91482 249.09043 247.01405 244.86166
 242.66728 240.48589 238.32051 236.17413 234.04874 231.93036 229.97097 228.14259
 226.44021 224.92682 223.57144 222.35805 221.25467 220.22929 219.34790 218.50352
 217.76013 216.95475 216.06737 215.44598 214.91060 214.89168 214.90189 215.14861
 214.45355 213.44672 213.18803 214.39430 217.43947 221.60162 226.44371 230.43823
 233.65553 237.44963 241.70621 246.15506 250.29216 254.04749 257.51596 260.74622
 263.65912 266.19202 268.37146 270.27310 272.09869 273.91339 275.71301 277.16794
 278.57660 280.06250 281.43991 282.75143 283.89087 284.89896 285.81870 286.65192
 287.40131 288.06863 288.65161 289.39453
 366.78100 356.34880 345.79461 334.67441 323.09122 311.29902 299.18282 286.99963
 274.72543 262.63624 250.65904 239.97384 230.10965 221.22745 213.42325 206.43906
 200.28686 195.23867 191.83447 189.89027 188.94108 189.01888 189.86769 191.18949
 192.92829 195.03710 197.31390 199.68671 202.14551 204.63931 206.74112 208.59692
 210.23673 211.39553 211.63833 211.88014 211.83094 211.54974 211.19655 210.84035
 210.47116 210.19496 210.01676 209.89457 209.83637 210.18118 210.58098 210.98378
 211.79059 212.98239 214.24620 216.04300 217.98480 220.04161 222.15041 224.24722
 226.32102 228.41882 230.52963 232.64943 234.79223 236.97804 239.24784 241.63165
 244.26645 246.53125 248.54706 250.32586 251.75667 252.89347 253.72927 254.05908
 254.10988 253.89769 253.27149 252.23329 250.85310 249.02790 246.95071 244.79751
 242.60231 240.42012 238.25392 236.10672 233.98053 231.86133 229.90114 228.07194
 226.36874 224.85455 223.49835 222.28416 221.17996 220.15376 219.27157 218.42637
 217.68218 216.87598 215.98778 215.36559 214.82939 214.87051 214.98082 215.08548
 214.60385 213.53069 213.10976 214.26845 217.33144 221.52264 226.42561 230.39801
 233.62044 237.44167 241.72807 246.18251 250.33435 254.09595 257.56451 260.79614
 263.72867 266.28635 268.45203 270.30127 272.05844 273.86414 275.68423 277.15030
 278.55096 280.08249 281.60693 283.00531 284.21548 285.28616 286.26303 287.14798
 287.94388 288.65265 289.27182 290.06088
 366.78100 356.34695 345.79090 334.66885 323.08380 311.28975 299.17170 286.98665
 274.71060 262.61955 250.64050 239.95345 230.08740 221.20335 213.39730 206.41125
 200.25720 195.20715 191.80110 189.85506 188.90401 188.97996 189.82691 191.14686
 192.88381 194.99076 197.26571 199.63666 202.09361 204.58556 206.68551 208.53946
 210.17741 211.33436 211.57531 211.81526 211.76421 211.48116 211.12611 210.76806
 210.39701 210.11896 209.93891 209.81486 209.75481 210.09776 210.49571 210.89666
 211.70161 212.89156 214.15351 215.94846 217.88841 219.94336 222.05031 224.14527
 226.21722 228.31317 230.42212 232.54007 234.68102 236.86497 239.13292 241.51487
 244.14782 246.41077 248.42472 250.20167 251.63062 252.76557 253.59952 253.92747
 253.97642 253.76237 253.13432 252.09427 250.71222 248.88517 246.80612 244.65107
 242.45402 240.26997 238.10192 235.95287 233.82482 231.70377 229.74172 227.91067
 226.20562 224.68957 223.33152 222.11548 221.00943 219.98138 219.09733 218.25028
 217.50423 216.69618 215.80613 215.18208 214.64403 214.79694 215.09126 214.98212
 214.83844 213.72916 213.00926 214.05684 217.13525 221.38562 226.29446 230.28096
 233.52649 237.39447 241.73073 246.21335 250.38536 254.15416 257.62097 260.85971
 263.82599 266.43405 268.62375 270.46390 272.17648 273.84106 275.60339 277.14297
 278.59305 280.19891 281.83072 283.34369 284.65305 285.81146 286.86838 287.82584
 288.68698 289.45383 290.12372 290.97745
 366.78100 356.34581 345.78861 334.66542 323.07923 311.28404 299.16484 286.97865
 274.70146 262.60927 250.62907 239.94088 230.07369 221.18849 213.38130 206.39411
 200.23892 195.18772 191.78053 189.83334 188.88114 188.95595 189.80176 191.12057
 192.85637 194.96218 197.23599 199.60580 202.06160 204.55241 206.65122 208.50402
 210.14083 211.29664 211.53645 211.77525 211.72306 211.43887 211.08268 210.72348
 210.35129 210.07210 209.89090 209.76571 209.70452 210.04633 210.44313 210.84294
 211.64675 212.83555 214.09636 215.89017 217.82898 219.88278 221.98859 224.08240
 226.15321 228.24801 230.35582 232.47263 234.61243 236.79524 239.06205 241.44286
 244.07466 246.33647 248.34928 250.12509 251.55289 252.68670 253.51951 253.84631
 253.89412 253.67893 253.04974 252.00854 250.62535 248.79716 246.71696 244.56077
 242.36258 240.17739 238.00819 235.85800 233.72881 231.60662 229.64342 227.81123
 226.10504 224.58784 223.22865 222.01146 220.90427 219.87507 218.98988 218.14169
 217.39450 216.58530 215.69411 215.06892 214.52972 214.74869 215.16489 214.87924
 214.96452 214.05670 213.08238 213.92711 216.95570 221.22627 226.07625 230.09746
 233.36681 237.29074 241.68304 246.20798 250.37347 254.12621 257.58044 260.82913
 263.82922 266.49332 268.76123 270.61072 272.34604 274.02954 275.62088 277.27298
 278.77853 280.28925 281.83557 283.38507 284.73325 285.92606 287.01428 288.00018
 288.88687 289.67645 290.36624 291.24527
 366.78100 356.34620 345.78941 334.66661 323.08082 311.28602 299.16723 286.98143
 274.70464 262.61284 250.63305 239.94525 230.07845 221.19366 213.38686 206.40007
 200.24527 195.19448 191.78768 189.84089 188.88909 188.96430 189.81050 191.12971
 192.86591 194.97211 197.24632 199.61652 202.07273 204.56393 206.66314 208.51634
 210.15355 211.30975 211.54996 211.78916 211.73736 211.45357 211.09777 210.73898
 210.36718 210.08839 209.90759 209.78280 209.72200 210.06421 210.46141 210.86162
 211.66582 212.85502 214.11623 215.91043 217.84964 219.90384 222.01005 224.10425
 226.17546 228.27066 230.37887 232.49607 234.63627 236.81948 239.08668 241.46789
 244.10009 246.36230 248.37550 250.15171 251.57991 252.71412 253.54732 253.87453
 253.92273 253.70793 253.07914 252.03834 250.65555 248.82775 246.74796 244.59216
 242.39437 240.20957 238.04078 235.89098 233.76218 231.64039 229.67759 227.84580
 226.14000 224.62321 223.26441 222.04762 220.94082 219.91203 219.02723 218.17944
 217.43264 216.62384 215.73305 215.10825 214.56946 214.76645 215.16263 214.89384
 214.86945 214.27347 213.27710 213.91545 216.84929 221.10139 225.92067 229.95273
 233.27296 237.23740 241.66219 246.18758 250.34691 254.06857 257.49850 260.74661
 263.76447 266.46759 268.76498 270.65179 272.40161 274.14832 275.74188 277.34930
 278.92557 280.38062 281.82730 283.20941 284.48074 285.60556 286.63177 287.56146
 288.39761 289.14221 289.79266 290.62161
 366.78100 356.34740 345.79180 334.67020 323.08561 311.29201 299.17441 286.98981
 274.71421 262.62361 250.64502 239.95842 230.09282 221.20922 213.40362 206.41802
 200.26443 195.21483 191.80923 189.86363 188.91303 188.98943 189.83684 191.15724
 192.89464 195.00204 197.27744 199.64884 202.10625 204.59865 206.69905 208.55345
 210.19185 211.34925 211.59066 211.83106 211.78046 211.49786 211.14326 210.78566
 210.41507 210.13747 209.95787 209.83427 209.77467 210.11807 210.51648 210.91788
 211.72328 212.91368 214.17608 215.97148 217.91188 219.96729 222.07469 224.17009
 226.24249 228.33889 230.44829 232.56670 234.70810 236.89250 239.16090 241.54330
 244.17670 246.44011 248.45451 250.23191 251.66131 252.79671 253.63111 253.95952
 254.00892 253.79532 253.16772 252.12812 250.74652 248.91993 246.84133 244.68673
 242.49013 240.30653 238.13893 235.99034 233.86274 231.74214 229.78054 227.94994
 226.24534 224.72975 223.37215 222.15655 221.05095 220.02335 219.13975 218.29316
 217.54756 216.73996 215.85036 215.22676 214.68916 214.82129 215.10789 215.01883
 214.73390 214.25510 213.40164 213.92630 216.78493 221.02391 225.83855 229.85889
 233.21446 237.20547 241.66669 246.19443 250.35057 254.07503 257.49420 260.73959
 263.77139 266.51831 268.86526 270.78207 272.51993 274.25540 275.84775 277.38449
 278.92447 280.33179 281.67239 282.98227 284.20337 285.29959 286.29974 287.20581
 288.02072 288.74640 289.38034 290.18823
 366.78100 356.34833 345.79366 334.67299 323.08932 311.29665 299.17997 286.99630
 274.72163 262.63196 250.65429 239.96862 230.10395 221.22128 213.41661 206.43194
 200.27926 195.23059 191.82592 189.88125 188.93158 189.00891 189.85724 191.17857
 192.91690 195.02523 197.30156 199.67388 202.13221 204.62554 206.72687 208.58220
 210.22153 211.37986 211.62219 211.86352 211.81385 211.53218 211.17850 210.82183
 210.45216 210.17549 209.99682 209.87415 209.81548 210.15981 210.55914 210.96147
 211.76779 212.95912 214.22245 216.01878 217.96011 220.01644 222.12477 224.22110
 226.29443 228.39176 230.50209 232.62141 234.76374 236.94907 239.21840 241.60173
 244.23606 246.50039 248.51572 250.29405 251.72438 252.86071 253.69603 254.02536
 254.07569 253.86302 253.23635 252.19768 250.81701 248.99134 246.91367 244.76000
 242.56432 240.38165 238.21498 236.06731 233.94064 231.82097 229.86030 228.03063
 226.32696 224.81229 223.45562 222.24094 221.13627 220.10960 219.22693 218.38126
 217.63659 216.82992 215.94125 215.31858 214.78191 214.86005 215.04655 215.14760
 214.72095 214.07721 213.36069 213.86736 216.70879 220.95984 225.80518 229.78459
 233.18433 237.18759 241.66611 246.18762 250.33794 254.05269 257.46915 260.70932
 263.75882 266.56427 269.00192 270.99664 272.77957 274.52820 276.11313 277.60791
 279.07687 280.43982 281.59650 282.74911 283.89645 284.94061 285.89761 286.76462
 287.54437 288.23874 288.84534 289.61835
 366.78100 356.34877 345.79453 334.67430 323.09106 311.29883 299.18259 286.99936
 274.72512 262.63589 250.65865 239.97342 230.10919 221.22695 213.42272 206.43848
 200.28625 195.23801 191.83378 189.88954 188.94031 189.01807 189.86684 191.18861
 192.92737 195.03614 197.31290 199.68567 202.14443 204.63820 206.73996 208.59573
 210.23549 211.39426 211.63703 211.87879 211.82956 211.54832 211.19509 210.83885
 210.46962 210.19338 210.01515 209.89291 209.83468 210.17945 210.57921 210.98198
 211.78874 212.98051 214.24427 216.04104 217.98280 220.03957 222.14833 224.24510
 226.31887 228.41663 230.52740 232.64716 234.78993 236.97569 239.24546 241.62922
 244.26399 246.52876 248.54452 250.32329 251.75405 252.89082 253.72658 254.05635
 254.10711 253.89488 253.26864 252.23041 250.85018 249.02494 246.94771 244.79447
 242.59924 240.41700 238.25077 236.10353 233.97730 231.85806 229.89783 228.06860
 226.36536 224.85113 223.49489 222.28066 221.17642 220.15019 219.26795 218.42272
 217.67848 216.87225 215.98402 215.36178 214.82555 214.87640 215.00128 215.18028
 214.88849 213.85962 213.19043 213.78267 216.63730 220.91612 225.82495 229.71373
 233.16608 237.16640 241.65112 246.17409 250.31555 254.00720 257.39288 260.58694
 263.59259 266.38684 268.86441 270.94211 272.80698 274.64062 276.30606 277.83487
 279.27515 280.57355 281.71161 282.78839 283.83606 284.75992 285.63727 286.44818
 287.17749 287.82693 288.39429 289.11731
 366.78100 356.34843 345.79385 334.67328 323.08970 311.29713 299.18055 286.99698
 274.72240 262.63283 250.65525 239.96968 230.10510 221.22253 213.41795 206.43338
 200.28080 195.23223 191.82765 189.88308 188.93350 189.01093 189.85935 191.18078
 192.91920 195.02763 197.30405 199.67648 202.13490 204.62833 206.72975 208.58518
 210.22460 211.38303 211.62545 211.86688 211.81730 211.53573 211.18215 210.82558
 210.45600 210.17943 210.00085 209.87828 209.81970 210.16413 210.56355 210.96598
 211.77240 212.96383 214.22725 216.02368 217.96510 220.02153 222.12995 224.22638
 226.29980 228.39723 230.50765 232.62708 234.76950 236.95493 239.22435 241.60778
 244.24220 246.50663 248.52205 250.30048 251.73090 252.86733 253.70275 254.03218
 254.08260 253.87003 253.24345 252.20488 250.82430 248.99873 246.92115 244.76758
 242.57200 240.38943 238.22285 236.07528 233.94870 231.82913 229.86855 228.03898
 226.33540 224.82083 223.46425 222.24968 221.14510 220.11853 219.23595 218.39038
 217.64580 216.83923 215.95065 215.32808 214.79150 214.86037 215.02213 215.08812
 215.17654 213.99174 213.13644 213.71399 216.56969 220.86465 225.82843 229.61572
 233.12125 237.13565 241.64644 246.19427 250.34967 254.03981 257.40524 260.55844
 263.50946 266.24515 268.69659 270.80997 272.73392 274.57513 276.25366 277.78809
 279.20853 280.47729 281.61038 282.71194 283.73730 284.55295 285.28909 286.05014
 286.78525 287.43985 288.01172 288.74048
 366.78100 356.34874 345.79449 334.67423 323.09098 311.29872 299.18247 286.99921
 274.72496 262.63570 250.65845 239.97319 230.10894 221.22668 213.42243 206.43817
 200.28592 195.23766 191.83340 189.88915 188.93989 189.01764 189.86638 191.18813
 192.92687 195.03562 197.31236 199.68511 202.14385 204.63760 206.73934 208.59509
 210.23483 211.39358 211.63632 211.87806 211.82881 211.54755 211.19430 210.83804
 210.46879 210.19253 210.01428 209.89202 209.83377 210.17851 210.57826 210.98100
 211.78775 212.97949 214.24324 216.03998 217.98172 220.03847 222.14721 224.24396
 226.31770 228.41545 230.52619 232.64594 234.78868 236.97443 239.24417 241.62792
 244.26266 246.52741 248.54315 250.32190 251.75264 252.88939 253.72513 254.05487
 254.10562 253.89336 253.26711 252.22885 250.84860 249.02334 246.94609 244.79283
 242.59758 240.41532 238.24907 236.10181 233.97556 231.85630 229.89605 228.06679
 226.36353 224.84928 223.49302 222.27877 221.17451 220.14826 219.26600 218.42075
 217.67649 216.87024 215.98198 215.35973 214.82347 214.87918 215.01050 215.06595
 215.34006 214.18037 213.09891 213.61378 216.47919 220.76358 225.72662 229.46217
 233.00966 237.06485 241.62277 246.20174 250.38054 254.09421 257.47455 260.62662
 263.55249 266.25568 268.70135 270.82663 272.76627 274.61115 276.28198 277.79907
 279.17911 280.39508 281.46088 282.47830 283.44760 284.23853 284.89670 285.57733
 286.27045 286.90283 287.45529 288.15930
 366.78100 356.34922 345.79543 334.67565 323.09287 311.30108 299.18530 287.00252
 274.72874 262.63995 250.66317 239.97839 230.11460 221.23282 213.42904 206.44525
 200.29347 195.24569 191.84191 189.89812 188.94934 189.02756 189.87677 191.19899
 192.93821 195.04742 197.32464 199.69786 202.15708 204.65129 206.75351 208.60973
 210.24994 211.40916 211.65238 211.89459 211.84581 211.56503 211.21224 210.85646
 210.48768 210.21190 210.03411 209.91233 209.85455 210.19976 210.59998 211.00320
 211.81041 213.00263 214.26685 216.06407 218.00628 220.06350 222.17272 224.26993
 226.34415 228.44237 230.55358 232.67380 234.81702 237.00324 239.27345 241.65767
 244.29289 246.55810 248.57432 250.35354 251.78475 252.92197 253.75819 254.08840
 254.13962 253.92784 253.30206 252.26427 250.88449 249.05971 246.98292 244.83014
 242.63536 240.45357 238.28779 236.14101 234.01523 231.89644 229.93666 228.10788
 226.40509 224.89131 223.53553 222.32174 221.21796 220.19218 219.31040 218.46561
 217.72183 216.91605 216.02826 215.40648 214.87070 214.90869 214.99835 215.05772
 215.35507 214.32285 213.10985 213.55829 216.42604 220.67578 225.58807 229.33904
 232.89865 237.01842 241.60565 246.19122 250.38324 254.11774 257.51981 260.68039
 263.59442 266.27905 268.71970 270.86435 272.83221 274.68283 276.34302 277.84055
 279.20163 280.38770 281.40771 282.33167 283.22397 283.93375 284.54565 285.29507
 286.05499 286.73172 287.32291 288.07629
 366.78100 356.34827 345.79353 334.67280 323.08907 311.29634 299.17960 286.99587
 274.72114 262.63141 250.65367 239.96794 230.10321 221.22047 213.41574 206.43101
 200.27828 195.22954 191.82481 189.88008 188.93035 189.00761 189.85588 191.17715
 192.91541 195.02368 197.29995 199.67222 202.13048 204.62375 206.72502 208.58029
 210.21955 211.37782 211.62009 211.86135 211.81162 211.52989 211.17616 210.81942
 210.44969 210.17296 209.99423 209.87149 209.81276 210.15703 210.55629 210.95856
 211.76483 212.95610 214.21936 216.01563 217.95690 220.01316 222.12143 224.21770
 226.29097 228.38823 230.49850 232.61777 234.76004 236.94530 239.21457 241.59784
 244.23210 246.49637 248.51164 250.28991 251.72017 252.85644 253.69171 254.02098
 254.07124 253.85851 253.23178 252.19304 250.81231 248.98658 246.90885 244.75511
 242.55938 240.37665 238.20992 236.06218 233.93545 231.81572 229.85498 228.02525
 226.32152 224.80679 223.45005 222.23532 221.13059 220.10386 219.22112 218.37539
 217.63066 216.82392 215.93519 215.31246 214.77573 214.86664 215.07654 215.03180
 215.19849 214.33792 213.14125 213.57115 216.44214 220.65572 225.51987 229.32655
 232.84346 237.01486 241.61507 246.20100 250.40515 254.15556 257.57156 260.73346
 263.63763 266.31067 268.74722 270.90482 272.89502 274.75427 276.38547 277.83881
 279.14905 280.26782 281.21127 282.07935 282.93759 283.64386 284.40784 285.27615
 286.08066 286.79709 287.42294 288.22052
 366.78100 356.34774 345.79247 334.67121 323.08695 311.29368 299.17642 286.99215
 274.71689 262.62663 250.64836 239.96210 230.09684 221.21357 213.40831 206.42305
 200.26978 195.22052 191.81526 189.86999 188.91973 188.99646 189.84420 191.16494
 192.90267 195.01041 197.28615 199.65788 202.11562 204.60836 206.70909 208.56383
 210.20257 211.36030 211.60204 211.84277 211.79251 211.51025 211.15598 210.79872
 210.42846 210.15119 209.97193 209.84867 209.78940 210.13314 210.53187 210.93361
 211.73935 212.93008 214.19282 215.98856 217.92929 219.98503 222.09277 224.18850
 226.26124 228.35798 230.46771 232.58645 234.72818 236.91292 239.18166 241.56439
 244.19813 246.46187 248.47660 250.25434 251.68408 252.81981 253.65455 253.98329
 254.03302 253.81976 253.19249 252.15323 250.77197 248.94570 246.86744 244.71318
 242.51691 240.33365 238.16639 236.01812 233.89086 231.77059 229.80933 227.97907
 226.27480 224.75954 223.40228 222.18701 221.08175 220.05449 219.17122 218.32496
 217.57970 216.77243 215.88317 215.25990 214.72264 214.84178 215.11606 215.08516
 215.01193 214.26848 213.18683 213.57288 216.44992 220.65198 225.47647 229.30533
 232.80206 236.99966 241.61693 246.20967 250.42114 254.18272 257.61111 260.78082
 263.68835 266.36661 268.82095 271.00934 273.03244 274.89465 276.50513 277.90762
 279.12631 280.13345 280.98645 281.83307 282.67123 283.50430 284.41605 285.31650
 286.12634 286.84750 287.47751 288.28040
 366.78100 356.34803 345.79306 334.67210 323.08813 311.29516 299.17819 286.99422
 274.71926 262.62929 250.65132 239.96535 230.10038 221.21742 213.41245 206.42748
 200.27451 195.22554 191.82058 189.87561 188.92564 189.00267 189.85070 191.17174
 192.90977 195.01780 197.29383 199.66586 202.12390 204.61693 206.71796 208.57299
 210.21202 211.37006 211.61209 211.85312 211.80315 211.52118 211.16721 210.81025
 210.44028 210.16331 209.98434 209.86137 209.80241 210.14644 210.54547 210.94750
 211.75353 212.94457 214.20760 216.00363 217.94466 220.00069 222.10873 224.20476
 226.27779 228.37482 230.48485 232.60389 234.74592 236.93095 239.19998 241.58301
 244.21705 246.48108 248.49611 250.27414 251.70417 252.84021 253.67524 254.00427
 254.05430 253.84133 253.21437 252.17540 250.79443 248.96846 246.89049 244.73653
 242.54056 240.35759 238.19062 236.04265 233.91569 231.79572 229.83475 228.00478
 226.30081 224.78585 223.42888 222.21391 221.10894 220.08197 219.19901 218.35304
 217.60807 216.80110 215.91213 215.28917 214.75220 214.85107 215.08315 215.16663
 214.99155 214.27205 213.27388 213.52084 216.39215 220.61714 225.44789 229.21269
 232.72984 236.95140 241.59029 246.18411 250.38602 254.14136 257.57150 260.75015
 263.67471 266.38068 268.88254 271.13806 273.21259 275.12787 276.75137 278.10889
 279.25549 280.18225 280.95932 281.71042 282.49884 283.35184 284.24469 285.11194
 285.91507 286.63025 287.25504 288.05124
 366.78100 356.34809 345.79318 334.67227 323.08836 311.29545 299.17855 286.99464
 274.71973 262.62982 250.65191 239.96600 230.10109 221.21818 213.41327 206.42836
 200.27545 195.22654 191.82164 189.87673 188.92682 189.00391 189.85200 191.17309
 192.91118 195.01927 197.29536 199.66745 202.12554 204.61864 206.71973 208.57482
 210.21391 211.37200 211.61409 211.85518 211.80527 211.52336 211.16945 210.81254
 210.44263 210.16573 209.98682 209.86391 209.80500 210.14909 210.54818 210.95027
 211.75636 212.94745 214.21054 216.00663 217.94773 220.00382 222.11191 224.20800
 226.28109 228.37818 230.48827 232.60736 234.74945 236.93454 239.20363 241.58672
 244.22082 246.48491 248.50000 250.27809 251.70818 252.84427 253.67936 254.00845
 254.05854 253.84563 253.21872 252.17982 250.79891 248.97300 246.89509 244.74118
 242.54527 240.36236 238.19545 236.04754 233.92063 231.80072 229.83981 228.00991
 226.30600 224.79109 223.43418 222.21927 221.11436 220.08745 219.20454 218.35863
 217.61372 216.80681 215.91791 215.29500 214.75809 214.84688 215.05667 215.20430
 215.10117 214.32945 213.30862 213.41798 216.28853 220.55862 225.43457 229.08893
 232.64891 236.89775 241.56978 246.16695 250.35385 254.09221 257.50870 260.67569
 263.59277 266.30362 268.84479 271.17068 273.30331 275.26074 276.91394 278.25967
 279.37692 280.28387 281.05087 281.80161 282.53091 283.28229 284.08646 284.82751
 285.51547 286.13223 286.67105 287.35767
 366.78100 356.34848 345.79395 334.67343 323.08991 311.29738 299.18086 286.99734
 274.72281 262.63329 250.65577 239.97024 230.10572 221.22320 213.41867 206.43415
 200.28163 195.23310 191.82858 189.88406 188.93453 189.01201 189.86049 191.18196
 192.92044 195.02892 197.30539 199.67787 202.13635 204.62982 206.73130 208.58678
 210.22625 211.38473 211.62720 211.86868 211.81916 211.53763 211.18411 210.82759
 210.45806 210.18154 210.00302 209.88049 209.82197 210.16645 210.56592 210.96840
 211.77488 212.96635 214.22983 216.02631 217.96778 220.02426 222.13274 224.22921
 226.30269 228.40017 230.51064 232.63012 234.77260 236.95807 239.22755 241.61103
 244.24550 246.50998 248.52546 250.30393 251.73441 252.87089 253.70636 254.03584
 254.08632 253.87379 253.24727 252.20875 250.82822 249.00270 246.92518 244.77165
 242.57613 240.39361 238.22708 236.07956 233.95304 231.83351 229.87299 228.04347
 226.33994 224.82542 223.46890 222.25437 221.14985 220.12333 219.24080 218.39528
 217.65075 216.84423 215.95571 215.33318 214.79666 214.86705 215.03336 215.21762
 215.11726 214.34276 213.32333 213.36682 216.20998 220.49426 225.37007 229.00658
 232.59111 236.86636 241.57352 246.18811 250.38014 254.11729 257.52020 260.66467
 263.55066 266.23953 268.78540 271.15097 273.33804 275.33499 276.99670 278.33163
 279.42929 280.32312 281.10907 281.89389 282.64990 283.36142 284.11914 284.83054
 285.47345 286.05200 286.55743 287.20151
 366.78100 356.34908 345.79517 334.67525 323.09234 311.30042 299.18451 287.00159
 274.72768 262.63876 250.66185 239.97693 230.11302 221.23110 213.42719 206.44327
 200.29135 195.24344 191.83952 189.89561 188.94669 189.02478 189.87386 191.19595
 192.93503 195.04412 197.32120 199.69429 202.15337 204.64746 206.74954 208.60562
 210.24571 211.40479 211.64788 211.88996 211.84105 211.56013 211.20722 210.85130
 210.48239 210.20647 210.02856 209.90664 209.84873 210.19381 210.59390 210.99698
 211.80406 212.99615 214.26023 216.05732 217.99940 220.05649 222.16557 224.26266
 226.33674 228.43483 230.54591 232.66600 234.80908 236.99517 239.26525 241.64933
 244.28442 246.54950 248.56559 250.34467 251.77576 252.91284 253.74893 254.07901
 254.13010 253.91818 253.29227 252.25435 250.87444 249.04952 246.97260 244.81969
 242.62477 240.44286 238.27694 236.13003 234.00411 231.88520 229.92528 228.09637
 226.39345 224.87954 223.52362 222.30971 221.20579 220.17987 219.29796 218.45304
 217.70913 216.90321 216.01530 215.39338 214.85747 214.90283 215.01036 215.24289
 215.04698 214.26134 213.36470 213.44041 216.18924 220.43860 225.28589 228.99222
 232.55756 236.85324 241.57542 246.19923 250.39754 254.14062 257.54059 260.67520
 263.54260 266.21771 268.77100 271.16995 273.41269 275.44470 277.11584 278.44287
 279.51431 280.39767 281.22882 282.07639 282.80127 283.45541 284.22675 284.94806
 285.58838 286.16840 286.67508 287.32077
 366.78100 356.34855 345.79410 334.67364 323.09019 311.29774 299.18129 286.99783
 274.72338 262.63393 250.65648 239.97102 230.10657 221.22412 213.41967 206.43521
 200.28276 195.23431 191.82986 189.88540 188.93595 189.01350 189.86205 191.18359
 192.92214 195.03069 197.30724 199.67978 202.13833 204.63188 206.73343 208.58897
 210.22852 211.38707 211.62962 211.87116 211.82171 211.54026 211.18681 210.83036
 210.46090 210.18445 210.00600 209.88355 209.82509 210.16964 210.56919 210.97174
 211.77828 212.96983 214.23338 216.02993 217.97147 220.02802 222.13657 224.23312
 226.30666 228.40421 230.51476 232.63431 234.77685 236.96240 239.23195 241.61550
 244.25004 246.51459 248.53014 250.30869 251.73923 252.87578 253.71133 254.04088
 254.09142 253.87897 253.25252 252.21407 250.83362 249.00816 246.93071 244.77726
 242.58181 240.39935 238.23290 236.08545 233.95900 231.83954 229.87909 228.04964
 226.34619 224.83173 223.47528 222.26083 221.15638 220.12992 219.24747 218.40202
 217.65757 216.85111 215.96266 215.34021 214.80376 214.87857 215.05545 215.21700
 215.05119 214.12621 213.34265 213.49585 216.19952 220.42561 225.25650 228.99481
 232.54396 236.84052 241.56625 246.18355 250.36862 254.10172 257.49695 260.62790
 263.48984 266.16516 268.73938 271.18942 273.49579 275.57291 277.25900 278.57004
 279.61340 280.51123 281.41315 282.22919 282.86932 283.55484 284.37933 285.11264
 285.74289 286.30899 286.80353 287.43378
 366.78100 356.34707 345.79115 334.66922 323.08430 311.29037 299.17244 286.98752
 274.71159 262.62067 250.64174 239.95481 230.08889 221.20496 213.39904 206.41311
 200.25918 195.20926 191.80333 189.85741 188.90648 188.98255 189.82963 191.14970
 192.88678 194.99385 197.26892 199.64000 202.09707 204.58915 206.68922 208.54329
 210.18137 211.33844 211.57952 211.81959 211.76866 211.48574 211.13081 210.77289
 210.40196 210.12404 209.94411 209.82018 209.76026 210.10333 210.50141 210.90248
 211.70755 212.89763 214.15970 215.95478 217.89485 219.94992 222.05700 224.15207
 226.22415 228.32022 230.42929 232.54737 234.68844 236.87252 239.14059 241.52266
 244.15574 246.41881 248.43289 250.20996 251.63903 252.77411 253.60818 253.93626
 253.98533 253.77140 253.14348 252.10355 250.72163 248.89470 246.81577 244.66085
 242.46392 240.28000 238.11207 235.96314 233.83522 231.71429 229.75237 227.92144
 226.21651 224.70059 223.34266 222.12674 221.02081 219.99288 219.10896 218.26203
 217.51611 216.70818 215.81825 215.19433 214.65640 214.80661 215.16057 215.12366
 215.12833 214.02684 213.19109 213.47276 216.22459 220.44310 225.27267 229.04759
 232.55579 236.83701 241.55592 246.15909 250.32507 254.04343 257.43307 260.55930
 263.41486 266.08856 268.67838 271.17667 273.54575 275.67001 277.36771 278.66104
 279.70129 280.66360 281.56573 282.24356 282.81625 283.55270 284.40082 285.14249
 285.75009 286.28595 286.75409 287.35065
 366.78100 356.34598 345.78895 334.66593 323.07991 311.28488 299.16586 286.97983
 274.70281 262.61079 250.63076 239.94274 230.07572 221.19069 213.38367 206.39664
 200.24162 195.19060 191.78357 189.83655 188.88453 188.95950 189.80548 191.12446
 192.86043 194.96641 197.24038 199.61036 202.06634 204.55731 206.65629 208.50927
 210.14624 211.30222 211.54219 211.78117 211.72915 211.44512 211.08910 210.73008
 210.35805 210.07903 209.89800 209.77298 209.71196 210.05393 210.45091 210.85089
 211.65486 212.84384 214.10482 215.89879 217.83777 219.89174 221.99772 224.09170
 226.16267 228.25765 230.36563 232.48260 234.62258 236.80555 239.07253 241.45351
 244.08548 246.34746 248.36044 250.13641 251.56439 252.69837 253.53134 253.85832
 253.90629 253.69127 253.06225 252.02122 250.63820 248.81018 246.73015 244.57413
 242.37610 240.19108 238.02206 235.87203 233.74301 231.62099 229.65796 227.82594
 226.11992 224.60289 223.24387 222.02684 220.91982 219.89080 219.00577 218.15775
 217.41073 216.60170 215.71068 215.08565 214.54663 214.75311 215.24028 215.06345
 215.14534 214.01822 213.02629 213.38673 216.23293 220.47771 225.30202 229.10583
 232.58089 236.83884 241.54762 246.13782 250.29056 254.00212 257.38947 260.50900
 263.35526 266.02158 268.61850 271.15982 273.58441 275.74524 277.44824 278.74100
 279.82709 280.84509 281.67532 282.21655 282.68686 283.34909 284.18576 284.94080
 285.54782 286.07755 286.54028 287.13000
 366.78100 356.34598 345.78895 334.66593 323.07990 311.28488 299.16586 286.97983
 274.70281 262.61079 250.63076 239.94274 230.07571 221.19069 213.38367 206.39664
 200.24162 195.19059 191.78357 189.83655 188.88452 188.95950 189.80548 191.12445
 192.86043 194.96640 197.24038 199.61036 202.06633 204.55731 206.65628 208.50926
 210.14624 211.30221 211.54219 211.78117 211.72914 211.44512 211.08909 210.73007
 210.35805 210.07902 209.89800 209.77297 209.71195 210.05393 210.45090 210.85088
 211.65486 212.84383 214.10481 215.89878 217.83776 219.89174 221.99771 224.09169
 226.16266 228.25764 230.36562 232.48259 234.62257 236.80555 239.07252 241.45350
 244.08547 246.34745 248.36043 250.13640 251.56438 252.69835 253.53133 253.85831
 253.90628 253.69126 253.06224 252.02121 250.63819 248.81016 246.73014 244.57412
 242.37609 240.19107 238.02204 235.87202 233.74300 231.62097 229.65795 227.82593
 226.11990 224.60288 223.24385 222.02683 220.91981 219.89078 219.00576 218.15773
 217.41071 216.60169 215.71066 215.08564 214.54662 214.75357 215.24255 215.09235
 215.08064 214.06944 212.94008 213.27422 216.20126 220.47020 225.29926 229.11711
 232.58794 236.83058 241.53351 246.11549 250.26503 253.98076 257.37088 260.48398
 263.31714 265.96927 268.56485 271.13974 273.60837 275.79663 277.50784 278.82404
 279.96735 280.99564 281.77176 282.24286 282.62558 283.20514 284.02209 284.78842
 285.40207 285.91858 286.36978 286.94479
 366.78100 356.34639 345.78979 334.66718 323.08157 311.28697 299.16836 286.98275
 274.70614 262.61454 250.63493 239.94732 230.08072 221.19611 213.38950 206.40290
 200.24829 195.19768 191.79107 189.84447 188.89286 188.96825 189.81465 191.13404
 192.87043 194.97683 197.25122 199.62161 202.07800 204.56940 206.66879 208.52218
 210.15958 211.31597 211.55636 211.79576 211.74415 211.46054 211.10493 210.74633
 210.37472 210.09611 209.91551 209.79090 209.73029 210.07269 210.47008 210.87047
 211.67487 212.86426 214.12565 215.92004 217.85944 219.91383 222.02022 224.11462
 226.18601 228.28140 230.38980 232.50719 234.64758 236.83097 239.09837 241.47976
 244.11215 246.37455 248.38794 250.16433 251.59273 252.72712 253.56051 253.88790
 253.93630 253.72169 253.09308 252.05248 250.66987 248.84226 246.76266 244.60705
 242.40944 240.22484 238.05623 235.90662 233.77801 231.65641 229.69380 227.86219
 226.15659 224.63998 223.28137 222.06477 220.95816 219.92955 219.04494 218.19734
 217.45073 216.64212 215.75152 215.12691 214.58830 214.77621 215.22020 215.13916
 215.00827 214.09027 212.91853 213.19687 216.15239 220.44182 225.24355 229.08388
 232.57616 236.81686 241.51627 246.09302 250.24741 253.97383 257.36957 260.47791
 263.29797 265.93231 268.51920 271.11856 273.62839 275.83722 277.55859 278.91354
 280.11462 281.13461 281.85114 282.29138 282.63181 283.17218 283.99878 284.75333
 285.38052 285.89688 286.34796 286.92279
 366.78100 356.34626 345.78951 334.66677 323.08102 311.28628 299.16753 286.98179
 274.70505 262.61330 250.63356 239.94581 230.07907 221.19432 213.38758 206.40084
 200.24609 195.19535 191.78860 189.84186 188.89011 188.96537 189.81163 191.13088
 192.86714 194.97339 197.24765 199.61790 202.07416 204.56542 206.66467 208.51793
 210.15518 211.31144 211.55169 211.79095 211.73921 211.45546 211.09972 210.74097
 210.36923 210.09048 209.90974 209.78499 209.72425 210.06651 210.46376 210.86402
 211.66827 212.85753 214.11878 215.91304 217.85230 219.90655 222.01281 224.10706
 226.17832 228.27357 230.38183 232.49909 234.63934 236.82260 239.08985 241.47111
 244.10336 246.36562 248.37888 250.15513 251.58339 252.71764 253.55090 253.87815
 253.92641 253.71167 253.08292 252.04218 250.65943 248.83169 246.75194 244.59620
 242.39846 240.21371 238.04497 235.89522 233.76648 231.64473 229.68199 227.85025
 226.14450 224.62776 223.26901 222.05227 220.94552 219.91678 219.03204 218.18429
 217.43755 216.62880 215.73806 215.11331 214.57457 214.77040 215.23308 215.16321
 214.94704 214.04680 212.92662 213.14877 216.12386 220.38051 225.18340 229.07014
 232.57971 236.81680 241.50647 246.07845 250.23694 253.97148 257.37027 260.47452
 263.28250 265.90009 268.47885 271.09872 273.63992 275.86716 277.60785 279.01373
 280.25406 281.23892 281.89127 282.31238 282.67203 283.17548 283.96658 284.73196
 285.36578 285.87296 286.31601 286.88065
 366.78100 356.34532 345.78764 334.66396 323.07728 311.28160 299.16192 286.97523
 274.69755 262.60487 250.62419 239.93551 230.06783 221.18215 213.37447 206.38679
 200.23111 195.17943 191.77175 189.82407 188.87139 188.94570 189.79102 191.10934
 192.84466 194.94998 197.22330 199.59262 202.04794 204.53826 206.63658 208.48890
 210.12522 211.28054 211.51986 211.75817 211.70549 211.42081 211.06413 210.70445
 210.33177 210.05209 209.87041 209.74473 209.68305 210.02437 210.42069 210.82001
 211.62332 212.81164 214.07196 215.86528 217.80360 219.85692 221.96224 224.05556
 226.12588 228.22020 230.32752 232.44384 234.58316 236.76548 239.03179 241.41211
 244.04343 246.30475 248.31707 250.09239 251.51971 252.65303 253.48535 253.81167
 253.85899 253.64331 253.01363 251.97194 250.58826 248.75958 246.67890 244.52222
 242.32354 240.13786 237.96818 235.81750 233.68782 231.56514 229.60146 227.76878
 226.06210 224.54441 223.18473 221.96705 220.85937 219.82969 218.94401 218.09533
 217.34765 216.53797 215.64629 215.02061 214.48093 214.72292 215.29466 215.16231
 214.90842 213.95197 212.90616 213.11095 216.09993 220.32812 225.14355 229.08112
 232.59830 236.82504 241.50241 246.06851 250.22928 253.96872 257.36914 260.47122
 263.27499 265.88315 268.45264 271.08392 273.65857 275.91068 277.67862 279.12390
 280.34860 281.25439 281.83957 282.26260 282.67004 283.20804 283.98773 284.74524
 285.37369 285.88556 286.33273 286.90256
 366.78100 356.34422 345.78544 334.66066 323.07288 311.27611 299.15533 286.96755
 274.68877 262.59499 250.61321 239.92343 230.05465 221.16788 213.35910 206.37032
 200.21354 195.16076 191.75198 189.80320 188.84942 188.92265 189.76687 191.08409
 192.81831 194.92253 197.19475 199.56297 202.01719 204.50642 206.60364 208.45486
 210.09008 211.24430 211.48252 211.71974 211.66596 211.38019 211.02241 210.66163
 210.28785 210.00707 209.82429 209.69751 209.63473 209.97496 210.37018 210.76840
 211.57062 212.75784 214.01706 215.80928 217.74650 219.79873 221.90295 223.99517
 226.06439 228.15761 230.26383 232.37905 234.51727 236.69850 238.96372 241.34294
 243.97316 246.23338 248.24460 250.01882 251.44504 252.57727 253.40849 253.73371
 253.77993 253.56315 252.93237 251.88959 250.50481 248.67504 246.59326 244.43548
 242.23570 240.04892 237.87814 235.72636 233.59558 231.47181 229.50703 227.67325
 225.96547 224.44669 223.08591 221.86713 220.75835 219.72758 218.84080 217.99102
 217.24224 216.43146 215.53868 214.91190 214.37112 214.66560 215.36136 215.16461
 214.88742 213.85931 212.86565 213.05795 216.07799 220.27472 225.09615 229.08037
 232.61591 236.83444 241.49768 246.05618 250.21242 253.95660 257.36847 260.48172
 263.29080 265.89532 268.45758 271.09576 273.69351 275.97363 277.77325 279.22958
 280.41324 281.26584 281.83670 282.27417 282.72733 283.30951 284.08694 284.80930
 285.41779 285.90942 286.33890 286.88620
 366.78100 356.34394 345.78488 334.65982 323.07176 311.27470 299.15364 286.96558
 274.68652 262.59246 250.61040 239.92035 230.05129 221.16423 213.35517 206.36611
 200.20905 195.15599 191.74693 189.79787 188.84381 188.91675 189.76069 191.07763
 192.81157 194.91551 197.18745 199.55539 202.00933 204.49827 206.59521 208.44615
 210.08110 211.23504 211.47298 211.70992 211.65586 211.36980 211.01174 210.65068
 210.27662 209.99556 209.81250 209.68544 209.62238 209.96232 210.35726 210.75520
 211.55714 212.74408 214.00302 215.79496 217.73191 219.78385 221.88779 223.97973
 226.04867 228.14161 230.24755 232.36249 234.50043 236.68137 238.94631 241.32525
 243.95519 246.21513 248.22607 250.00001 251.42595 252.55789 253.38883 253.71377
 253.75971 253.54266 252.91160 251.86854 250.48348 248.65342 246.57136 244.41330
 242.21324 240.02618 237.85512 235.70306 233.57200 231.44794 229.48288 227.64882
 225.94076 224.42170 223.06064 221.84158 220.73252 219.70146 218.81441 217.96435
 217.21529 216.40423 215.51117 214.88411 214.34305 214.64792 215.36819 215.21965
 214.87500 213.79669 212.77541 212.96329 216.02112 220.22183 225.06053 229.07657
 232.62688 236.83455 241.48936 246.04073 250.20090 253.95505 257.37430 260.48834
 263.29541 265.89337 268.44641 271.10049 273.74289 276.07346 277.93484 279.42184
 280.57806 281.39377 281.95822 282.41541 282.86902 283.39120 284.07770 284.75360
 285.35553 285.85693 286.29034 286.84268
 366.78100 356.34388 345.78477 334.65965 323.07153 311.27442 299.15330 286.96518
 274.68607 262.59195 250.60984 239.91972 230.05060 221.16349 213.35437 206.36525
 200.20814 195.15502 191.74590 189.79679 188.84267 188.91555 189.75944 191.07632
 192.81021 194.91409 197.18597 199.55386 202.00774 204.49662 206.59351 208.44439
 210.07927 211.23316 211.47104 211.70792 211.65381 211.36769 211.00958 210.64846
 210.27434 209.99323 209.81011 209.68299 209.61988 209.95976 210.35464 210.75253
 211.55441 212.74129 214.00018 215.79206 217.72895 219.78083 221.88471 223.97660
 226.04548 228.13836 230.24425 232.35913 234.49701 236.67790 238.94278 241.32166
 243.95155 246.21143 248.22232 249.99620 251.42208 252.55397 253.38485 253.70973
 253.75562 253.53850 252.90738 251.86427 250.47915 248.64903 246.56692 244.40880
 242.20869 240.02157 237.85045 235.69834 233.56722 231.44310 229.47799 227.64387
 225.93575 224.41664 223.05552 221.83640 220.72729 219.69617 218.80906 217.95894
 217.20982 216.39871 215.50559 214.87847 214.33736 214.64502 215.37193 215.25749
 214.90178 213.72661 212.65024 212.87338 215.98473 220.15616 224.98653 229.07864
 232.66170 236.87003 241.50366 246.05360 250.19322 253.93199 257.35349 260.48633
 263.30817 265.91696 268.48557 271.15750 273.80420 276.13605 277.98792 279.44232
 280.58765 281.45496 282.09747 282.62589 283.19016 283.83060 284.61508 285.36285
 285.93582 286.40527 286.81558 287.33844
 354.97500 345.04800 334.58700 324.11500 313.32600 302.53700 291.65000 280.76700
 269.93100 259.19300 248.62200 238.61700 229.08700 220.35500 212.54000 205.53500
 199.46400 194.49300 191.14300 189.19000 188.08900 188.01400 188.72400 189.90600
 191.46900 193.38200 195.40300 197.55600 199.80700 202.06000 204.28800 206.47900
 208.55200 210.37800 212.02500 213.65900 214.99800 216.11800 217.17200 218.25900
 219.49400 220.64500 221.67900 222.61400 223.54500 224.98200 226.57100 228.19000
 229.79700 231.81100 233.86500 235.97200 238.24200 240.55300 242.89900 245.25300
 247.48800 249.53500 251.36600 252.84800 254.09800 255.16700 256.02700 256.25300
 256.09500 255.54300 253.93500 252.56600 251.38400 250.24500 249.05200 247.70100
 246.01600 243.99600 241.78400 239.39300 236.81300 234.22300 231.65800 229.14400
 226.74000 224.47300 222.33500 220.32500 218.44000 216.67700 214.96200 213.47200
 212.20000 211.10800 210.26000 209.63900 209.24400 209.03100 209.05800 209.33300
 209.78400 210.62600 211.33100 212.39100 213.62500 214.84668 217.72949 219.47640
 220.32566 220.86828 220.88710 220.27371 219.43733 218.84250 219.04934 220.86203
 222.60583 225.72206 229.03064 232.61777 236.12270 239.51333 242.70767 245.68587
 248.41061 250.90679 253.19353 254.91714 256.48655 257.94920 259.39966 260.69384
 261.81714 262.77997 263.71679 264.54570 265.26305 265.89772 266.47676 267.00133
 267.47312 267.89325 268.26027 268.72800
