|-------------------------------------------------------------------------|
|   File Name : in_temp.dat
|   Subject   : temperature profiles used for initial guess atmosphere
|   File Type : input of gmtr
|   Data Type : atmospherical data
|   Author/s  : WRF-Chem
|   Date      : Fri Jul 26 15:39:24 2024
|-------------------------------------------------------------------------|

 WRF-Chem temperature
#
 values of T (K)    (8f10.5)
#
 354.97500 345.04800 334.58700 324.11500 313.32600 302.53700 291.65000 280.76700
 269.93100 259.19300 248.62200 238.61700 229.08700 220.35500 212.54000 205.53500
 199.46400 194.49300 191.14300 189.19000 188.08900 188.01400 188.72400 189.90600
 191.46900 193.38200 195.40300 197.55600 199.80700 202.06000 204.28800 206.47900
 208.55200 210.37800 212.02500 213.65900 214.99800 216.11800 217.17200 218.25900
 219.49400 220.64500 221.67900 222.61400 223.54500 224.98200 226.57100 228.19000
 229.79700 231.81100 233.86500 235.97200 238.24200 240.55300 242.89900 245.25300
 247.48800 249.53500 251.36600 252.84800 254.09800 255.16700 256.02700 256.25300
 256.09500 255.54300 253.93500 252.56600 251.38400 250.24500 249.05200 247.70100
 246.01600 243.99600 241.78400 239.39300 236.81300 234.22300 231.65800 229.14400
 226.74000 224.47300 222.33500 220.32500 218.44000 216.67700 214.96200 213.47200
 212.20000 211.10800 210.26000 209.63900 209.24400 209.03100 209.05800 209.33300
 209.78400 210.62600 211.33100 212.39100 213.62500 214.84668 217.72949 219.47640
 220.32566 220.86828 220.88710 220.27371 219.43733 218.84250 219.04934 220.86203
 222.60583 225.72206 229.03064 232.61777 236.12270 239.51333 242.70767 245.68587
 248.41061 250.90679 253.19353 254.91714 256.48655 257.94920 259.39966 260.69384
 261.81714 262.77997 263.71679 264.54570 265.26305 265.89772 266.47676 267.00133
 267.47312 267.89325 268.26027 268.72800
 366.78100 356.33500 345.76700 334.63300 323.03600 311.23000 299.10000 286.90300
 274.61500 262.51200 250.52100 239.82200 229.94400 221.04800 213.23000 206.23200
 200.06600 195.00400 191.58600 189.62800 188.66500 188.72900 189.56400 190.87200
 192.59700 194.69200 196.95500 199.31400 201.75900 204.23900 206.32700 208.16900
 209.79500 210.94000 211.16900 211.39700 211.33400 211.03900 210.67200 210.30200
 209.91900 209.62900 209.43700 209.30100 209.22900 209.56000 209.94600 210.33500
 211.12800 212.30600 213.55600 215.33900 217.26700 219.31000 221.40500 223.48800
 225.54800 227.63200 229.72900 231.83500 233.96400 236.13600 238.39200 240.76200
 243.38300 245.63400 247.63600 249.40100 250.81800 251.94100 252.76300 253.07900
 253.11600 252.89000 252.25000 251.19800 249.80400 247.96500 245.87400 243.70700
 241.49800 239.30200 237.12200 234.96100 232.82100 230.68800 228.71400 226.87100
 225.15400 223.62600 222.25600 221.02800 219.91000 218.87000 217.97400 217.11500
 216.35700 215.53700 214.63500 213.99900 213.44900 212.85855 212.01316 212.61654
 214.26826 216.08686 218.14273 220.53346 223.40855 226.78828 231.49734 235.90155
 239.42278 243.28576 247.23140 251.11907 254.80144 258.23331 261.38913 264.27520
 266.89312 269.26852 271.44504 273.08845 274.58484 275.98591 277.39845 278.65879
 279.75272 280.69038 281.56708 282.34086 283.01050 283.60295 284.14348 284.63317
 285.07358 285.46577 285.80838 286.24500
 381.81900 372.39900 361.20600 349.77600 337.62200 324.85300 311.81000 298.35300
 284.86000 271.32400 258.56100 246.30400 236.08700 226.79600 218.44800 211.29000
 205.52200 200.89400 197.38100 194.84800 193.01500 192.31500 192.25000 192.43100
 192.91200 193.53700 194.13600 194.71200 195.26200 195.83100 196.39300 196.97600
 197.60400 198.14900 198.58400 199.05700 199.69500 200.37800 201.05400 201.70800
 202.31300 202.85700 203.35500 203.86200 204.56900 205.29700 206.02600 206.98700
 208.19300 209.44100 210.96900 212.57600 214.46200 216.51300 218.63000 220.85300
 223.34100 225.96200 228.73900 231.69700 234.70600 237.70600 240.69200 243.65700
 246.73700 249.69900 252.52100 255.06300 257.29000 259.23300 260.63300 261.68000
 262.46100 262.79800 262.69100 262.22400 261.06900 259.52500 257.70700 255.50700
 253.00100 250.30200 247.39800 244.45200 241.65400 239.05400 236.73300 234.59000
 232.59500 230.72500 228.83400 226.82600 224.66600 222.38700 220.10400 217.71500
 215.45900 213.06600 210.54600 208.09300 205.35400 202.08130 196.05959 200.71215
 209.01611 216.90438 223.84126 229.78593 235.00632 240.20838 245.98943 250.68668
 254.32982 257.93487 261.55666 264.96801 268.15192 271.06452 273.76717 276.25691
 278.57680 280.74479 282.77456 284.60533 286.27232 287.81705 289.31715 290.65561
 291.81734 292.81312 293.70701 294.49387 295.17482 295.77730 296.32696 296.82492
 297.27278 297.67160 298.02000 298.46400
 399.33000 389.90700 379.81300 368.66800 357.52200 345.30100 333.07400 320.22700
 307.21600 293.84800 280.37600 267.29600 254.61000 242.98700 232.15100 221.97700
 212.67200 204.28600 197.66900 192.82100 189.48600 187.45200 186.81400 187.08900
 187.78100 189.05400 190.64800 192.54200 194.63000 196.75200 198.67100 200.15800
 201.53500 202.48700 202.97500 203.34000 203.53900 203.49700 203.38500 203.24700
 203.00500 202.78600 202.60300 202.43700 202.42600 202.88800 203.42000 203.95100
 204.89500 205.99200 207.30100 208.95800 210.73800 213.10000 215.56400 218.18000
 220.96600 223.91800 226.96100 230.09200 233.29300 236.55700 239.95500 243.53700
 246.84500 249.39000 251.54200 253.47400 255.19500 256.48400 257.43100 258.05900
 258.21200 258.04000 257.58200 256.64300 255.23900 253.50700 251.40800 249.05600
 246.57600 243.99400 241.38900 238.83000 236.34400 233.98600 231.96900 230.11800
 228.42300 226.89900 225.54800 224.29700 223.10500 221.96500 220.95800 220.11300
 219.49000 218.92000 218.32500 217.88100 217.42300 216.96366 216.35568 216.80261
 217.73415 218.28582 218.64258 219.10077 220.44626 222.53987 226.38451 230.35736
 233.59734 237.39164 241.29814 245.22796 248.98002 252.51130 255.78595 258.80109
 261.54781 264.05210 266.34239 268.04198 269.58951 271.01303 272.35754 273.55718
 274.59842 275.49092 276.28989 276.99307 277.60161 278.14001 278.63122 279.07623
 279.47646 279.83287 280.14422 280.54100
 399.73800 389.78500 379.66200 368.15100 356.64100 344.35000 331.79200 318.88800
 305.72600 292.49300 279.20900 266.73800 254.69600 244.21100 234.45700 225.43300
 217.56900 210.45100 204.30000 199.30600 195.45800 192.57600 191.02700 190.38600
 190.23900 190.53400 191.16600 191.92500 192.79500 193.76600 194.73200 195.31200
 195.80000 196.05200 196.11500 196.11500 196.03900 195.72300 195.34000 194.98900
 194.75100 194.79200 195.13300 195.59800 196.50600 198.13600 199.85800 201.56600
 204.17900 206.82300 209.89300 213.28400 216.82800 220.60500 224.38700 228.20900
 232.03200 235.82500 239.56000 243.25800 246.84500 250.20100 253.70900 257.46800
 261.53000 264.22100 266.60100 268.68100 270.32900 271.74100 272.83600 273.47400
 273.89800 274.00200 273.75700 273.28800 272.37100 271.10000 269.58900 267.77900
 265.81600 263.72100 261.39300 258.91600 256.29800 253.42300 250.33100 247.11400
 243.83700 240.52900 237.24900 233.99900 230.72800 227.51500 224.25400 220.95200
 217.62700 213.65600 210.12100 206.78900 204.01000 201.99491 199.07309 198.76551
 199.40006 200.48994 201.46112 202.31912 203.45100 204.96110 207.47502 210.85391
 213.70530 217.29629 220.99574 224.72316 228.28753 231.64854 234.68024 237.40893
 239.70644 241.60899 243.46854 245.67368 247.68154 249.52395 251.24767 252.78566
 254.12057 255.26479 256.23740 257.09036 257.82852 258.48160 259.07744 259.61723
 260.10271 260.53504 260.91270 261.39400
 399.73800 389.78500 379.66200 368.15100 356.64100 344.35000 331.79200 318.88800
 305.72600 292.49300 279.20900 266.73800 254.69600 244.21100 234.45700 225.43300
 217.56900 210.45100 204.30000 199.30600 195.45800 192.57600 191.02700 190.38600
 190.23900 190.53400 191.16600 191.92500 192.79500 193.76600 194.73200 195.31200
 195.80000 196.05200 196.11500 196.11500 196.03900 195.72300 195.34000 194.98900
 194.75100 194.79200 195.13300 195.59800 196.50600 198.13600 199.85800 201.56600
 204.17900 206.82300 209.89300 213.28400 216.82800 220.60500 224.38700 228.20900
 232.03200 235.82500 239.56000 243.25800 246.84500 250.20100 253.70900 257.46800
 261.53000 264.22100 266.60100 268.68100 270.32900 271.74100 272.83600 273.47400
 273.89800 274.00200 273.75700 273.28800 272.37100 271.10000 269.58900 267.77900
 265.81600 263.72100 261.39300 258.91600 256.29800 253.42300 250.33100 247.11400
 243.83700 240.52900 237.24900 233.99900 230.72800 227.51500 224.25400 220.95200
 217.62700 213.65600 210.12100 206.78900 204.01000 201.99491 199.07309 198.76551
 199.40006 200.48994 201.46112 202.31912 203.45100 204.96110 207.47502 210.85391
 213.70530 217.29629 220.99574 224.72316 228.28753 231.64854 234.68024 237.40893
 239.70644 241.60899 243.46854 245.67368 247.68154 249.52395 251.24767 252.78566
 254.12057 255.26479 256.23740 257.09036 257.82852 258.48160 259.07744 259.61723
 260.10271 260.53504 260.91270 261.39400
 399.33000 389.90700 379.81300 368.66800 357.52200 345.30100 333.07400 320.22700
 307.21600 293.84800 280.37600 267.29600 254.61000 242.98700 232.15100 221.97700
 212.67200 204.28600 197.66900 192.82100 189.48600 187.45200 186.81400 187.08900
 187.78100 189.05400 190.64800 192.54200 194.63000 196.75200 198.67100 200.15800
 201.53500 202.48700 202.97500 203.34000 203.53900 203.49700 203.38500 203.24700
 203.00500 202.78600 202.60300 202.43700 202.42600 202.88800 203.42000 203.95100
 204.89500 205.99200 207.30100 208.95800 210.73800 213.10000 215.56400 218.18000
 220.96600 223.91800 226.96100 230.09200 233.29300 236.55700 239.95500 243.53700
 246.84500 249.39000 251.54200 253.47400 255.19500 256.48400 257.43100 258.05900
 258.21200 258.04000 257.58200 256.64300 255.23900 253.50700 251.40800 249.05600
 246.57600 243.99400 241.38900 238.83000 236.34400 233.98600 231.96900 230.11800
 228.42300 226.89900 225.54800 224.29700 223.10500 221.96500 220.95800 220.11300
 219.49000 218.92000 218.32500 217.88100 217.42300 216.96366 216.35568 216.80261
 217.73415 218.28582 218.64258 219.10077 220.44626 222.53987 226.38451 230.35736
 233.59734 237.39164 241.29814 245.22796 248.98002 252.51130 255.78595 258.80109
 261.54781 264.05210 266.34239 268.04198 269.58951 271.01303 272.35754 273.55718
 274.59842 275.49092 276.28989 276.99307 277.60161 278.14001 278.63122 279.07623
 279.47646 279.83287 280.14422 280.54100
 381.81900 372.39900 361.20600 349.77600 337.62200 324.85300 311.81000 298.35300
 284.86000 271.32400 258.56100 246.30400 236.08700 226.79600 218.44800 211.29000
 205.52200 200.89400 197.38100 194.84800 193.01500 192.31500 192.25000 192.43100
 192.91200 193.53700 194.13600 194.71200 195.26200 195.83100 196.39300 196.97600
 197.60400 198.14900 198.58400 199.05700 199.69500 200.37800 201.05400 201.70800
 202.31300 202.85700 203.35500 203.86200 204.56900 205.29700 206.02600 206.98700
 208.19300 209.44100 210.96900 212.57600 214.46200 216.51300 218.63000 220.85300
 223.34100 225.96200 228.73900 231.69700 234.70600 237.70600 240.69200 243.65700
 246.73700 249.69900 252.52100 255.06300 257.29000 259.23300 260.63300 261.68000
 262.46100 262.79800 262.69100 262.22400 261.06900 259.52500 257.70700 255.50700
 253.00100 250.30200 247.39800 244.45200 241.65400 239.05400 236.73300 234.59000
 232.59500 230.72500 228.83400 226.82600 224.66600 222.38700 220.10400 217.71500
 215.45900 213.06600 210.54600 208.09300 205.35400 202.08130 196.05959 200.71215
 209.01611 216.90438 223.84126 229.78593 235.00632 240.20838 245.98943 250.68668
 254.32982 257.93487 261.55666 264.96801 268.15192 271.06452 273.76717 276.25691
 278.57680 280.74479 282.77456 284.60533 286.27232 287.81705 289.31715 290.65561
 291.81734 292.81312 293.70701 294.49387 295.17482 295.77730 296.32696 296.82492
 297.27278 297.67160 298.02000 298.46400
 366.78100 356.33793 345.77286 334.64179 323.04772 311.24465 299.11759 286.92352
 274.63845 262.53838 250.55031 239.85424 229.97917 221.08610 213.27103 206.27596
 200.11290 195.05383 191.63876 189.68369 188.72362 188.79055 189.62848 190.93941
 192.66734 194.76527 197.03120 199.39314 201.84107 204.32400 206.41493 208.25986
 209.88879 211.03672 211.26865 211.49958 211.43951 211.14745 210.78338 210.41631
 210.03624 209.74917 209.56010 209.42703 209.35796 209.69189 210.08082 210.47276
 211.26869 212.44962 213.70255 215.48848 217.41941 219.46534 221.56327 223.64920
 225.71213 227.79906 229.89900 232.00793 234.13986 236.31479 238.57372 240.94665
 243.57058 245.82451 247.82944 249.59737 251.01731 252.14324 252.96817 253.28710
 253.32703 253.10396 252.46689 251.41782 250.02675 248.19068 246.10261 243.93855
 241.73248 239.53941 237.36234 235.20427 233.06720 230.93713 228.96606 227.12599
 225.41192 223.88686 222.51979 221.29472 220.17965 219.14258 218.24951 217.39344
 216.63837 215.82130 214.92223 214.28916 213.74210 213.17354 211.84309 212.80986
 214.66275 216.49683 217.54367 217.83858 218.81731 222.85614 228.43665 233.21638
 236.98557 240.75218 244.49051 248.13499 251.60301 254.52695 257.09100 259.69604
 262.42026 264.94647 267.25827 269.32391 271.33051 273.28494 274.92795 276.50983
 278.13995 279.80365 281.33798 282.70126 283.88495 284.93607 285.89670 286.77206
 287.56326 288.27350 288.90085 289.73611
 366.78100 356.33794 345.77288 334.64183 323.04777 311.24471 299.11765 286.92359
 274.63854 262.53848 250.55042 239.85436 229.97931 221.08625 213.27119 206.27613
 200.11307 195.05402 191.63896 189.68390 188.72384 188.79078 189.62873 190.93967
 192.66761 194.76555 197.03149 199.39344 201.84138 204.32432 206.41526 208.26021
 209.88915 211.03709 211.26903 211.49997 211.43992 211.14786 210.78380 210.41674
 210.03668 209.74963 209.56057 209.42751 209.35845 209.69239 210.08134 210.47328
 211.26922 212.45016 213.70310 215.48905 217.41999 219.46593 221.56387 223.64982
 225.71276 227.79970 229.89964 232.00858 234.14053 236.31547 238.57441 240.94735
 243.57129 245.82524 247.83018 249.59812 251.01806 252.14400 252.96895 253.28789
 253.32783 253.10477 252.46772 251.41866 250.02760 248.19154 246.10348 243.93943
 241.73337 239.54031 237.36325 235.20519 233.06814 230.93808 228.96702 227.12696
 225.41290 223.88785 222.52079 221.29573 220.18067 219.14362 218.25056 217.39450
 216.63944 215.82238 214.92333 214.29027 213.74321 213.18871 211.89029 212.93892
 214.79196 216.59349 217.60422 217.96521 218.94231 222.86346 228.37866 233.12350
 236.87724 240.64297 244.38461 248.00861 251.40012 254.28178 256.89978 259.59543
 262.27023 264.74072 267.07419 269.18805 271.21555 273.16144 274.80011 276.38956
 278.02570 279.70273 281.23923 282.60303 283.78830 284.83853 285.79886 286.67581
 287.46695 288.17780 288.80554 289.64163
 366.78100 356.33771 345.77242 334.64113 323.04684 311.24356 299.11627 286.92198
 274.63669 262.53640 250.54811 239.85182 229.97653 221.08325 213.26796 206.27267
 200.10938 195.05009 191.63480 189.67951 188.71922 188.78594 189.62365 190.93436
 192.66207 194.75978 197.02549 199.38720 201.83491 204.31763 206.40834 208.25305
 209.88176 211.02947 211.26118 211.49189 211.43160 211.13932 210.77503 210.40774
 210.02745 209.74016 209.55087 209.41758 209.34829 209.68201 210.07072 210.46243
 211.25814 212.43885 213.69156 215.47727 217.40798 219.45370 221.55141 223.63712
 225.69983 227.78654 229.88625 231.99496 234.12667 236.30139 238.56010 240.93281
 243.55652 245.81023 247.81494 249.58265 251.00236 252.12808 252.95279 253.27150
 253.31121 253.08792 252.45063 251.40134 250.01005 248.17376 246.08548 243.92119
 241.71490 239.52161 237.34432 235.18603 233.04874 230.91845 228.94717 227.10688
 225.39259 223.86730 222.50001 221.27472 220.15943 219.12214 218.22886 217.37257
 216.61728 215.79999 214.90070 214.26741 213.72012 213.19250 211.95602 213.05997
 214.90649 216.67075 217.69389 218.08583 219.08540 222.86554 228.32797 233.03311
 236.76570 240.52773 244.27156 247.87842 251.19621 254.03876 256.71350 259.49631
 262.11948 264.53061 266.88019 269.04211 271.09265 273.03314 274.66907 276.26645
 277.91794 279.60529 281.14291 282.50720 283.69257 284.74344 285.70560 286.58075
 287.37289 288.08627 288.71283 289.54965
 366.78100 356.33741 345.77182 334.64022 323.04563 311.24204 299.11445 286.91985
 274.63426 262.53367 250.54508 239.84848 229.97289 221.07930 213.26371 206.26811
 200.10452 195.04493 191.62934 189.67374 188.71315 188.77956 189.61697 190.92737
 192.65478 194.75219 197.01760 199.37900 201.82641 204.30882 206.39923 208.24364
 209.87204 211.01945 211.25086 211.48127 211.42067 211.12808 210.76349 210.39590
 210.01530 209.72771 209.53812 209.40453 209.33493 209.66834 210.05675 210.44816
 211.24356 212.42397 213.67638 215.46179 217.39219 219.43760 221.53501 223.62042
 225.68282 227.76923 229.86864 231.97705 234.10845 236.28286 238.54127 240.91368
 243.53709 245.79049 247.79490 249.56231 250.98172 252.10712 252.93153 253.24994
 253.28935 253.06575 252.42816 251.37857 249.98698 248.15038 246.06179 243.89720
 241.69061 239.49701 237.31942 235.16083 233.02324 230.89264 228.92105 227.08046
 225.36587 223.84027 222.47268 221.24709 220.13150 219.09391 218.20031 217.34372
 216.58813 215.77054 214.87094 214.23735 213.68976 213.19402 212.03105 213.17870
 215.00365 216.74225 217.79759 218.20590 219.22876 222.87238 228.28862 232.94502
 236.65208 240.40904 244.15573 247.74399 250.98880 253.79460 256.52631 259.39206
 261.96674 264.31827 266.67807 268.88531 270.96292 272.90106 274.53705 276.14392
 277.81216 279.50687 281.04663 282.41153 283.59644 284.65027 285.61166 286.48685
 287.27979 287.99176 288.61856 289.45889
 366.78100 356.33719 345.77138 334.63957 323.04476 311.24095 299.11314 286.91833
 274.63252 262.53171 250.54290 239.84609 229.97028 221.07647 213.26066 206.26485
 200.10103 195.04122 191.62541 189.66960 188.70879 188.77498 189.61217 190.92236
 192.64955 194.74674 197.01193 199.37312 201.82031 204.30250 206.39269 208.23688
 209.86507 211.01226 211.24345 211.47364 211.41283 211.12002 210.75521 210.38740
 210.00659 209.71878 209.52897 209.39516 209.32535 209.65854 210.04673 210.43792
 211.23310 212.41329 213.66548 215.45067 217.38086 219.42605 221.52324 223.60843
 225.67062 227.75681 229.85600 231.96419 234.09538 236.26957 238.52776 240.89995
 243.52314 245.77633 247.78052 249.54771 250.96690 252.09209 252.91628 253.23447
 253.27366 253.04985 252.41204 251.36223 249.97042 248.13361 246.04480 243.87999
 241.67317 239.47936 237.30155 235.14274 233.00493 230.87412 228.90231 227.06150
 225.34669 223.82088 222.45307 221.22726 220.11145 219.07364 218.17983 217.32302
 216.56721 215.74940 214.84959 214.21578 213.66797 213.20175 212.10715 213.29681
 215.08775 216.80957 217.91000 218.33643 219.37784 222.88910 228.25977 232.86192
 236.54060 240.29175 244.04059 247.60506 250.77846 253.55217 256.34088 259.28317
 261.81345 264.10767 266.47043 268.71866 270.82349 272.76117 274.40234 276.02234
 277.71231 279.40717 280.94815 282.31378 283.50104 284.55298 285.51450 286.39194
 287.18512 287.89728 288.52621 289.36450
 366.78100 356.33702 345.77103 334.63905 323.04407 311.24009 299.11210 286.91712
 274.63114 262.53016 250.54117 239.84419 229.96821 221.07422 213.25824 206.26226
 200.09828 195.03829 191.62231 189.66633 188.70535 188.77136 189.60838 190.91840
 192.64541 194.74243 197.00745 199.36847 201.81548 204.29750 206.38752 208.23154
 209.85955 211.00657 211.23759 211.46760 211.40662 211.11364 210.74866 210.38067
 209.99969 209.71171 209.52173 209.38774 209.31776 209.65078 210.03879 210.42981
 211.22483 212.40485 213.65686 215.44188 217.37190 219.41691 221.51393 223.59895
 225.66097 227.74698 229.84600 231.95402 234.08504 236.25905 238.51707 240.88909
 243.51210 245.76512 247.76914 249.53616 250.95517 252.08019 252.90421 253.22223
 253.26124 253.03726 252.39928 251.34929 249.95731 248.12033 246.03135 243.86636
 241.65938 239.46540 237.28742 235.12843 232.99045 230.85947 228.88748 227.04650
 225.33152 223.80554 222.43755 221.21157 220.09559 219.05761 218.16362 217.30664
 216.55066 215.73267 214.83269 214.19871 213.65073 213.21394 212.18810 213.41052
 215.15897 216.86633 218.01526 218.46921 219.53725 222.91196 228.23708 232.78844
 236.43588 240.18309 243.92879 247.46317 250.56873 253.31413 256.15497 259.17047
 261.66110 263.89777 266.25958 268.54166 270.67496 272.61765 274.26428 275.89801
 277.60226 279.30923 280.85074 282.21579 283.40369 284.45746 285.41772 286.29453
 287.08859 287.80081 288.43427 289.27054
 366.78100 356.33680 345.77060 334.63840 323.04320 311.23900 299.11080 286.91560
 274.62940 262.52820 250.53900 239.84180 229.96560 221.07140 213.25520 206.25900
 200.09479 195.03459 191.61839 189.66219 188.70099 188.76679 189.60359 190.91339
 192.64019 194.73699 197.00179 199.36259 201.80939 204.29119 206.38099 208.22479
 209.85259 210.99939 211.23019 211.45999 211.39879 211.10559 210.74039 210.37219
 209.99099 209.70279 209.51259 209.37839 209.30819 209.64099 210.02878 210.41958
 211.21438 212.39418 213.64598 215.43078 217.36058 219.40538 221.50218 223.58698
 225.64878 227.73458 229.83338 231.94118 234.07198 236.24578 238.50358 240.87538
 243.49818 245.75098 247.75478 249.52158 250.94038 252.06518 252.88898 253.20678
 253.24558 253.02138 252.38318 251.33298 249.94078 248.10357 246.01437 243.84917
 241.64197 239.44777 237.26957 235.11037 232.97217 230.84097 228.86877 227.02757
 225.31237 223.78617 222.41797 221.19177 220.07557 219.03737 218.14317 217.28597
 216.52977 215.71157 214.81137 214.17717 213.62897 213.22487 212.27420 213.51695
 215.21623 216.91454 218.11238 218.59535 219.70758 222.93690 228.21590 232.72211
 236.33835 240.08215 243.81885 247.31744 250.35878 253.07878 255.96658 259.04355
 261.50656 263.69836 266.05478 268.36618 270.52881 272.48187 274.13736 275.78198
 277.49594 279.20901 280.75119 282.11679 283.30267 284.35690 285.32059 286.19556
 286.99182 287.70386 288.33414 289.17502
 366.78100 356.33652 345.77005 334.63757 323.04210 311.23762 299.10915 286.91367
 274.62720 262.52572 250.53624 239.83877 229.96229 221.06782 213.25134 206.25487
 200.09039 195.02991 191.61344 189.65696 188.69549 188.76101 189.59754 190.90706
 192.63359 194.73011 196.99463 199.35516 201.80168 204.28321 206.37273 208.21626
 209.84378 210.99031 211.22083 211.45035 211.38888 211.09540 210.72993 210.36145
 209.97998 209.69150 209.50102 209.36655 209.29607 209.62860 210.01612 210.40665
 211.20117 212.38070 213.63222 215.41674 217.34627 219.39079 221.48732 223.57184
 225.63337 227.71889 229.81742 231.92494 234.05546 236.22899 238.48651 240.85804
 243.48056 245.73309 247.73661 249.50314 250.92166 252.04618 252.86971 253.18723
 253.22576 253.00128 252.36281 251.31233 249.91985 248.08238 245.99290 243.82743
 241.61995 239.42548 237.24700 235.08753 232.94905 230.81757 228.84510 227.00362
 225.28815 223.76167 222.39320 221.16672 220.05025 219.01177 218.11729 217.25982
 216.50334 215.68487 214.78439 214.14992 213.60144 213.23393 212.36687 213.62230
 215.26558 216.96193 218.21297 218.71632 219.89043 222.95851 228.19629 232.65880
 236.24886 239.98944 243.71207 247.16980 250.14864 252.84673 255.77368 258.90024
 261.34586 263.50421 265.85437 268.19183 270.38364 272.35150 274.02319 275.67566
 277.39255 279.10403 280.64532 282.01123 283.19818 284.25110 285.21530 286.09113
 286.88617 287.60034 288.22998 289.07181
 366.78100 356.33620 345.76941 334.63661 323.04081 311.23601 299.10722 286.91142
 274.62462 262.52283 250.53303 239.83523 229.95843 221.06364 213.24684 206.25004
 200.08525 195.02445 191.60765 189.65086 188.68906 188.75426 189.59046 190.89967
 192.62587 194.72207 196.98628 199.34648 201.79268 204.27388 206.36309 208.20629
 209.83349 210.97970 211.20990 211.43910 211.37730 211.08351 210.71771 210.34891
 209.96712 209.67832 209.48752 209.35272 209.28193 209.61413 210.00133 210.39154
 211.18574 212.36494 213.61615 215.40035 217.32955 219.37375 221.46996 223.55416
 225.61536 227.70057 229.79877 231.90597 234.03617 236.20938 238.46658 240.83778
 243.45999 245.71219 247.71539 249.48159 250.89980 252.02400 252.84720 253.16441
 253.20261 252.97781 252.33901 251.28822 249.89542 248.05762 245.96783 243.80203
 241.59423 239.39944 237.22064 235.06084 232.92204 230.79025 228.81745 226.97565
 225.25986 223.73306 222.36426 221.13746 220.02067 218.98187 218.08707 217.22928
 216.47248 215.65368 214.75288 214.11809 213.56929 213.24147 212.46700 213.72961
 215.30489 217.00731 218.31758 218.83287 220.07463 222.98077 228.17224 232.59763
 236.16568 239.90541 243.60921 247.02144 249.93959 252.61780 255.57614 258.74298
 261.17786 263.31189 265.65689 268.01855 270.24188 272.23099 273.91895 275.57529
 277.28885 278.99268 280.53400 281.89856 283.08572 284.13925 285.10303 285.97998
 286.77332 287.48868 288.11777 288.96704
 366.78100 356.33580 345.76859 334.63539 323.03918 311.23398 299.10477 286.90857
 274.62137 262.51916 250.52896 239.83075 229.95355 221.05834 213.24114 206.24393
 200.07873 195.01753 191.60032 189.64312 188.68091 188.74571 189.58150 190.89030
 192.61610 194.71189 196.97569 199.33548 201.78128 204.26207 206.35087 208.19366
 209.82046 210.96626 211.19605 211.42485 211.36264 211.06844 210.70223 210.33303
 209.95083 209.66162 209.47042 209.33521 209.26401 209.59580 209.98260 210.37240
 211.16619 212.34499 213.59578 215.37958 217.30837 219.35217 221.44796 223.53176
 225.59256 227.67735 229.77515 231.88194 234.01174 236.18453 238.44133 240.81213
 243.43392 245.68572 247.68851 249.45431 250.87210 251.99590 252.81870 253.13549
 253.17329 252.94808 252.30888 251.25767 249.86447 248.02626 245.93606 243.76986
 241.56165 239.36645 237.18724 235.02704 232.88783 230.75563 228.78243 226.94022
 225.22402 223.69681 222.32761 221.10040 219.98320 218.94399 218.04879 217.19059
 216.43338 215.61418 214.71297 214.07777 213.52856 213.24492 212.57477 213.84233
 215.33617 217.04024 218.42307 218.94096 220.27733 222.99287 228.15033 232.54166
 236.08438 239.82620 243.51105 246.87393 249.73337 252.39375 255.37589 258.57138
 261.00122 263.12238 265.46609 267.85117 270.10645 272.12018 273.82376 275.48087
 277.18399 278.88422 280.42438 281.78983 282.97659 284.03162 284.99387 285.87238
 286.66885 287.38269 288.01373 288.86346
 366.78100 356.33530 345.76760 334.63391 323.03721 311.23151 299.10181 286.90511
 274.61742 262.51472 250.52402 239.82532 229.94762 221.05193 213.23423 206.23653
 200.07083 195.00913 191.59144 189.63374 188.67104 188.73534 189.57064 190.87895
 192.60425 194.69955 196.96285 199.32215 201.76746 204.24776 206.33606 208.17836
 209.80466 210.94997 211.17927 211.40757 211.34487 211.05017 210.68348 210.31378
 209.93108 209.64138 209.44968 209.31399 209.24229 209.57359 209.95989 210.34920
 211.14250 212.32080 213.57110 215.35440 217.28271 219.32601 221.42131 223.50461
 225.56491 227.64922 229.74652 231.85282 233.98212 236.15442 238.41073 240.78103
 243.40233 245.65363 247.65593 249.42124 250.83854 251.96184 252.78414 253.10044
 253.13775 252.91205 252.27235 251.22065 249.82695 247.98826 245.89756 243.73086
 241.52216 239.32646 237.14677 234.98607 232.84637 230.71367 228.73997 226.89728
 225.18058 223.65288 222.28318 221.05548 219.93779 218.89809 218.00239 217.14369
 216.38599 215.56630 214.66460 214.02890 213.47920 213.24393 212.68806 213.96451
 215.35692 217.07101 218.52353 219.05768 220.45790 223.03276 228.11960 232.47754
 236.00172 239.75473 243.42197 246.72919 249.52510 252.16701 255.16763 258.38144
 260.81506 262.94073 265.28653 267.69202 269.97864 272.02094 273.74231 275.39676
 277.08044 278.78210 280.32352 281.68930 282.87759 283.93283 284.89966 285.78278
 286.58850 287.31076 287.94946 288.78934
 366.78100 356.33528 345.76756 334.63384 323.03713 311.23141 299.10169 286.90497
 274.61725 262.51453 250.52381 239.82510 229.94738 221.05166 213.23394 206.23622
 200.07050 195.00878 191.59107 189.63335 188.67063 188.73491 189.57019 190.87847
 192.60375 194.69904 196.96232 199.32160 201.76688 204.24716 206.33544 208.17772
 209.80401 210.94929 211.17857 211.40685 211.34413 211.04941 210.68269 210.31298
 209.93026 209.64054 209.44882 209.31310 209.24138 209.57266 209.95895 210.34823
 211.14151 212.31979 213.57007 215.35335 217.28163 219.32492 221.42020 223.50348
 225.56376 227.64804 229.74532 231.85160 233.98089 236.15317 238.40945 240.77973
 243.40101 245.65229 247.65457 249.41986 250.83714 251.96042 252.78270 253.09898
 253.13626 252.91054 252.27083 251.21911 249.82539 247.98667 245.89595 243.72923
 241.52051 239.32480 237.14508 234.98436 232.84464 230.71192 228.73820 226.89548
 225.17877 223.65105 222.28133 221.05361 219.93589 218.89617 218.00045 217.14174
 216.38402 215.56430 214.66258 214.02686 213.47714 213.26701 212.77055 214.11180
 215.39236 217.06573 218.63098 219.16003 220.71057 223.02013 228.10234 232.44435
 235.93372 239.68507 243.32442 246.56546 249.29750 251.92876 254.95016 258.17828
 260.62988 262.77383 265.12100 267.54166 269.85660 271.92770 273.66592 275.31424
 276.97687 278.69113 280.23331 281.59949 282.78726 283.84454 284.81320 285.69809
 286.50729 287.23288 287.86838 288.72037
 366.78100 356.33486 345.76673 334.63259 323.03545 311.22932 299.09918 286.90204
 274.61390 262.51077 250.51963 239.82049 229.94236 221.04622 213.22808 206.22995
 200.06381 195.00167 191.58353 189.62540 188.66226 188.72612 189.56099 190.86885
 192.59371 194.68858 196.95144 199.31030 201.75516 204.23503 206.32289 208.16475
 209.79062 210.93548 211.16434 211.39221 211.32907 211.03393 210.66680 210.29666
 209.91352 209.62338 209.43125 209.29511 209.22297 209.55384 209.93970 210.32856
 211.12143 212.29929 213.54915 215.33201 217.25988 219.30274 221.39760 223.48047
 225.54033 227.62419 229.72106 231.82692 233.95578 236.12764 238.38351 240.75337
 243.37423 245.62510 247.62696 249.39182 250.80869 251.93155 252.75341 253.06927
 253.10614 252.88000 252.23986 251.18773 249.79359 247.95445 245.86332 243.69618
 241.48704 239.29091 237.11077 234.94963 232.80949 230.67636 228.70222 226.85908
 225.14195 223.61381 222.24367 221.01554 219.89740 218.85726 217.96112 217.10199
 216.34385 215.52371 214.62158 213.98544 213.43530 213.27185 212.88567 214.19955
 215.51311 217.04825 218.59894 219.34804 220.87274 223.21248 228.08221 232.36365
 235.83719 239.58875 243.20039 246.38087 249.06068 251.69046 254.73277 257.97299
 260.45483 262.62289 264.97253 267.40286 269.74377 271.84592 273.60083 275.23633
 276.88229 278.60196 280.14603 281.51230 282.70068 283.75766 284.72672 285.61343
 286.42230 287.15048 287.78711 288.63657
 366.78100 356.33413 345.76527 334.63040 323.03253 311.22567 299.09480 286.89694
 274.60807 262.50420 250.51234 239.81247 229.93360 221.03674 213.21787 206.21900
 200.05214 194.98927 191.57041 189.61154 188.64767 188.71081 189.54494 190.85207
 192.57621 194.67034 196.93248 199.29061 201.73474 204.21388 206.30101 208.14214
 209.76728 210.91141 211.13954 211.36668 211.30281 211.00695 210.63908 210.26821
 209.88435 209.59348 209.40061 209.26375 209.19088 209.52101 209.90615 210.29428
 211.08642 212.26355 213.51268 215.29482 217.22195 219.26408 221.35822 223.44035
 225.49948 227.58262 229.67875 231.78389 233.91202 236.08315 238.33829 240.70742
 243.32755 245.57769 247.57882 249.34296 250.75909 251.88122 252.70236 253.01749
 253.05362 252.82676 252.18589 251.13302 249.73816 247.89829 245.80643 243.63856
 241.42869 239.23183 237.05096 234.88909 232.74823 230.61436 228.63949 226.79563
 225.07776 223.54890 222.17803 220.94916 219.83030 218.78943 217.89256 217.03270
 216.27383 215.45296 214.55010 213.91323 213.36237 213.26120 213.02220 214.30278
 215.56068 217.05313 218.63071 219.53941 220.98138 223.42094 228.04568 232.25494
 235.72917 239.49039 243.07780 246.20042 248.83057 251.45848 254.51810 257.76608
 260.28690 262.48511 264.83765 267.27673 269.64218 271.77518 273.55042 275.17920
 276.79681 278.51431 280.05914 281.42441 282.61435 283.67007 284.64029 285.52869
 286.33755 287.06815 287.70523 288.55377
 366.78100 356.33343 345.76386 334.62829 323.02972 311.22215 299.09058 286.89201
 274.60243 262.49786 250.50529 239.80472 229.92515 221.02758 213.20801 206.20844
 200.04087 194.97730 191.55773 189.59816 188.63359 188.69602 189.52944 190.83587
 192.55930 194.65273 196.91416 199.27159 201.71502 204.19345 206.27988 208.12031
 209.74474 210.88817 211.11560 211.34203 211.27746 210.98088 210.61231 210.24074
 209.85617 209.56460 209.37103 209.23346 209.15989 209.48932 209.87375 210.26118
 211.05261 212.22904 213.47747 215.25889 217.18532 219.22675 221.32018 223.40161
 225.46004 227.54247 229.63790 231.74233 233.86976 236.04019 238.29462 240.66305
 243.28248 245.53191 247.53233 249.29576 250.71119 251.83262 252.65305 252.96748
 253.00291 252.77534 252.13377 251.08020 249.68463 247.84406 245.75149 243.58292
 241.37234 239.17477 236.99320 234.83063 232.68906 230.55449 228.57892 226.73435
 225.01578 223.48621 222.11464 220.88507 219.76550 218.72393 217.82636 216.96578
 216.20621 215.38464 214.48107 213.84350 213.29193 213.25047 213.15256 214.43358
 215.58939 217.05962 218.68661 219.71350 221.10818 223.59027 228.00656 232.14786
 235.62718 239.39705 242.95190 246.00778 248.58965 251.22241 254.30327 257.55719
 260.12463 262.36124 264.71973 267.16507 269.55112 271.71640 273.51212 275.13571
 276.72278 278.43341 279.97699 281.34341 282.53195 283.58844 284.55997 285.44757
 286.25925 286.98929 287.62778 288.47809
 366.78100 356.33263 345.76225 334.62588 323.02650 311.21813 299.08576 286.88638
 274.59601 262.49063 250.49726 239.79589 229.91551 221.01714 213.19677 206.19639
 200.02802 194.96364 191.54327 189.58290 188.61752 188.67915 189.51177 190.81740
 192.54003 194.63265 196.89328 199.24990 201.69253 204.17016 206.25578 208.09541
 209.71903 210.86166 211.08829 211.31391 211.24854 210.95117 210.58179 210.20942
 209.82404 209.53167 209.33730 209.19892 209.12455 209.45317 209.83680 210.22343
 211.01405 212.18968 213.43730 215.21793 217.14356 219.18418 221.27681 223.35743
 225.41506 227.49669 229.59131 231.69494 233.82157 235.99119 238.24482 240.61244
 243.23107 245.47970 247.47932 249.24195 250.65657 251.77720 252.59683 252.91045
 252.94508 252.71670 252.07433 251.01996 249.62358 247.78221 245.68883 243.51946
 241.30809 239.10971 236.92734 234.76397 232.62159 230.48622 228.50984 226.66447
 224.94510 223.41472 222.04235 220.81197 219.69160 218.64923 217.75085 216.88948
 216.12910 215.30673 214.40236 213.76398 213.21161 213.23355 213.28535 214.56985
 215.63374 217.06372 218.73889 219.88083 221.25957 223.72971 227.97060 232.05489
 235.53432 239.29985 242.80484 245.78766 248.33034 250.97992 254.08820 257.34888
 259.96893 262.25476 264.62140 267.07043 269.47238 271.66656 273.48529 275.10916
 276.66229 278.35876 279.90158 281.26813 282.45645 283.51349 284.48434 285.37314
 286.18594 286.91565 287.55606 288.40427
 366.78100 356.33185 345.76071 334.62356 323.02341 311.21427 299.08112 286.88097
 274.58982 262.48368 250.48953 239.78738 229.90624 221.00709 213.18594 206.18480
 200.01565 194.95050 191.52936 189.56821 188.60206 188.66291 189.49477 190.79962
 192.52147 194.61333 196.87318 199.22903 201.67089 204.14774 206.23259 208.07145
 209.69430 210.83615 211.06200 211.28686 211.22071 210.92256 210.55242 210.17927
 209.79312 209.49998 209.30483 209.16568 209.09054 209.41839 209.80124 210.18709
 210.97695 212.15180 213.39865 215.17851 217.10336 219.14321 221.23507 223.31492
 225.37177 227.45263 229.54648 231.64933 233.77518 235.94404 238.19689 240.56374
 243.18160 245.42945 247.42830 249.19016 250.60401 251.72386 252.54272 252.85557
 252.88942 252.66027 252.01713 250.96198 249.56483 247.72269 245.62854 243.45839
 241.24625 239.04710 236.86395 234.69981 232.55666 230.42051 228.44336 226.59722
 224.87707 223.34592 221.97278 220.74163 219.62048 218.57734 217.67819 216.81604
 216.05490 215.23175 214.32660 213.68745 213.13431 213.21707 213.41263 214.71124
 215.69511 217.07660 218.79759 220.04486 221.42099 223.85043 227.93703 231.97546
 235.44385 239.18713 242.62978 245.54280 248.05913 250.73422 253.87277 257.14114
 259.81888 262.15707 264.53955 266.99100 269.40500 271.62585 273.47049 275.10416
 276.62695 278.28961 279.82855 281.19733 282.38373 283.44113 284.41214 285.30118
 286.11487 286.84552 287.48645 288.33469
 366.78100 356.33116 345.75932 334.62149 323.02065 311.21081 299.07697 286.87613
 274.58429 262.47746 250.48262 239.77978 229.89794 220.99810 213.17627 206.17443
 200.00459 194.93875 191.51691 189.55508 188.58824 188.64840 189.47956 190.78372
 192.50488 194.59605 196.85521 199.21037 201.65153 204.12769 206.21186 208.05002
 209.67218 210.81334 211.03850 211.26266 211.19583 210.89699 210.52615 210.15231
 209.76547 209.47164 209.27580 209.13596 209.06012 209.38728 209.76945 210.15461
 210.94377 212.11793 213.36409 215.14325 217.06742 219.10658 221.19774 223.27690
 225.33306 227.41323 229.50639 231.60855 233.73371 235.90187 238.15404 240.52020
 243.13736 245.38452 247.38268 249.14384 250.55701 251.67617 252.49433 252.80649
 252.83965 252.60982 251.96598 250.91014 249.51230 247.66946 245.57462 243.40379
 241.19095 238.99111 236.80727 234.64243 232.49860 230.36176 228.38392 226.53708
 224.81624 223.28441 221.91057 220.67873 219.55689 218.51305 217.61321 216.75038
 215.98854 215.16470 214.25886 213.61902 213.06519 213.20381 213.53136 214.85498
 215.76811 217.10466 218.87001 220.20644 221.58902 223.95787 227.90714 231.89778
 235.34557 239.05354 242.43010 245.28163 247.78023 250.48489 253.65714 256.93671
 259.67404 262.06879 264.46954 266.92419 269.34680 271.58963 273.46039 275.11093
 276.64517 278.22910 279.75925 281.12711 282.31595 283.37198 284.34396 285.23254
 286.04773 286.77893 287.42004 288.26773
 366.78100 356.33091 345.75882 334.62074 323.01965 311.20956 299.07547 286.87439
 274.58230 262.47521 250.48012 239.77704 229.89495 220.99486 213.17277 206.17069
 200.00060 194.93451 191.51242 189.55034 188.58325 188.64316 189.47407 190.77798
 192.49890 194.58981 196.84872 199.20363 201.64455 204.12046 206.20437 208.04228
 209.66420 210.80511 211.03002 211.25393 211.18685 210.88776 210.51667 210.14258
 209.75549 209.46141 209.26532 209.12523 209.04914 209.37606 209.75797 210.14288
 210.93179 212.10571 213.35162 215.13053 217.05444 219.09336 221.18427 223.26318
 225.31909 227.39901 229.49192 231.59383 233.71874 235.88665 238.13857 240.50448
 243.12139 245.36830 247.36622 249.12713 250.54004 251.65895 252.47687 252.78878
 252.82169 252.59160 251.94752 250.89143 249.49334 247.65025 245.55517 243.38408
 241.17099 238.97090 236.78681 234.62173 232.47764 230.34055 228.36246 226.51538
 224.79429 223.26220 221.88811 220.65603 219.53394 218.48985 217.58976 216.72668
 215.96459 215.14050 214.23441 213.59433 213.04024 213.21326 213.62204 214.99915
 215.87103 217.15674 218.95464 220.36023 221.75780 224.05450 227.88231 231.81213
 235.23277 238.89594 242.20236 244.99573 247.48367 250.22545 253.43822 256.73334
 259.52524 261.98468 264.41251 266.87515 269.30173 271.55914 273.45435 275.12311
 276.68277 278.19052 279.71051 281.07877 282.26779 283.32480 284.29645 285.18716
 286.00125 286.73154 287.37512 288.22186
 366.78100 356.33174 345.76047 334.62321 323.02294 311.21368 299.08041 286.88015
 274.58888 262.48262 250.48835 239.78609 229.90482 221.00556 213.18429 206.18303
 200.01376 194.94850 191.52724 189.56597 188.59971 188.66044 189.49218 190.79691
 192.51865 194.61038 196.87012 199.22585 201.66759 204.14432 206.22906 208.06779
 209.69053 210.83226 211.05800 211.28273 211.21647 210.91821 210.54794 210.17468
 209.78841 209.49515 209.29988 209.16062 209.08535 209.41309 209.79582 210.18156
 210.97129 212.14603 213.39276 215.17250 217.09723 219.13697 221.22871 223.30844
 225.36518 227.44591 229.53965 231.64238 233.76812 235.93685 238.18959 240.55632
 243.17406 245.42179 247.42053 249.18226 250.59600 251.71573 252.53447 252.84720
 252.88094 252.65168 252.00841 250.95315 249.55588 247.71362 245.61935 243.44909
 241.23682 239.03756 236.85429 234.69003 232.54676 230.41050 228.43323 226.58697
 224.86670 223.33544 221.96218 220.73091 219.60965 218.56638 217.66712 216.80485
 216.04359 215.22032 214.31506 213.67579 213.12253 213.28149 213.65706 215.10703
 216.05325 217.27316 219.06836 220.50592 221.91422 224.13499 227.85133 231.71156
 235.10593 238.70752 241.92809 244.66284 247.15575 249.95343 253.21858 256.54132
 259.40228 261.92471 264.38004 266.84760 269.26996 271.52890 273.43451 275.10626
 276.66730 278.17822 279.70416 281.07236 282.26157 283.31943 284.29083 285.18063
 285.99899 286.73346 287.37662 288.22617
 366.78100 356.33196 345.76092 334.62388 323.02384 311.21480 299.08176 286.88171
 274.59067 262.48463 250.49059 239.78855 229.90751 221.00847 213.18743 206.18639
 200.01735 194.95231 191.53127 189.57023 188.60419 188.66514 189.49710 190.80206
 192.52402 194.61598 196.87594 199.23190 201.67386 204.15082 206.23578 208.07474
 209.69770 210.83966 211.06562 211.29057 211.22453 210.92649 210.55645 210.18341
 209.79737 209.50433 209.30929 209.17025 209.09521 209.42317 209.80613 210.19209
 210.98205 212.15700 213.40396 215.18392 217.10888 219.14884 221.24080 223.32076
 225.37772 227.45868 229.55264 231.65560 233.78156 235.95052 238.20348 240.57043
 243.18839 245.43635 247.43531 249.19727 250.61123 251.73119 252.55015 252.86311
 252.89707 252.66803 252.02499 250.96995 249.57291 247.73086 245.63682 243.46678
 241.25474 239.05570 236.87266 234.70862 232.56558 230.42954 228.45250 226.60646
 224.88642 223.35538 221.98234 220.75129 219.63025 218.58721 217.68817 216.82613
 216.06509 215.24205 214.33701 213.69797 213.14493 213.32510 213.76262 215.17247
 216.16853 217.32205 219.15961 220.64610 222.06522 224.18256 227.77467 231.62688
 234.97609 238.51802 241.63931 244.31166 246.80525 249.66580 253.00688 256.38742
 259.28299 261.87814 264.38235 266.84439 269.24097 271.47244 273.39343 275.07208
 276.61835 278.14868 279.66281 281.03021 282.21823 283.27390 284.24408 285.13589
 285.95703 286.71881 287.40564 288.28098
 366.78100 356.33075 345.75850 334.62025 323.01900 311.20875 299.07450 286.87324
 274.58099 262.47374 250.47849 239.77524 229.89299 220.99274 213.17049 206.16824
 199.99799 194.93174 191.50949 189.54724 188.57999 188.63973 189.47048 190.77423
 192.49498 194.58573 196.84448 199.19923 201.63998 204.11573 206.19948 208.03723
 209.65898 210.79973 211.02447 211.24822 211.18097 210.88172 210.51047 210.13622
 209.74897 209.45472 209.25847 209.11822 209.04197 209.36872 209.75047 210.13522
 210.92396 212.09771 213.34346 215.12221 217.04596 219.08471 221.17546 223.25421
 225.30996 227.38971 229.48246 231.58421 233.70896 235.87670 238.12845 240.49420
 243.11095 245.35770 247.35545 249.11620 250.52895 251.64770 252.46545 252.77720
 252.80995 252.57970 251.93545 250.87919 249.48094 247.63769 245.54244 243.37119
 241.15794 238.95769 236.77344 234.60819 232.46394 230.32669 228.34844 226.50119
 224.77993 223.24768 221.87343 220.64118 219.51893 218.47468 217.57443 216.71118
 215.94893 215.12468 214.21843 213.57818 213.02393 213.29460 213.96819 215.24431
 216.18266 217.33862 219.19533 220.77158 222.26773 224.30212 227.74669 231.60362
 234.83929 238.28351 241.30508 243.93732 246.50169 249.45282 252.81749 256.16281
 259.10736 261.77774 264.40131 266.87958 269.24722 271.42526 273.33615 274.99329
 276.57095 278.12061 279.64215 281.01346 282.20898 283.28006 284.27612 285.21686
 286.09540 286.87775 287.56119 288.43213
 366.78100 356.33019 345.75738 334.61856 323.01675 311.20594 299.07113 286.86931
 274.57650 262.46869 250.47288 239.76907 229.88625 220.98544 213.16263 206.15982
 199.98900 194.92219 191.49938 189.53657 188.56875 188.62794 189.45813 190.76132
 192.48151 194.57169 196.82988 199.18407 201.62426 204.09944 206.18263 208.01982
 209.64101 210.78120 211.00538 211.22857 211.16076 210.86095 210.48913 210.11432
 209.72651 209.43170 209.23488 209.09407 209.01726 209.34345 209.72464 210.10882
 210.89701 212.07020 213.31539 215.09357 217.01676 219.05495 221.14514 223.22333
 225.27851 227.35770 229.44989 231.55108 233.67526 235.84245 238.09364 240.45883
 243.07502 245.32120 247.31839 249.07858 250.49077 251.60895 252.42614 252.73733
 252.76952 252.53870 251.89389 250.83708 249.43827 247.59446 245.49864 243.32683
 241.11302 238.91221 236.72739 234.56158 232.41677 230.27896 228.30015 226.45233
 224.73052 223.19771 221.82290 220.59008 219.46727 218.42246 217.52165 216.65783
 215.89502 215.07021 214.16340 213.52259 212.96777 213.29027 214.09354 215.38991
 216.20494 217.31285 219.24071 220.94478 222.51587 224.50078 227.82349 231.61932
 234.75616 238.06253 240.95947 243.53986 246.15540 249.18140 252.59523 255.95085
 258.92892 261.71451 264.37265 266.85941 269.22586 271.40268 273.31143 275.00323
 276.59146 278.17068 279.72198 281.10019 282.30569 283.39386 284.42035 285.40945
 286.29907 287.09125 287.78329 288.66522
 366.78100 356.32958 345.75616 334.61674 323.01431 311.20289 299.06747 286.86505
 274.57163 262.46321 250.46679 239.76236 229.87894 220.97752 213.15410 206.15068
 199.97926 194.91184 191.48841 189.52499 188.55657 188.61515 189.44473 190.74731
 192.46689 194.55647 196.81404 199.16762 201.60720 204.08178 206.16436 208.00094
 209.62152 210.76109 210.98467 211.20725 211.13883 210.83841 210.46599 210.09057
 209.70214 209.40672 209.20930 209.06788 208.99046 209.31604 209.69662 210.08019
 210.86777 212.04035 213.28493 215.06251 216.98509 219.02267 221.11224 223.18982
 225.24440 227.32298 229.41456 231.51514 233.63872 235.80529 238.05587 240.42045
 243.03603 245.28161 247.27819 249.03777 250.44935 251.56692 252.38350 252.69408
 252.72566 252.49424 251.84882 250.79140 249.39197 247.54755 245.45113 243.27871
 241.06429 238.86287 236.67745 234.51102 232.36560 230.22718 228.24776 226.39934
 224.67692 223.14350 221.76807 220.53465 219.41123 218.36581 217.46439 216.59997
 215.83655 215.01112 214.10370 213.46228 212.90686 213.28119 214.20621 215.55479
 216.25060 217.34918 219.31477 221.10077 222.71935 224.66911 227.91151 231.62410
 234.68362 237.84624 240.61388 243.13895 245.80222 248.91580 252.38579 255.74324
 258.82620 261.66928 264.28821 266.80060 269.18744 271.37958 273.31302 275.06241
 276.70941 278.27600 279.83298 281.21201 282.41931 283.50757 284.53482 285.52039
 286.40680 287.19614 287.88571 288.76447
 366.78100 356.32961 345.75622 334.61683 323.01444 311.20305 299.06766 286.86527
 274.57188 262.46349 250.46710 239.76271 229.87931 220.97792 213.15453 206.15114
 199.97975 194.91236 191.48897 189.52558 188.55719 188.61580 189.44541 190.74802
 192.46763 194.55724 196.81485 199.16846 201.60807 204.08268 206.16529 208.00190
 209.62251 210.76212 210.98573 211.20834 211.13994 210.83955 210.46716 210.09177
 209.70338 209.40799 209.21060 209.06921 208.99182 209.31743 209.69804 210.08165
 210.86926 212.04187 213.28648 215.06409 216.98670 219.02431 221.11392 223.19153
 225.24614 227.32475 229.41636 231.51697 233.64057 235.80718 238.05779 240.42240
 243.03801 245.28362 247.28023 249.03984 250.45145 251.56906 252.38567 252.69628
 252.72789 252.49650 251.85111 250.79372 249.39433 247.54994 245.45355 243.28116
 241.06677 238.86538 236.67999 234.51360 232.36820 230.22981 228.25042 226.40203
 224.67964 223.14625 221.77086 220.53747 219.41408 218.36869 217.46730 216.60291
 215.83952 215.01413 214.10674 213.46535 212.90996 213.30836 214.29971 215.67926
 216.28455 217.41400 219.41452 221.22902 222.90392 224.87267 228.01494 231.65839
 234.61687 237.61797 240.23666 242.70622 245.43182 248.65105 252.19159 255.56206
 258.73016 261.60217 264.23804 266.78845 269.19650 271.37430 273.31738 275.08569
 276.75034 278.37775 279.93909 281.32437 282.53760 283.63766 284.70789 285.69208
 286.57724 287.36551 288.05411 288.93167
 366.78100 356.32825 345.75351 334.61276 323.00901 311.19626 299.05952 286.85577
 274.56102 262.45127 250.45353 239.74778 229.86303 220.96028 213.13554 206.13079
 199.95804 194.88929 191.46455 189.49980 188.53005 188.58730 189.41556 190.71681
 192.43506 194.52332 196.77957 199.13182 201.57007 204.04333 206.12458 207.95983
 209.57908 210.71734 210.93959 211.16084 211.09109 210.78935 210.41560 210.03885
 209.64910 209.35236 209.15361 209.01086 208.93212 209.25637 209.63562 210.01787
 210.80413 211.97538 213.21863 214.99488 216.91614 218.95239 221.04064 223.11689
 225.17015 227.24740 229.33765 231.43690 233.55916 235.72441 237.97366 240.33691
 242.95117 245.19542 247.19067 248.94893 250.35918 251.47543 252.29068 252.59994
 252.63019 252.39744 251.75069 250.69195 249.29120 247.44545 245.34770 243.17396
 240.95821 238.75546 236.56871 234.40097 232.25422 230.11447 228.13372 226.28398
 224.56023 223.02548 221.64874 220.41399 219.28924 218.24249 217.33975 216.47400
 215.70925 214.88250 213.97376 213.33101 212.77426 213.27025 214.47266 215.67456
 216.40834 217.62584 219.55830 221.37573 223.12201 225.09044 228.13847 231.70396
 234.54814 237.37631 239.83994 242.26808 245.05565 248.37833 252.02185 255.44209
 258.63748 261.52744 264.22537 266.82669 269.23941 271.39966 273.33282 275.08853
 276.77936 278.46439 280.03220 281.42462 282.65128 283.78720 284.87860 285.86734
 286.75659 287.54849 288.24026 289.12186
 366.78100 356.32852 345.75404 334.61356 323.01008 311.19760 299.06112 286.85764
 274.56315 262.45367 250.45619 239.75071 229.86623 220.96375 213.13927 206.13479
 199.96231 194.89383 191.46935 189.50487 188.53539 188.59291 189.42143 190.72294
 192.44146 194.52998 196.78650 199.13902 201.57754 204.05106 206.13258 207.96810
 209.58762 210.72614 210.94866 211.17018 211.10070 210.79922 210.42573 210.04925
 209.65977 209.36329 209.16481 209.02233 208.94385 209.26837 209.64789 210.03041
 210.81693 211.98845 213.23197 215.00849 216.93001 218.96652 221.05504 223.13156
 225.18508 227.26260 229.35312 231.45264 233.57516 235.74068 237.99020 240.35372
 242.96824 245.21276 247.20828 248.96680 250.37732 251.49383 252.30935 252.61887
 252.64939 252.41691 251.77043 250.71195 249.31147 247.46599 245.36851 243.19503
 240.97955 238.77707 236.59059 234.42311 232.27662 230.13714 228.15666 226.30718
 224.58370 223.04922 221.67274 220.43826 219.31378 218.26730 217.36482 216.49934
 215.73486 214.90838 213.99990 213.35741 212.80093 213.30717 214.53770 215.76735
 216.57712 217.75064 219.64394 221.52309 223.30977 225.25107 228.21350 231.70998
 234.44049 237.09059 239.42365 241.84340 244.70303 248.12474 251.85959 255.35641
 258.53912 261.48294 264.25043 266.88736 269.28653 271.41226 273.32312 275.10043
 276.80627 278.55701 280.12946 281.53439 282.78070 283.96011 285.05869 286.05392
 286.94901 287.74609 288.44244 289.32980
 366.78100 356.32861 345.75421 334.61382 323.01042 311.19803 299.06163 286.85824
 274.56384 262.45445 250.45705 239.75166 229.86726 220.96487 213.14047 206.13608
 199.96368 194.89529 191.47089 189.50650 188.53710 188.59471 189.42332 190.72492
 192.44353 194.53213 196.78874 199.14134 201.57995 204.05355 206.13516 207.97076
 209.59037 210.72897 210.95158 211.17318 211.10379 210.80239 210.42900 210.05260
 209.66321 209.36682 209.16842 209.02603 208.94763 209.27224 209.65184 210.03445
 210.82105 211.99266 213.23626 215.01287 216.93447 218.97108 221.05968 223.13629
 225.18989 227.26750 229.35810 231.45771 233.58031 235.74592 237.99553 240.35913
 242.97374 245.21834 247.21395 248.97255 250.38316 251.49976 252.31537 252.62497
 252.65558 252.42318 251.77679 250.71839 249.31800 247.47260 245.37521 243.20181
 240.98642 238.78402 236.59763 234.43024 232.28384 230.14445 228.16405 226.31466
 224.59126 223.05687 221.68047 220.44608 219.32168 218.27529 217.37289 216.50750
 215.74310 214.91671 214.00831 213.36592 212.80952 213.33157 214.61165 215.91257
 216.70476 217.92207 219.79419 221.63142 223.40605 225.35350 228.30344 231.72585
 234.33780 236.82227 239.03439 241.42424 244.34509 247.88216 251.70181 255.28543
 258.49603 261.46280 264.28867 266.93051 269.28763 271.35452 273.23618 274.99966
 276.90573 278.69586 280.26959 281.68237 282.97092 284.17554 285.27457 286.27023
 287.16571 287.96313 288.65976 289.54752
 366.78100 356.32673 345.75046 334.60819 323.00292 311.18864 299.05037 286.84510
 274.54883 262.43756 250.43829 239.73102 229.84475 220.94048 213.11420 206.10793
 199.93366 194.86339 191.43712 189.47085 188.49958 188.55531 189.38204 190.68176
 192.39849 194.48522 196.73995 199.09068 201.52741 203.99914 206.07887 207.91260
 209.53032 210.66705 210.88778 211.10751 211.03624 210.73297 210.35770 209.97943
 209.58815 209.28988 209.08961 208.94534 208.86507 209.18780 209.56553 209.94626
 210.73099 211.90071 213.14244 214.91717 216.83690 218.87163 220.95836 223.03309
 225.08482 227.16055 229.24927 231.34700 233.46773 235.63146 237.87919 240.24092
 242.85365 245.09638 247.09011 248.84683 250.25556 251.37029 252.18402 252.49175
 252.52048 252.28621 251.63794 250.57767 249.17539 247.32812 245.22885 243.05358
 240.83631 238.63204 236.44377 234.27450 232.12623 229.98495 228.00268 226.15141
 224.42614 222.88987 221.51160 220.27533 219.14906 218.10079 217.19651 216.32924
 215.56297 214.73470 213.82443 213.18016 212.62189 213.25220 214.78265 216.06264
 216.73241 218.11629 219.97987 221.71906 223.44098 225.40448 228.43852 231.72227
 234.26649 236.61255 238.67612 240.97949 243.97366 247.64804 251.57742 255.24223
 258.46390 261.51193 264.33545 266.96741 269.29617 271.30350 273.14954 274.91000
 276.94312 278.75674 280.36365 281.84991 283.21603 284.42474 285.52747 286.52649
 287.42499 288.22510 288.92407 289.81482
 366.78100 356.32725 345.75150 334.60975 323.00500 311.19125 299.05350 286.84875
 274.55300 262.44225 250.44350 239.73675 229.85100 220.94725 213.12150 206.11575
 199.94200 194.87225 191.44650 189.48075 188.51000 188.56625 189.39350 190.69375
 192.41100 194.49825 196.75350 199.10475 201.54200 204.01425 206.09450 207.92875
 209.54700 210.68425 210.90550 211.12575 211.05500 210.75225 210.37750 209.99975
 209.60900 209.31125 209.11150 208.96775 208.88800 209.21125 209.58950 209.97075
 210.75600 211.92625 213.16850 214.94375 216.86400 218.89925 220.98650 223.06175
 225.11400 227.19025 229.27950 231.37775 233.49900 235.66325 237.91150 240.27375
 242.88700 245.13025 247.12450 248.88175 250.29100 251.40625 252.22050 252.52875
 252.55800 252.32425 251.67650 250.61675 249.21500 247.36825 245.26950 243.09475
 240.87800 238.67425 236.48650 234.31775 232.17000 230.02925 228.04750 226.19675
 224.47200 222.93625 221.55850 220.32275 219.19700 218.14925 217.24550 216.37875
 215.61300 214.78525 213.87550 213.23175 212.67400 213.29822 214.84656 216.11176
 216.84752 218.41612 220.26006 221.95761 223.56369 225.42409 228.54152 231.58385
 234.15750 236.35437 238.27727 240.57152 243.71136 247.46156 251.53764 255.22391
 258.45529 261.61072 264.45624 267.04669 269.32584 271.28091 273.01532 275.05139
 277.19534 279.06821 280.91641 282.54562 283.95554 285.20297 286.34103 287.37207
 288.29935 289.12512 289.84650 290.76578
 366.78100 356.32897 345.75494 334.61491 323.01188 311.19985 299.06381 286.86078
 274.56675 262.45772 250.46069 239.75566 229.87163 220.96960 213.14557 206.14154
 199.96950 194.90147 191.47744 189.51341 188.54438 188.60235 189.43132 190.73329
 192.45226 194.54123 196.79819 199.15116 201.59013 204.06410 206.14607 207.98204
 209.60201 210.74098 210.96395 211.18592 211.11688 210.81585 210.44282 210.06679
 209.67776 209.38173 209.18370 209.04167 208.96364 209.28861 209.66857 210.05154
 210.83851 212.01048 213.25445 215.03142 216.95339 218.99036 221.07933 223.15630
 225.21026 227.28823 229.37920 231.47917 233.60214 235.76811 238.01808 240.38205
 242.99702 245.24199 247.23795 248.99692 250.40789 251.52486 252.34083 252.65080
 252.68177 252.44974 251.80371 250.74568 249.34565 247.50061 245.40358 243.23055
 241.01552 238.81349 236.62746 234.46043 232.31440 230.17537 228.19534 226.34630
 224.62327 223.08924 221.71321 220.47918 219.35515 218.30912 217.40709 216.54206
 215.77803 214.95199 214.04396 213.40193 212.84590 213.39764 214.82349 216.18954
 216.98799 218.53763 220.45380 222.20816 223.74304 225.64842 228.63860 231.62466
 234.07414 236.12938 237.89711 240.11165 243.29622 247.28470 251.36917 255.07449
 258.44125 261.61316 264.55933 267.27621 269.63400 271.60321 273.23865 275.29761
 277.43988 279.46024 281.36569 283.03885 284.48679 285.76785 286.93665 287.99548
 288.94778 289.79584 290.53665 291.48074
 366.78100 356.32766 345.75231 334.61097 323.00663 311.19329 299.05594 286.85160
 274.55626 262.44591 250.44757 239.74123 229.85588 220.95254 213.12720 206.12186
 199.94851 194.87917 191.45383 189.48848 188.51814 188.57480 189.40246 190.70311
 192.42077 194.50843 196.76408 199.11574 201.55340 204.02605 206.10671 207.94137
 209.56003 210.69768 210.91934 211.14000 211.06965 210.76731 210.39297 210.01563
 209.62528 209.32794 209.12860 208.98525 208.90591 209.22957 209.60822 209.98988
 210.77554 211.94620 213.18885 214.96451 216.88517 218.92082 221.00848 223.08414
 225.13680 227.21345 229.30311 231.40177 233.52342 235.68808 237.93674 240.29940
 242.91305 245.15671 247.15137 248.90902 250.31868 251.43434 252.24899 252.55765
 252.58731 252.35397 251.70662 250.64728 249.24594 247.39959 245.30125 243.12691
 240.91057 238.70722 236.51988 234.35154 232.20419 230.06385 228.08251 226.23216
 224.50782 222.97248 221.59514 220.35979 219.23445 218.18711 217.28376 216.41742
 215.65208 214.82474 213.91539 213.27205 212.71471 213.33240 214.85909 216.40437
 217.06636 218.37469 220.43491 222.21571 223.80502 225.78864 228.73901 231.61946
 233.83942 235.77704 237.53282 239.80405 243.04422 247.03598 251.09431 254.85043
 258.25626 261.44049 264.44342 267.18835 269.60443 271.72488 273.64999 275.44800
 277.29443 279.08316 280.67065 282.10226 283.44992 284.68066 285.80350 286.82071
 287.73560 288.55029 289.26199 290.16901
 366.78100 356.32474 345.74647 334.60221 322.99494 311.17868 299.03841 286.83115
 274.53288 262.41962 250.41835 239.70909 229.82083 220.91456 213.08630 206.07803
 199.90177 194.82950 191.40124 189.43297 188.45971 188.51344 189.33818 190.63592
 192.35065 194.43539 196.68812 199.03686 201.47159 203.94133 206.01906 207.85080
 209.46653 210.60127 210.82001 211.03774 210.96448 210.65921 210.28195 209.90168
 209.50842 209.20815 209.00589 208.85962 208.77736 209.09810 209.47383 209.85257
 210.63530 211.80304 213.04277 214.81551 216.73324 218.76598 220.85072 222.92345
 224.97319 227.04692 229.13366 231.22939 233.34813 235.50986 237.75560 240.11533
 242.72607 244.96681 246.95854 248.71328 250.12001 251.23275 252.04448 252.35022
 252.37695 252.14069 251.49042 250.42816 249.02390 247.17463 245.07337 242.89610
 240.67684 238.47057 236.28031 234.10904 231.95878 229.81551 227.83125 225.97799
 224.25072 222.71246 221.33219 220.09393 218.96566 217.91540 217.00913 216.13987
 215.37160 214.54134 213.62908 212.98281 212.42255 213.17668 214.96881 216.68474
 217.30228 218.25929 220.34894 222.23744 223.77206 225.65565 228.71581 231.41216
 233.65625 235.40680 237.03772 239.34744 242.75131 246.87979 251.02737 254.83406
 258.26474 261.41501 264.36862 267.06424 269.43750 271.53613 273.49884 275.38077
 277.16354 278.83295 280.38235 281.75153 282.94208 284.00732 284.99133 285.85248
 286.64932 287.38120 288.02054 288.83533
 366.78100 356.32333 345.74366 334.59799 322.98933 311.17166 299.02999 286.82132
 274.52165 262.40698 250.40432 239.69365 229.80398 220.89631 213.06664 206.05697
 199.87930 194.80564 191.37597 189.40630 188.43163 188.48396 189.30729 190.60362
 192.31696 194.40029 196.65162 198.99895 201.43228 203.90061 205.97695 207.80728
 209.42161 210.55494 210.77227 210.98860 210.91393 210.60727 210.22860 209.84693
 209.45226 209.15059 208.94692 208.79925 208.71559 209.03492 209.40925 209.78658
 210.56791 211.73424 212.97258 214.74391 216.66024 218.69157 220.77490 222.84623
 224.89456 226.96690 229.05223 231.14656 233.26389 235.42422 237.66855 240.02688
 242.63622 244.87555 246.86588 248.61921 250.02454 251.13587 251.94621 252.25054
 252.27587 252.03820 251.38653 250.32286 248.91719 247.06653 244.96386 242.78519
 240.56452 238.35685 236.16518 233.99251 231.84085 229.69618 227.71051 225.85584
 224.12717 222.58750 221.20584 219.96617 218.83650 217.78483 216.87716 216.00649
 215.23682 214.40516 213.49149 212.84382 212.28215 213.10605 215.05260 216.80876
 217.58139 218.61995 220.48418 222.30005 223.82681 225.71751 228.69614 231.32938
 233.41393 235.07884 236.67340 239.08659 242.63910 246.84511 251.00697 254.85649
 258.30096 261.44077 264.38022 267.07944 269.43121 271.44690 273.31686 275.15665
 276.96890 278.68820 280.23898 281.60696 282.79172 283.84415 284.81174 285.65945
 286.40924 287.10330 287.72989 288.57281
 366.78100 356.32255 345.74211 334.59566 322.98621 311.16777 299.02532 286.81588
 274.51543 262.39998 250.39654 239.68509 229.79464 220.88620 213.05575 206.04530
 199.86686 194.79241 191.36196 189.39152 188.41607 188.46763 189.29018 190.58573
 192.29829 194.38084 196.63139 198.97795 201.41050 203.87805 205.95361 207.78316
 209.39672 210.52927 210.74582 210.96138 210.88593 210.57848 210.19904 209.81659
 209.42114 209.11870 208.91425 208.76581 208.68136 208.99991 209.37347 209.75002
 210.53057 211.69613 212.93368 214.70423 216.61979 218.65034 220.73289 222.80345
 224.85100 226.92256 229.00711 231.10066 233.21722 235.37677 237.62032 239.97788
 242.58643 244.82498 246.81454 248.56709 249.97165 251.08220 251.89175 252.19531
 252.21986 251.98141 251.32897 250.26452 248.85807 247.00663 244.90318 242.72374
 240.50229 238.29384 236.10140 233.92795 231.77550 229.63006 227.64361 225.78816
 224.05872 222.51827 221.13582 219.89538 218.76493 217.71249 216.80404 215.93259
 215.16215 214.32970 213.41525 212.76681 212.20436 213.06979 215.11444 216.96680
 217.74794 218.72046 220.57301 222.37997 223.88904 225.78055 228.71692 231.27351
 233.22453 234.75340 236.30670 238.79414 242.49692 246.75868 250.94371 254.82912
 258.29199 261.44012 264.37399 267.06662 269.39642 271.38553 273.21802 275.03839
 276.88217 278.65616 280.21423 281.58157 282.76724 283.82236 284.78836 285.62714
 286.37317 287.06653 287.68704 288.52835
 366.78100 356.32171 345.74042 334.59314 322.98285 311.16356 299.02027 286.80998
 274.50870 262.39241 250.38812 239.67583 229.78455 220.87526 213.04397 206.03268
 199.85339 194.77811 191.34682 189.37553 188.39924 188.44995 189.27167 190.56638
 192.27809 194.35980 196.60951 198.95523 201.38694 203.85365 205.92836 207.75707
 209.36979 210.50150 210.71721 210.93192 210.85564 210.54735 210.16706 209.78377
 209.38748 209.08420 208.87891 208.72962 208.64433 208.96204 209.33476 209.71047
 210.49018 211.65489 212.89160 214.66132 216.57603 218.60574 220.68745 222.75716
 224.80388 226.87459 228.95830 231.05101 233.16673 235.32544 237.56815 239.92486
 242.53257 244.77029 246.75900 248.51071 249.91442 251.02413 251.83285 252.13556
 252.15927 251.91998 251.26669 250.20141 248.79412 246.94183 244.83754 242.65725
 240.43497 238.22568 236.03239 233.85810 231.70482 229.55853 227.57124 225.71495
 223.98466 222.44338 221.06009 219.81880 218.68751 217.63422 216.72494 215.85265
 215.08136 214.24807 213.33278 212.68350 212.12021 213.02876 215.17531 217.15343
 217.91571 218.74655 220.62187 222.47888 224.00789 225.88135 228.74818 231.19353
 232.99303 234.39117 235.93478 238.51686 242.34816 246.64311 250.86676 254.80206
 258.29297 261.44620 264.36896 267.04395 269.36163 271.35403 273.17972 274.99234
 276.84363 278.61942 280.17599 281.54514 282.73218 283.78708 284.75467 285.62717
 286.40158 287.09604 287.70737 288.52682
 366.78100 356.32076 345.73852 334.59029 322.97905 311.15881 299.01457 286.80333
 274.50110 262.38386 250.37862 239.66538 229.77314 220.86291 213.03067 206.01843
 199.83819 194.76196 191.32972 189.35748 188.38024 188.43000 189.25077 190.54453
 192.25529 194.33605 196.58481 198.92958 201.36034 203.82610 205.89986 207.72762
 209.33939 210.47015 210.68491 210.89867 210.82143 210.51220 210.13096 209.74672
 209.34948 209.04525 208.83901 208.68877 208.60253 208.91929 209.29106 209.66582
 210.44458 211.60834 212.84410 214.61287 216.52663 218.55539 220.63615 222.70491
 224.75068 226.82044 228.90320 230.99496 233.10972 235.26749 237.50925 239.86501
 242.47177 244.70853 246.69630 248.44706 249.84982 250.95858 251.76635 252.06811
 252.09087 251.85063 251.19639 250.13016 248.72192 246.86868 244.76344 242.58220
 240.35897 238.14873 235.95449 233.77925 231.62501 229.47778 227.48954 225.63230
 223.90106 222.35882 220.97459 219.73235 218.60011 217.54587 216.63564 215.76240
 214.99016 214.15592 213.23968 212.58945 212.02521 212.98483 215.25204 217.31375
 218.06384 218.80745 220.70622 222.60350 224.12300 225.97865 228.77710 231.10298
 232.72600 233.98732 235.54205 238.26862 242.22443 246.53474 250.80002 254.77664
 258.29709 261.46008 264.37256 267.02649 269.34259 271.34647 273.15173 274.93430
 276.78955 278.56689 280.12442 281.49570 282.68546 283.74405 284.71512 285.59189
 286.37207 287.06750 287.67957 288.50626
 366.78100 356.32049 345.73798 334.58947 322.97796 311.15744 299.01293 286.80142
 274.49891 262.38140 250.37589 239.66238 229.76987 220.85935 213.02684 206.01433
 199.83382 194.75731 191.32480 189.35229 188.37478 188.42426 189.24475 190.53824
 192.24873 194.32922 196.57771 198.92220 201.35269 203.81817 205.89166 207.71915
 209.33064 210.46113 210.67562 210.88911 210.81160 210.50209 210.12057 209.73606
 209.33855 209.03404 208.82753 208.67702 208.59051 208.90700 209.27848 209.65297
 210.43146 211.59495 212.83044 214.59893 216.51242 218.54091 220.62139 222.68988
 224.73537 226.80486 228.88735 230.97884 233.09333 235.25082 237.49230 239.84779
 242.45428 244.69077 246.67826 248.42875 249.83124 250.93973 251.74722 252.04870
 252.07119 251.83068 251.17617 250.10966 248.70115 246.84764 244.74213 242.56061
 240.33710 238.12659 235.93208 233.75657 231.60206 229.45455 227.46604 225.60852
 223.87701 222.33450 220.94999 219.70748 218.57497 217.52046 216.60995 215.73644
 214.96392 214.12941 213.21290 212.56239 211.99788 212.97786 215.29315 217.46498
 218.21390 218.88977 220.78821 222.75253 224.30962 226.07114 228.74768 230.99673
 232.43106 233.55367 235.17410 238.05505 242.10661 246.44548 250.74316 254.75049
 258.30112 261.47949 264.38177 267.01550 269.33432 271.35925 273.15356 274.90158
 276.70621 278.47812 280.03659 281.40610 282.59482 283.65286 284.62488 285.50690
 286.29440 286.99106 287.60648 288.43942
 366.78100 356.31991 345.73682 334.58773 322.97564 311.15455 299.00946 286.79737
 274.49428 262.37619 250.37010 239.65601 229.76292 220.85183 213.01874 206.00565
 199.82457 194.74748 191.31439 189.34130 188.36321 188.41212 189.23203 190.52494
 192.23485 194.31476 196.56267 198.90658 201.33649 203.80140 205.87431 207.70122
 209.31213 210.44204 210.65595 210.86886 210.79077 210.48068 210.09859 209.71350
 209.31541 209.01032 208.80323 208.65214 208.56505 208.88096 209.25188 209.62579
 210.40370 211.56661 212.80152 214.56943 216.48234 218.51025 220.59016 222.65807
 224.70298 226.77189 228.85380 230.94471 233.05862 235.21553 237.45644 239.81135
 242.41726 244.65317 246.64008 248.38999 249.79190 250.89981 251.70672 252.00763
 252.02954 251.78845 251.13336 250.06627 248.65719 246.80310 244.69701 242.51492
 240.29083 238.07974 235.88465 233.70856 231.55347 229.40538 227.41629 225.55820
 223.82611 222.28302 220.89793 219.65484 218.52175 217.46666 216.55557 215.68148
 214.90839 214.07330 213.15621 212.50512 211.94003 212.95998 215.36974 217.50192
 218.44684 219.04778 220.89424 222.85928 224.34923 226.13866 228.78040 230.87335
 232.11018 233.11728 234.78543 237.85913 241.99971 246.39186 250.71246 254.73616
 258.30676 261.49500 264.38611 266.99756 269.31934 271.37082 273.16345 274.88062
 276.66742 278.36914 279.91342 281.27850 282.46341 283.51083 284.46188 285.34106
 286.16632 286.87866 287.49625 288.34229
 366.78100 356.31945 345.73591 334.58636 322.97382 311.15227 299.00673 286.79418
 274.49064 262.37209 250.36554 239.65100 229.75745 220.84591 213.01236 205.99882
 199.81727 194.73972 191.30618 189.33263 188.35409 188.40254 189.22200 190.51445
 192.22391 194.30336 196.55081 198.89427 201.32372 203.78818 205.86063 207.68709
 209.29754 210.42700 210.64045 210.85290 210.77436 210.46381 210.08127 209.69572
 209.29718 208.99163 208.78408 208.63254 208.54499 208.86045 209.23090 209.60436
 210.38181 211.54427 212.77872 214.54617 216.45863 218.48608 220.56554 222.63299
 224.67745 226.74590 228.82736 230.91781 233.03126 235.18772 237.42817 239.78263
 242.38808 244.62354 246.60999 248.35944 249.76090 250.86835 251.67481 251.97526
 251.99672 251.75517 251.09963 250.03208 248.62253 246.76799 244.66144 242.47890
 240.25435 238.04281 235.84726 233.67071 231.51517 229.36662 227.37708 225.51853
 223.78599 222.24244 220.85690 219.61335 218.47980 217.42426 216.51271 215.63817
 214.86462 214.02908 213.11153 212.45999 211.89444 212.95068 215.44620 217.53990
 218.52571 219.41380 221.09021 222.84445 224.37437 226.19984 228.83012 230.79581
 231.69347 232.49452 234.46809 237.76453 241.92998 246.36911 250.69702 254.72562
 258.30896 261.49991 264.37570 266.96432 269.28723 271.36383 273.15002 274.82962
 276.55121 278.29410 279.84235 281.20551 282.38989 283.43912 284.39609 285.27530
 286.09372 286.81985 287.44144 288.29282
 366.78100 356.31994 345.73688 334.58783 322.97577 311.15471 299.00965 286.79759
 274.49454 262.37648 250.37042 239.65636 229.76330 220.85225 213.01919 206.00613
 199.82507 194.74802 191.31496 189.34190 188.36384 188.41278 189.23273 190.52567
 192.23561 194.31555 196.56349 198.90744 201.33738 203.80232 205.87526 207.70220
 209.31315 210.44309 210.65703 210.86997 210.79191 210.48186 210.09980 209.71474
 209.31668 209.01162 208.80457 208.65351 208.56645 208.88239 209.25334 209.62728
 210.40522 211.56816 212.80310 214.57105 216.48399 218.51193 220.59187 222.65981
 224.70476 226.77370 228.85564 230.94658 233.06052 235.21747 237.45841 239.81335
 242.41929 244.65523 246.64218 248.39212 249.79406 250.90200 251.70894 252.00989
 252.03183 251.79077 251.13571 250.06866 248.65960 246.80554 244.69948 242.51742
 240.29337 238.08231 235.88725 233.71119 231.55613 229.40808 227.41902 225.56096
 223.82890 222.28584 220.90079 219.65773 218.52467 217.46961 216.55855 215.68450
 214.91144 214.07638 213.15932 212.50826 211.94321 212.98918 215.46042 217.65308
 218.56854 219.69916 221.29521 222.87898 224.43825 226.22148 228.83604 230.70805
 231.31535 231.93640 234.19466 237.68666 241.87653 246.33595 250.66960 254.70885
 258.30771 261.50259 264.36554 266.93073 269.25339 271.34805 273.11099 274.76535
 276.46579 278.21771 279.77393 281.14374 282.33246 283.38730 284.34747 285.22940
 286.04654 286.78400 287.40851 288.26581
 366.78100 356.32051 345.73801 334.58952 322.97803 311.15754 299.01304 286.80155
 274.49906 262.38156 250.37607 239.66258 229.77009 220.85959 213.02710 206.01461
 199.83411 194.75762 191.32513 189.35263 188.37514 188.42465 189.24516 190.53866
 192.24917 194.32968 196.57818 198.92269 201.35320 203.81871 205.89221 207.71972
 209.33123 210.46173 210.67624 210.88975 210.81226 210.50276 210.12127 209.73678
 209.33928 209.03479 208.82830 208.67781 208.59131 208.90782 209.27933 209.65383
 210.43234 211.59585 212.83136 214.59986 216.51337 218.54188 220.62238 222.69089
 224.73640 226.80590 228.88841 230.97992 233.09443 235.25193 237.49344 239.84895
 242.45545 244.69196 246.67947 248.42998 249.83248 250.94099 251.74850 252.05000
 252.07251 251.83202 251.17753 250.11103 248.70254 246.84905 244.74355 242.56206
 240.33857 238.12808 235.93358 233.75809 231.60360 229.45610 227.46761 225.61012
 223.87862 222.33613 220.95164 219.70915 218.57665 217.52216 216.61167 215.73817
 214.96568 214.13119 213.21470 212.56420 211.99971 213.03220 215.47159 217.75436
 218.63858 219.90796 221.52538 223.02092 224.49890 226.18660 228.78625 230.57425
 230.97389 231.47607 233.93825 237.59250 241.83160 246.29836 250.63774 254.68913
 258.30304 261.50357 264.35599 266.89481 269.21265 271.32767 273.08994 274.67593
 276.39731 278.15665 279.71420 281.08420 282.27484 283.33334 284.29541 285.17859
 285.99222 286.73218 287.36127 288.22485
 366.78100 356.32075 345.73851 334.59026 322.97902 311.15877 299.01453 286.80328
 274.50104 262.38379 250.37854 239.66530 229.77305 220.86281 213.03056 206.01832
 199.83807 194.76183 191.32958 189.35733 188.38009 188.42984 189.25060 190.54435
 192.25511 194.33586 196.58462 198.92937 201.36012 203.82588 205.89963 207.72739
 209.33914 210.46990 210.68465 210.89841 210.82116 210.51191 210.13067 209.74642
 209.34918 209.04493 208.83869 208.68844 208.60220 208.91895 209.29070 209.66546
 210.44421 211.60797 212.84372 214.61248 216.52623 218.55499 220.63574 222.70449
 224.75025 226.82000 228.90276 230.99451 233.10927 235.26702 237.50878 239.86453
 242.47128 244.70804 246.69579 248.44655 249.84930 250.95806 251.76581 252.06757
 252.09032 251.85007 251.19583 250.12958 248.72134 246.86809 244.76285 242.58160
 240.35836 238.14811 235.95386 233.77862 231.62437 229.47713 227.48888 225.63164
 223.90039 222.35815 220.97390 219.73165 218.59941 217.54516 216.63492 215.76167
 214.98943 214.15518 213.23894 212.58869 212.02444 213.06027 215.50754 217.81898
 218.74278 220.08252 221.74129 223.21500 224.57681 226.14548 228.69255 230.37857
 230.65929 231.11235 233.70364 237.49127 241.78561 246.26247 250.60652 254.66626
 258.29340 261.50156 264.34567 266.85474 269.16327 271.28983 273.02341 274.68900
 276.34317 278.09097 279.65024 281.02118 282.21527 283.27509 284.24268 285.13104
 285.94611 286.68481 287.32867 288.20099
 366.78100 356.32102 345.73905 334.59107 322.98009 311.16012 299.01614 286.80516
 274.50319 262.38621 250.38123 239.66826 229.77628 220.86630 213.03433 206.02235
 199.84238 194.76640 191.33442 189.36245 188.38547 188.43549 189.25652 190.55054
 192.26156 194.34259 196.59161 198.93663 201.36766 203.83368 205.90770 207.73573
 209.34775 210.47877 210.69380 210.90782 210.83084 210.52187 210.14089 209.75691
 209.35994 209.05596 208.84999 208.70001 208.61403 208.93106 209.30308 209.67810
 210.45713 211.62115 212.85717 214.62620 216.54022 218.56924 220.65027 222.71929
 224.76531 226.83534 228.91836 231.01038 233.12541 235.28343 237.52545 239.88148
 242.48850 244.72552 246.71355 248.46457 249.86760 250.97662 251.78464 252.08667
 252.10969 251.86971 251.21574 250.14976 248.74178 246.88881 244.78383 242.60285
 240.37988 238.16990 235.97592 233.80095 231.64697 229.49999 227.51202 225.65504
 223.92406 222.38209 220.99811 219.75613 218.62416 217.57018 216.66021 215.78723
 215.01525 214.18128 213.26530 212.61532 212.05135 213.09131 215.54832 217.86044
 218.86932 220.25177 221.91478 223.39325 224.68855 226.13589 228.57701 230.12929
 230.35672 230.81609 233.48297 237.38692 241.73903 246.22850 250.57236 254.63826
 258.27716 261.49234 264.33264 266.82043 269.12936 271.28940 273.05011 274.36603
 276.30124 278.09213 279.64709 281.01486 282.20532 283.26315 284.23108 285.11691
 285.93021 286.66827 287.31882 288.21722
 366.78100 356.32153 345.74006 334.59258 322.98211 311.16264 299.01917 286.80869
 274.50722 262.39075 250.38628 239.67380 229.78233 220.87286 213.04139 206.02991
 199.85044 194.77497 191.34350 189.37202 188.39555 188.44608 189.26761 190.56213
 192.27366 194.35519 196.60472 198.95025 201.38177 203.84830 205.92283 207.75136
 209.36388 210.49541 210.71094 210.92547 210.84899 210.54052 210.16005 209.77658
 209.38010 209.07663 208.87116 208.72169 208.63621 208.95374 209.32627 209.70180
 210.48133 211.64585 212.88238 214.65191 216.56644 218.59596 220.67749 222.74702
 224.79355 226.86407 228.94760 231.04013 233.15566 235.31418 237.55671 239.91324
 242.52077 244.75829 246.74682 248.49835 249.90188 251.01140 251.81993 252.12246
 252.14599 251.90652 251.25304 250.18757 248.78010 246.92763 244.82315 242.64268
 240.42021 238.21074 236.01726 233.84279 231.68932 229.54285 227.55537 225.69890
 223.96843 222.42696 221.04348 219.80201 218.67054 217.61707 216.70760 215.83512
 215.06365 214.23018 213.31471 212.66523 212.10176 213.13371 215.57179 217.89609
 219.00005 220.42369 222.05794 223.53838 224.81413 226.15819 228.46864 229.85759
 230.05185 230.55431 233.27480 237.28665 241.69679 246.19260 250.53265 254.60162
 258.24734 261.46310 264.29221 266.75296 269.06119 271.23962 272.99084 274.50955
 276.27988 278.05005 279.60840 280.97974 282.17236 283.23312 284.20111 285.08698
 285.89917 286.63586 287.28290 288.19391
 366.78100 356.32222 345.74145 334.59467 322.98490 311.16612 299.02335 286.81357
 274.51280 262.39702 250.39325 239.68147 229.79070 220.88192 213.05115 206.04037
 199.86160 194.78682 191.35605 189.38527 188.40950 188.46072 189.28295 190.57817
 192.29040 194.37262 196.62285 198.96907 201.40130 203.86852 205.94375 207.77297
 209.38620 210.51842 210.73465 210.94987 210.87410 210.56632 210.18655 209.80377
 209.40800 209.10522 208.90045 208.75167 208.66690 208.98512 209.35835 209.73457
 210.51480 211.68002 212.91725 214.68747 216.60270 218.63292 220.71515 222.78537
 224.83260 226.90382 228.98805 231.08127 233.19750 235.35672 237.59995 239.95717
 242.56540 244.80362 246.79285 248.54507 249.94930 251.05952 251.86875 252.17197
 252.19620 251.95742 251.30465 250.23987 248.83310 246.98132 244.87754 242.69777
 240.47599 238.26722 236.07444 233.90067 231.74789 229.60212 227.61534 225.75957
 224.02979 222.48902 221.10624 219.86547 218.73469 217.68192 216.77314 215.90137
 215.13059 214.29782 213.38304 212.73427 212.17149 213.18842 215.59100 217.93747
 219.13144 220.59723 222.19615 223.66597 224.92809 226.19499 228.37834 229.58417
 229.73524 230.30554 233.07970 237.19508 241.65909 246.15427 250.49161 254.56316
 258.21701 261.44003 264.27060 266.72009 269.03275 271.23190 272.85333 274.46829
 276.25620 278.02661 279.58475 280.95660 282.14755 283.20795 284.17636 285.06308
 285.87076 286.60492 287.25217 288.15982
 366.78100 356.32299 345.74299 334.59698 322.98797 311.16997 299.02796 286.81895
 274.51894 262.40394 250.40093 239.68992 229.79992 220.89191 213.06190 206.05190
 199.87389 194.79988 191.36988 189.39987 188.42486 188.47685 189.29985 190.59584
 192.30883 194.39183 196.64282 198.98981 201.42281 203.89080 205.96679 207.79678
 209.41078 210.54377 210.76076 210.97676 210.90175 210.59474 210.21574 209.83373
 209.43872 209.13672 208.93271 208.78470 208.70069 209.01969 209.39368 209.77067
 210.55167 211.71766 212.95565 214.72665 216.64264 218.67363 220.75663 222.82762
 224.87561 226.94760 229.03260 231.12659 233.24358 235.40358 237.64757 240.00556
 242.61456 244.85355 246.84354 248.59654 250.00153 251.11252 251.92251 252.22651
 252.25150 252.01349 251.36149 250.29748 248.89147 247.04047 244.93746 242.75845
 240.53745 238.32944 236.13743 233.96442 231.81242 229.66741 227.68140 225.82640
 224.09739 222.55738 221.17538 219.93537 218.80536 217.75335 216.84535 215.97434
 215.20433 214.37233 213.45832 212.81031 212.24831 213.24709 215.60681 217.96774
 219.25453 220.76094 222.34225 223.79433 225.03065 226.23834 228.30051 229.31915
 229.41476 230.07025 232.90138 237.11096 241.61996 246.11259 250.44702 254.51743
 258.17468 261.40607 264.24463 266.69003 269.00906 271.21506 272.79437 274.38116
 276.22662 277.99884 279.55359 280.92001 282.10928 283.16672 284.13297 285.01440
 285.81680 286.54160 287.18402 288.09009
 366.78100 356.32380 345.74461 334.59941 322.99122 311.17402 299.03282 286.82463
 274.52543 262.41123 250.40904 239.69884 229.80965 220.90245 213.07325 206.06406
 199.88686 194.81366 191.38447 189.41527 188.44108 188.49388 189.31768 190.61449
 192.32829 194.41209 196.66390 199.01170 201.44551 203.91431 205.99111 207.82192
 209.43672 210.57052 210.78833 211.00513 210.93094 210.62474 210.24654 209.86535
 209.47115 209.16995 208.96676 208.81956 208.73637 209.05617 209.43097 209.80878
 210.59058 211.75738 212.99619 214.76799 216.68480 218.71660 220.80040 222.87221
 224.92101 226.99381 229.07962 231.17442 233.29223 235.45303 237.69783 240.05664
 242.66644 244.90624 246.89705 248.65085 250.05666 251.16846 251.97926 252.28407
 252.30987 252.07267 251.42148 250.35828 248.95309 247.10289 245.00069 242.82250
 240.60230 238.39510 236.20391 234.03171 231.88052 229.73632 227.75112 225.89693
 224.16873 222.62953 221.24834 220.00914 218.87995 217.82875 216.92155 216.05136
 215.28216 214.45096 213.53777 212.89057 212.32938 213.30991 215.62653 217.99245
 219.37059 220.91022 222.49307 223.92239 225.12593 226.28342 228.22675 229.06654
 229.11125 229.86732 232.75108 237.03615 241.57983 246.06960 250.39996 254.46342
 258.11612 261.34930 264.19116 266.63333 268.96219 271.16412 272.73526 274.36041
 276.21393 277.98529 279.53882 280.90649 282.09552 283.15259 284.11993 285.00284
 285.80905 286.54294 287.19028 288.10031
 366.78100 356.32463 345.74626 334.60189 322.99452 311.17815 299.03778 286.83041
 274.53204 262.41867 250.41730 239.70793 229.81956 220.91319 213.08482 206.07645
 199.90009 194.82772 191.39935 189.43098 188.45761 188.51124 189.33587 190.63350
 192.34813 194.43276 196.68539 199.03402 201.46865 203.93828 206.01591 207.84754
 209.46317 210.59780 210.81643 211.03406 210.96069 210.65532 210.27795 209.89758
 209.50421 209.20384 209.00147 208.85510 208.77273 209.09336 209.46900 209.84763
 210.63026 211.79789 213.03752 214.81015 216.72778 218.76041 220.84504 222.91767
 224.96730 227.04093 229.12756 231.22319 233.34182 235.50345 237.74908 240.10871
 242.71934 244.95997 246.95160 248.70623 250.11286 251.22549 252.03712 252.34275
 252.36938 252.13301 251.48264 250.42027 249.01591 247.16654 245.06517 242.88780
 240.66843 238.46206 236.27169 234.10032 231.94995 229.80658 227.82221 225.96884
 224.24147 222.70310 221.32273 220.08436 218.95599 217.90562 216.99925 216.12988
 215.36151 214.53114 213.61877 212.97240 212.41203 213.37442 215.64815 218.01614
 219.48305 221.05255 222.64777 224.04961 225.21620 226.32153 228.14467 228.80687
 228.80882 229.68686 232.62201 236.96498 241.53612 246.02545 250.35306 254.41008
 258.05902 261.29703 264.14484 266.59140 268.92883 271.12531 272.72714 274.41650
 276.22025 277.99133 279.55035 280.92017 282.11212 283.17209 284.14050 285.02786
 285.83948 286.57574 287.22534 288.14386
 366.78100 356.32552 345.74804 334.60456 322.99808 311.18260 299.04312 286.83664
 274.53916 262.42668 250.42620 239.71772 229.83024 220.92476 213.09728 206.08980
 199.91432 194.84284 191.41536 189.44788 188.47540 188.52992 189.35544 190.65397
 192.36949 194.45501 196.70853 199.05805 201.49357 203.96409 206.04261 207.87513
 209.49165 210.62717 210.84669 211.06521 210.99273 210.68825 210.31177 209.93229
 209.53981 209.24033 209.03885 208.89337 208.81189 209.13341 209.50993 209.88945
 210.67297 211.84149 213.08201 214.85553 216.77405 218.80757 220.89309 222.96661
 225.01713 227.09165 229.17917 231.27569 233.39521 235.55773 237.80425 240.16477
 242.77629 245.01781 247.01033 248.76585 250.17338 251.28690 252.09942 252.40594
 252.43346 252.19798 251.54850 250.48702 249.08354 247.23506 245.13458 242.95810
 240.73962 238.53414 236.34466 234.17418 232.02470 229.88222 227.89874 226.04626
 224.31978 222.78230 221.40282 220.16534 219.03786 217.98838 217.08290 216.21442
 215.44694 214.61746 213.70598 213.06050 212.50102 213.43996 215.65829 218.03381
 219.58975 221.19081 222.80226 224.17828 225.30783 226.36455 228.06183 228.54645
 228.52283 229.53557 232.51321 236.89517 241.48648 245.97446 250.29924 254.34592
 257.98788 261.23172 264.09009 266.55350 268.90161 271.07739 272.63934 274.38254
 276.24246 278.01807 279.57651 280.94711 282.13840 283.19852 284.16870 285.05521
 285.86804 286.60492 287.25690 288.17395
 366.78100 356.32653 345.75006 334.60760 323.00213 311.18766 299.04919 286.84372
 274.54726 262.43579 250.43632 239.72885 229.84238 220.93792 213.11145 206.10498
 199.93051 194.86004 191.43358 189.46711 188.49564 188.55117 189.37770 190.67724
 192.39377 194.48030 196.73483 199.08536 201.52190 203.99343 206.07296 207.90649
 209.52403 210.66056 210.88109 211.10062 211.02915 210.72569 210.35022 209.97175
 209.58028 209.28181 209.08135 208.93688 208.85641 209.17894 209.55647 209.93701
 210.72154 211.89107 213.13260 214.90713 216.82667 218.86120 220.94773 223.02226
 225.07379 227.14933 229.23786 231.33539 233.45592 235.61945 237.86699 240.22852
 242.84105 245.08358 247.07711 248.83365 250.24218 251.35671 252.17024 252.47777
 252.50631 252.27184 251.62337 250.56290 249.16043 247.31297 245.21350 243.03803
 240.82056 238.61609 236.42763 234.25816 232.10969 229.96822 227.98575 226.13429
 224.40882 222.87235 221.49388 220.25742 219.13095 218.08248 217.17801 216.31054
 215.54408 214.71561 213.80514 213.16067 212.60220 213.51389 215.66780 218.04469
 219.68567 221.33313 222.96042 224.30728 225.39397 226.40819 227.98332 228.27715
 228.22784 229.39427 232.41550 236.82687 241.43668 245.92456 250.24660 254.28265
 257.91916 261.17316 264.04938 266.53415 268.88541 271.03763 272.57883 274.36029
 276.26663 278.04965 279.60858 280.97870 282.17087 283.23010 284.20016 285.08795
 285.89835 286.63535 287.28351 288.20651
 366.78100 356.32754 345.75207 334.61061 323.00614 311.19268 299.05522 286.85075
 274.55529 262.44482 250.44636 239.73990 229.85443 220.95097 213.12550 206.12004
 199.94658 194.87711 191.45165 189.48619 188.51572 188.57226 189.39979 190.70033
 192.41787 194.50540 196.76094 199.11247 201.55001 204.02255 206.10308 207.93762
 209.55615 210.69369 210.91523 211.13576 211.06530 210.76283 210.38837 210.01091
 209.62044 209.32298 209.12351 208.98005 208.90059 209.22412 209.60266 209.98419
 210.76973 211.94027 213.18280 214.95834 216.87888 218.91441 221.00195 223.07748
 225.13002 227.20656 229.29609 231.39463 233.51616 235.68070 237.92924 240.29177
 242.90531 245.14884 247.14338 248.90092 250.31045 251.42599 252.24052 252.54906
 252.57860 252.34513 251.69767 250.63820 249.23674 247.39028 245.29181 243.11735
 240.90088 238.69742 236.50996 234.34149 232.19403 230.05357 228.07210 226.22164
 224.49717 222.96171 221.58425 220.34878 219.22332 218.17585 217.27239 216.40593
 215.64046 214.81300 213.90353 213.26007 212.70261 213.58949 215.68484 218.05048
 219.77068 221.46793 223.11974 224.45488 225.48856 226.45607 227.89854 228.02063
 227.96437 229.26691 232.33052 236.76231 241.38181 245.86615 250.18394 254.20755
 257.83704 261.10071 263.99673 266.50671 268.85648 270.96930 272.54474 274.38538
 276.30411 278.08243 279.63962 281.00858 282.20087 283.26074 284.23135 285.11798
 285.93143 286.66531 287.31689 288.23624
 366.78100 356.32814 345.75328 334.61242 323.00856 311.19570 299.05884 286.85497
 274.56011 262.45025 250.45239 239.74653 229.86167 220.95881 213.13395 206.12909
 199.95623 194.88737 191.46251 189.49765 188.52778 188.58492 189.41306 190.71420
 192.43234 194.52048 196.77662 199.12876 201.56690 204.04004 206.12118 207.95632
 209.57546 210.71359 210.93573 211.15687 211.08701 210.78515 210.41129 210.03443
 209.64457 209.34771 209.14885 209.00599 208.92713 209.25127 209.63041 210.01254
 210.79868 211.96982 213.21296 214.98910 216.91024 218.94638 221.03452 223.11066
 225.16380 227.24094 229.33108 231.43022 233.55235 235.71749 237.96663 240.32977
 242.94391 245.18805 247.18319 248.94133 250.35147 251.46761 252.28275 252.59189
 252.62203 252.38916 251.74230 250.68344 249.28258 247.43672 245.33886 243.16500
 240.94914 238.74628 236.55942 234.39156 232.24470 230.10484 228.12397 226.27411
 224.55025 223.01539 221.63853 220.40367 219.27881 218.23195 217.32909 216.46323
 215.69837 214.87151 213.96265 213.31978 212.76292 213.64110 215.71590 218.04785
 219.84402 221.59917 223.26622 224.58633 225.58577 226.52849 227.82581 227.72513
 227.66936 229.17044 232.26552 236.70004 241.32896 245.81180 250.12679 254.13695
 257.75909 261.03091 263.94742 266.48380 268.82947 270.91312 272.51636 274.41443
 276.32544 278.11172 279.67307 281.04495 282.23755 283.29773 284.26767 285.15384
 285.96490 286.70102 287.34692 288.26810
 366.78100 356.32884 345.75468 334.61451 323.01135 311.19919 299.06303 286.85987
 274.56570 262.45654 250.45938 239.75422 229.87006 220.96790 213.14373 206.13957
 199.96741 194.89925 191.47509 189.51092 188.54176 188.59960 189.42844 190.73028
 192.44911 194.53795 196.79479 199.14763 201.58647 204.06030 206.14214 207.97798
 209.59782 210.73666 210.95950 211.18133 211.11217 210.81101 210.43785 210.06169
 209.67252 209.37636 209.17820 209.03604 208.95788 209.28271 209.66255 210.04539
 210.83223 212.00407 213.24790 215.02474 216.94658 218.98342 221.07226 223.14910
 225.20293 227.28077 229.37161 231.47145 233.59429 235.76012 238.00996 240.37380
 242.98864 245.23348 247.22931 248.98815 250.39899 251.51583 252.33167 252.64150
 252.67234 252.44018 251.79402 250.73586 249.33570 247.49053 245.39337 243.22021
 241.00505 238.80289 236.61672 234.44956 232.30340 230.16424 228.18408 226.33491
 224.61175 223.07759 221.70143 220.46727 219.34310 218.29694 217.39478 216.52962
 215.76546 214.93930 214.03113 213.38897 212.83281 213.69911 215.74586 218.05673
 219.90376 221.72905 223.41711 224.74074 225.68283 226.59262 227.77148 227.52234
 227.40652 228.98335 232.18520 236.65234 241.28044 245.76184 250.07253 254.06920
 257.68298 260.96417 263.90210 266.46240 268.79465 270.84436 272.47971 274.36755
 276.34576 278.13852 279.70016 281.07327 282.26566 283.32507 284.29498 285.18124
 285.99030 286.72699 287.37360 288.29453
 366.78100 356.32993 345.75686 334.61779 323.01571 311.20464 299.06957 286.86750
 274.57443 262.46636 250.47029 239.76622 229.88314 220.98207 213.15900 206.15593
 199.98486 194.91779 191.49472 189.53164 188.56357 188.62250 189.45243 190.75536
 192.47529 194.56522 196.82314 199.17707 201.61700 204.09193 206.17486 208.01179
 209.63272 210.77265 210.99657 211.21950 211.15143 210.85136 210.47929 210.10422
 209.71615 209.42107 209.22400 209.08293 209.00586 209.33179 209.71272 210.09665
 210.88457 212.05750 213.30243 215.08036 217.00329 219.04122 221.13115 223.20908
 225.26400 227.34293 229.43486 231.53579 233.65972 235.82665 238.07758 240.44250
 243.05843 245.30436 247.30129 249.06122 250.47315 251.59108 252.40800 252.71893
 252.75086 252.51979 251.87472 250.81765 249.41858 247.57451 245.47843 243.30636
 241.09229 238.89122 236.70615 234.54008 232.39501 230.25693 228.27786 226.42979
 224.70772 223.17465 221.79958 220.56651 219.44343 218.39836 217.49729 216.63322
 215.87015 215.04508 214.13801 213.49694 212.94186 213.77667 215.74898 218.07957
 219.96234 221.84370 223.56931 224.88124 225.74524 226.61766 227.70503 227.37953
 227.21555 228.82298 232.12868 236.62122 241.24007 245.71719 250.02051 254.00204
 257.60632 260.89279 263.84753 266.42743 268.74353 270.75052 272.36908 274.44522
 276.39005 278.17520 279.73575 281.10693 282.29922 283.35837 284.32889 285.21512
 286.02567 286.76019 287.40915 288.32529
 366.78100 356.33122 345.75944 334.62167 323.02089 311.21111 299.07733 286.87655
 274.58478 262.47800 250.48322 239.78044 229.89866 220.99889 213.17711 206.17533
 200.00555 194.93977 191.51800 189.55622 188.58944 188.64966 189.48088 190.78511
 192.50633 194.59755 196.85677 199.21199 201.65322 204.12944 206.21366 208.05188
 209.67410 210.81533 211.04055 211.26477 211.19799 210.89921 210.52844 210.15466
 209.76788 209.47410 209.27832 209.13854 209.06277 209.38999 209.77221 210.15743
 210.94665 212.12088 213.36710 215.14632 217.07054 219.10976 221.20099 223.28021
 225.33643 227.41665 229.50987 231.61210 233.73732 235.90554 238.15776 240.52398
 243.14121 245.38843 247.38665 249.14787 250.56109 251.68032 252.49854 252.81076
 252.84398 252.61420 251.97043 250.91465 249.51687 247.67409 245.57931 243.40854
 241.19576 238.99598 236.81220 234.64742 232.50365 230.36687 228.38909 226.54231
 224.82153 223.28976 221.91598 220.68420 219.56242 218.51864 217.61887 216.75609
 215.99431 215.17053 214.26475 213.62498 213.07120 213.86443 215.73854 218.09102
 220.03670 221.95435 223.71689 225.01869 225.81619 226.63930 227.62224 227.23337
 227.03452 228.67004 232.07471 236.58540 241.19083 245.66344 249.95998 253.93018
 257.53104 260.82996 263.80875 266.41241 268.71368 270.69388 272.37735 274.49814
 276.45712 278.21085 279.76440 281.13223 282.32349 283.38037 284.34814 285.23483
 286.04361 286.77872 287.42578 288.34058
 366.78100 356.33225 345.76151 334.62476 323.02502 311.21627 299.08352 286.88378
 274.59303 262.48729 250.49354 239.79179 229.91105 221.01230 213.19155 206.19081
 200.02206 194.95732 191.53657 189.57582 188.61008 188.67133 189.50359 190.80884
 192.53109 194.62335 196.88360 199.23986 201.68211 204.15936 206.24462 208.08387
 209.70713 210.84938 211.07563 211.30089 211.23514 210.93740 210.56765 210.19490
 209.80916 209.51641 209.32166 209.18292 209.10817 209.43643 209.81968 210.20593
 210.99619 212.17144 213.41870 215.19895 217.12420 219.16446 221.25671 223.33697
 225.39422 227.47547 229.56973 231.67298 233.79924 235.96849 238.22174 240.58900
 243.20725 245.45551 247.45476 249.21701 250.63127 251.75152 252.57077 252.88403
 252.91828 252.68954 252.04679 250.99204 249.59530 247.75355 245.65981 243.49006
 241.27831 239.07957 236.89682 234.73308 232.59033 230.45458 228.47784 226.63209
 224.91235 223.38160 222.00885 220.77811 219.65736 218.61462 217.71587 216.85412
 216.09338 215.27063 214.36588 213.72714 213.17439 213.93874 215.74458 218.07542
 220.10786 222.06400 223.85211 225.16147 225.93010 226.69409 227.54431 227.08188
 226.85497 228.52943 232.02567 236.54889 241.14012 245.60587 249.89236 253.84822
 257.44254 260.74969 263.74899 266.37057 268.65714 270.63022 272.58255 274.45346
 276.46979 278.25278 279.80197 281.16739 282.35486 283.40842 284.37506 285.25824
 286.06604 286.79736 287.44418 288.35388
 366.78100 356.33256 345.76211 334.62567 323.02622 311.21778 299.08534 286.88589
 274.59545 262.49001 250.49656 239.79512 229.91467 221.01623 213.19579 206.19534
 200.02690 194.96246 191.54201 189.58157 188.61612 188.67768 189.51024 190.81579
 192.53835 194.63091 196.89146 199.24802 201.69057 204.16813 206.25369 208.09324
 209.71680 210.85935 211.08591 211.31147 211.24602 210.94858 210.57914 210.20669
 209.82125 209.52880 209.33436 209.19592 209.12147 209.45003 209.83359 210.22014
 211.01070 212.18625 213.43381 215.21437 217.13992 219.18048 221.27303 223.35359
 225.41115 227.49270 229.58726 231.69082 233.81737 235.98693 238.24048 240.60804
 243.22660 245.47515 247.47471 249.23727 250.65182 251.77238 252.59193 252.90549
 252.94005 252.71160 252.06916 251.01472 249.61827 247.77683 245.68338 243.51394
 241.30250 239.10405 236.92161 234.75816 232.61572 230.48028 228.50383 226.65839
 224.93895 223.40850 222.03606 220.80561 219.68517 218.64273 217.74428 216.88284
 216.12240 215.29995 214.39551 213.75706 213.20462 213.97163 215.78381 218.06700
 220.15207 222.14571 223.93958 225.27295 226.05949 226.78040 227.49466 226.97594
 226.72481 228.42471 231.99020 236.51627 241.09021 245.54529 249.81927 253.75952
 257.34583 260.65839 263.67542 266.31393 268.56812 270.41876 272.45245 274.46985
 276.50568 278.28372 279.83054 281.19400 282.37885 283.43393 284.39755 285.28134
 286.08685 286.81915 287.46396 288.37500
 366.78100 356.33244 345.76189 334.62533 323.02578 311.21722 299.08466 286.88511
 274.59455 262.48900 250.49544 239.79388 229.91333 221.01477 213.19422 206.19366
 200.02510 194.96055 191.53999 189.57944 188.61388 188.67533 189.50777 190.81321
 192.53566 194.62810 196.88855 199.24499 201.68743 204.16488 206.25032 208.08977
 209.71321 210.85565 211.08210 211.30754 211.24199 210.94443 210.57487 210.20232
 209.81676 209.52421 209.32965 209.19109 209.11654 209.44498 209.82843 210.21487
 211.00531 212.18076 213.42820 215.20865 217.13409 219.17453 221.26698 223.34742
 225.40487 227.48631 229.58075 231.68420 233.81064 235.98009 238.23353 240.60098
 243.21942 245.46786 247.46731 249.22975 250.64420 251.76464 252.58408 252.89753
 252.93197 252.70342 252.06086 251.00630 249.60975 247.76819 245.67464 243.50508
 241.29352 239.09497 236.91241 234.74886 232.60630 230.47074 228.49419 226.64863
 224.92908 223.39852 222.02596 220.79541 219.67485 218.63230 217.73374 216.87218
 216.11163 215.28907 214.38452 213.74596 213.19341 213.98097 215.84167 218.09444
 220.18901 222.20464 223.97858 225.33632 226.17329 226.87885 227.47084 226.91544
 226.63948 228.34485 231.96327 236.48878 241.04633 245.49057 249.75098 253.67433
 257.24734 260.55487 263.57150 266.19476 268.40250 270.33929 272.65161 274.44525
 276.47128 278.27222 279.82928 281.19699 282.38339 283.43872 284.40457 285.28589
 286.09103 286.81940 287.46225 288.36902
 366.78100 356.33262 345.76224 334.62586 323.02648 311.21810 299.08572 286.88634
 274.59596 262.49058 250.49720 239.79582 229.91544 221.01706 213.19668 206.19630
 200.02791 194.96353 191.54315 189.58277 188.61739 188.67901 189.51163 190.81725
 192.53987 194.63249 196.89311 199.24973 201.69235 204.16997 206.25559 208.09521
 209.71883 210.86145 211.08807 211.31369 211.24831 210.95093 210.58155 210.20917
 209.82379 209.53141 209.33703 209.19865 209.12427 209.45289 209.83651 210.22312
 211.01374 212.18936 213.43698 215.21760 217.14322 219.18384 221.27646 223.35708
 225.41470 227.49632 229.59094 231.69456 233.82118 235.99080 238.24442 240.61204
 243.23066 245.47928 247.47890 249.24152 250.65614 251.77676 252.59638 252.91000
 252.94462 252.71624 252.07386 251.01948 249.62310 247.78172 245.68834 243.51895
 241.30757 239.10919 236.92681 234.76343 232.62105 230.48567 228.50929 226.66391
 224.94453 223.41415 222.04177 220.81139 219.69101 218.64863 217.75025 216.88887
 216.12849 215.30611 214.40173 213.76335 213.21097 214.00383 215.87704 218.13596
 220.23846 222.25565 223.99060 225.35590 226.25310 226.96919 227.45854 226.88536
 226.59152 228.29068 231.94803 236.47202 241.01627 245.45021 249.69913 253.60870
 257.17102 260.47641 263.50330 266.14169 268.32117 269.99832 272.25095 274.39810
 276.46158 278.26013 279.81747 281.18527 282.37280 283.42609 284.39319 285.27161
 286.07684 286.80466 287.44366 288.35077
 366.78100 356.33325 345.76349 334.62774 323.02899 311.22123 299.08948 286.89073
 274.60097 262.49622 250.50347 239.80271 229.92296 221.02520 213.20545 206.20570
 200.03794 194.97419 191.55444 189.59468 188.62993 188.69218 189.52542 190.83167
 192.55492 194.64816 196.90941 199.26666 201.70990 204.18815 206.27440 208.11464
 209.73889 210.88213 211.10938 211.33563 211.27087 210.97412 210.60537 210.23361
 209.84886 209.55711 209.36335 209.22560 209.15185 209.48109 209.86534 210.25259
 211.04383 212.22008 213.46833 215.24957 217.17582 219.21707 221.31031 223.39156
 225.44980 227.53205 229.62730 231.73154 233.85879 236.02904 238.28328 240.65153
 243.27078 245.52002 247.52027 249.28352 250.69876 251.82001 252.64026 252.95450
 252.98975 252.76200 252.12024 251.06649 249.67073 247.82998 245.73723 243.56847
 241.35772 239.15997 236.97821 234.81546 232.67371 230.53895 228.56320 226.71845
 224.99969 223.46994 222.09819 220.86843 219.74868 218.70693 217.80917 216.94842
 216.18867 215.36691 214.46316 213.82540 213.27365 214.05144 215.88907 218.17938
 220.31647 222.31978 224.00459 225.35109 226.29938 227.03740 227.43256 226.83029
 226.52458 228.23148 231.93068 236.45781 240.99229 245.41711 249.65619 253.55702
 257.11032 260.41104 263.44260 266.08679 268.25635 270.05243 272.33148 274.35999
 276.41418 278.21494 279.77319 281.14255 282.32913 283.38461 284.34772 285.22852
 286.03201 286.75812 287.39865 288.29819
 366.78100 356.33393 345.76485 334.62978 323.03171 311.22463 299.09356 286.89549
 274.60641 262.50234 250.51027 239.81019 229.93112 221.03405 213.21497 206.21590
 200.04883 194.98575 191.56668 189.60761 188.64353 188.70646 189.54039 190.84732
 192.57124 194.66517 196.92710 199.28502 201.72895 204.20788 206.29480 208.13573
 209.76066 210.90458 211.13251 211.35944 211.29536 210.99929 210.63122 210.26014
 209.87607 209.58500 209.39192 209.25485 209.18178 209.51170 209.89663 210.28456
 211.07648 212.25341 213.50234 215.28426 217.21119 219.25312 221.34704 223.42897
 225.48790 227.57082 229.66675 231.77168 233.89960 236.07053 238.32546 240.69439
 243.31431 245.56424 247.56517 249.32909 250.74502 251.86695 252.68787 253.00280
 253.03873 252.81165 252.17058 251.11751 249.72243 247.88236 245.79029 243.62221
 241.41214 239.21507 237.03399 234.87192 232.73085 230.59677 228.62170 226.77763
 225.05955 223.53048 222.15941 220.93033 219.81126 218.77019 217.87311 217.01304
 216.25397 215.43289 214.52982 213.89275 213.34167 214.09987 215.89116 218.21989
 220.41307 222.38922 224.02042 225.33481 226.32553 227.09587 227.41730 226.79260
 226.47458 228.18153 231.91641 236.44815 240.97412 245.38658 249.61212 253.49998
 257.04095 260.33057 263.35745 265.99182 268.13501 270.10614 272.28094 274.31155
 276.36456 278.16199 279.71857 281.08615 282.27435 283.32858 284.29358 285.17365
 285.97717 286.70706 287.34930 288.24725
 366.78100 356.33450 345.76599 334.63149 323.03399 311.22748 299.09698 286.89947
 274.61097 262.50747 250.51596 239.81646 229.93796 221.04145 213.22295 206.22445
 200.05794 194.99544 191.57693 189.61843 188.65493 188.71842 189.55292 190.86042
 192.58491 194.67941 196.94191 199.30040 201.74490 204.22439 206.31189 208.15339
 209.77888 210.92338 211.15188 211.37937 211.31587 211.02037 210.65286 210.28236
 209.89885 209.60835 209.41585 209.27934 209.20684 209.53734 209.92283 210.31133
 211.10383 212.28132 213.53082 215.31331 217.24081 219.28331 221.37780 223.46030
 225.51980 227.60329 229.69979 231.80529 233.93378 236.10528 238.36077 240.73027
 243.35077 245.60126 247.60276 249.36726 250.78375 251.90625 252.72775 253.04324
 253.07974 252.85323 252.21273 251.16023 249.76572 247.92622 245.83472 243.66721
 241.45771 239.26121 237.08070 234.91920 232.77869 230.64519 228.67069 226.82718
 225.10968 223.58118 222.21067 220.98217 219.86366 218.82316 217.92666 217.06715
 216.30865 215.48815 214.58564 213.94914 213.39864 214.14059 215.89359 218.26176
 220.50983 222.45461 224.02626 225.30104 226.33284 227.14232 227.41064 226.77069
 226.44075 228.14223 231.90715 236.44704 240.96622 245.36226 249.57025 253.44296
 256.96869 260.24619 263.27826 265.93500 268.07455 270.10321 272.20819 274.27295
 276.31641 278.09860 279.64832 281.01318 282.19797 283.25299 284.21542 285.09457
 285.89966 286.62930 287.27438 288.16946
 366.78100 356.33489 345.76678 334.63267 323.03555 311.22944 299.09933 286.90222
 274.61411 262.51100 250.51989 239.82078 229.94266 221.04655 213.22844 206.23033
 200.06422 195.00211 191.58400 189.62588 188.66277 188.72666 189.56155 190.86944
 192.59433 194.68922 196.95211 199.31099 201.75588 204.23577 206.32366 208.16555
 209.79144 210.93633 211.16521 211.39310 211.32999 211.03488 210.66777 210.29766
 209.91455 209.62444 209.43232 209.29621 209.22410 209.55499 209.94088 210.32977
 211.12266 212.30054 213.55043 215.33332 217.26121 219.30410 221.39899 223.48188
 225.54177 227.62565 229.72254 231.82843 233.95732 236.12921 238.38510 240.75499
 243.37587 245.62676 247.62865 249.39354 250.81043 251.93332 252.75521 253.07110
 253.10798 252.88187 252.24176 251.18965 249.79554 247.95643 245.86532 243.69820
 241.48909 239.29298 237.11287 234.95176 232.81165 230.67854 228.70442 226.86131
 225.14420 223.61609 222.24598 221.01787 219.89976 218.85965 217.96353 217.10442
 216.34631 215.52620 214.62409 213.98798 213.43787 214.17036 215.90094 218.30754
 220.60667 222.51044 224.02066 225.25679 226.32457 227.17969 227.41544 226.76144
 226.42004 228.11546 231.90527 236.45633 240.96977 245.34738 249.53468 253.39011
 256.89609 260.15253 263.17694 265.84561 267.98770 270.08981 272.13040 274.20544
 276.23709 278.00919 279.55643 280.92111 282.10516 283.15884 284.12311 285.00366
 285.80658 286.53745 287.18097 288.07562
 366.78100 356.33517 345.76733 334.63350 323.03667 311.23083 299.10100 286.90417
 274.61634 262.51350 250.52267 239.82384 229.94600 221.05017 213.23234 206.23450
 200.06867 195.00684 191.58901 189.63117 188.66834 188.73251 189.56767 190.87584
 192.60101 194.69617 196.95934 199.31851 201.76368 204.24384 206.33201 208.17418
 209.80034 210.94551 211.17468 211.40284 211.34001 211.04518 210.67835 210.30851
 209.92568 209.63585 209.44401 209.30818 209.23635 209.56751 209.95368 210.34285
 211.13602 212.31418 213.56435 215.34752 217.27568 219.31885 221.41402 223.49718
 225.55735 227.64152 229.73868 231.84485 233.97402 236.14619 238.40235 240.77252
 243.39369 245.64485 247.64702 249.41219 250.82935 251.95252 252.77469 253.09086
 253.12802 252.90219 252.26236 251.21052 249.81669 247.97786 245.88702 243.72019
 241.51136 239.31553 237.13569 234.97486 232.83503 230.70219 228.72836 226.88553
 225.16869 223.64086 222.27103 221.04320 219.92536 218.88553 217.98970 217.13086
 216.37303 215.55320 214.65136 214.01553 213.46570 214.19289 215.91096 218.36339
 220.70816 222.56424 223.99385 225.19601 226.30872 227.20889 227.42458 226.76282
 226.41406 228.10236 231.90892 236.47256 240.98180 245.33914 249.50359 253.34238
 256.82922 260.06073 263.07294 265.74890 267.89999 270.09082 271.99591 274.15506
 276.13666 277.89911 279.44565 280.80991 281.99542 283.04797 284.01205 284.89282
 285.69818 286.42795 287.07532 287.96475
 366.78100 356.33555 345.76810 334.63465 323.03820 311.23275 299.10330 286.90684
 274.61939 262.51694 250.52649 239.82804 229.95059 221.05514 213.23769 206.24024
 200.07479 195.01334 191.59589 189.63844 188.67598 188.74053 189.57608 190.88463
 192.61018 194.70573 196.96928 199.32883 201.77438 204.25493 206.34348 208.18603
 209.81257 210.95812 211.18767 211.41622 211.35377 211.05932 210.69287 210.32342
 209.94097 209.65152 209.46007 209.32462 209.25317 209.58471 209.97126 210.36081
 211.15436 212.33291 213.58346 215.36701 217.29556 219.33911 221.43466 223.51821
 225.57876 227.66331 229.76085 231.86740 233.99695 236.16950 238.42605 240.79660
 243.41815 245.66970 247.67225 249.43780 250.85535 251.97890 252.80145 253.11799
 253.15554 252.93009 252.29064 251.23919 249.84574 248.00729 245.91684 243.75039
 241.54194 239.34649 237.16704 235.00658 232.86713 230.73468 228.76123 226.91878
 225.20233 223.67488 222.30543 221.07798 219.96053 218.92108 218.02563 217.16718
 216.40972 215.59027 214.68882 214.05337 213.50392 214.21962 215.91054 218.43616
 220.81500 222.60408 223.96712 225.12631 226.26233 227.21452 227.43402 226.77058
 226.41608 228.09671 231.91583 236.49475 241.00244 245.33978 249.48160 253.30481
 256.77078 259.97440 262.97324 265.66638 267.83075 269.99991 271.92838 274.03827
 276.02173 277.77768 279.32278 280.68716 281.87177 282.92575 283.88913 284.76855
 285.57565 286.30618 286.95361 287.84293
 366.78100 356.33594 345.76887 334.63581 323.03975 311.23468 299.10562 286.90956
 274.62249 262.52043 250.53037 239.83230 229.95524 221.06018 213.24311 206.24605
 200.08099 195.01992 191.60286 189.64580 188.68373 188.74867 189.58461 190.89354
 192.61948 194.71542 196.97935 199.33929 201.78523 204.26616 206.35510 208.19804
 209.82497 210.97091 211.20085 211.42978 211.36772 211.07366 210.70759 210.33853
 209.95647 209.66740 209.47634 209.34128 209.27021 209.60215 209.98909 210.37902
 211.17296 212.35190 213.60283 215.38677 217.31571 219.35964 221.45558 223.53951
 225.60045 227.68539 229.78332 231.89026 234.02020 236.19313 238.45007 240.82101
 243.44294 245.69488 247.69782 249.46375 250.88169 252.00563 252.82856 253.14550
 253.18344 252.95837 252.31931 251.26825 249.87518 248.03712 245.94706 243.78099
 241.57293 239.37787 237.19880 235.03874 232.89968 230.76761 228.79455 226.95249
 225.23642 223.70936 222.34030 221.11323 219.99617 218.95711 218.06204 217.20398
 216.44692 215.62785 214.72679 214.09173 213.54266 214.24623 215.90849 218.50375
 220.94916 222.65097 223.90514 225.05080 226.22849 227.21217 227.42824 226.76381
 226.41534 228.10194 231.93013 236.52515 241.03412 245.35078 249.46846 253.27557
 256.72089 259.89566 262.88101 265.60529 267.80502 269.91245 271.87793 273.89362
 275.90302 277.64801 279.18799 280.55045 281.73471 282.78830 283.75143 284.62952
 285.43509 286.16858 286.81543 287.69791
 366.78100 356.33611 345.76922 334.63633 323.04043 311.23554 299.10665 286.91076
 274.62387 262.52198 250.53209 239.83419 229.95730 221.06241 213.24552 206.24863
 200.08374 195.02285 191.60595 189.64906 188.68717 188.75228 189.58839 190.89750
 192.62361 194.71972 196.98382 199.34393 201.79004 204.27115 206.36026 208.20337
 209.83048 210.97658 211.20669 211.43580 211.37391 211.08002 210.71413 210.34524
 209.96334 209.67445 209.48356 209.34867 209.27778 209.60989 209.99700 210.38710
 211.18121 212.36032 213.61143 215.39554 217.32465 219.36876 221.46486 223.54897
 225.61008 227.69519 229.79330 231.90041 234.03052 236.20362 238.46073 240.83184
 243.45395 245.70606 247.70917 249.47528 250.89338 252.01749 252.84060 253.15771
 253.19582 252.97093 252.33204 251.28115 249.88825 248.05036 245.96047 243.79458
 241.58669 239.39180 237.21291 235.05301 232.91412 230.78223 228.80934 226.96745
 225.25156 223.72467 222.35577 221.12888 220.01199 218.97310 218.07821 217.22032
 216.46343 215.64453 214.74364 214.10875 213.55986 214.26071 215.91653 218.54999
 221.08939 222.73584 223.86957 224.97897 226.16916 227.16347 227.38579 226.73717
 226.41609 228.12195 231.95309 236.56372 241.07889 245.37567 249.46893 253.26045
 256.68414 259.82227 262.78394 265.53000 267.76221 269.82877 271.91785 273.78082
 275.77466 277.51154 279.04486 280.40601 281.59045 282.64273 283.60428 284.48392
 285.28763 286.01855 286.66818 287.54047
 366.78100 356.33616 345.76932 334.63648 323.04064 311.23580 299.10697 286.91113
 274.62429 262.52245 250.53261 239.83477 229.95793 221.06309 213.24625 206.24941
 200.08458 195.02374 191.60690 189.65006 188.68822 188.75338 189.58954 190.89870
 192.62486 194.72102 196.98518 199.34535 201.79151 204.27267 206.36183 208.20499
 209.83215 210.97831 211.20847 211.43763 211.37579 211.08195 210.71612 210.34728
 209.96544 209.67660 209.48576 209.35092 209.28008 209.61224 209.99940 210.38956
 211.18373 212.36289 213.61405 215.39821 217.32737 219.37153 221.46769 223.55185
 225.61301 227.69817 229.79633 231.90350 234.03366 236.20682 238.46398 240.83514
 243.45730 245.70946 247.71262 249.47878 250.89694 252.02110 252.84427 253.16143
 253.19959 252.97475 252.33591 251.28507 249.89223 248.05439 245.96455 243.79871
 241.59088 239.39604 237.21720 235.05736 232.91852 230.78668 228.81384 226.97200
 225.25616 223.72932 222.36048 221.13365 220.01681 218.97797 218.08313 217.22529
 216.46845 215.64961 214.74877 214.11393 213.56509 214.26807 215.92892 218.59990
 221.21024 222.82726 223.86490 224.92259 226.09616 227.08043 227.31459 226.69820
 226.41956 228.15160 231.97966 236.60432 241.12845 245.40770 249.47705 253.25461
 256.66040 259.76328 262.70108 265.48068 267.76559 269.67584 271.96628 273.70825
 275.66205 277.36859 278.89044 280.24835 281.43134 282.48178 283.44263 284.32156
 285.12387 285.85727 286.50058 287.36072
 366.78100 356.33647 345.76995 334.63742 323.04190 311.23737 299.10885 286.91332
 274.62679 262.52527 250.53574 239.83822 229.96169 221.06716 213.25064 206.25411
 200.08959 195.02906 191.61254 189.65601 188.69448 188.75996 189.59643 190.90591
 192.63238 194.72886 196.99333 199.35380 201.80028 204.28175 206.37123 208.21470
 209.84217 210.98865 211.21912 211.44860 211.38707 211.09355 210.72802 210.35949
 209.97797 209.68944 209.49892 209.36439 209.29386 209.62634 210.01381 210.40429
 211.19876 212.37824 213.62971 215.41418 217.34366 219.38813 221.48461 223.56908
 225.63056 227.71603 229.81450 231.92198 234.05245 236.22593 238.48340 240.85487
 243.47735 245.72982 247.73330 249.49977 250.91825 252.04272 252.86619 253.18367
 253.22214 252.99762 252.35909 251.30857 249.91604 248.07851 245.98899 243.82346
 241.61594 239.42141 237.24288 235.08336 232.94483 230.81331 228.84078 226.99926
 225.28373 223.75720 222.38868 221.16215 220.04563 219.00710 218.11258 217.25505
 216.49852 215.68000 214.77947 214.14495 213.59642 214.28812 215.92230 218.67065
 221.32367 222.90514 223.87292 224.86505 226.00896 226.98642 227.24443 226.66721
 226.42628 228.17867 232.00395 236.64522 241.18108 245.44362 249.48898 253.25473
 256.64545 259.71323 262.62283 265.42603 267.74655 269.64636 271.91278 273.61765
 275.55261 277.23407 278.74896 280.10504 281.28772 282.33884 283.29755 284.17450
 284.97607 285.71005 286.35333 287.21024
 366.78100 356.33708 345.77116 334.63924 323.04432 311.24040 299.11248 286.91757
 274.63165 262.53073 250.54181 239.84489 229.96897 221.07505 213.25913 206.26321
 200.09929 195.03937 191.62345 189.66753 188.70661 188.77270 189.60978 190.91986
 192.64694 194.74402 197.00910 199.37018 201.81726 204.29934 206.38942 208.23350
 209.86158 211.00866 211.23975 211.46983 211.40891 211.11599 210.75107 210.38315
 210.00223 209.71431 209.52439 209.39047 209.32055 209.65363 210.04171 210.43279
 211.22788 212.40796 213.66004 215.44512 217.37520 219.42028 221.51736 223.60244
 225.66452 227.75060 229.84968 231.95776 234.08884 236.26293 238.52101 240.89309
 243.51617 245.76925 247.77333 249.54041 250.95949 252.08457 252.90865 253.22673
 253.26581 253.04189 252.40397 251.35406 249.96214 248.12522 246.03630 243.87138
 241.66446 239.47054 237.29262 235.13370 232.99578 230.86486 228.89294 227.05202
 225.33711 223.81119 222.44327 221.21735 220.10143 219.06351 218.16959 217.31267
 216.55675 215.73883 214.83891 214.20499 213.65707 214.32608 215.90669 218.70908
 221.43623 222.98474 223.87160 224.78874 225.90451 226.86879 227.13579 226.64468
 226.44769 228.21761 232.03020 236.68806 241.23769 245.49178 249.51643 253.27759
 256.66025 259.69412 262.55273 265.39871 267.75671 269.64407 271.81842 273.51395
 275.43823 277.08029 278.58746 279.94412 281.12677 282.17773 283.14142 284.02393
 284.83322 285.57074 286.24554 287.11267
 366.78100 356.33749 345.77198 334.64047 323.04596 311.24245 299.11494 286.92043
 274.63492 262.53442 250.54591 239.84940 229.97389 221.08038 213.26487 206.26936
 200.10585 195.04634 191.63083 189.67532 188.71481 188.78130 189.61879 190.92928
 192.65677 194.75426 197.01976 199.38125 201.82874 204.31123 206.40172 208.24621
 209.87470 211.02219 211.25368 211.48417 211.42366 211.13115 210.76664 210.39913
 210.01862 209.73111 209.54160 209.40810 209.33859 209.67208 210.06057 210.45206
 211.24755 212.42804 213.68053 215.46602 217.39651 219.44200 221.53949 223.62498
 225.68747 227.77396 229.87345 231.98194 234.11344 236.28793 238.54642 240.91891
 243.54240 245.79589 247.80038 249.56787 250.98736 252.11285 252.93734 253.25583
 253.29532 253.07181 252.43430 251.38479 249.99328 248.15678 246.06827 243.90376
 241.69725 239.50374 237.32623 235.16772 233.03021 230.89970 228.92819 227.08768
 225.37317 223.84766 222.48015 221.25464 220.13913 219.10162 218.20812 217.35161
 216.59610 215.77859 214.87908 214.24557 213.69806 214.35533 215.90822 218.71381
 221.54611 223.09036 223.89366 224.75116 225.82942 226.75710 227.00735 226.54210
 226.38820 228.22682 232.05994 236.73895 241.32126 245.57596 249.58775 253.34990
 256.73984 259.75296 262.55154 265.39795 267.80219 269.70102 271.70093 273.45248
 275.31494 276.94348 278.43402 279.77164 280.93564 281.96655 282.89456 283.75864
 284.54184 285.24002 285.81522 286.54825
 366.78100 356.33764 345.77229 334.64093 323.04657 311.24322 299.11586 286.92150
 274.63615 262.53579 250.54743 239.85108 229.97572 221.08237 213.26701 206.27165
 200.10830 195.04894 191.63358 189.67823 188.71787 188.78451 189.62216 190.93280
 192.66044 194.75809 197.02373 199.38537 201.83302 204.31566 206.40630 208.25095
 209.87959 211.02723 211.25888 211.48952 211.42917 211.13681 210.77245 210.40510
 210.02474 209.73738 209.54803 209.41467 209.34531 209.67896 210.06760 210.45924
 211.25489 212.43553 213.68817 215.47382 217.40446 219.45010 221.54775 223.63339
 225.69604 227.78268 229.88232 231.99097 234.12261 236.29725 238.55590 240.92854
 243.55218 245.80583 247.81047 249.57811 250.99776 252.12340 252.94804 253.26669
 253.30633 253.08297 252.44562 251.39626 250.00490 248.16855 246.08019 243.91584
 241.70948 239.51612 237.33877 235.18041 233.04305 230.91270 228.94134 227.10098
 225.38663 223.86127 222.49391 221.26856 220.15320 219.11584 218.22249 217.36613
 216.61077 215.79342 214.89406 214.26070 213.71335 214.37021 215.92210 218.74551
 221.63689 223.19728 223.95230 224.76398 225.80309 226.68475 226.91722 226.39775
 226.30310 228.20703 232.06665 236.76506 241.37163 245.63872 249.64957 253.41154
 256.80969 259.80472 262.55707 265.39471 267.80820 269.67831 271.62085 273.40958
 275.20050 276.79889 278.26736 279.58160 280.72189 281.72641 282.63409 283.46973
 284.24579 284.94565 285.54059 286.28555
 366.78100 356.33755 345.77209 334.64064 323.04618 311.24273 299.11528 286.92082
 274.63537 262.53491 250.54646 239.85001 229.97455 221.08110 213.26564 206.27019
 200.10674 195.04728 191.63183 189.67637 188.71592 188.78247 189.62001 190.93056
 192.65810 194.75565 197.02120 199.38274 201.83029 204.31283 206.40338 208.24793
 209.87647 211.02402 211.25556 211.48611 211.42566 211.13320 210.76875 210.40129
 210.02084 209.73339 209.54393 209.41048 209.34102 209.67457 210.06312 210.45466
 211.25021 212.43075 213.68330 215.46884 217.39939 219.44494 221.54248 223.62803
 225.69057 227.77712 229.87667 231.98521 234.11676 236.29130 238.54985 240.92240
 243.54594 245.79949 247.80403 249.57158 250.99113 252.11667 252.94122 253.25976
 253.29931 253.07586 252.43840 251.38895 249.99749 248.16104 246.07259 243.90813
 241.70168 239.50822 237.33077 235.17232 233.03486 230.90441 228.93295 227.09250
 225.37805 223.85259 222.48514 221.25968 220.14423 219.10678 218.21332 217.35687
 216.60141 215.78396 214.88451 214.25105 213.70360 214.37251 215.95288 218.78607
 221.69388 223.28511 224.02403 224.78773 225.78319 226.61803 226.83003 226.29793
 226.23399 228.18643 232.06395 236.77698 241.39145 245.67233 249.68697 253.44398
 256.83911 259.82361 262.55948 265.37756 267.82205 269.70660 271.51031 273.41306
 275.13120 276.68890 278.12381 279.41544 280.53531 281.51059 282.38547 283.22644
 284.00677 284.72107 285.32449 286.04739
 366.78100 356.33758 345.77216 334.64073 323.04631 311.24289 299.11547 286.92104
 274.63562 262.53520 250.54678 239.85035 229.97493 221.08151 213.26609 206.27067
 200.10724 195.04782 191.63240 189.67698 188.71655 188.78313 189.62071 190.93129
 192.65887 194.75644 197.02202 199.38360 201.83118 204.31375 206.40433 208.24891
 209.87749 211.02506 211.25664 211.48722 211.42680 211.13438 210.76995 210.40253
 210.02211 209.73469 209.54526 209.41184 209.34242 209.67600 210.06458 210.45615
 211.25173 212.43231 213.68489 215.47046 217.40104 219.44662 221.54420 223.62977
 225.69235 227.77893 229.87851 231.98709 234.11866 236.29324 238.55182 240.92440
 243.54797 245.80155 247.80613 249.57371 250.99328 252.11886 252.94344 253.26202
 253.30160 253.07817 252.44075 251.39133 249.99991 248.16348 246.07506 243.91064
 241.70422 239.51080 237.33337 235.17495 233.03753 230.90711 228.93568 227.09526
 225.38084 223.85542 222.48799 221.26257 220.14715 219.10973 218.21631 217.35988
 216.60446 215.78704 214.88762 214.25419 213.70677 214.38452 215.98579 218.81108
 221.73410 223.34435 224.07922 224.80246 225.76126 226.55710 226.71844 226.19763
 226.19241 228.19113 232.07196 236.79939 241.39178 245.72151 249.76202 253.51491
 256.89777 259.85583 262.52826 265.34854 267.82410 269.71567 271.41473 273.37601
 275.04556 276.58167 277.99573 279.25317 280.31494 281.28891 282.23135 283.10150
 283.88083 284.56955 285.16208 285.91818
 366.78100 356.33774 345.77248 334.64122 323.04696 311.24370 299.11644 286.92218
 274.63692 262.53666 250.54839 239.85213 229.97687 221.08361 213.26835 206.27309
 200.10983 195.05057 191.63531 189.68005 188.71979 188.78653 189.62427 190.93501
 192.66275 194.76049 197.02623 199.38797 201.83570 204.31844 206.40918 208.25392
 209.88266 211.03040 211.26214 211.49288 211.43262 211.14036 210.77610 210.40884
 210.02858 209.74132 209.55206 209.41880 209.34954 209.68328 210.07202 210.46375
 211.25949 212.44023 213.69297 215.47871 217.40945 219.45519 221.55293 223.63867
 225.70141 227.78815 229.88789 231.99663 234.12837 236.30311 238.56185 240.93459
 243.55833 245.81207 247.81680 249.58454 251.00428 252.13002 252.95476 253.27350
 253.31324 253.08998 252.45272 251.40346 250.01220 248.17594 246.08768 243.92342
 241.71716 239.52390 237.34664 235.18838 233.05111 230.92085 228.94959 227.10933
 225.39507 223.86981 222.50255 221.27729 220.16203 219.12477 218.23151 217.37525
 216.61999 215.80273 214.90347 214.27021 213.72295 214.40669 216.02330 218.78816
 221.73323 223.30376 224.02800 224.78397 225.81906 226.61569 226.65366 226.13091
 226.04814 228.09177 232.03198 236.81662 241.42838 245.78635 249.83827 253.61592
 257.02502 259.96796 262.58841 265.32568 267.77911 269.66751 271.34732 273.27515
 274.95609 276.46555 277.84161 279.07297 280.19363 281.23645 282.20590 283.09744
 283.89713 284.63000 285.27084 286.08749
 366.78100 356.33762 345.77224 334.64086 323.04649 311.24311 299.11573 286.92135
 274.63597 262.53559 250.54722 239.85084 229.97546 221.08208 213.26670 206.27132
 200.10795 195.04857 191.63319 189.67781 188.71743 188.78405 189.62168 190.93230
 192.65992 194.75754 197.02316 199.38478 201.83241 204.31503 206.40565 208.25027
 209.87889 211.02651 211.25814 211.48876 211.42838 211.13600 210.77162 210.40424
 210.02387 209.73649 209.54711 209.41373 209.34435 209.67797 210.06660 210.45822
 211.25384 212.43446 213.68708 215.47270 217.40333 219.44895 221.54657 223.63219
 225.69481 227.78143 229.88106 231.98968 234.12130 236.29592 238.55454 240.92716
 243.55079 245.80441 247.80903 249.57665 250.99627 252.12189 252.94652 253.26514
 253.30476 253.08138 252.44400 251.39462 250.00325 248.16687 246.07849 243.91411
 241.70773 239.51435 237.33698 235.17860 233.04122 230.91084 228.93946 227.09908
 225.38471 223.85933 222.49195 221.26657 220.15119 219.11381 218.22044 217.36406
 216.60868 215.79130 214.89192 214.25854 213.71117 214.41217 216.09221 218.81413
 221.71637 223.19719 223.96460 224.81099 225.92741 226.72174 226.66641 226.13506
 225.89220 227.95891 231.94200 236.77362 241.42734 245.77281 249.83536 253.62830
 257.04391 259.99747 262.65756 265.33990 267.78494 269.64432 271.40356 273.27203
 274.91907 276.42450 277.77194 278.99265 280.13348 281.18353 282.17352 283.08005
 283.91315 284.65732 285.30743 286.13589
 366.78100 356.33754 345.77208 334.64061 323.04615 311.24269 299.11523 286.92076
 274.63530 262.53484 250.54638 239.84991 229.97445 221.08099 213.26553 206.27006
 200.10660 195.04714 191.63168 189.67621 188.71575 188.78229 189.61983 190.93036
 192.65790 194.75544 197.02098 199.38251 201.83005 204.31259 206.40313 208.24767
 209.87620 211.02374 211.25528 211.48582 211.42535 211.13289 210.76843 210.40097
 210.02050 209.73304 209.54358 209.41012 209.34065 209.67419 210.06273 210.45427
 211.24980 212.43034 213.68288 215.46842 217.39895 219.44449 221.54203 223.62757
 225.69010 227.77664 229.87618 231.98472 234.11626 236.29079 238.54933 240.92187
 243.54541 245.79894 247.80348 249.57102 250.99056 252.11609 252.94063 253.25917
 253.29871 253.07524 252.43778 251.38832 249.99686 248.16039 246.07193 243.90747
 241.70101 239.50754 237.33008 235.17162 233.03416 230.90369 228.93223 227.09177
 225.37731 223.85185 222.48438 221.25892 220.14346 219.10600 218.21253 217.35607
 216.60061 215.78315 214.88368 214.25022 213.70276 214.41579 216.13184 218.90602
 221.68144 223.18735 223.99681 224.80061 225.86130 226.70802 226.70462 226.13666
 225.84785 227.92285 231.91258 236.73204 241.41341 245.75395 249.82594 253.62483
 257.03546 259.98462 262.67532 265.35742 267.75055 269.65244 271.46439 273.29306
 274.89938 276.38229 277.69748 278.90674 280.02124 281.07666 282.07861 282.97119
 283.79483 284.52832 285.16907 285.98563
 366.78100 356.33819 345.77338 334.64257 323.04876 311.24595 299.11913 286.92532
 274.64051 262.54070 250.55289 239.85708 229.98227 221.08946 213.27465 206.27984
 200.11703 195.05822 191.64340 189.68859 188.72878 188.79597 189.63416 190.94535
 192.67354 194.77173 197.03792 199.40011 201.84830 204.33149 206.42267 208.26786
 209.89705 211.04524 211.27743 211.50862 211.44881 211.15700 210.79319 210.42638
 210.04657 209.75975 209.57094 209.43813 209.36932 209.70351 210.09270 210.48489
 211.28108 212.46227 213.71546 215.50165 217.43284 219.47902 221.57721 223.66340
 225.72659 227.81378 229.91397 232.02316 234.15535 236.33054 238.58973 240.96292
 243.58710 245.84129 247.84648 249.61467 251.03486 252.16105 252.98624 253.30543
 253.34562 253.12281 252.48600 251.43719 250.04637 248.21056 246.12275 243.95894
 241.75313 239.56032 237.38351 235.22570 233.08889 230.95908 228.98827 227.14846
 225.43464 223.90983 222.54302 221.31821 220.20340 219.16659 218.27378 217.41797
 216.66316 215.84635 214.94754 214.31472 213.76791 214.45715 216.15608 218.98450
 221.60896 223.02165 223.88283 224.75011 225.87250 226.76646 226.75122 226.37640
 225.73013 227.82993 231.88443 236.67744 241.36948 245.72783 249.86661 253.68805
 257.09351 260.01807 262.67944 265.35156 267.72052 269.58502 271.35245 273.18719
 274.84006 276.28439 277.51718 278.77814 279.96542 281.03629 282.03418 282.95804
 283.78897 284.52890 285.17529 285.99902
 366.78100 356.33967 345.77634 334.64702 323.05469 311.25336 299.12803 286.93570
 274.65237 262.55405 250.56772 239.87339 230.00006 221.10873 213.29540 206.30208
 200.14075 195.08342 191.67009 189.71676 188.75843 188.82711 189.66678 190.97945
 192.70912 194.80879 197.07646 199.44014 201.88981 204.37448 206.46715 208.31382
 209.94449 211.09417 211.32784 211.56051 211.50218 211.21185 210.84952 210.48420
 210.10587 209.82054 209.63321 209.50188 209.43455 209.77023 210.16090 210.55457
 211.35224 212.53491 213.78958 215.57726 217.50993 219.55760 221.65727 223.74494
 225.80961 227.89829 229.99996 232.11063 234.24430 236.42097 238.68164 241.05632
 243.68199 245.93766 247.94433 249.71400 251.13567 252.26335 253.09002 253.41069
 253.45236 253.23103 252.59570 251.54838 250.15905 248.32472 246.23839 244.07606
 241.87173 239.68041 237.50508 235.34875 233.21342 231.08509 229.11576 227.27744
 225.56511 224.04178 222.67645 221.45312 220.33979 219.30447 218.41314 217.55881
 216.80548 215.99015 215.09282 214.46150 213.91617 214.55197 216.15700 218.95807
 221.67990 223.06799 223.97253 224.77132 225.76637 226.77318 226.76291 226.42528
 225.88152 227.88779 231.88353 236.65738 241.34454 245.73782 249.90324 253.77831
 257.20917 260.15228 262.78522 265.44391 267.84457 269.71249 271.39676 273.13626
 274.76785 276.12289 277.32300 278.65601 279.86246 280.98956 282.06247 283.03442
 283.90860 284.68704 285.36710 286.23370
 366.78100 356.33929 345.77559 334.64588 323.05317 311.25147 299.12576 286.93306
 274.64935 262.55064 250.56394 239.86923 229.99552 221.10382 213.29011 206.29641
 200.13470 195.07699 191.66329 189.70958 188.75087 188.81917 189.65846 190.97076
 192.70005 194.79934 197.06664 199.42993 201.87922 204.36352 206.45581 208.30211
 209.93240 211.08169 211.31499 211.54728 211.48857 211.19787 210.83516 210.46946
 210.09075 209.80504 209.61734 209.48563 209.41792 209.75322 210.14351 210.53680
 211.33410 212.51639 213.77069 215.55798 217.49027 219.53757 221.63686 223.72415
 225.78845 227.87674 229.97804 232.08833 234.22162 236.39792 238.65821 241.03250
 243.65780 245.91309 247.91939 249.68868 251.10997 252.23727 253.06356 253.38385
 253.42515 253.20344 252.56774 251.52003 250.13032 248.29562 246.20891 244.04620
 241.84150 239.64979 237.47409 235.31738 233.18167 231.05297 229.08326 227.24455
 225.53185 224.00814 222.64243 221.41873 220.30502 219.26932 218.37761 217.52290
 216.76920 215.95349 215.05578 214.42408 213.87837 214.55629 216.25923 218.90007
 221.58633 223.22600 224.29189 224.83667 225.62387 226.65749 226.65791 226.19736
 225.89790 227.96298 231.92906 236.67354 241.35707 245.76721 249.96048 253.85844
 257.26694 260.25818 262.89902 265.54697 267.92966 269.82428 271.51694 273.21567
 274.77594 276.08569 277.38394 278.74536 279.97784 281.16550 282.26807 283.26688
 284.16522 284.96518 285.66403 286.55463
 366.78100 356.33822 345.77345 334.64267 323.04890 311.24612 299.11935 286.92557
 274.64080 262.54102 250.55325 239.85747 229.98269 221.08992 213.27514 206.28037
 200.11759 195.05882 191.64404 189.68927 188.72949 188.79672 189.63494 190.94616
 192.67439 194.77261 197.03884 199.40106 201.84929 204.33251 206.42374 208.26896
 209.89819 211.04641 211.27863 211.50986 211.45008 211.15831 210.79453 210.42776
 210.04798 209.76121 209.57243 209.43966 209.37088 209.70510 210.09433 210.48655
 211.28278 212.46400 213.71723 215.50345 217.43468 219.48090 221.57913 223.66535
 225.72857 227.81580 229.91602 232.02525 234.15747 236.33270 238.59192 240.96515
 243.58937 245.84360 247.84882 249.61704 251.03727 252.16349 252.98872 253.30794
 253.34817 253.12539 252.48862 251.43984 250.04906 248.21329 246.12551 243.96174
 241.75596 239.56319 237.38641 235.22864 233.09186 230.96209 228.99131 227.15153
 225.43776 223.91298 222.54621 221.32143 220.20666 219.16988 218.27711 217.42133
 216.66656 215.84978 214.95100 214.31823 213.77145 214.52832 216.42822 218.87877
 221.41670 223.47090 224.66141 224.92459 225.52072 226.48024 226.53667 225.97398
 225.96292 228.07083 231.97734 236.68033 241.34592 245.79099 250.00317 253.86674
 257.23965 260.36804 263.03915 265.62662 267.95087 269.88635 271.61859 273.26389
 274.75082 276.16534 277.73645 279.23163 280.66327 281.92993 283.08554 284.13248
 285.07407 285.91254 286.64502 287.57849
 366.78100 356.33824 345.77348 334.64271 323.04895 311.24619 299.11943 286.92567
 274.64090 262.54114 250.55338 239.85762 229.98286 221.09010 213.27533 206.28057
 200.11781 195.05905 191.64429 189.68952 188.72976 188.79700 189.63524 190.94648
 192.67471 194.77295 197.03919 199.40143 201.84967 204.33291 206.42414 208.26938
 209.89862 211.04686 211.27910 211.51033 211.45057 211.15881 210.79505 210.42829
 210.04852 209.76176 209.57300 209.44024 209.37148 209.70572 210.09495 210.48719
 211.28343 212.46467 213.71791 215.50414 217.43538 219.48162 221.57986 223.66610
 225.72933 227.81657 229.91681 232.02605 234.15829 236.33353 238.59276 240.96600
 243.59024 245.84448 247.84972 249.61795 251.03819 252.16443 252.98967 253.30891
 253.34914 253.12638 252.48962 251.44086 250.05010 248.21434 246.12657 243.96281
 241.75705 239.56429 237.38753 235.22976 233.09300 230.96324 228.99248 227.15272
 225.43895 223.91419 222.54743 221.32267 220.20791 219.17115 218.27838 217.42262
 216.66786 215.85110 214.95234 214.31957 213.77281 214.55779 216.53929 218.85860
 221.37817 223.64737 224.85225 225.00632 225.52386 226.30463 226.48837 225.61458
 225.87454 228.09737 232.00822 236.69641 241.37659 245.84439 250.05222 253.91405
 257.37518 260.11905 263.13004 265.69577 267.99985 269.90405 271.61145 273.21115
 274.79343 276.59869 278.46677 280.15683 281.61942 282.91345 284.09406 285.16357
 286.12552 286.98215 287.73044 288.68408
 366.78100 356.34002 345.77703 334.64805 323.05606 311.25508 299.13009 286.93811
 274.65512 262.55714 250.57115 239.87717 230.00418 221.11320 213.30021 206.30723
 200.14624 195.08926 191.67627 189.72329 188.76530 188.83432 189.67433 190.98735
 192.71736 194.81738 197.08539 199.44941 201.89942 204.38444 206.47745 208.32447
 209.95548 211.10550 211.33951 211.57253 211.51454 211.22456 210.86257 210.49759
 210.11960 209.83462 209.64763 209.51665 209.44966 209.78568 210.17669 210.57071
 211.36872 212.55174 213.80675 215.59477 217.52778 219.57580 221.67581 223.76383
 225.82884 227.91786 230.01987 232.13089 234.26490 236.44192 238.70293 241.07795
 243.70396 245.95998 247.96699 249.73701 251.15902 252.28704 253.11405 253.43507
 253.47708 253.25610 252.62111 251.57413 250.18514 248.35116 246.26517 244.10319
 241.89920 239.70822 237.53323 235.37725 233.24226 231.11428 229.14529 227.30731
 225.59532 224.07234 222.70735 221.48437 220.37138 219.33640 218.44541 217.59143
 216.83844 216.02346 215.12647 214.49549 213.95050 214.67128 216.54860 218.88615
 221.41246 223.59840 224.92590 225.09578 225.63234 226.40842 226.45535 225.23886
 225.64272 228.06461 232.07477 236.73970 241.43846 245.94533 250.20226 254.13623
 257.52631 260.46927 263.20474 265.73270 267.94592 269.76413 271.38046 273.31668
 275.53604 277.82394 279.81207 281.55780 283.06857 284.40524 285.62473 286.72949
 287.72311 288.60794 289.38092 290.36597
 366.78100 356.34150 345.78001 334.65251 323.06201 311.26252 299.13902 286.94852
 274.66703 262.57053 250.58603 239.89354 230.02204 221.13254 213.32104 206.32955
 200.17005 195.11455 191.70306 189.75156 188.79506 188.86557 189.70707 191.02157
 192.75308 194.85458 197.12408 199.48959 201.94109 204.42759 206.52210 208.37060
 210.00310 211.15461 211.39011 211.62461 211.56812 211.27962 210.91912 210.55562
 210.17913 209.89563 209.71013 209.58064 209.51514 209.85264 210.24515 210.64065
 211.44015 212.62466 213.88116 215.67066 217.60517 219.65467 221.75617 223.84568
 225.91218 228.00268 230.10619 232.21869 234.35419 236.53269 238.79520 241.17170
 243.79920 246.05671 248.06521 249.83671 251.26022 252.38972 253.21822 253.54073
 253.58423 253.36473 252.73124 251.68574 250.29824 248.46575 246.38125 244.22075
 242.01826 239.82876 237.65526 235.50077 233.36727 231.24077 229.27327 227.43678
 225.72628 224.20478 222.84129 221.61979 220.50829 219.47480 218.58530 217.73280
 216.98131 216.16781 215.27231 214.64282 214.09932 214.76955 216.54927 218.90356
 221.44586 223.50275 224.88092 225.12836 225.65823 226.67632 226.63731 225.22101
 225.55029 227.95255 232.02438 236.70238 241.39424 245.92587 250.24158 254.20743
 257.67349 260.69037 263.38077 265.88687 268.07462 269.87140 271.47162 273.91611
 276.63147 279.09433 281.22552 283.09689 284.71637 286.14923 287.45648 288.64075
 289.70587 290.65439 291.48297 292.53891
 366.78100 356.34122 345.77943 334.65165 323.06086 311.26108 299.13730 286.94651
 274.66473 262.56794 250.58316 239.89037 230.01859 221.12881 213.31702 206.32524
 200.16545 195.10967 191.69789 189.74610 188.78932 188.85953 189.70075 191.01497
 192.74618 194.84740 197.11661 199.48183 201.93304 204.41926 206.51348 208.36169
 209.99391 211.14512 211.38034 211.61456 211.55777 211.26899 210.90820 210.54442
 210.16763 209.88385 209.69807 209.56828 209.50250 209.83971 210.23193 210.62715
 211.42636 212.61058 213.86679 215.65601 217.59023 219.63944 221.74066 223.82987
 225.89609 227.98630 230.08952 232.20174 234.33695 236.51517 238.77738 241.15360
 243.78082 246.03803 248.04625 249.81746 251.24068 252.36990 253.19811 253.52033
 253.56354 253.34376 252.70997 251.66419 250.27641 248.44362 246.35884 244.19805
 241.99527 239.80549 237.63170 235.47692 233.34313 231.21635 229.24856 227.41178
 225.70100 224.17921 222.81543 221.59364 220.48186 219.44808 218.55829 217.70551
 216.95372 216.13994 215.24416 214.61437 214.07059 214.77745 216.61417 218.85272
 221.39757 223.60965 224.92781 225.02892 225.50397 226.75031 226.64738 225.31554
 225.55156 227.92975 232.02695 236.69608 241.35872 245.86165 250.13226 254.03815
 257.49130 260.58109 263.43588 266.05228 268.33780 270.07010 271.83487 274.36630
 277.17868 279.66385 281.81433 283.70264 285.33679 286.78259 288.10168 289.29666
 290.37143 291.32852 292.16461 293.23010
 366.78100 356.34089 345.77878 334.65067 323.05957 311.25946 299.13535 286.94424
 274.66213 262.56502 250.57991 239.88680 230.01470 221.12459 213.31248 206.32037
 200.16026 195.10415 191.69204 189.73994 188.78283 188.85272 189.69361 191.00750
 192.73839 194.83928 197.10817 199.47307 201.92396 204.40985 206.50374 208.35163
 209.98352 211.13441 211.36930 211.60320 211.54609 211.25698 210.89587 210.53176
 210.15465 209.87054 209.68444 209.55433 209.48822 209.82511 210.21700 210.61189
 211.41078 212.59467 213.85057 215.63946 217.57335 219.62224 221.72313 223.81202
 225.87791 227.96781 230.07070 232.18259 234.31748 236.49537 238.75726 241.13315
 243.76004 246.01694 248.02483 249.79572 251.21861 252.34750 253.17539 253.49728
 253.54017 253.32007 252.68596 251.63985 250.25174 248.41863 246.33352 244.17241
 241.96931 239.77920 237.60509 235.44998 233.31587 231.18876 229.22065 227.38354
 225.67244 224.15033 222.78622 221.56411 220.45200 219.41789 218.52778 217.67468
 216.92257 216.10846 215.21235 214.58224 214.03813 214.78017 216.70798 218.83093
 221.23294 223.60742 225.03882 225.15099 225.52666 226.70044 226.61224 225.14293
 225.37003 227.87810 232.04745 236.74997 241.45839 246.00009 250.28947 254.20627
 257.60199 260.59821 263.36908 265.98544 268.27466 269.89435 272.22870 275.29108
 278.22977 280.74869 282.92841 284.84235 286.49872 287.96417 289.30115 290.51239
 291.60175 292.57184 293.41928 294.49927
 366.78100 356.34288 345.78276 334.65665 323.06753 311.26941 299.14729 286.95817
 274.67806 262.58294 250.59982 239.90870 230.03858 221.15047 213.34035 206.35023
 200.19211 195.13799 191.72788 189.77776 188.82264 188.89452 189.73740 191.05329
 192.78617 194.88905 197.15993 199.52681 201.97970 204.46758 206.56346 208.41334
 210.04722 211.20011 211.43699 211.67287 211.61775 211.33063 210.97152 210.60940
 210.23428 209.95216 209.76804 209.63993 209.57581 209.91469 210.30857 210.70545
 211.50633 212.69222 213.95010 215.74098 217.67686 219.72774 221.83063 223.92151
 225.98939 228.08127 230.18615 232.30004 234.43692 236.61680 238.88068 241.25856
 243.88745 246.14633 248.15621 249.92909 251.35397 252.48486 253.31474 253.63862
 253.68350 253.46538 252.83327 251.78915 250.40303 248.57191 246.48879 244.32968
 242.12856 239.94044 237.76832 235.61520 233.48309 231.35797 229.39185 227.55673
 225.84761 224.32750 222.96538 221.74526 220.63514 219.60302 218.71491 217.86379
 217.11367 216.30155 215.40743 214.77932 214.23720 214.88756 216.69002 218.93507
 221.06390 223.24138 224.96774 225.29073 225.71591 226.78294 226.66884 225.05029
 224.96506 227.53546 231.92468 236.68542 241.43753 246.08487 250.50853 254.45558
 257.77713 260.66141 263.44370 266.08057 268.13754 270.03848 272.97260 276.33188
 279.24762 281.74683 283.90948 285.80847 287.45184 288.90585 290.23239 291.43414
 292.51498 293.47748 294.31830 295.38983
 366.78100 356.34280 345.78260 334.65640 323.06720 311.26901 299.14681 286.95761
 274.67741 262.58221 250.59901 239.90781 230.03761 221.14941 213.33922 206.34902
 200.19082 195.13662 191.72642 189.77622 188.82102 188.89282 189.73562 191.05143
 192.78423 194.88703 197.15783 199.52463 201.97743 204.46523 206.56103 208.41083
 210.04464 211.19744 211.43424 211.67004 211.61484 211.32764 210.96844 210.60624
 210.23104 209.94885 209.76465 209.63645 209.57225 209.91105 210.30485 210.70165
 211.50245 212.68825 213.94606 215.73686 217.67266 219.72346 221.82626 223.91706
 225.98486 228.07666 230.18146 232.29527 234.43207 236.61187 238.87567 241.25347
 243.88227 246.14107 248.15087 249.92367 251.34848 252.47928 253.30908 253.63288
 253.67768 253.45948 252.82728 251.78308 250.39688 248.56569 246.48249 244.32329
 242.12209 239.93389 237.76169 235.60849 233.47629 231.35109 229.38490 227.54970
 225.84050 224.32030 222.95810 221.73790 220.62770 219.59550 218.70730 217.85611
 217.10591 216.29371 215.39951 214.77131 214.22911 214.89220 216.64429 218.88605
 221.25801 223.40376 224.66714 225.07608 225.62778 226.73090 226.54144 225.59213
 225.37442 227.50230 231.78384 236.50363 241.24260 245.86938 250.21800 254.12231
 257.52338 260.57916 263.41760 266.01852 268.32840 270.47491 272.63852 274.96729
 277.13361 279.24091 281.07422 282.68402 284.07715 285.30969 286.43423 287.45297
 288.36923 289.18515 289.89792 290.80627
 366.78100 356.34091 345.77883 334.65074 323.05966 311.25957 299.13549 286.94440
 274.66231 262.56523 250.58014 239.88706 230.01497 221.12489 213.31280 206.32072
 200.16063 195.10454 191.69246 189.74037 188.78329 188.85320 189.69412 191.00803
 192.73894 194.83986 197.10877 199.47369 201.92460 204.41052 206.50443 208.35235
 209.98426 211.13517 211.37009 211.60400 211.54692 211.25783 210.89675 210.53266
 210.15557 209.87149 209.68540 209.55532 209.48923 209.82615 210.21806 210.61297
 211.41189 212.59580 213.85172 215.64063 217.57455 219.62346 221.72438 223.81329
 225.87920 227.96912 230.07203 232.18395 234.31886 236.49678 238.75869 241.13460
 243.76152 246.01843 248.02635 249.79726 251.22018 252.34909 253.17701 253.49892
 253.54183 253.32175 252.68766 251.64158 250.25349 248.42041 246.33532 244.17423
 241.97115 239.78106 237.60698 235.45189 233.31781 231.19072 229.22263 227.38555
 225.67446 224.15238 222.78829 221.56621 220.45412 219.42004 218.52995 217.67686
 216.92478 216.11069 215.21461 214.58452 214.04044 214.78969 216.61581 218.91797
 220.90628 222.99319 224.84399 225.19514 225.45471 226.11250 226.71014 225.24796
 225.99557 227.79579 231.70796 236.43031 241.11290 245.70421 250.02756 253.93529
 257.39709 260.51764 263.39911 266.06100 268.45554 270.61508 272.62509 274.47440
 276.12274 277.56839 278.83887 279.93564 281.00427 282.06967 283.10809 284.04886
 284.89499 285.64844 286.30664 287.14545
 366.78100 356.33980 345.77660 334.64740 323.05520 311.25400 299.12880 286.93660
 274.65340 262.55520 250.56900 239.87480 230.00160 221.11040 213.29720 206.30400
 200.14280 195.08560 191.67240 189.71920 188.76100 188.82980 189.66960 190.98240
 192.71220 194.81200 197.07980 199.44360 201.89340 204.37820 206.47100 208.31780
 209.94861 211.09841 211.33221 211.56501 211.50681 211.21661 210.85441 210.48921
 210.11101 209.82581 209.63861 209.50741 209.44021 209.77601 210.16681 210.56061
 211.35841 212.54121 213.79601 215.58381 217.51661 219.56441 221.66421 223.75201
 225.81681 227.90561 230.00741 232.11821 234.25201 236.42881 238.68961 241.06441
 243.69021 245.94601 247.95281 249.72261 251.14441 252.27221 253.09901 253.41981
 253.46161 253.24041 252.60521 251.55801 250.16881 248.33461 246.24841 244.08621
 241.88201 239.69081 237.51561 235.35941 233.22421 231.09601 229.12681 227.28861
 225.57641 224.05321 222.68801 221.46481 220.35161 219.31641 218.42522 217.57102
 216.81782 216.00262 215.10542 214.47422 213.92902 214.73566 216.64143 218.89722
 221.08412 223.03883 224.75722 225.32298 225.60483 226.11275 226.44495 225.28049
 225.71283 227.86089 231.73395 236.45294 241.13353 245.75168 250.11847 254.06166
 257.49478 260.52850 263.36847 266.02539 268.42596 270.53940 272.51959 274.40524
 276.08829 277.53156 278.78854 279.87836 280.74985 281.47351 282.16458 282.97702
 283.77313 284.54257 285.22552 286.09589
 366.78100 356.34017 345.77734 334.64852 323.05669 311.25586 299.13103 286.93921
 274.65638 262.55855 250.57272 239.87889 230.00607 221.11524 213.30241 206.30958
 200.14875 195.09193 191.67910 189.72627 188.76844 188.83762 189.67779 190.99096
 192.72113 194.82130 197.08948 199.45365 201.90382 204.38899 206.48217 208.32934
 209.96051 211.11068 211.34485 211.57803 211.52020 211.23037 210.86854 210.50371
 210.12589 209.84106 209.65423 209.52340 209.45658 209.79275 210.18392 210.57809
 211.37626 212.55944 213.81461 215.60278 217.53595 219.58413 221.68430 223.77247
 225.83764 227.92681 230.02899 232.14016 234.27433 236.45150 238.71267 241.08785
 243.71402 245.97019 247.97736 249.74754 251.16971 252.29788 253.12505 253.44622
 253.48840 253.26757 252.63274 251.58591 250.19708 248.36326 246.27743 244.11560
 241.91177 239.72095 237.54612 235.39029 233.25546 231.12763 229.15881 227.32098
 225.60915 224.08632 222.72150 221.49867 220.38584 219.35101 218.46018 217.60636
 216.85353 216.03870 215.14187 214.51104 213.96622 214.76476 216.65141 218.87575
 221.14682 223.00990 224.60696 225.30011 225.62993 226.13361 226.35323 225.34598
 225.67757 227.94467 231.81430 236.48630 241.18106 245.79326 250.14891 254.07756
 257.47961 260.48422 263.32205 266.00549 268.43167 270.52777 272.48450 274.36734
 276.06882 277.52835 278.77728 279.85748 280.82562 281.61234 282.19046 282.86206
 283.62762 284.35855 285.04813 285.92694
 366.78100 356.34139 345.77979 334.65218 323.06158 311.26197 299.13836 286.94776
 274.66615 262.56955 250.58494 239.89234 230.02073 221.13112 213.31952 206.32791
 200.16831 195.11270 191.70109 189.74949 188.79288 188.86328 189.70467 191.01906
 192.75046 194.85185 197.12125 199.48664 201.93803 204.42443 206.51882 208.36722
 209.99961 211.15101 211.38640 211.62079 211.56419 211.27558 210.91498 210.55137
 210.17476 209.89116 209.70555 209.57595 209.51034 209.84773 210.24013 210.63552
 211.43492 212.61931 213.87570 215.66510 217.59949 219.64889 221.75028 223.83968
 225.90607 227.99646 230.09986 232.21225 234.34765 236.52604 238.78843 241.16483
 243.79222 246.04962 248.05801 249.82940 251.25280 252.38219 253.21059 253.53298
 253.57637 253.35677 252.72316 251.67756 250.28995 248.45735 246.37274 244.21213
 242.00953 239.81992 237.64632 235.49171 233.35810 231.23150 229.26389 227.42729
 225.71668 224.19507 222.83147 221.60986 220.49826 219.46465 218.57504 217.72244
 216.97083 216.15723 215.26162 214.63202 214.08841 214.83693 216.60539 218.92683
 221.15645 222.93118 224.52635 225.26601 225.59837 226.06754 226.28911 225.33371
 225.68974 228.06047 231.89749 236.51164 241.20029 245.79697 250.12712 254.02785
 257.41055 260.43161 263.30014 266.00787 268.45157 270.55023 272.51169 274.39401
 276.09305 277.55792 278.81152 279.88080 280.89279 281.77368 282.28964 282.93515
 283.70871 284.43231 285.11639 285.98965
 366.78100 356.34197 345.78094 334.65391 323.06387 311.26484 299.14181 286.95178
 274.67075 262.57472 250.59068 239.89865 230.02762 221.13859 213.32756 206.33653
 200.17749 195.12246 191.71143 189.76040 188.80437 188.87534 189.71731 191.03227
 192.76424 194.86621 197.13618 199.50215 201.95412 204.44108 206.53605 208.38502
 210.01799 211.16996 211.40593 211.64090 211.58486 211.29683 210.93680 210.57377
 210.19774 209.91471 209.72967 209.60064 209.53561 209.87358 210.26655 210.66252
 211.46248 212.64745 213.90442 215.69439 217.62936 219.67933 221.78130 223.87126
 225.93823 228.02920 230.13317 232.24614 234.38211 236.56107 238.82404 241.20101
 243.82898 246.08695 248.09592 249.86789 251.29185 252.42182 253.25079 253.57376
 253.61773 253.39870 252.76566 251.72063 250.33360 248.50157 246.41754 244.25751
 242.05547 239.86644 237.69341 235.53938 233.40635 231.28032 229.31329 227.47725
 225.76722 224.24619 222.88316 221.66213 220.55110 219.51806 218.62903 217.77700
 217.02597 216.21294 215.31791 214.68888 214.14584 214.87450 216.59602 218.96658
 221.12259 222.92903 224.55548 225.22459 225.46985 225.82378 226.14925 225.61932
 225.91859 228.08922 231.92567 236.52921 241.20947 245.79131 250.10239 253.99025
 257.37836 260.42300 263.30853 266.02237 268.46017 270.55179 272.50531 274.38153
 276.07285 277.53781 278.80188 279.88843 280.94379 281.99411 282.71445 283.22983
 283.94498 284.66144 285.33670 286.21390
 366.78100 356.34167 345.78034 334.65301 323.06267 311.26334 299.14001 286.94968
 274.66835 262.57202 250.58768 239.89535 230.02402 221.13469 213.32336 206.33203
 200.17270 195.11736 191.70603 189.75470 188.79837 188.86904 189.71071 191.02537
 192.75704 194.85871 197.12838 199.49405 201.94572 204.43238 206.52705 208.37572
 210.00839 211.16006 211.39573 211.63040 211.57406 211.28573 210.92540 210.56207
 210.18574 209.90241 209.71707 209.58774 209.52241 209.86008 210.25275 210.64842
 211.44809 212.63275 213.88942 215.67909 217.61376 219.66343 221.76510 223.85476
 225.92143 228.01210 230.11577 232.22844 234.36411 236.54278 238.80544 241.18211
 243.80978 246.06745 248.07612 249.84779 251.27145 252.40112 253.22979 253.55246
 253.59613 253.37680 252.74347 251.69813 250.31080 248.47847 246.39414 244.23381
 242.03148 239.84214 237.66881 235.51448 233.38115 231.25482 229.28749 227.45115
 225.74082 224.21949 222.85616 221.63483 220.52350 219.49017 218.60083 217.74850
 216.99717 216.18384 215.28851 214.65918 214.11584 214.86690 216.64133 218.97055
 221.06483 222.98337 224.62675 225.20047 225.31282 225.52518 225.96481 225.90344
 226.20444 228.14655 231.94075 236.54193 241.21465 245.78793 250.09094 253.97693
 257.37576 260.43469 263.32379 266.03461 268.46585 270.56677 272.51990 274.37723
 276.05716 277.52652 278.81589 279.93454 280.85736 281.85812 282.86212 283.67450
 284.13773 284.83020 285.46274 286.30548
 366.78100 356.34105 345.77910 334.65115 323.06020 311.26025 299.13631 286.94536
 274.66341 262.56646 250.58151 239.88856 230.01661 221.12666 213.31471 206.32276
 200.16281 195.10687 191.69492 189.74297 188.78602 188.85607 189.69712 191.01117
 192.74222 194.84327 197.11232 199.47737 201.92843 204.41448 206.50853 208.35658
 209.98863 211.13968 211.37473 211.60878 211.55183 211.26288 210.90194 210.53799
 210.16104 209.87709 209.69114 209.56119 209.49524 209.83229 210.22434 210.61939
 211.41844 212.60250 213.85855 215.64760 217.58165 219.63070 221.73175 223.82080
 225.88685 227.97690 230.07995 232.19200 234.32706 236.50511 238.76716 241.14321
 243.77026 246.02731 248.03536 249.80641 251.22946 252.35851 253.18656 253.50862
 253.55167 253.33172 252.69777 251.65182 250.26387 248.43092 246.34597 244.18502
 241.98207 239.79212 237.61818 235.46323 233.32928 231.20233 229.23438 227.39743
 225.68648 224.16453 222.80058 221.57863 220.46669 219.43274 218.54279 217.68984
 216.93789 216.12394 215.22799 214.59804 214.05409 214.84367 216.70911 218.94792
 221.02922 223.01518 224.63956 225.17058 225.20404 225.31613 225.79282 226.06021
 226.43752 228.22072 231.95586 236.54959 241.21959 245.79341 250.09724 253.98659
 257.39120 260.45215 263.33536 266.04050 268.46466 270.58160 272.53787 274.37479
 276.04214 277.51471 278.82159 279.98993 280.95410 281.97250 282.97940 283.89319
 284.28964 284.93741 285.54858 286.36676
 366.78100 356.34083 345.77867 334.65050 323.05934 311.25917 299.13501 286.94384
 274.66168 262.56451 250.57934 239.88618 230.01401 221.12385 213.31168 206.31952
 200.15935 195.10318 191.69102 189.73885 188.78169 188.85152 189.69236 191.00619
 192.73703 194.83786 197.10669 199.47153 201.92236 204.40820 206.50203 208.34987
 209.98170 211.13254 211.36737 211.60120 211.54404 211.25487 210.89371 210.52954
 210.15238 209.86821 209.68204 209.55188 209.48571 209.82255 210.21438 210.60922
 211.40805 212.59189 213.84772 215.63655 217.57039 219.61922 221.72006 223.80889
 225.87473 227.96456 230.06740 232.17923 234.31406 236.49190 238.75373 241.12957
 243.75640 246.01324 248.02107 249.79190 251.21474 252.34357 253.17141 253.49324
 253.53608 253.31591 252.68175 251.63558 250.24741 248.41425 246.32908 244.16792
 241.96475 239.77459 237.60042 235.44526 233.31109 231.18392 229.21576 227.37859
 225.66743 224.14526 222.78110 221.55893 220.44676 219.41260 218.52243 217.66927
 216.91710 216.10294 215.20677 214.57661 214.03244 214.84229 216.75562 218.92751
 221.01407 223.00269 224.59920 225.11412 225.11310 225.18114 225.64661 226.12993
 226.61200 228.30556 231.98143 236.55937 241.23373 245.81454 250.12369 254.01811
 257.42615 260.48383 263.35776 266.05228 268.46829 270.59021 272.54108 274.35608
 276.01001 277.48761 278.81586 280.02179 281.06668 282.10257 283.08832 283.98639
 284.77032 285.45389 286.05148 286.83078
 366.78100 356.34102 345.77905 334.65107 323.06010 311.26012 299.13614 286.94517
 274.66319 262.56621 250.58124 239.88826 230.01629 221.12631 213.31433 206.32236
 200.16238 195.10640 191.69443 189.74245 188.78548 188.85550 189.69652 191.01055
 192.74157 194.84259 197.11162 199.47664 201.92767 204.41369 206.50771 208.35574
 209.98776 211.13878 211.37381 211.60783 211.55086 211.26188 210.90090 210.53693
 210.15995 209.87597 209.69000 209.56002 209.49405 209.83107 210.22309 210.61812
 211.41714 212.60116 213.85719 215.64621 217.58024 219.62926 221.73028 223.81931
 225.88533 227.97535 230.07838 232.19040 234.32543 236.50345 238.76547 241.14150
 243.76852 246.02554 248.03357 249.80459 251.22762 252.35664 253.18466 253.50669
 253.54971 253.32973 252.69576 251.64978 250.26181 248.42883 246.34385 244.18288
 241.97990 239.78992 237.61595 235.46097 233.32700 231.20002 229.23204 227.39507
 225.68409 224.16211 222.79814 221.57616 220.46419 219.43021 218.54023 217.68726
 216.93528 216.12131 215.22533 214.59535 214.05138 214.86194 216.77699 218.92038
 221.00092 222.99210 224.56087 225.03450 224.98810 225.04456 225.51704 226.16420
 226.74791 228.39935 232.01968 236.58301 241.26649 245.85405 250.16452 254.05984
 257.46921 260.52420 263.38962 266.07135 268.47726 270.60529 272.54901 274.34808
 275.99710 277.48697 278.84454 280.08438 281.15540 282.18549 283.13849 284.01218
 284.83313 285.59048 286.20694 286.99304
 366.78100 356.34125 345.77949 334.65174 323.06098 311.26123 299.13747 286.94672
 274.66497 262.56821 250.58346 239.89070 230.01895 221.12919 213.31744 206.32568
 200.16593 195.11018 191.69842 189.74667 188.78991 188.86016 189.70140 191.01565
 192.74690 194.84814 197.11739 199.48263 201.93388 204.42012 206.51437 208.36261
 209.99486 211.14611 211.38135 211.61560 211.55884 211.27009 210.90933 210.54558
 210.16883 209.88507 209.69932 209.56956 209.50381 209.84105 210.23330 210.62854
 211.42779 212.61204 213.86828 215.65753 217.59177 219.64102 221.74226 223.83151
 225.89776 227.98800 230.09125 232.20349 234.33874 236.51698 238.77923 241.15547
 243.78272 246.03997 248.04821 249.81946 251.24270 252.37195 253.20019 253.52244
 253.56569 253.34593 252.71218 251.66642 250.27867 248.44591 246.36116 244.20040
 241.99765 239.80790 237.63414 235.47939 233.34563 231.21888 229.25112 227.41437
 225.70362 224.18186 222.81811 221.59635 220.48460 219.45084 218.56109 217.70833
 216.95658 216.14283 215.24707 214.61732 214.07356 214.88359 216.79738 218.91632
 220.97493 222.99762 224.53812 224.94107 224.83217 224.88901 225.39943 226.17064
 226.83850 228.48767 232.07129 236.62508 241.31924 245.91000 250.21661 254.10765
 257.51590 260.56866 263.42368 266.08887 268.48428 270.61725 272.55347 274.33621
 275.98184 277.48492 278.87024 280.13864 281.26782 282.30988 283.26746 284.14203
 284.94363 285.67502 286.31424 287.10110
 366.78100 356.34134 345.77967 334.65201 323.06134 311.26168 299.13802 286.94735
 274.66569 262.56902 250.58436 239.89170 230.02003 221.13037 213.31871 206.32704
 200.16738 195.11171 191.70005 189.74839 188.79172 188.86206 189.70339 191.01773
 192.74907 194.85040 197.11974 199.48507 201.93641 204.42275 206.51708 208.36542
 209.99776 211.14909 211.38443 211.61876 211.56210 211.27344 210.91277 210.54911
 210.17244 209.88878 209.70312 209.57345 209.50779 209.84512 210.23746 210.63280
 211.43213 212.61647 213.87281 215.66214 217.59648 219.64581 221.74715 223.83649
 225.90282 227.99316 230.09649 232.20883 234.34417 236.52250 238.78484 241.16117
 243.78851 246.04585 248.05418 249.82552 251.24886 252.37819 253.20653 253.52886
 253.57220 253.35254 252.71887 251.67321 250.28554 248.45288 246.36822 244.20755
 242.00489 239.81522 237.64156 235.48690 233.35323 231.22657 229.25891 227.42224
 225.71158 224.18991 222.82625 221.60459 220.49292 219.45926 218.56959 217.71693
 216.96527 216.15160 215.25594 214.62627 214.08261 214.89839 216.82576 218.90970
 220.94310 222.99696 224.51616 224.85416 224.67651 224.72388 225.29161 226.13516
 226.87373 228.57521 232.14124 236.68468 241.38638 245.97768 250.27687 254.16296
 257.57040 260.62094 263.46454 266.10962 268.49234 270.62906 272.55911 274.33023
 275.97635 277.49869 278.90775 280.19901 281.34830 282.39197 283.34937 284.22052
 285.01071 285.72516 286.35464 287.15982
 366.78100 356.34137 345.77975 334.65212 323.06150 311.26187 299.13824 286.94762
 274.66599 262.56936 250.58474 239.89211 230.02049 221.13086 213.31923 206.32761
 200.16798 195.11235 191.70073 189.74910 188.79248 188.86285 189.70422 191.01860
 192.74997 194.85135 197.12072 199.48609 201.93747 204.42384 206.51821 208.36659
 209.99896 211.15034 211.38571 211.62008 211.56346 211.27483 210.91420 210.55058
 210.17395 209.89033 209.70470 209.57507 209.50945 209.84682 210.23919 210.63457
 211.43394 212.61832 213.87469 215.66406 217.59844 219.64781 221.74919 223.83856
 225.90493 227.99531 230.09868 232.21105 234.34643 236.52480 238.78718 241.16355
 243.79092 246.04830 248.05667 249.82804 251.25142 252.38079 253.20917 253.53154
 253.57491 253.35529 252.72166 251.67604 250.28841 248.45578 246.37116 244.21053
 242.00790 239.81828 237.64465 235.49003 233.35640 231.22977 229.26215 227.42552
 225.71489 224.19327 222.82964 221.60802 220.49639 219.46276 218.57314 217.72051
 216.96888 216.15526 215.25963 214.63001 214.08638 214.91061 216.85797 218.90347
 220.91100 222.97552 224.48842 224.78418 224.53612 224.54883 225.18091 226.06538
 226.87030 228.66690 232.22801 236.75591 241.46074 246.05211 250.34500 254.22562
 257.63208 260.68011 263.51038 266.13297 268.50232 270.63815 272.56024 274.32281
 275.97479 277.51578 278.93835 280.24179 281.41693 282.46564 283.42407 284.29550
 285.08670 285.80289 286.43115 287.23398
 366.78100 356.34151 345.78002 334.65253 323.06204 311.26255 299.13906 286.94857
 274.66708 262.57059 250.58609 239.89360 230.02211 221.13262 213.32113 206.32964
 200.17015 195.11466 191.70317 189.75168 188.79519 188.86570 189.70721 191.02172
 192.75323 194.85474 197.12425 199.48976 201.94126 204.42777 206.52228 208.37079
 210.00330 211.15481 211.39032 211.62483 211.56834 211.27985 210.91936 210.55587
 210.17938 209.89589 209.71040 209.58091 209.51542 209.85293 210.24543 210.64094
 211.44045 212.62496 213.88147 215.67098 217.60549 219.65500 221.75651 223.84602
 225.91253 228.00304 230.10655 232.21906 234.35457 236.53308 238.79559 241.17210
 243.79960 246.05711 248.06562 249.83713 251.26064 252.39015 253.21866 253.54117
 253.58468 253.36519 252.73170 251.68621 250.29872 248.46623 246.38174 244.22125
 242.01876 239.82927 237.65577 235.50128 233.36779 231.24130 229.27381 227.43732
 225.72683 224.20534 222.84185 221.62036 220.50887 219.47538 218.58589 217.73340
 216.98191 216.16842 215.27293 214.64344 214.09995 214.92824 216.88518 218.90523
 220.87875 222.93848 224.45322 224.71736 224.40619 224.37166 225.06061 225.98618
 226.85912 228.76091 232.32542 236.83560 241.54044 246.13271 250.42012 254.29305
 257.69659 260.73932 263.55817 266.15820 268.51520 270.64597 272.56082 274.31644
 275.97690 277.52985 278.95569 280.28244 281.46347 282.51352 283.47235 284.34726
 285.14029 285.85834 286.48724 287.28827
 366.78100 356.34184 345.78068 334.65352 323.06336 311.26419 299.14103 286.95087
 274.66971 262.57355 250.58939 239.89723 230.02607 221.13691 213.32574 206.33458
 200.17542 195.12026 191.70910 189.75794 188.80178 188.87262 189.71446 191.02929
 192.76113 194.86297 197.13281 199.49865 201.95049 204.43733 206.53217 208.38101
 210.01384 211.16568 211.40152 211.63636 211.58020 211.29204 210.93188 210.56872
 210.19256 209.90939 209.72423 209.59507 209.52991 209.86775 210.26059 210.65643
 211.45627 212.64111 213.89794 215.68778 217.62262 219.67246 221.77430 223.86414
 225.93098 228.02182 230.12566 232.23849 234.37433 236.55317 238.81601 241.19285
 243.82069 246.07853 248.08737 249.85921 251.28304 252.41288 253.24172 253.56456
 253.60840 253.38924 252.75608 251.71092 250.32376 248.49159 246.40743 244.24727
 242.04511 239.85595 237.68279 235.52863 233.39547 231.26931 229.30214 227.46598
 225.75582 224.23466 222.87150 221.65034 220.53918 219.50602 218.61686 217.76469
 217.01353 216.20037 215.30521 214.67605 214.13289 214.95552 216.89908 218.91507
 220.85249 222.89268 224.40399 224.64677 224.28595 224.19609 224.93123 225.91454
 226.84862 228.84450 232.42682 236.92502 241.62910 246.22092 250.50111 254.36295
 257.75989 260.79556 263.60474 266.18643 268.53220 270.65723 272.56503 274.31909
 275.98709 277.54044 278.96036 280.29285 281.47409 282.52435 283.48404 284.35831
 285.15277 285.87073 286.49969 287.30157
 366.78100 356.34221 345.78142 334.65463 323.06484 311.26604 299.14325 286.95346
 274.67267 262.57688 250.59309 239.90130 230.03051 221.14171 213.33092 206.34013
 200.18134 195.12655 191.71576 189.76497 188.80918 188.88038 189.72259 191.03780
 192.77001 194.87222 197.14243 199.50864 201.96085 204.44805 206.54326 208.39247
 210.02568 211.17789 211.41410 211.64931 211.59352 211.30572 210.94593 210.58314
 210.20735 209.92456 209.73977 209.61098 209.54619 209.88439 210.27760 210.67381
 211.47402 212.65923 213.91644 215.70665 217.64186 219.69206 221.79427 223.88448
 225.95169 228.04290 230.14711 232.26032 234.39653 236.57573 238.83894 241.21615
 243.84436 246.10257 248.11178 249.88399 251.30820 252.43840 253.26761 253.59082
 253.63503 253.41624 252.78345 251.73866 250.35187 248.52007 246.43628 244.27649
 242.07470 239.88591 237.71312 235.55933 233.42654 231.30074 229.33395 227.49816
 225.78837 224.26758 222.90479 221.68400 220.57321 219.54041 218.65162 217.79983
 217.04904 216.23625 215.34146 214.71267 214.16988 214.98422 216.90822 218.92130
 220.83585 222.85115 224.33388 224.56020 224.17952 224.04247 224.78632 225.84149
 226.84265 228.91411 232.52863 237.02629 241.72818 246.31430 250.58377 254.43265
 257.81995 260.84869 263.65106 266.21991 268.55435 270.67065 272.57346 274.33063
 276.00415 277.55048 278.95279 280.27008 281.44754 282.49896 283.45776 284.33273
 285.12741 285.84604 286.47531 287.27747
 366.78100 356.34253 345.78205 334.65558 323.06610 311.26763 299.14515 286.95568
 274.67520 262.57973 250.59625 239.90478 230.03430 221.14583 213.33535 206.34488
 200.18640 195.13193 191.72145 189.77098 188.81550 188.88703 189.72955 191.04508
 192.77760 194.88013 197.15065 199.51718 201.96970 204.45723 206.55275 208.40228
 210.03580 211.18833 211.42485 211.66038 211.60490 211.31743 210.95795 210.59548
 210.22000 209.93753 209.75305 209.62458 209.56010 209.89863 210.29215 210.68868
 211.48920 212.67473 213.93225 215.72278 217.65830 219.70883 221.81135 223.90188
 225.96940 228.06093 230.16545 232.27898 234.41550 236.59503 238.85855 241.23608
 243.86460 246.12313 248.13265 249.90518 251.32971 252.46023 253.28976 253.61328
 253.65781 253.43933 252.80686 251.76238 250.37591 248.54443 246.46096 244.30148
 242.10001 239.91153 237.73906 235.58558 233.45311 231.32763 229.36116 227.52568
 225.81621 224.29573 222.93326 221.71278 220.60231 219.56983 218.68136 217.82988
 217.07941 216.26693 215.37246 214.74398 214.20151 215.01028 216.92113 218.92119
 220.82004 222.81715 224.26357 224.46103 224.05714 223.88992 224.65451 225.77007
 226.81833 228.96758 232.63594 237.14075 241.83720 246.41241 250.66769 254.50159
 257.87711 260.89990 263.69836 266.25739 268.57986 270.68515 272.58392 274.34677
 276.02161 277.55392 278.93164 280.22610 281.40030 282.44772 283.40906 284.28247
 285.07706 285.79565 286.42563 287.22650
 366.78100 356.34299 345.78298 334.65696 323.06795 311.26994 299.14793 286.95891
 274.67890 262.58389 250.60088 239.90986 230.03985 221.15184 213.34183 206.35182
 200.19380 195.13979 191.72978 189.77977 188.82475 188.89674 189.73973 191.05572
 192.78871 194.89169 197.16268 199.52967 201.98266 204.47064 206.56663 208.41662
 210.05061 211.20359 211.44058 211.67657 211.62156 211.33455 210.97553 210.61352
 210.23851 209.95650 209.77248 209.64447 209.58046 209.91945 210.31344 210.71042
 211.51141 212.69740 213.95539 215.74637 217.68236 219.73335 221.83634 223.92732
 225.99531 228.08730 230.19229 232.30628 234.44326 236.62325 238.88724 241.26523
 243.89421 246.15320 248.16319 249.93618 251.36117 252.49215 253.32214 253.64613
 253.69112 253.47310 252.84109 251.79708 250.41107 248.58005 246.49704 244.33803
 242.13702 239.94901 237.77699 235.62398 233.49197 231.36696 229.40094 227.56593
 225.85692 224.33691 222.97489 221.75488 220.64487 219.61286 218.72485 217.87383
 217.12382 216.31181 215.41780 214.78978 214.24777 215.04462 216.92723 218.93002
 220.80321 222.76653 224.19797 224.38577 223.94890 223.71561 224.46602 225.72656
 226.85437 229.01762 232.73846 237.26613 241.95563 246.51523 250.75305 254.56970
 257.93057 260.94785 263.74542 266.29745 268.60696 270.70187 272.59860 274.36639
 276.04037 277.55478 278.90533 280.16672 281.33276 282.38095 283.33923 284.21274
 285.00711 285.72577 286.35583 287.16187
 366.78100 356.34362 345.78425 334.65887 323.07050 311.27312 299.15174 286.96337
 274.68399 262.58961 250.60724 239.91686 230.04749 221.16011 213.35073 206.36136
 200.20398 195.15061 191.74123 189.79185 188.83748 188.91010 189.75372 191.07035
 192.80397 194.90760 197.17922 199.54684 202.00047 204.48909 206.58572 208.43634
 210.07096 211.22459 211.46221 211.69884 211.64446 211.35808 210.99971 210.63833
 210.26395 209.98258 209.79920 209.67183 209.60845 209.94807 210.34270 210.74032
 211.54195 212.72857 213.98719 215.77882 217.71544 219.76706 221.87069 223.96231
 226.03094 228.12356 230.22918 232.34381 234.48143 236.66206 238.92668 241.30530
 243.93493 246.19455 248.20517 249.97880 251.40442 252.53605 253.36667 253.69129
 253.73692 253.51954 252.88817 251.84479 250.45941 248.62904 246.54666 244.38829
 242.18791 240.00053 237.82916 235.67678 233.54540 231.42103 229.45565 227.62128
 225.91290 224.39352 223.03215 221.81277 220.70340 219.67202 218.78464 217.93427
 217.18489 216.37351 215.48014 214.85276 214.31139 215.08798 216.92279 218.94409
 220.79428 222.69733 224.11095 224.32301 223.88194 223.58865 224.27763 225.54668
 226.80659 229.11649 232.86945 237.40068 242.08061 246.62088 250.83841 254.63535
 257.98096 260.99432 263.79401 266.34036 268.63925 270.72147 272.61673 274.38867
 276.05746 277.55502 278.87964 280.10358 281.25699 282.30280 283.26053 284.13419
 284.92715 285.64478 286.27530 287.08267
 366.78100 356.34419 345.78539 334.66058 323.07278 311.27597 299.15517 286.96736
 274.68856 262.59475 250.61295 239.92314 230.05434 221.16753 213.35873 206.36992
 200.21312 195.16031 191.75151 189.80270 188.84890 188.92209 189.76629 191.08348
 192.81768 194.92187 197.19407 199.56226 202.01646 204.50565 206.60285 208.45404
 210.08924 211.24343 211.48163 211.71882 211.66502 211.37921 211.02141 210.66060
 210.28680 210.00599 209.82319 209.69638 209.63358 209.97377 210.36897 210.76716
 211.56936 212.75655 214.01575 215.80794 217.74514 219.79733 221.90153 223.99372
 226.06292 228.15611 230.26231 232.37750 234.51570 236.69689 238.96209 241.34128
 243.97148 246.23167 248.24287 250.01706 251.44326 252.57545 253.40665 253.73184
 253.77804 253.56123 252.93043 251.88762 250.50282 248.67301 246.59121 244.43340
 242.23360 240.04679 237.87599 235.72418 233.59338 231.46957 229.50477 227.67096
 225.96316 224.44435 223.08355 221.86474 220.75594 219.72513 218.83833 217.98852
 217.23972 216.42891 215.53611 214.90930 214.36850 215.12805 216.92256 218.94601
 220.79240 222.63692 224.00528 224.23949 223.81633 223.49210 224.12753 225.35513
 226.71866 229.19633 233.00150 237.53976 242.20828 246.72612 250.92216 254.69875
 258.02841 261.04019 263.84534 266.38742 268.67358 270.74207 272.63382 274.40860
 276.07321 277.55447 278.85336 280.04196 281.17679 282.21786 283.17590 284.04831
 284.84134 285.55847 286.18927 286.99387
 366.78100 356.34463 345.78626 334.66189 323.07452 311.27815 299.15778 286.97041
 274.69205 262.59868 250.61731 239.92794 230.05957 221.17320 213.36483 206.37646
 200.22009 195.16772 191.75935 189.81098 188.85761 188.93124 189.77587 191.09350
 192.82814 194.93277 197.20540 199.57403 202.02866 204.51829 206.61592 208.46755
 210.10318 211.25781 211.49644 211.73407 211.68070 211.39533 211.03796 210.67759
 210.30423 210.02386 209.84149 209.71512 209.65275 209.99338 210.38901 210.78764
 211.59027 212.77790 214.03753 215.83016 217.76779 219.82042 221.92505 224.01768
 226.08732 228.18095 230.28758 232.40321 234.54184 236.72347 238.98910 241.36873
 243.99936 246.25999 248.27162 250.04625 251.47288 252.60551 253.43714 253.76278
 253.80941 253.59304 252.96267 251.92030 250.53593 248.70656 246.62519 244.46782
 242.26845 240.08208 237.91171 235.76034 233.62997 231.50660 229.54223 227.70887
 226.00150 224.48313 223.12276 221.90439 220.79602 219.76565 218.87928 218.02991
 217.28154 216.47117 215.57880 214.95243 214.41206 215.16113 216.93089 218.93401
 220.78824 222.59171 223.89899 224.13618 223.73454 223.39537 223.98619 225.18350
 226.64073 229.26445 233.13011 237.68346 242.33792 246.83142 251.00708 254.76459
 258.07697 261.08704 263.89761 266.43442 268.70813 270.76172 272.64990 274.42722
 276.08868 277.55707 278.83609 279.98935 281.09616 282.13498 283.09048 283.96225
 284.75391 285.47015 286.09979 286.90942
 366.78100 356.34507 345.78713 334.66320 323.07627 311.28034 299.16040 286.97347
 274.69554 262.60260 250.62167 239.93274 230.06481 221.17887 213.37094 206.38301
 200.22708 195.17514 191.76721 189.81928 188.86634 188.94041 189.78548 191.10355
 192.83861 194.94368 197.21675 199.58581 202.04088 204.53095 206.62902 208.48108
 210.11715 211.27222 211.51128 211.74935 211.69642 211.41149 211.05455 210.69462
 210.32169 210.04175 209.85982 209.73389 209.67196 210.01302 210.40909 210.80816
 211.61123 212.79929 214.05936 215.85243 217.79049 219.84356 221.94863 224.04170
 226.11176 228.20583 230.31290 232.42896 234.56803 236.75010 239.01617 241.39623
 244.02730 246.28837 248.30043 250.07550 251.50257 252.63564 253.46770 253.79377
 253.84084 253.62490 252.99497 251.95304 250.56911 248.74017 246.65924 244.50231
 242.30338 240.11744 237.94751 235.79658 233.66664 231.54371 229.57978 227.74685
 226.03991 224.52198 223.16205 221.94411 220.83618 219.80625 218.92032 218.07138
 217.32345 216.51352 215.62158 214.99565 214.45572 215.19423 216.93904 218.91867
 220.78297 222.55293 223.79372 224.01831 223.63823 223.29404 223.83528 225.02118
 226.57721 229.33487 233.26437 237.83521 242.47218 246.93906 251.09491 254.83493
 258.12939 261.13635 263.95053 266.48196 268.74274 270.78146 272.66562 274.44730
 276.10867 277.56766 278.82849 279.94720 281.02454 282.05600 283.01169 283.88168
 284.67218 285.38611 286.01663 286.82095
 366.78100 356.34555 345.78810 334.66465 323.07820 311.28275 299.16330 286.97685
 274.69940 262.60695 250.62650 239.93805 230.07060 221.18515 213.37770 206.39025
 200.23480 195.18335 191.77591 189.82846 188.87601 188.95056 189.79611 191.11466
 192.85021 194.95576 197.22931 199.59886 202.05441 204.54496 206.64351 208.49606
 210.13261 211.28816 211.52771 211.76626 211.71381 211.42936 211.07291 210.71346
 210.34101 210.06156 209.88011 209.75466 209.69321 210.03476 210.43131 210.83086
 211.63441 212.82296 214.08351 215.87706 217.81561 219.86917 221.97472 224.06827
 226.13882 228.23337 230.34092 232.45747 234.59702 236.77957 239.04612 241.42667
 244.05822 246.31977 248.33232 250.10787 251.53542 252.66897 253.50152 253.82807
 253.87562 253.66017 253.03072 251.98927 250.60582 248.77737 246.69692 244.54047
 242.34202 240.15657 237.98712 235.83667 233.70722 231.58477 229.62132 227.78887
 226.08242 224.56498 223.20553 221.98808 220.88063 219.85118 218.96573 218.11728
 217.36983 216.56038 215.66893 215.04348 214.50403 215.22929 216.94281 218.90579
 220.77780 222.51671 223.69171 223.88925 223.52681 223.18802 223.68369 224.86456
 226.51163 229.40753 233.41115 237.99556 242.60974 247.04971 251.18762 254.91043
 258.18616 261.18704 264.00354 266.52805 268.77332 270.79877 272.68076 274.46347
 276.13269 277.58823 278.83569 279.92810 280.96933 281.98651 282.93915 283.80811
 284.59741 285.30954 285.93686 286.74799
 366.78100 356.34606 345.78912 334.66618 323.08024 311.28530 299.16636 286.98042
 274.70348 262.61154 250.63160 239.94366 230.07672 221.19178 213.38483 206.39789
 200.24295 195.19201 191.78507 189.83813 188.88619 188.96125 189.80731 191.12637
 192.86243 194.96849 197.24255 199.61261 202.06867 204.55973 206.65879 208.51185
 210.14891 211.30497 211.54503 211.78409 211.73215 211.44821 211.09227 210.73333
 210.36138 210.08244 209.90150 209.77656 209.71562 210.05768 210.45474 210.85480
 211.65886 212.84792 214.10898 215.90304 217.84210 219.89616 222.00222 224.09628
 226.16734 228.26240 230.37046 232.48752 234.62758 236.81064 239.07770 241.45876
 244.09082 246.35288 248.36594 250.14199 251.57005 252.70411 253.53717 253.86423
 253.91229 253.69735 253.06841 252.02747 250.64453 248.81659 246.73665 244.58071
 242.38277 240.19783 238.02889 235.87895 233.75001 231.62807 229.66513 227.83319
 226.12725 224.61031 223.25137 222.03443 220.92749 219.89854 219.01360 218.16566
 217.41872 216.60978 215.71884 215.09390 214.55496 215.26555 216.94438 218.88969
 220.76909 222.48279 223.59940 223.76089 223.40352 223.06631 223.53027 224.71263
 226.44247 229.48215 233.56976 238.16174 242.74989 247.16371 251.28334 254.98758
 258.24506 261.23843 264.05515 266.57095 268.80450 270.81622 272.69043 274.48700
 276.14557 277.60406 278.84619 279.92603 280.93628 281.93073 282.87900 283.74625
 284.53595 285.24524 285.87177 286.68365
 366.78100 356.34646 345.78991 334.66737 323.08182 311.28728 299.16874 286.98319
 274.70665 262.61510 250.63556 239.94801 230.08147 221.19693 213.39038 206.40384
 200.24929 195.19875 191.79221 189.84566 188.89412 188.96957 189.81603 191.13549
 192.87194 194.97840 197.25285 199.62331 202.07976 204.57122 206.67068 208.52413
 210.16159 211.31804 211.55850 211.79796 211.74641 211.46287 211.10732 210.74878
 210.37724 210.09869 209.91815 209.79360 209.73306 210.07552 210.47297 210.87343
 211.67788 212.86734 214.12879 215.92325 217.86271 219.91716 222.02362 224.11807
 226.18953 228.28499 230.39344 232.51090 234.65135 236.83481 239.10227 241.48372
 244.11618 246.37863 248.39209 250.16854 251.59700 252.73146 253.56491 253.89237
 253.94082 253.72628 253.09774 252.05719 250.67465 248.84710 246.76756 244.61202
 242.41447 240.22993 238.06138 235.91184 233.78329 231.66175 229.69921 227.86766
 226.16212 224.64557 223.28703 222.07049 220.96394 219.93540 219.05085 218.20331
 217.45677 216.64822 215.75768 215.13313 214.59459 215.29266 216.94194 218.87440
 220.76387 222.45476 223.51332 223.63091 223.26849 222.92363 223.36668 224.55846
 226.37497 229.56100 233.73500 238.33234 242.89485 247.28456 251.38638 255.07004
 258.30984 261.29575 264.11050 266.61661 268.83347 270.82919 272.70636 274.48770
 276.17023 277.62427 278.86569 279.94159 280.93640 281.90179 282.84534 283.71057
 284.49661 285.20502 285.83160 286.63968
 366.78100 356.34672 345.79044 334.66816 323.08288 311.28860 299.17032 286.98503
 274.70875 262.61747 250.63819 239.95091 230.08463 221.20035 213.39407 206.40779
 200.25351 195.20323 191.79695 189.85067 188.89939 188.97510 189.82182 191.14154
 192.87826 194.98498 197.25970 199.63042 202.08714 204.57886 206.67858 208.53230
 210.17002 211.32674 211.56745 211.80717 211.75589 211.47261 211.11733 210.75905
 210.38777 210.10949 209.92921 209.80493 209.74465 210.08737 210.48509 210.88581
 211.69052 212.88024 214.14196 215.93668 217.87640 219.93112 222.03784 224.13256
 226.20428 228.30000 230.40872 232.52644 234.66716 236.85087 239.11859 241.50031
 244.13303 246.39575 248.40947 250.18619 251.61491 252.74963 253.58335 253.91107
 253.95979 253.74551 253.11723 252.07694 250.69466 248.86738 246.78810 244.63282
 242.43554 240.25126 238.08298 235.93370 233.80542 231.68414 229.72186 227.89058
 226.18529 224.66901 223.31073 222.09445 220.98817 219.95989 219.07561 218.22833
 217.48205 216.67377 215.78349 215.15921 214.62093 215.30986 216.93758 218.86284
 220.75975 222.43013 223.42526 223.48689 223.11380 222.76326 223.19771 224.41585
 226.32439 229.64731 233.90276 238.50626 243.04779 247.41623 251.49979 255.16048
 258.38010 261.35706 264.16742 266.66376 268.86960 270.84769 272.70453 274.47461
 276.21561 277.66074 278.89539 279.97131 280.96490 281.92410 282.85928 283.72369
 284.50842 285.21304 285.83606 286.63455
 366.78100 356.34711 345.79122 334.66932 323.08443 311.29054 299.17265 286.98775
 274.71186 262.62097 250.64208 239.95519 230.08929 221.20540 213.39951 206.41362
 200.25972 195.20983 191.80394 189.85805 188.90715 188.98326 189.83037 191.15048
 192.88759 194.99469 197.26980 199.64091 202.09802 204.59012 206.69023 208.54434
 210.18245 211.33956 211.58066 211.82077 211.76988 211.48699 211.13209 210.77420
 210.40331 210.12542 209.94553 209.82163 209.76174 210.10485 210.50296 210.90406
 211.70917 212.89928 214.16139 215.95650 217.89660 219.95171 222.05882 224.15393
 226.22603 228.32214 230.43125 232.54936 234.69046 236.87457 239.14268 241.52479
 244.15790 246.42100 248.43511 250.21222 251.64133 252.77643 253.61054 253.93865
 253.98776 253.77387 253.14597 252.10608 250.72419 248.89730 246.81840 244.66351
 242.46662 240.28273 238.11484 235.96594 233.83805 231.71716 229.75527 227.92437
 226.21948 224.70359 223.34570 222.12981 221.02391 219.99602 219.11213 218.26524
 217.51934 216.71145 215.82156 215.19767 214.65977 215.33809 216.94069 218.84103
 220.74155 222.40190 223.35182 223.34743 222.94838 222.58437 223.01422 224.27760
 226.28827 229.74043 234.06972 238.68472 243.21162 247.56465 251.63194 255.26764
 258.46353 261.42517 264.22186 266.70514 268.91211 270.91336 272.54752 274.50656
 276.24979 277.68948 278.92310 280.00693 281.01398 281.98953 282.92996 283.79510
 284.57825 285.28445 285.90524 286.70856
 366.78100 356.34746 345.79192 334.67038 323.08585 311.29231 299.17477 286.99023
 274.71469 262.62415 250.64561 239.95907 230.09354 221.21000 213.40446 206.41892
 200.26538 195.21584 191.81030 189.86476 188.91423 188.99069 189.83815 191.15861
 192.89607 195.00353 197.27899 199.65045 202.10792 204.60038 206.70084 208.55530
 210.19376 211.35122 211.59268 211.83315 211.78261 211.50007 211.14553 210.78799
 210.41745 210.13991 209.96037 209.83684 209.77730 210.12076 210.51922 210.92068
 211.72614 212.91660 214.17906 215.97453 217.91499 219.97045 222.07791 224.17337
 226.24583 228.34229 230.45176 232.57022 234.71168 236.89614 239.16460 241.54706
 244.18052 246.44398 248.45845 250.23591 251.66537 252.80083 253.63529 253.96375
 254.01321 253.79967 253.17214 252.13260 250.75106 248.92452 246.84598 244.69144
 242.49490 240.31136 238.14383 235.99529 233.86775 231.74721 229.78567 227.95513
 226.25059 224.73506 223.37752 222.16198 221.05644 220.02890 219.14536 218.29882
 217.55328 216.74575 215.85621 215.23267 214.69513 215.36346 216.94246 218.81508
 220.72536 222.37640 223.29001 223.22232 222.77769 222.38530 222.80464 224.13718
 226.26241 229.83473 234.23189 238.86266 243.38203 247.72563 251.77946 255.39001
 258.56418 261.50955 264.28433 266.73669 268.90137 270.75494 272.66315 274.57135
 276.24512 277.69476 278.93890 280.03717 281.06885 282.06915 283.01761 283.88443
 284.67017 285.37988 286.00241 286.81107
 366.78100 356.34785 345.79270 334.67155 323.08741 311.29426 299.17711 286.99296
 274.71781 262.62766 250.64951 239.96337 230.09822 221.21507 213.40992 206.42477
 200.27162 195.22247 191.81733 189.87218 188.92203 188.99888 189.84673 191.16758
 192.90544 195.01329 197.28914 199.66099 202.11884 204.61169 206.71254 208.56740
 210.20625 211.36410 211.60595 211.84680 211.79665 211.51450 211.16036 210.80321
 210.43306 210.15591 209.97676 209.85361 209.79446 210.13832 210.53717 210.93902
 211.74487 212.93572 214.19857 215.99442 217.93528 219.99113 222.09898 224.19483
 226.26768 228.36453 230.47438 232.59324 234.73509 236.91994 239.18879 241.57164
 244.20549 246.46934 248.48420 250.26205 251.69190 252.82775 253.66260 253.99145
 254.04131 253.82816 253.20101 252.16186 250.78071 248.95456 246.87641 244.72227
 242.52612 240.34297 238.17582 236.02767 233.90052 231.78037 229.81923 227.98908
 226.28493 224.76978 223.41263 222.19748 221.09233 220.06519 219.18204 218.33589
 217.59074 216.78359 215.89444 215.27129 214.73415 215.39096 216.94278 218.79024
 220.71454 222.35448 223.22119 223.08830 222.59164 222.16037 222.56624 223.98624
 226.25114 229.94641 234.40524 239.05171 243.56960 247.90910 251.94971 255.52803
 258.66861 261.58835 264.33868 266.77219 268.87680 270.60641 272.75439 274.59235
 276.28076 277.73779 278.98160 280.08575 281.13037 282.13931 283.08810 283.95544
 284.74438 285.45770 286.08536 286.89325
 366.78100 356.34827 345.79354 334.67281 323.08908 311.29635 299.17962 286.99589
 274.72116 262.63143 250.65370 239.96797 230.10324 221.22051 213.41578 206.43105
 200.27832 195.22959 191.82486 189.88013 188.93040 189.00767 189.85594 191.17721
 192.91548 195.02375 197.30002 199.67229 202.13056 204.62383 206.72510 208.58037
 210.21964 211.37791 211.62018 211.86145 211.81171 211.52998 211.17625 210.81952
 210.44979 210.17306 209.99433 209.87160 209.81287 210.15714 210.55641 210.95868
 211.76495 212.95622 214.21949 216.01576 217.95703 220.01330 222.12157 224.21784
 226.29111 228.38838 230.49865 232.61792 234.76019 236.94546 239.21473 241.59800
 244.23227 246.49654 248.51181 250.29008 251.72035 252.85662 253.69189 254.02116
 254.07143 253.85870 253.23197 252.19324 250.81251 248.98678 246.90905 244.75532
 242.55959 240.37686 238.21013 236.06240 233.93567 231.81594 229.85521 228.02548
 226.32175 224.80702 223.45029 222.23556 221.13083 220.10410 219.22137 218.37564
 217.63091 216.82418 215.93545 215.31272 214.77599 215.41762 216.93356 218.77078
 220.70699 222.33304 223.15089 222.97476 222.42134 221.92862 222.29004 223.80258
 226.23093 230.06123 234.57745 239.23862 243.76366 248.10916 252.14630 255.70387
 258.81476 261.69095 264.39102 266.76877 268.81854 270.72479 272.72516 274.56873
 276.22931 277.67368 278.93335 280.08640 281.16888 282.18997 283.14023 284.00955
 284.80002 285.51572 286.14633 286.95627
 366.78100 356.34844 345.79389 334.67333 323.08977 311.29722 299.18066 286.99710
 274.72255 262.63299 250.65543 239.96988 230.10532 221.22276 213.41821 206.43365
 200.28109 195.23254 191.82798 189.88342 188.93387 189.01131 189.85975 191.18120
 192.91964 195.02808 197.30453 199.67697 202.13541 204.62886 206.73030 208.58574
 210.22519 211.38363 211.62607 211.86752 211.81796 211.53640 211.18285 210.82629
 210.45673 210.18018 210.00162 209.87906 209.82051 210.16495 210.56439 210.96684
 211.77328 212.96472 214.22817 216.02461 217.96605 220.02250 222.13094 224.22738
 226.30083 228.39827 230.50871 232.62816 234.77060 236.95604 239.22549 241.60893
 244.24337 246.50782 248.52326 250.30170 251.73215 252.86859 253.70403 254.03348
 254.08392 253.87136 253.24481 252.20625 250.82569 249.00014 246.92258 244.76902
 242.57347 240.39091 238.22435 236.07680 233.95024 231.83068 229.87013 228.04057
 226.33701 224.82246 223.46590 222.25134 221.14679 220.12023 219.23767 218.39212
 217.64756 216.84100 215.95245 215.32989 214.79333 215.42769 216.92641 218.74742
 220.69075 222.32520 223.07355 222.83887 222.27921 221.73384 222.02884 223.61433
 226.19215 230.16574 234.73621 239.41249 243.94850 248.29770 252.32664 255.87105
 258.97672 261.82617 264.47440 266.78644 268.73434 270.89291 272.69586 274.57877
 276.17728 277.58710 278.86450 280.00653 281.07111 282.08453 283.03406 283.90198
 284.69574 285.41498 286.05185 286.86789
 366.78100 356.34839 345.79378 334.67316 323.08955 311.29694 299.18033 286.99671
 274.72210 262.63249 250.65488 239.96926 230.10465 221.22204 213.41743 206.43281
 200.28020 195.23159 191.82698 189.88236 188.93275 189.01014 189.85853 191.17991
 192.91830 195.02669 197.30308 199.67546 202.13385 204.62724 206.72863 208.58401
 210.22340 211.38179 211.62418 211.86556 211.81595 211.53434 211.18073 210.82411
 210.45450 210.17789 209.99928 209.87666 209.81805 210.16244 210.56183 210.96421
 211.77060 212.96199 214.22538 216.02176 217.96315 220.01954 222.12793 224.22431
 226.29770 228.39509 230.50548 232.62486 234.76725 236.95264 239.22203 241.60541
 244.23980 246.50419 248.51958 250.29796 251.72835 252.86474 253.70013 254.02951
 254.07990 253.86729 253.24068 252.20206 250.82145 248.99584 246.91823 244.76461
 242.56900 240.38639 238.21978 236.07216 233.94555 231.82594 229.86533 228.03571
 226.33210 224.81749 223.46088 222.24626 221.14165 220.11504 219.23243 218.38681
 217.64220 216.83559 215.94698 215.32436 214.78775 215.42540 216.93190 218.71510
 220.64964 222.32036 223.03665 222.68272 222.05251 221.53738 221.81238 223.45177
 226.17023 230.26859 234.89824 239.57996 244.11496 248.46240 252.47458 256.00626
 259.12900 261.99280 264.62088 266.93448 268.56805 270.88037 272.77103 274.64108
 276.21387 277.58527 278.84933 279.92529 280.89127 281.86398 282.80649 283.67599
 284.46878 285.19385 285.83588 286.66641
 366.78100 356.34834 345.79368 334.67303 323.08937 311.29671 299.18005 286.99639
 274.72174 262.63208 250.65442 239.96876 230.10410 221.22145 213.41679 206.43213
 200.27947 195.23081 191.82616 189.88150 188.93184 189.00918 189.85752 191.17887
 192.91721 195.02555 197.30189 199.67423 202.13258 204.62592 206.72726 208.58260
 210.22194 211.38029 211.62263 211.86397 211.81431 211.53266 211.17900 210.82234
 210.45268 210.17602 209.99737 209.87471 209.81605 210.16039 210.55973 210.96208
 211.76842 212.95976 214.22310 216.01944 217.96079 220.01713 222.12547 224.22181
 226.29515 228.39250 230.50284 232.62218 234.76452 236.94986 239.21921 241.60255
 244.23689 246.50123 248.51657 250.29492 251.72526 252.86160 253.69694 254.02628
 254.07663 253.86397 253.23731 252.19865 250.81799 248.99234 246.91468 244.76102
 242.56536 240.38270 238.21605 236.06839 233.94173 231.82207 229.86141 228.03176
 226.32810 224.81344 223.45678 222.24212 221.13747 220.11081 219.22815 218.38249
 217.63783 216.83118 215.94252 215.31986 214.78320 215.42195 216.93109 218.69366
 220.60513 222.28506 223.01646 222.60722 221.84946 221.12918 221.51489 223.42146
 226.26068 230.42049 235.09599 239.78354 244.30991 248.63939 252.60849 256.11591
 259.23352 262.10370 264.70410 266.90253 268.63654 270.84113 272.80341 274.66968
 276.26883 277.63199 278.84665 279.86154 280.74976 281.64114 282.57101 283.44006
 284.23660 284.97061 285.61676 286.45276
 366.78100 356.34841 345.79383 334.67324 323.08966 311.29707 299.18048 286.99690
 274.72231 262.63273 250.65514 239.96955 230.10497 221.22238 213.41779 206.43321
 200.28062 195.23204 191.82745 189.88286 188.93328 189.01069 189.85911 191.18052
 192.91893 195.02735 197.30376 199.67618 202.13459 204.62800 206.72942 208.58483
 210.22424 211.38266 211.62507 211.86649 211.81690 211.53531 211.18173 210.82514
 210.45556 210.17897 210.00038 209.87780 209.81921 210.16363 210.56304 210.96545
 211.77187 212.96328 214.22670 216.02311 217.96452 220.02094 222.12935 224.22576
 226.29918 228.39659 230.50701 232.62642 234.76883 236.95425 239.22366 241.60708
 244.24149 246.50590 248.52132 250.29973 251.73015 252.86656 253.70197 254.03139
 254.08180 253.86921 253.24263 252.20404 250.82346 248.99787 246.92028 244.76670
 242.57111 240.38853 238.22194 236.07435 233.94777 231.82818 229.86760 228.03801
 226.33442 224.81984 223.46325 222.24866 221.14408 220.11749 219.23491 218.38932
 217.64473 216.83815 215.94956 215.32698 214.79039 215.42166 216.91315 218.69394
 220.57854 222.22197 222.95593 222.54570 221.69225 220.73958 221.18565 223.34109
 226.32672 230.58438 235.31210 240.01028 244.52327 248.84183 252.76778 256.22449
 259.31293 262.16611 264.75558 266.83917 268.72842 270.97900 272.83527 274.66632
 276.27176 277.61716 278.73999 279.70459 280.65555 281.63785 282.58490 283.45474
 284.25467 284.98761 285.62799 286.47125
 366.78100 356.34851 345.79402 334.67353 323.09004 311.29756 299.18107 286.99758
 274.72309 262.63360 250.65611 239.97062 230.10613 221.22364 213.41916 206.43467
 200.28218 195.23369 191.82920 189.88471 188.93522 189.01273 189.86124 191.18276
 192.92127 195.02978 197.30629 199.67880 202.13731 204.63082 206.73233 208.58784
 210.22736 211.38587 211.62838 211.86989 211.82040 211.53891 211.18542 210.82893
 210.45944 210.18296 210.00447 209.88198 209.82349 210.16800 210.56751 210.97002
 211.77653 212.96804 214.23155 216.02807 217.96958 220.02609 222.13460 224.23111
 226.30462 228.40213 230.51264 232.63215 234.77467 236.96018 239.22969 241.61320
 244.24771 246.51222 248.52773 250.30624 251.73675 252.87327 253.70878 254.03829
 254.08880 253.87631 253.24982 252.21133 250.83084 249.00535 246.92787 244.77438
 242.57889 240.39640 238.22991 236.08242 233.95593 231.83644 229.87595 228.04647
 226.34298 224.82849 223.47200 222.25751 221.15302 220.12653 219.24404 218.39855
 217.65407 216.84758 215.95909 215.33660 214.80011 215.42387 216.89757 218.69347
 220.56526 222.15434 222.85205 222.44890 221.56656 220.46082 220.88437 223.19511
 226.34099 230.72556 235.50952 240.21118 244.71680 249.02678 252.93871 256.34875
 259.41089 262.23431 264.83249 267.00259 268.67548 270.89911 272.83368 274.75485
 276.33466 277.63220 278.71854 279.67795 280.56024 281.49298 282.42511 283.29233
 284.08810 284.81763 285.45239 286.29941
 366.78100 356.34839 345.79378 334.67317 323.08955 311.29694 299.18033 286.99672
 274.72211 262.63250 250.65488 239.96927 230.10466 221.22205 213.41744 206.43283
 200.28021 195.23160 191.82699 189.88238 188.93277 189.01016 189.85855 191.17993
 192.91832 195.02671 197.30310 199.67549 202.13388 204.62726 206.72865 208.58404
 210.22343 211.38182 211.62421 211.86559 211.81598 211.53437 211.18076 210.82415
 210.45454 210.17793 209.99931 209.87670 209.81809 210.16248 210.56187 210.96426
 211.77064 212.96203 214.22542 216.02181 217.96320 220.01959 222.12797 224.22436
 226.29775 228.39514 230.50553 232.62492 234.76731 236.95269 239.22208 241.60547
 244.23986 246.50425 248.51964 250.29802 251.72841 252.86480 253.70019 254.02958
 254.07997 253.86735 253.24074 252.20213 250.82152 248.99591 246.91830 244.76469
 242.56907 240.38646 238.21985 236.07224 233.94563 231.82602 229.86540 228.03579
 226.33218 224.81757 223.46096 222.24635 221.14173 220.11512 219.23251 218.38690
 217.64229 216.83568 215.94706 215.32445 214.78784 215.41507 216.89697 218.66895
 220.55644 222.11250 222.72670 222.30681 221.42596 220.24886 220.62790 223.04881
 226.35486 230.85934 235.68127 240.38322 244.89333 249.18794 253.07553 256.45483
 259.49890 262.28531 264.84448 267.10211 268.92407 270.80188 272.93787 274.86182
 276.40073 277.66321 278.73517 279.66711 280.45755 281.29056 282.18112 283.04199
 283.83578 284.56747 285.19980 286.05844
 366.78100 356.34809 345.79319 334.67228 323.08837 311.29547 299.17856 286.99465
 274.71975 262.62984 250.65193 239.96603 230.10112 221.21821 213.41331 206.42840
 200.27549 195.22659 191.82168 189.87677 188.92687 189.00396 189.85205 191.17315
 192.91124 195.01933 197.29543 199.66752 202.12561 204.61871 206.71980 208.57489
 210.21399 211.37208 211.61417 211.85527 211.80536 211.52345 211.16955 210.81264
 210.44273 210.16583 209.98692 209.86401 209.80511 210.14920 210.54829 210.95039
 211.75648 212.94757 214.21067 216.00676 217.94785 220.00395 222.11204 224.20813
 226.28123 228.37832 230.48841 232.60751 234.74960 236.93469 239.20379 241.58688
 244.22097 246.48507 248.50016 250.27825 251.70835 252.84444 253.67953 254.00863
 254.05872 253.84581 253.21891 252.18000 250.79909 248.97319 246.89528 244.74137
 242.54547 240.36256 238.19565 236.04774 233.92084 231.80093 229.84002 228.01012
 226.30621 224.79130 223.43440 222.21949 221.11458 220.08768 219.20477 218.35886
 217.61396 216.80705 215.91814 215.29524 214.75833 215.39165 216.88797 218.64742
 220.54260 222.09560 222.62560 222.09776 221.23138 220.04848 220.42610 222.92310
 226.37787 230.99304 235.86104 240.56358 245.05748 249.33229 253.19008 256.54752
 259.58417 262.34006 264.82803 267.06821 269.08020 270.96948 273.05725 274.89871
 276.42520 277.68826 278.75250 279.67892 280.47470 281.17773 282.00146 282.85583
 283.64545 284.37231 285.00317 285.86938
 366.78100 356.34754 345.79209 334.67063 323.08618 311.29272 299.17527 286.99081
 274.71536 262.62490 250.64644 239.95999 230.09453 221.21108 213.40562 206.42017
 200.26671 195.21726 191.81180 189.86634 188.91589 188.99243 189.83998 191.16052
 192.89807 195.00561 197.28116 199.65270 202.11024 204.60279 206.70333 208.55788
 210.19642 211.35397 211.59551 211.83606 211.78560 211.50314 211.14869 210.79123
 210.42078 210.14332 209.96387 209.84041 209.78096 210.12450 210.52304 210.92459
 211.73013 212.92068 214.18322 215.97877 217.91931 219.97486 222.08240 224.17794
 226.25049 228.34703 230.45658 232.57512 234.71667 236.90121 239.16976 241.55230
 244.18585 246.44939 248.46393 250.24148 251.67102 252.80657 253.64111 253.96966
 254.01920 253.80575 253.17829 252.13883 250.75738 248.93092 246.85247 244.69801
 242.50156 240.31810 238.15065 236.00219 233.87473 231.75428 229.79282 227.96237
 226.25791 224.74246 223.38500 222.16955 221.06409 220.03663 219.15318 218.30672
 217.56127 216.75381 215.86436 215.24090 214.70345 215.35612 216.89815 218.60707
 220.52528 222.08012 222.52071 221.89851 220.99417 219.81046 220.21768 222.80173
 226.40869 231.10478 236.04634 240.78877 245.27669 249.51537 253.35149 256.67703
 259.68484 262.41739 264.84628 267.03064 269.10446 271.08569 273.08215 274.86755
 276.38962 277.64114 278.68918 279.59360 280.35104 280.99561 281.83832 282.70123
 283.49606 284.22372 284.87399 285.74945
 354.97500 345.04800 334.58700 324.11500 313.32600 302.53700 291.65000 280.76700
 269.93100 259.19300 248.62200 238.61700 229.08700 220.35500 212.54000 205.53500
 199.46400 194.49300 191.14300 189.19000 188.08900 188.01400 188.72400 189.90600
 191.46900 193.38200 195.40300 197.55600 199.80700 202.06000 204.28800 206.47900
 208.55200 210.37800 212.02500 213.65900 214.99800 216.11800 217.17200 218.25900
 219.49400 220.64500 221.67900 222.61400 223.54500 224.98200 226.57100 228.19000
 229.79700 231.81100 233.86500 235.97200 238.24200 240.55300 242.89900 245.25300
 247.48800 249.53500 251.36600 252.84800 254.09800 255.16700 256.02700 256.25300
 256.09500 255.54300 253.93500 252.56600 251.38400 250.24500 249.05200 247.70100
 246.01600 243.99600 241.78400 239.39300 236.81300 234.22300 231.65800 229.14400
 226.74000 224.47300 222.33500 220.32500 218.44000 216.67700 214.96200 213.47200
 212.20000 211.10800 210.26000 209.63900 209.24400 209.03100 209.05800 209.33300
 209.78400 210.62600 211.33100 212.39100 213.62500 214.84668 217.72949 219.47640
 220.32566 220.86828 220.88710 220.27371 219.43733 218.84250 219.04934 220.86203
 222.60583 225.72206 229.03064 232.61777 236.12270 239.51333 242.70767 245.68587
 248.41061 250.90679 253.19353 254.91714 256.48655 257.94920 259.39966 260.69384
 261.81714 262.77997 263.71679 264.54570 265.26305 265.89772 266.47676 267.00133
 267.47312 267.89325 268.26027 268.72800
