|-------------------------------------------------------------------------|
|   File Name : in_temp.dat
|   Subject   : temperature profiles used for initial guess atmosphere
|   File Type : input of gmtr
|   Data Type : atmospherical data
|   Author/s  : WRF-Chem
|   Date      : Fri Jul 26 15:39:24 2024
|-------------------------------------------------------------------------|

 WRF-Chem temperature
#
 values of T (K)    (8f10.5)
#
 354.97500 345.04800 334.58700 324.11500 313.32600 302.53700 291.65000 280.76700
 269.93100 259.19300 248.62200 238.61700 229.08700 220.35500 212.54000 205.53500
 199.46400 194.49300 191.14300 189.19000 188.08900 188.01400 188.72400 189.90600
 191.46900 193.38200 195.40300 197.55600 199.80700 202.06000 204.28800 206.47900
 208.55200 210.37800 212.02500 213.65900 214.99800 216.11800 217.17200 218.25900
 219.49400 220.64500 221.67900 222.61400 223.54500 224.98200 226.57100 228.19000
 229.79700 231.81100 233.86500 235.97200 238.24200 240.55300 242.89900 245.25300
 247.48800 249.53500 251.36600 252.84800 254.09800 255.16700 256.02700 256.25300
 256.09500 255.54300 253.93500 252.56600 251.38400 250.24500 249.05200 247.70100
 246.01600 243.99600 241.78400 239.39300 236.81300 234.22300 231.65800 229.14400
 226.74000 224.47300 222.33500 220.32500 218.44000 216.67700 214.96200 213.47200
 212.20000 211.10800 210.26000 209.63900 209.24400 209.03100 209.05800 209.33300
 209.78400 210.62600 211.33100 212.39100 213.62500 214.84668 217.72949 219.47640
 220.32566 220.86828 220.88710 220.27371 219.43733 218.84250 219.04934 220.86203
 222.60583 225.72206 229.03064 232.61777 236.12270 239.51333 242.70767 245.68587
 248.41061 250.90679 253.19353 254.91714 256.48655 257.94920 259.39966 260.69384
 261.81714 262.77997 263.71679 264.54570 265.26305 265.89772 266.47676 267.00133
 267.47312 267.89325 268.26027 268.72800
 366.78100 356.33500 345.76700 334.63300 323.03600 311.23000 299.10000 286.90300
 274.61500 262.51200 250.52100 239.82200 229.94400 221.04800 213.23000 206.23200
 200.06600 195.00400 191.58600 189.62800 188.66500 188.72900 189.56400 190.87200
 192.59700 194.69200 196.95500 199.31400 201.75900 204.23900 206.32700 208.16900
 209.79500 210.94000 211.16900 211.39700 211.33400 211.03900 210.67200 210.30200
 209.91900 209.62900 209.43700 209.30100 209.22900 209.56000 209.94600 210.33500
 211.12800 212.30600 213.55600 215.33900 217.26700 219.31000 221.40500 223.48800
 225.54800 227.63200 229.72900 231.83500 233.96400 236.13600 238.39200 240.76200
 243.38300 245.63400 247.63600 249.40100 250.81800 251.94100 252.76300 253.07900
 253.11600 252.89000 252.25000 251.19800 249.80400 247.96500 245.87400 243.70700
 241.49800 239.30200 237.12200 234.96100 232.82100 230.68800 228.71400 226.87100
 225.15400 223.62600 222.25600 221.02800 219.91000 218.87000 217.97400 217.11500
 216.35700 215.53700 214.63500 213.99900 213.44900 212.85855 212.01316 212.61654
 214.26826 216.08686 218.14273 220.53346 223.40855 226.78828 231.49734 235.90155
 239.42278 243.28576 247.23140 251.11907 254.80144 258.23331 261.38913 264.27520
 266.89312 269.26852 271.44504 273.08845 274.58484 275.98591 277.39845 278.65879
 279.75272 280.69038 281.56708 282.34086 283.01050 283.60295 284.14348 284.63317
 285.07358 285.46577 285.80838 286.24500
 381.81900 372.39900 361.20600 349.77600 337.62200 324.85300 311.81000 298.35300
 284.86000 271.32400 258.56100 246.30400 236.08700 226.79600 218.44800 211.29000
 205.52200 200.89400 197.38100 194.84800 193.01500 192.31500 192.25000 192.43100
 192.91200 193.53700 194.13600 194.71200 195.26200 195.83100 196.39300 196.97600
 197.60400 198.14900 198.58400 199.05700 199.69500 200.37800 201.05400 201.70800
 202.31300 202.85700 203.35500 203.86200 204.56900 205.29700 206.02600 206.98700
 208.19300 209.44100 210.96900 212.57600 214.46200 216.51300 218.63000 220.85300
 223.34100 225.96200 228.73900 231.69700 234.70600 237.70600 240.69200 243.65700
 246.73700 249.69900 252.52100 255.06300 257.29000 259.23300 260.63300 261.68000
 262.46100 262.79800 262.69100 262.22400 261.06900 259.52500 257.70700 255.50700
 253.00100 250.30200 247.39800 244.45200 241.65400 239.05400 236.73300 234.59000
 232.59500 230.72500 228.83400 226.82600 224.66600 222.38700 220.10400 217.71500
 215.45900 213.06600 210.54600 208.09300 205.35400 202.08130 196.05959 200.71215
 209.01611 216.90438 223.84126 229.78593 235.00632 240.20838 245.98943 250.68668
 254.32982 257.93487 261.55666 264.96801 268.15192 271.06452 273.76717 276.25691
 278.57680 280.74479 282.77456 284.60533 286.27232 287.81705 289.31715 290.65561
 291.81734 292.81312 293.70701 294.49387 295.17482 295.77730 296.32696 296.82492
 297.27278 297.67160 298.02000 298.46400
 399.33000 389.90700 379.81300 368.66800 357.52200 345.30100 333.07400 320.22700
 307.21600 293.84800 280.37600 267.29600 254.61000 242.98700 232.15100 221.97700
 212.67200 204.28600 197.66900 192.82100 189.48600 187.45200 186.81400 187.08900
 187.78100 189.05400 190.64800 192.54200 194.63000 196.75200 198.67100 200.15800
 201.53500 202.48700 202.97500 203.34000 203.53900 203.49700 203.38500 203.24700
 203.00500 202.78600 202.60300 202.43700 202.42600 202.88800 203.42000 203.95100
 204.89500 205.99200 207.30100 208.95800 210.73800 213.10000 215.56400 218.18000
 220.96600 223.91800 226.96100 230.09200 233.29300 236.55700 239.95500 243.53700
 246.84500 249.39000 251.54200 253.47400 255.19500 256.48400 257.43100 258.05900
 258.21200 258.04000 257.58200 256.64300 255.23900 253.50700 251.40800 249.05600
 246.57600 243.99400 241.38900 238.83000 236.34400 233.98600 231.96900 230.11800
 228.42300 226.89900 225.54800 224.29700 223.10500 221.96500 220.95800 220.11300
 219.49000 218.92000 218.32500 217.88100 217.42300 216.96366 216.35568 216.80261
 217.73415 218.28582 218.64258 219.10077 220.44626 222.53987 226.38451 230.35736
 233.59734 237.39164 241.29814 245.22796 248.98002 252.51130 255.78595 258.80109
 261.54781 264.05210 266.34239 268.04198 269.58951 271.01303 272.35754 273.55718
 274.59842 275.49092 276.28989 276.99307 277.60161 278.14001 278.63122 279.07623
 279.47646 279.83287 280.14422 280.54100
 399.73800 389.78500 379.66200 368.15100 356.64100 344.35000 331.79200 318.88800
 305.72600 292.49300 279.20900 266.73800 254.69600 244.21100 234.45700 225.43300
 217.56900 210.45100 204.30000 199.30600 195.45800 192.57600 191.02700 190.38600
 190.23900 190.53400 191.16600 191.92500 192.79500 193.76600 194.73200 195.31200
 195.80000 196.05200 196.11500 196.11500 196.03900 195.72300 195.34000 194.98900
 194.75100 194.79200 195.13300 195.59800 196.50600 198.13600 199.85800 201.56600
 204.17900 206.82300 209.89300 213.28400 216.82800 220.60500 224.38700 228.20900
 232.03200 235.82500 239.56000 243.25800 246.84500 250.20100 253.70900 257.46800
 261.53000 264.22100 266.60100 268.68100 270.32900 271.74100 272.83600 273.47400
 273.89800 274.00200 273.75700 273.28800 272.37100 271.10000 269.58900 267.77900
 265.81600 263.72100 261.39300 258.91600 256.29800 253.42300 250.33100 247.11400
 243.83700 240.52900 237.24900 233.99900 230.72800 227.51500 224.25400 220.95200
 217.62700 213.65600 210.12100 206.78900 204.01000 201.99491 199.07309 198.76551
 199.40006 200.48994 201.46112 202.31912 203.45100 204.96110 207.47502 210.85391
 213.70530 217.29629 220.99574 224.72316 228.28753 231.64854 234.68024 237.40893
 239.70644 241.60899 243.46854 245.67368 247.68154 249.52395 251.24767 252.78566
 254.12057 255.26479 256.23740 257.09036 257.82852 258.48160 259.07744 259.61723
 260.10271 260.53504 260.91270 261.39400
 399.73800 389.78500 379.66200 368.15100 356.64100 344.35000 331.79200 318.88800
 305.72600 292.49300 279.20900 266.73800 254.69600 244.21100 234.45700 225.43300
 217.56900 210.45100 204.30000 199.30600 195.45800 192.57600 191.02700 190.38600
 190.23900 190.53400 191.16600 191.92500 192.79500 193.76600 194.73200 195.31200
 195.80000 196.05200 196.11500 196.11500 196.03900 195.72300 195.34000 194.98900
 194.75100 194.79200 195.13300 195.59800 196.50600 198.13600 199.85800 201.56600
 204.17900 206.82300 209.89300 213.28400 216.82800 220.60500 224.38700 228.20900
 232.03200 235.82500 239.56000 243.25800 246.84500 250.20100 253.70900 257.46800
 261.53000 264.22100 266.60100 268.68100 270.32900 271.74100 272.83600 273.47400
 273.89800 274.00200 273.75700 273.28800 272.37100 271.10000 269.58900 267.77900
 265.81600 263.72100 261.39300 258.91600 256.29800 253.42300 250.33100 247.11400
 243.83700 240.52900 237.24900 233.99900 230.72800 227.51500 224.25400 220.95200
 217.62700 213.65600 210.12100 206.78900 204.01000 201.99491 199.07309 198.76551
 199.40006 200.48994 201.46112 202.31912 203.45100 204.96110 207.47502 210.85391
 213.70530 217.29629 220.99574 224.72316 228.28753 231.64854 234.68024 237.40893
 239.70644 241.60899 243.46854 245.67368 247.68154 249.52395 251.24767 252.78566
 254.12057 255.26479 256.23740 257.09036 257.82852 258.48160 259.07744 259.61723
 260.10271 260.53504 260.91270 261.39400
 399.33000 389.90700 379.81300 368.66800 357.52200 345.30100 333.07400 320.22700
 307.21600 293.84800 280.37600 267.29600 254.61000 242.98700 232.15100 221.97700
 212.67200 204.28600 197.66900 192.82100 189.48600 187.45200 186.81400 187.08900
 187.78100 189.05400 190.64800 192.54200 194.63000 196.75200 198.67100 200.15800
 201.53500 202.48700 202.97500 203.34000 203.53900 203.49700 203.38500 203.24700
 203.00500 202.78600 202.60300 202.43700 202.42600 202.88800 203.42000 203.95100
 204.89500 205.99200 207.30100 208.95800 210.73800 213.10000 215.56400 218.18000
 220.96600 223.91800 226.96100 230.09200 233.29300 236.55700 239.95500 243.53700
 246.84500 249.39000 251.54200 253.47400 255.19500 256.48400 257.43100 258.05900
 258.21200 258.04000 257.58200 256.64300 255.23900 253.50700 251.40800 249.05600
 246.57600 243.99400 241.38900 238.83000 236.34400 233.98600 231.96900 230.11800
 228.42300 226.89900 225.54800 224.29700 223.10500 221.96500 220.95800 220.11300
 219.49000 218.92000 218.32500 217.88100 217.42300 216.96366 216.35568 216.80261
 217.73415 218.28582 218.64258 219.10077 220.44626 222.53987 226.38451 230.35736
 233.59734 237.39164 241.29814 245.22796 248.98002 252.51130 255.78595 258.80109
 261.54781 264.05210 266.34239 268.04198 269.58951 271.01303 272.35754 273.55718
 274.59842 275.49092 276.28989 276.99307 277.60161 278.14001 278.63122 279.07623
 279.47646 279.83287 280.14422 280.54100
 381.81900 372.39900 361.20600 349.77600 337.62200 324.85300 311.81000 298.35300
 284.86000 271.32400 258.56100 246.30400 236.08700 226.79600 218.44800 211.29000
 205.52200 200.89400 197.38100 194.84800 193.01500 192.31500 192.25000 192.43100
 192.91200 193.53700 194.13600 194.71200 195.26200 195.83100 196.39300 196.97600
 197.60400 198.14900 198.58400 199.05700 199.69500 200.37800 201.05400 201.70800
 202.31300 202.85700 203.35500 203.86200 204.56900 205.29700 206.02600 206.98700
 208.19300 209.44100 210.96900 212.57600 214.46200 216.51300 218.63000 220.85300
 223.34100 225.96200 228.73900 231.69700 234.70600 237.70600 240.69200 243.65700
 246.73700 249.69900 252.52100 255.06300 257.29000 259.23300 260.63300 261.68000
 262.46100 262.79800 262.69100 262.22400 261.06900 259.52500 257.70700 255.50700
 253.00100 250.30200 247.39800 244.45200 241.65400 239.05400 236.73300 234.59000
 232.59500 230.72500 228.83400 226.82600 224.66600 222.38700 220.10400 217.71500
 215.45900 213.06600 210.54600 208.09300 205.35400 202.08130 196.05959 200.71215
 209.01611 216.90438 223.84126 229.78593 235.00632 240.20838 245.98943 250.68668
 254.32982 257.93487 261.55666 264.96801 268.15192 271.06452 273.76717 276.25691
 278.57680 280.74479 282.77456 284.60533 286.27232 287.81705 289.31715 290.65561
 291.81734 292.81312 293.70701 294.49387 295.17482 295.77730 296.32696 296.82492
 297.27278 297.67160 298.02000 298.46400
 366.78100 356.33599 345.76898 334.63596 323.03995 311.23494 299.10593 286.90992
 274.62290 262.52089 250.53088 239.83287 229.95586 221.06084 213.24383 206.24682
 200.08181 195.02080 191.60379 189.64677 188.68476 188.74975 189.58574 190.89473
 192.62071 194.71670 196.98069 199.34068 201.78667 204.26765 206.35664 208.19963
 209.82662 210.97261 211.20259 211.43158 211.36957 211.07556 210.70955 210.34053
 209.95852 209.66951 209.47850 209.34349 209.27247 209.60446 209.99145 210.38144
 211.17543 212.35441 213.60540 215.38939 217.31838 219.36237 221.45836 223.54234
 225.60333 227.68832 229.78631 231.89330 234.02328 236.19627 238.45326 240.82425
 243.44624 245.69822 247.70121 249.46720 250.88519 252.00918 252.83216 253.14915
 253.18714 252.96213 252.32312 251.27210 249.87909 248.04108 245.95107 243.78506
 241.57704 239.38203 237.20302 235.04301 232.90400 230.77198 228.79897 226.95696
 225.24095 223.71394 222.34493 221.11791 220.00090 218.96189 218.06688 217.20887
 216.45185 215.63284 214.73183 214.09682 213.54781 212.74355 210.84993 210.39891
 210.64870 211.67690 213.36339 215.67018 219.17418 223.82251 229.62061 234.78293
 238.69847 242.59950 246.61098 250.66475 254.52023 258.28143 261.10599 262.83109
 265.51270 268.35260 270.76093 272.58926 274.56763 276.57782 278.09863 279.58929
 281.24042 282.78961 284.25632 285.61505 286.79550 287.84079 288.79712 289.66669
 290.45242 291.15634 291.77676 292.60062
 366.78100 356.33625 345.76949 334.63674 323.04098 311.23623 299.10748 286.91172
 274.62497 262.52321 250.53346 239.83571 229.95895 221.06420 213.24745 206.25069
 200.08594 195.02518 191.60843 189.65168 188.68992 188.75517 189.59141 190.90066
 192.62691 194.72315 196.98740 199.34764 201.79389 204.27514 206.36438 208.20763
 209.83487 210.98112 211.21137 211.44061 211.37886 211.08511 210.71935 210.35060
 209.96884 209.68009 209.48934 209.35458 209.28383 209.61607 210.00332 210.39357
 211.18781 212.36706 213.61830 215.40255 217.33180 219.37604 221.47229 223.55653
 225.61778 227.70303 229.80127 231.90852 234.03877 236.21201 238.46926 240.84050
 243.46275 245.71500 247.71824 249.48449 250.90273 252.02698 252.85023 253.16747
 253.20572 252.98096 252.34221 251.29146 249.89870 248.06095 245.97119 243.80544
 241.59769 239.40293 237.22418 235.06442 232.92567 230.79392 228.82116 226.97941
 225.26366 223.73690 222.36815 221.14139 220.02464 218.98589 218.09113 217.23338
 216.47662 215.65787 214.75712 214.12236 213.57361 212.79007 210.94466 210.49869
 210.63878 211.78824 213.43631 215.65031 219.06906 223.75151 229.57372 234.73006
 238.63495 242.51938 246.51909 250.57697 254.45638 258.21945 261.04355 262.78061
 265.46848 268.31461 270.71875 272.50873 274.46729 276.48669 278.00443 279.48688
 281.14658 282.70517 284.16971 285.52573 286.70706 287.75369 288.71033 289.57700
 290.36478 291.06979 291.69217 292.51569
 366.78100 356.33616 345.76933 334.63649 323.04065 311.23582 299.10698 286.91114
 274.62431 262.52247 250.53263 239.83480 229.95796 221.06312 213.24629 206.24945
 200.08461 195.02378 191.60694 189.65010 188.68827 188.75343 189.58959 190.89876
 192.62492 194.72108 196.98525 199.34541 201.79157 204.27274 206.36190 208.20506
 209.83223 210.97839 211.20855 211.43772 211.37588 211.08205 210.71621 210.34737
 209.96554 209.67670 209.48586 209.35103 209.28019 209.61235 209.99952 210.38968
 211.18384 212.36301 213.61417 215.39833 217.32750 219.37166 221.46782 223.55199
 225.61315 227.69831 229.79648 231.90364 234.03380 236.20697 238.46413 240.83529
 243.45746 245.70962 247.71278 249.47895 250.89711 252.02127 252.84444 253.16160
 253.19976 252.97493 252.33609 251.28525 249.89242 248.05458 245.96474 243.79891
 241.59107 239.39623 237.21740 235.05756 232.91872 230.78689 228.81405 226.97221
 225.25638 223.72954 222.36070 221.13387 220.01703 218.97819 218.08336 217.22552
 216.46868 215.64985 214.74901 214.11417 213.56534 212.81941 211.06165 210.57153
 210.66605 211.86844 213.50050 215.65439 218.99365 223.67671 229.52415 234.67039
 238.56302 242.43393 246.42462 250.48935 254.39595 258.16116 260.98438 262.73334
 265.42105 268.27133 270.67279 272.42871 274.36832 276.39587 277.91220 279.38657
 281.05450 282.62274 284.08371 285.44119 286.62067 287.66891 288.62363 289.49246
 290.27972 290.98376 291.60895 292.43167
 366.78100 356.33603 345.76906 334.63609 323.04011 311.23514 299.10617 286.91020
 274.62323 262.52126 250.53129 239.83332 229.95634 221.06137 213.24440 206.24743
 200.08246 195.02149 191.60452 189.64754 188.68557 188.75060 189.58663 190.89566
 192.62169 194.71772 196.98174 199.34177 201.78780 204.26883 206.35786 208.20089
 209.82792 210.97395 211.20397 211.43300 211.37103 211.07706 210.71109 210.34212
 209.96015 209.67117 209.48020 209.34523 209.27426 209.60629 209.99332 210.38335
 211.17738 212.35640 213.60743 215.39146 217.32049 219.36452 221.46055 223.54458
 225.60560 227.69063 229.78866 231.89569 234.02572 236.19875 238.45578 240.82680
 243.44883 245.70086 247.70389 249.46992 250.88795 252.01198 252.83501 253.15203
 253.19006 252.96509 252.32612 251.27515 249.88218 248.04421 245.95423 243.78826
 241.58029 239.38532 237.20635 235.04638 232.90741 230.77543 228.80246 226.96049
 225.24452 223.71755 222.34858 221.12161 220.00464 218.96566 218.07069 217.21272
 216.45575 215.63678 214.73581 214.10084 213.55186 212.84561 211.18047 210.64415
 210.71156 211.92719 213.55917 215.66919 218.93367 223.59966 229.47237 234.60629
 238.48727 242.34705 246.33063 250.40248 254.33838 258.10336 260.92383 262.68378
 265.36737 268.22003 270.62079 272.34836 274.27182 276.30795 277.82535 279.29315
 280.96704 282.54007 284.00052 285.35657 286.53845 287.58478 288.54068 289.40967
 290.19742 290.90350 291.52667 292.35153
 366.78100 356.33591 345.76881 334.63572 323.03962 311.23453 299.10543 286.90934
 274.62224 262.52015 250.53005 239.83196 229.95486 221.05977 213.24267 206.24558
 200.08048 195.01939 191.60229 189.64520 188.68310 188.74801 189.58391 190.89282
 192.61872 194.71463 196.97854 199.33844 201.78435 204.26525 206.35416 208.19706
 209.82397 210.96987 211.19978 211.42868 211.36659 211.07249 210.70640 210.33730
 209.95521 209.66611 209.47502 209.33992 209.26883 209.60073 209.98764 210.37754
 211.17145 212.35035 213.60126 215.38517 217.31407 219.35798 221.45388 223.53779
 225.59869 227.68360 229.78150 231.88841 234.01831 236.19122 238.44812 240.81903
 243.44093 245.69284 247.69574 249.46165 250.87955 252.00346 252.82636 253.14327
 253.18117 252.95608 252.31698 251.26589 249.87280 248.03470 245.94461 243.77851
 241.57042 239.37532 237.19623 235.03613 232.89704 230.76494 228.79185 226.94975
 225.23366 223.70656 222.33747 221.11037 219.99328 218.95418 218.05909 217.20099
 216.44390 215.62480 214.72371 214.08862 213.53952 212.87111 211.29454 210.72462
 210.76469 211.97197 213.61136 215.69196 218.88644 223.52142 229.41795 234.53955
 238.41017 242.25981 246.23695 250.31639 254.28253 258.04559 260.86023 262.63110
 265.30804 268.16031 270.56250 272.26743 274.17773 276.22137 277.74512 279.20630
 280.88489 282.45932 283.92075 285.27701 286.45822 287.50443 288.46112 289.33014
 290.11877 290.82352 291.44949 292.27451
 366.78100 356.33576 345.76852 334.63528 323.03905 311.23381 299.10457 286.90833
 274.62109 262.51885 250.52861 239.83037 229.95314 221.05790 213.24066 206.24342
 200.07818 195.01694 191.59970 189.64246 188.68023 188.74499 189.58075 190.88951
 192.61527 194.71103 196.97479 199.33456 201.78032 204.26108 206.34984 208.19260
 209.81936 210.96512 211.19488 211.42365 211.36141 211.06717 210.70093 210.33169
 209.94945 209.66021 209.46898 209.33374 209.26250 209.59426 209.98102 210.37078
 211.16454 212.34330 213.59407 215.37783 217.30659 219.35035 221.44611 223.52987
 225.59063 227.67539 229.77316 231.87992 234.00968 236.18244 238.43920 240.80996
 243.43172 245.68349 247.68625 249.45201 250.86977 251.99353 252.81629 253.13305
 253.17081 252.94558 252.30634 251.25510 249.86186 248.02362 245.93338 243.76714
 241.55890 239.36367 237.18443 235.02419 232.88495 230.75271 228.77947 226.93723
 225.22100 223.69376 222.32452 221.09728 219.98004 218.94080 218.04556 217.18732
 216.43009 215.61085 214.70961 214.07437 213.52513 212.89447 211.40640 210.81531
 210.82385 212.00491 213.65698 215.71931 218.84979 223.44695 229.35953 234.46964
 238.33096 242.17177 246.14388 250.23175 254.23009 257.98938 260.79565 262.57919
 265.24332 268.09189 270.49698 272.18427 274.08524 276.13763 277.66940 279.12686
 280.80588 282.38348 283.84311 285.19879 286.38150 287.42740 288.38336 289.25305
 290.03998 290.74973 291.37067 292.20175
 366.78100 356.33555 345.76811 334.63466 323.03821 311.23276 299.10332 286.90687
 274.61942 262.51697 250.52653 239.82808 229.95063 221.05518 213.23774 206.24029
 200.07484 195.01339 191.59595 189.63850 188.67605 188.74060 189.57616 190.88471
 192.61026 194.70581 196.96937 199.32892 201.77447 204.25502 206.34358 208.18613
 209.81268 210.95823 211.18779 211.41634 211.35389 211.05945 210.69300 210.32355
 209.94110 209.65166 209.46021 209.32476 209.25331 209.58487 209.97142 210.36097
 211.15452 212.33308 213.58363 215.36718 217.29573 219.33929 221.43484 223.51839
 225.57894 227.66350 229.76105 231.86760 233.99715 236.16971 238.42626 240.79681
 243.41836 245.66992 247.67247 249.43802 250.85557 251.97913 252.80168 253.11823
 253.15579 252.93034 252.29089 251.23944 249.84600 248.00755 245.91710 243.75065
 241.54221 239.34676 237.16731 235.00686 232.86742 230.73497 228.76152 226.91907
 225.20263 223.67518 222.30573 221.07828 219.96084 218.92139 218.02594 217.16749
 216.41005 215.59060 214.68915 214.05370 213.50426 212.91319 211.51816 210.91545
 210.88605 212.02786 213.69482 215.74820 218.81657 223.37984 229.29866 234.39577
 238.24802 242.08159 246.05063 250.14992 254.18300 257.93741 260.73361 262.53180
 265.17447 268.01361 270.42099 272.09613 273.99307 276.05374 277.59802 279.05612
 280.73114 282.31055 283.76929 285.12549 286.30597 287.35300 288.30841 289.17850
 289.96835 290.67474 291.29889 292.12949
 366.78100 356.33530 345.76760 334.63390 323.03720 311.23149 299.10179 286.90509
 274.61739 262.51469 250.52399 239.82529 229.94759 221.05189 213.23419 206.23648
 200.07078 195.00908 191.59138 189.63368 188.67098 188.73528 189.57058 190.87888
 192.60418 194.69947 196.96277 199.32207 201.76737 204.24767 206.33597 208.17827
 209.80457 210.94987 211.17917 211.40746 211.34476 211.05006 210.68336 210.31366
 209.93096 209.64126 209.44956 209.31386 209.24215 209.57345 209.95975 210.34905
 211.14235 212.32065 213.57095 215.35425 217.28255 219.32585 221.42114 223.50444
 225.56474 227.64904 229.74634 231.85264 233.98194 236.15424 238.41054 240.78084
 243.40213 245.65343 247.65573 249.42103 250.83833 251.96163 252.78393 253.10023
 253.13753 252.91182 252.27212 251.22042 249.82672 247.98802 245.89732 243.73062
 241.52192 239.32622 237.14652 234.98581 232.84611 230.71341 228.73971 226.89701
 225.18031 223.65261 222.28291 221.05521 219.93751 218.89780 218.00210 217.14340
 216.38570 215.56600 214.66430 214.02860 213.47890 212.92831 211.62849 211.02983
 210.95085 212.04099 213.72969 215.77829 218.78319 223.32063 229.23813 234.31860
 238.15964 241.98567 245.95418 250.06898 254.14078 257.88889 260.67422 262.48889
 265.10144 267.92618 270.33603 272.00397 273.90063 275.97067 277.53229 278.99356
 280.66293 282.24100 283.69635 285.05188 286.23376 287.27988 288.23602 289.10519
 289.89474 290.60263 291.22733 292.05908
 366.78100 356.33490 345.76680 334.63270 323.03560 311.22950 299.09940 286.90230
 274.61420 262.51110 250.52000 239.82090 229.94280 221.04670 213.22860 206.23050
 200.06440 195.00230 191.58420 189.62610 188.66300 188.72690 189.56180 190.86970
 192.59460 194.68950 196.95240 199.31130 201.75620 204.23610 206.32400 208.16590
 209.79180 210.93670 211.16560 211.39350 211.33040 211.03530 210.66820 210.29810
 209.91500 209.62490 209.43280 209.29670 209.22460 209.55550 209.94140 210.33030
 211.12320 212.30110 213.55100 215.33390 217.26180 219.30470 221.39960 223.48250
 225.54240 227.62630 229.72320 231.82910 233.95800 236.12990 238.38580 240.75570
 243.37660 245.62750 247.62940 249.39430 250.81120 251.93410 252.75600 253.07190
 253.10880 252.88270 252.24260 251.19050 249.79640 247.95730 245.86620 243.69910
 241.49000 239.29390 237.11380 234.95270 232.81260 230.67950 228.70540 226.86230
 225.14520 223.61710 222.24700 221.01890 219.90080 218.86070 217.96460 217.10550
 216.34740 215.52730 214.62520 213.98910 213.43900 212.93471 211.74387 211.14719
 211.02428 212.05542 213.75662 215.80646 218.75166 223.25920 229.17287 234.23422
 238.06187 241.88255 245.85419 249.98903 254.10384 257.84488 260.61594 262.45395
 265.02786 267.83173 270.24374 271.91006 273.80969 275.89014 277.47177 278.93976
 280.59930 282.17505 283.62451 284.98056 286.16104 287.20737 288.16528 289.03491
 289.82404 290.53232 291.15814 291.99023
 366.78100 356.33455 345.76611 334.63166 323.03421 311.22776 299.09732 286.89987
 274.61142 262.50797 250.51653 239.81708 229.93863 221.04218 213.22374 206.22529
 200.05884 194.99640 191.57795 189.61950 188.65605 188.71961 189.55416 190.86171
 192.58626 194.68082 196.94337 199.30192 201.74647 204.22603 206.31358 208.15513
 209.78069 210.92524 211.15379 211.38134 211.31790 211.02245 210.65500 210.28455
 209.90111 209.61066 209.41821 209.28176 209.20932 209.53987 209.92542 210.31398
 211.10653 212.28408 213.53363 215.31619 217.24374 219.28629 221.38084 223.46340
 225.52295 227.60650 229.70305 231.80861 233.93716 236.10871 238.36427 240.73382
 243.35437 245.60492 247.60648 249.37103 250.78758 251.91013 252.73169 253.04724
 253.08379 252.85734 252.21690 251.16445 249.77000 247.93056 245.83911 243.67166
 241.46221 239.26577 237.08532 234.92387 232.78342 230.64998 228.67553 226.83208
 225.11463 223.58619 222.21574 220.98729 219.86885 218.82840 217.93195 217.07250
 216.31406 215.49361 214.59116 213.95471 213.40427 212.94267 211.85249 211.28026
 211.08859 212.06653 213.80302 215.82936 218.70349 223.20259 229.11523 234.14995
 237.96230 241.77640 245.75377 249.91171 254.07283 257.80338 260.55835 262.42282
 264.95291 267.72952 270.14270 271.81152 273.71704 275.80869 277.41449 278.89124
 280.54129 282.11111 283.55399 284.90924 286.09058 287.13791 288.09467 288.96542
 289.75467 290.46371 291.09048 291.92297
 366.78100 356.33438 345.76576 334.63115 323.03353 311.22691 299.09629 286.89867
 274.61005 262.50644 250.51482 239.81520 229.93658 221.03996 213.22134 206.22273
 200.05611 194.99349 191.57487 189.61625 188.65264 188.71602 189.55040 190.85778
 192.58216 194.67654 196.93893 199.29731 201.74169 204.22107 206.30845 208.14983
 209.77522 210.91960 211.14798 211.37536 211.31174 211.01613 210.64851 210.27789
 209.89427 209.60365 209.41103 209.27442 209.20180 209.53218 209.91756 210.30594
 211.09832 212.27571 213.52509 215.30747 217.23485 219.27723 221.37162 223.45400
 225.51338 227.59676 229.69314 231.79852 233.92691 236.09829 238.35367 240.72305
 243.34343 245.59381 247.59520 249.35958 250.77596 251.89834 252.71972 253.03511
 253.07149 252.84487 252.20425 251.15163 249.75701 247.91740 245.82578 243.65816
 241.44854 239.25192 237.07130 234.90969 232.76907 230.63545 228.66083 226.81721
 225.09960 223.57098 222.20036 220.97174 219.85312 218.81250 217.91589 217.05627
 216.29765 215.47703 214.57441 213.93779 213.38718 212.95988 211.95059 211.40504
 211.19424 212.06516 213.79385 215.87999 218.72098 223.14806 229.04428 234.05275
 237.85078 241.66156 245.64883 249.83447 254.04515 257.76093 260.50082 262.39520
 264.87854 267.62234 270.03729 271.71332 273.62537 275.72849 277.35999 278.84848
 280.48697 282.04895 283.48627 284.84109 286.02237 287.06979 288.02689 288.89777
 289.68701 290.39789 291.02124 291.85577
 366.78100 356.33436 345.76572 334.63109 323.03345 311.22681 299.09617 286.89854
 274.60990 262.50626 250.51462 239.81498 229.93635 221.03971 213.22107 206.22243
 200.05580 194.99316 191.57452 189.61588 188.65224 188.71561 189.54997 190.85733
 192.58169 194.67606 196.93842 199.29678 201.74114 204.22050 206.30787 208.14923
 209.77459 210.91895 211.14732 211.37468 211.31104 211.01540 210.64776 210.27713
 209.89349 209.60285 209.41021 209.27358 209.20094 209.53130 209.91666 210.30502
 211.09739 212.27475 213.52411 215.30647 217.23384 219.27620 221.37056 223.45292
 225.51229 227.59565 229.69201 231.79737 233.92573 236.09710 238.35246 240.72182
 243.34218 245.59255 247.59391 249.35827 250.77463 251.89699 252.71836 253.03372
 253.07008 252.84344 252.20281 251.15017 249.75553 247.91589 245.82425 243.65662
 241.44698 239.25034 237.06970 234.90807 232.76743 230.63379 228.65915 226.81551
 225.09788 223.56924 222.19860 220.96996 219.85133 218.81069 217.91405 217.05441
 216.29577 215.47514 214.57250 213.93586 213.38522 212.98473 212.03862 211.52402
 211.30400 212.08968 213.90900 215.89111 218.60509 223.07455 228.96230 233.94272
 237.73166 241.54314 245.54492 249.76245 254.02559 257.72641 260.45508 262.38354
 264.81274 267.51630 269.93219 271.61707 273.53561 275.64886 277.30493 278.80594
 280.43411 281.98810 283.41971 284.77405 285.95590 287.00375 287.96078 288.83188
 289.62372 290.33023 290.95975 291.79364
 366.78100 356.33405 345.76510 334.63014 323.03219 311.22524 299.09429 286.89634
 274.60739 262.50343 250.51148 239.81153 229.93258 221.03563 213.21667 206.21772
 200.05077 194.98782 191.56887 189.60992 188.64596 188.70901 189.54306 190.85011
 192.57416 194.66821 196.93025 199.28830 201.73235 204.21140 206.29845 208.13949
 209.76454 210.90859 211.13664 211.36369 211.29974 211.00378 210.63583 210.26488
 209.88093 209.58998 209.39702 209.26007 209.18712 209.51717 209.90222 210.29027
 211.08231 212.25936 213.50841 215.29046 217.21751 219.25956 221.35360 223.43565
 225.49470 227.57775 229.67380 231.77884 233.90689 236.07794 238.33299 240.70204
 243.32209 245.57213 247.57318 249.33723 250.75328 251.87533 252.69637 253.01142
 253.04747 252.82052 252.17957 251.12662 249.73166 247.89171 245.79976 243.63181
 241.42186 239.22490 237.04395 234.88200 232.74105 230.60710 228.63215 226.78819
 225.07024 223.54129 222.17034 220.94139 219.82244 218.78148 217.88453 217.02458
 216.26563 215.44468 214.54172 213.90477 213.35382 212.99486 212.14677 211.61369
 211.42790 212.19014 213.90289 215.84178 218.54257 222.99124 228.90663 233.85294
 237.62521 241.43623 245.45210 249.70047 254.01579 257.70114 260.41769 262.37979
 264.74951 267.40628 269.81894 271.51428 273.44223 275.56534 277.24429 278.76010
 280.38159 281.92645 283.35577 284.71039 285.89197 286.94043 287.89679 288.76883
 289.55933 290.26794 290.89581 291.73456
 366.78100 356.33316 345.76331 334.62747 323.02863 311.22079 299.08894 286.89010
 274.60026 262.49542 250.50257 239.80173 229.92189 221.02405 213.20420 206.20436
 200.03652 194.97268 191.55283 189.59299 188.62815 188.69031 189.52346 190.82962
 192.55278 194.64593 196.90709 199.26425 201.70741 204.18556 206.27172 208.11188
 209.73604 210.87919 211.10635 211.33251 211.26767 210.97082 210.60198 210.23014
 209.84530 209.55345 209.35961 209.22177 209.14793 209.47708 209.86124 210.24840
 211.03956 212.21571 213.46387 215.24503 217.17118 219.21234 221.30550 223.38666
 225.44481 227.52697 229.62213 231.72629 233.85344 236.02360 238.27776 240.64592
 243.26507 245.51423 247.51439 249.27755 250.69270 251.81386 252.63402 252.94818
 252.98333 252.75549 252.11365 251.05980 249.66396 247.82312 245.73028 243.56143
 241.35059 239.15275 236.97091 234.80806 232.66622 230.53138 228.55554 226.71069
 224.99185 223.46201 222.09017 220.86032 219.74048 218.69864 217.80080 216.93995
 216.18011 215.35827 214.45443 213.81658 213.26474 212.97577 212.29306 211.69284
 211.49788 212.24681 213.87044 215.87637 218.59366 222.91898 228.84471 233.76012
 237.51730 241.33064 245.36267 249.64235 254.00630 257.67358 260.37296 262.36685
 264.68021 267.28925 269.69962 271.40845 273.34888 275.48325 277.18628 278.71616
 280.33099 281.86606 283.29434 284.64941 285.83020 286.87830 287.83585 288.70828
 289.49890 290.20990 290.83618 291.67642
 366.78100 356.33246 345.76192 334.62539 323.02585 311.21731 299.08477 286.88523
 274.59470 262.48916 250.49562 239.79408 229.91354 221.01501 213.19447 206.19393
 200.02539 194.96085 191.54032 189.57978 188.61424 188.67570 189.50817 190.81363
 192.53609 194.62855 196.88901 199.24548 201.68794 204.16540 206.25086 208.09032
 209.71379 210.85625 211.08271 211.30817 211.24263 210.94510 210.57556 210.20302
 209.81748 209.52494 209.33041 209.19187 209.11733 209.44579 209.82925 210.21572
 211.00618 212.18164 213.42910 215.20956 217.13503 219.17549 221.26795 223.34841
 225.40588 227.48734 229.58180 231.68526 233.81172 235.98119 238.23465 240.60211
 243.22057 245.46903 247.46850 249.23096 250.64542 251.76588 252.58534 252.89881
 252.93327 252.70473 252.06219 251.00765 249.61112 247.76958 245.67604 243.50650
 241.29496 239.09643 236.91389 234.75035 232.60781 230.47227 228.49574 226.65020
 224.93066 223.40012 222.02759 220.79705 219.67651 218.63397 217.73543 216.87390
 216.11336 215.29082 214.38628 213.74774 213.19521 212.96541 212.42247 211.80673
 211.53506 212.27127 213.89090 215.94809 218.63914 222.84422 228.76697 233.65784
 237.40469 241.22411 245.27513 249.58687 253.99622 257.64120 260.31964 262.34454
 264.60837 267.17163 269.58096 271.30936 273.26245 275.40771 277.13266 278.67682
 280.28397 281.80664 283.23471 284.58994 285.77167 286.81851 287.77756 288.65158
 289.44147 290.15158 290.78021 291.62021
 366.78100 356.33218 345.76136 334.62454 323.02472 311.21590 299.08308 286.88326
 274.59244 262.48662 250.49280 239.79098 229.91016 221.01134 213.19051 206.18969
 200.02087 194.95605 191.53523 189.57441 188.60859 188.66977 189.50195 190.80713
 192.52931 194.62149 196.88167 199.23785 201.68003 204.15721 206.24239 208.08157
 209.70475 210.84693 211.07311 211.29829 211.23247 210.93465 210.56483 210.19201
 209.80618 209.51336 209.31854 209.17972 209.10490 209.43308 209.81626 210.20244
 210.99262 212.16780 213.41498 215.19516 217.12034 219.16052 221.25270 223.33288
 225.39006 227.47124 229.56542 231.66860 233.79478 235.96396 238.21714 240.58432
 243.20250 245.45068 247.44985 249.21203 250.62621 251.74639 252.56557 252.87875
 252.91293 252.68411 252.04129 250.98647 249.58965 247.74783 245.65401 243.48419
 241.27237 239.07355 236.89073 234.72691 232.58409 230.44827 228.47145 226.62563
 224.90581 223.37499 222.00217 220.77135 219.65052 218.60770 217.70888 216.84706
 216.08624 215.26342 214.35860 213.71978 213.16696 212.97516 212.52199 211.94881
 211.56824 212.28909 213.94855 216.00681 218.63745 222.77309 228.69476 233.55865
 237.29242 241.11749 245.18962 249.53392 253.98524 257.60507 260.25989 262.31744
 264.53751 267.05652 269.46658 271.21701 273.18231 275.33545 277.08124 278.63736
 280.23892 281.75092 283.17822 284.53381 285.71539 286.76401 287.72238 288.59448
 289.38525 290.09686 290.72488 291.56793
 366.78100 356.33200 345.76099 334.62399 323.02398 311.21498 299.08198 286.88197
 274.59097 262.48497 250.49096 239.78896 229.90795 221.00895 213.18795 206.18694
 200.01794 194.95294 191.53193 189.57093 188.60492 188.66592 189.49792 190.80291
 192.52491 194.61691 196.87690 199.23290 201.67489 204.15189 206.23689 208.07588
 209.69888 210.84087 211.06687 211.29187 211.22586 210.92786 210.55786 210.18485
 209.79885 209.50584 209.31084 209.17184 209.09683 209.42483 209.80783 210.19382
 210.98382 212.15881 213.40581 215.18581 217.11080 219.15080 221.24280 223.32279
 225.37979 227.46078 229.55478 231.65778 233.78377 235.95277 238.20576 240.57276
 243.19076 245.43875 247.43775 249.19975 250.61374 251.73374 252.55273 252.86573
 252.89973 252.67072 252.02772 250.97272 249.57571 247.73371 245.63970 243.46970
 241.25770 239.05869 236.87569 234.71169 232.56868 230.43268 228.45567 226.60967
 224.88967 223.35866 221.98566 220.75465 219.63365 218.59065 217.69164 216.82964
 216.06864 215.24563 214.34063 213.70162 213.14862 212.98984 212.61470 212.08972
 211.61336 212.31534 214.00618 216.04779 218.62138 222.71033 228.63217 233.46375
 237.17990 241.01070 245.10555 249.48340 253.97191 257.56485 260.19553 262.28519
 264.46686 266.94379 269.35416 271.12979 273.10638 275.26614 277.02725 278.59567
 280.19464 281.69528 283.12589 284.48047 285.66287 286.71115 287.66965 288.54526
 289.33542 290.04501 290.67444 291.52145
 366.78100 356.33178 345.76056 334.62333 323.02311 311.21389 299.08067 286.88045
 274.58922 262.48300 250.48878 239.78656 229.90534 221.00611 213.18489 206.18367
 200.01445 194.94923 191.52800 189.56678 188.60056 188.66134 189.49312 190.79789
 192.51967 194.61145 196.87123 199.22701 201.66878 204.14556 206.23034 208.06912
 209.69190 210.83367 211.05945 211.28423 211.21801 210.91979 210.54956 210.17634
 209.79012 209.49690 209.30168 209.16245 209.08723 209.41501 209.79779 210.18357
 210.97334 212.14812 213.39490 215.17468 217.09946 219.13923 221.23101 223.31079
 225.36757 227.44835 229.54212 231.64490 233.77068 235.93946 238.19224 240.55901
 243.17679 245.42457 247.42335 249.18513 250.59890 251.71868 252.53746 252.85024
 252.88402 252.65479 252.01157 250.95635 249.55913 247.71691 245.62268 243.45246
 241.24024 239.04102 236.85780 234.69357 232.55035 230.41413 228.43691 226.59069
 224.87046 223.33924 221.96602 220.73480 219.61358 218.57035 217.67113 216.80891
 216.04769 215.22447 214.31924 213.68002 213.12680 213.00272 212.70955 212.21878
 211.67369 212.34950 214.05199 216.07918 218.61137 222.65314 228.57014 233.36871
 237.06616 240.90518 245.02599 249.43643 253.95477 257.51984 260.12674 262.24548
 264.39441 266.83331 269.24371 271.04526 273.03476 275.19907 276.97427 278.55093
 280.14862 281.63577 283.07803 284.43500 285.61682 286.66455 287.62448 288.49869
 289.29031 290.00134 290.62967 291.47446
 366.78100 356.33157 345.76014 334.62271 323.02229 311.21286 299.07943 286.87900
 274.58757 262.48114 250.48671 239.78429 229.90286 221.00343 213.18200 206.18057
 200.01114 194.94571 191.52429 189.56286 188.59643 188.65700 189.48857 190.79314
 192.51471 194.60629 196.86586 199.22143 201.66300 204.13957 206.22414 208.06271
 209.68528 210.82686 211.05243 211.27700 211.21057 210.91214 210.54171 210.16828
 209.78186 209.48843 209.29300 209.15357 209.07814 209.40571 209.78828 210.17386
 210.96343 212.13800 213.38457 215.16414 217.08871 219.12828 221.21986 223.29943
 225.35600 227.43657 229.53014 231.63271 233.75828 235.92686 238.17943 240.54600
 243.16357 245.41114 247.40971 249.17128 250.58486 251.70443 252.52300 252.83557
 252.86914 252.63971 251.99628 250.94086 249.54343 247.70100 245.60657 243.43614
 241.22371 239.02428 236.84085 234.67643 232.53300 230.39657 228.41914 226.57271
 224.85228 223.32085 221.94743 220.71600 219.59457 218.55114 217.65171 216.78928
 216.02785 215.20443 214.29900 213.65957 213.10614 213.01640 212.80437 212.34041
 211.74539 212.38741 214.09015 216.10808 218.60909 222.60152 228.50571 233.27057
 236.95346 240.80452 244.95268 249.39337 253.93375 257.46854 260.05017 262.19379
 264.31754 266.72491 269.13644 270.96649 272.96954 275.13730 276.92114 278.50381
 280.10086 281.57318 283.03674 284.39474 285.57599 286.62509 287.58386 288.45984
 289.24988 289.96185 290.59030 291.43689
 366.78100 356.33149 345.75998 334.62247 323.02196 311.21245 299.07894 286.87843
 274.58693 262.48042 250.48591 239.78340 229.90189 221.00238 213.18087 206.17936
 200.00985 194.94434 191.52283 189.56132 188.59481 188.65530 189.48680 190.79129
 192.51278 194.60427 196.86376 199.21925 201.66074 204.13723 206.22172 208.06021
 209.68270 210.82419 211.04968 211.27417 211.20766 210.90916 210.53865 210.16514
 209.77863 209.48512 209.28961 209.15010 209.07459 209.40208 209.78457 210.17006
 210.95955 212.13404 213.38053 215.16002 217.08452 219.12401 221.21550 223.29499
 225.35148 227.43197 229.52546 231.62795 233.75344 235.92193 238.17442 240.54091
 243.15840 245.40589 247.40439 249.16588 250.57937 251.69886 252.51735 252.82984
 252.86333 252.63382 251.99031 250.93480 249.53729 247.69478 245.60027 243.42976
 241.21725 239.01775 236.83424 234.66973 232.52622 230.38971 228.41220 226.56569
 224.84518 223.31367 221.94016 220.70865 219.58714 218.54363 217.64412 216.78161
 216.02011 215.19660 214.29109 213.65158 213.09807 213.03676 212.89189 212.46114
 211.82904 212.42308 214.11961 216.13904 218.61624 222.55544 228.43800 233.17120
 236.84465 240.71031 244.88728 249.35364 253.90675 257.40878 259.96240 262.12643
 264.23505 266.61893 269.03427 270.89490 272.91168 275.08148 276.87003 278.45532
 280.05283 281.51425 282.99820 284.35892 285.54019 286.58749 287.54941 288.42313
 289.21500 289.92743 290.55487 291.40225
 366.78100 356.33153 345.76006 334.62259 323.02212 311.21265 299.07918 286.87871
 274.58723 262.48076 250.48629 239.78382 229.90235 221.00288 213.18141 206.17994
 200.01047 194.94500 191.52353 189.56206 188.59559 188.65612 189.48764 190.79217
 192.51370 194.60523 196.86476 199.22029 201.66182 204.13835 206.22288 208.06141
 209.68394 210.82547 211.05100 211.27553 211.20905 210.91058 210.54011 210.16664
 209.78017 209.48670 209.29123 209.15176 209.07629 209.40382 209.78635 210.17188
 210.96141 212.13594 213.38246 215.16199 217.08652 219.12605 221.21758 223.29711
 225.35364 227.43417 229.52770 231.63023 233.75576 235.92429 238.17682 240.54335
 243.16087 245.40840 247.40693 249.16846 250.58199 251.70152 252.52005 252.83258
 252.86611 252.63664 251.99317 250.93770 249.54023 247.69776 245.60328 243.43281
 241.22034 239.02087 236.83740 234.67293 232.52946 230.39299 228.41552 226.56905
 224.84858 223.31711 221.94364 220.71217 219.59069 218.54722 217.64775 216.78528
 216.02381 215.20034 214.29487 213.65540 213.10193 213.06310 212.97134 212.58379
 211.91667 212.45480 214.14650 216.17232 218.62207 222.51477 228.37347 233.07462
 236.74205 240.62344 244.82948 249.31775 253.87335 257.34064 259.86386 262.04163
 264.14505 266.51483 268.93567 270.82870 272.86072 275.03180 276.81982 278.40649
 280.00803 281.46649 282.96582 284.32663 285.50900 286.55658 287.51712 288.39178
 289.18365 289.89499 290.52307 291.37234
 366.78100 356.33161 345.76023 334.62284 323.02245 311.21307 299.07968 286.87929
 274.58791 262.48152 250.48713 239.78475 229.90336 221.00397 213.18258 206.18120
 200.01181 194.94642 191.52504 189.56365 188.59726 188.65788 189.48949 190.79410
 192.51572 194.60733 196.86694 199.22256 201.66417 204.14078 206.22540 208.06401
 209.68662 210.82824 211.05385 211.27846 211.21208 210.91369 210.54330 210.16992
 209.78353 209.49014 209.29475 209.15537 209.07998 209.40759 209.79021 210.17582
 210.96543 212.14005 213.38666 215.16627 217.09089 219.13050 221.22211 223.30173
 225.35834 227.43895 229.53257 231.63518 233.76079 235.92941 238.18202 240.54863
 243.16625 245.41386 247.41247 249.17409 250.58770 251.70731 252.52592 252.83854
 252.87215 252.64276 251.99938 250.94399 249.54660 247.70422 245.60983 243.43944
 241.22706 239.02767 236.84428 234.67990 232.53651 230.40012 228.42274 226.57635
 224.85596 223.32458 221.95119 220.71980 219.59842 218.55503 217.65564 216.79325
 216.03187 215.20848 214.30309 213.66371 213.11032 213.09210 213.04904 212.70447
 212.00711 212.48616 214.17116 216.20583 218.63301 222.47800 228.30946 232.98459
 236.64781 240.54700 244.78098 249.28680 253.83389 257.26315 259.75272 261.93631
 264.04401 266.40961 268.83777 270.76483 272.81647 274.98648 276.77191 278.35809
 279.96744 281.43027 282.94019 284.30035 285.48340 286.53055 287.49332 288.36636
 289.15878 289.87115 290.49982 291.35107
 366.78100 356.33189 345.76079 334.62368 323.02357 311.21446 299.08136 286.88125
 274.59014 262.48403 250.48993 239.78782 229.90671 221.00760 213.18650 206.18539
 200.01628 194.95117 191.53007 189.56896 188.60285 188.66374 189.49564 190.80053
 192.52242 194.61431 196.87421 199.23010 201.67199 204.14889 206.23378 208.07267
 209.69556 210.83746 211.06335 211.28824 211.22213 210.92403 210.55392 210.18081
 209.79470 209.50160 209.30649 209.16738 209.09227 209.42017 209.80306 210.18895
 210.97884 212.15374 213.40063 215.18052 217.10542 219.14531 221.23720 223.31709
 225.37399 227.45488 229.54877 231.65166 233.77756 235.94645 238.19934 240.56623
 243.18413 245.43202 247.43091 249.19280 250.60670 251.72659 252.54548 252.85837
 252.89227 252.66316 252.02005 250.96494 249.56784 247.72573 245.63162 243.46152
 241.24941 239.05030 236.86719 234.70309 232.55998 230.42387 228.44676 226.60066
 224.88055 223.34944 221.97633 220.74523 219.62412 218.58101 217.68190 216.81980
 216.05869 215.23558 214.33047 213.69137 213.13826 213.13101 213.11386 212.82787
 212.09932 212.51338 214.20149 216.24319 218.63956 222.44252 228.24898 232.89854
 236.55759 240.47595 244.73898 249.25945 253.78757 257.17682 259.63135 261.81235
 263.93356 266.30420 268.74017 270.70367 272.77744 274.94739 276.72504 278.31024
 279.92957 281.40167 282.92175 284.28339 285.46539 286.51422 287.47504 288.35001
 289.14255 289.85455 290.48376 291.33160
 366.78100 356.33218 345.76135 334.62453 323.02471 311.21588 299.08306 286.88324
 274.59241 262.48659 250.49277 239.79094 229.91012 221.01130 213.19047 206.18965
 200.02083 194.95600 191.53518 189.57435 188.60853 188.66971 189.50188 190.80706
 192.52924 194.62141 196.88159 199.23777 201.67994 204.15712 206.24230 208.08147
 209.70465 210.84683 211.07300 211.29818 211.23236 210.93453 210.56471 210.19189
 209.80606 209.51324 209.31842 209.17959 209.10477 209.43295 209.81612 210.20230
 210.99248 212.16765 213.41483 215.19500 217.12018 219.16036 221.25253 223.33271
 225.38989 227.47106 229.56524 231.66842 233.79459 235.96377 238.21695 240.58412
 243.20230 245.45048 247.44965 249.21183 250.62601 251.74618 252.56536 252.87854
 252.91271 252.68389 252.04107 250.98624 249.58942 247.74760 245.65377 243.48395
 241.27213 239.07330 236.89048 234.72665 232.58383 230.44801 228.47118 226.62536
 224.90554 223.37471 222.00189 220.77107 219.65024 218.60742 217.70860 216.84677
 216.08595 215.26313 214.35830 213.71948 213.16666 213.17082 213.18069 212.93204
 212.21011 212.54930 214.21269 216.28371 218.66667 222.41144 228.18196 232.80833
 236.47093 240.41164 244.70526 249.23743 253.73651 257.08426 259.50287 261.67178
 263.81302 266.19583 268.64090 270.64380 272.74234 274.91177 276.67981 278.26141
 279.89545 281.38116 282.91150 284.27344 285.45541 286.50531 287.46539 288.33987
 289.13330 289.84671 290.47195 291.32367
 366.78100 356.33277 345.76254 334.62631 323.02708 311.21885 299.08662 286.88739
 274.59716 262.49193 250.49870 239.79747 229.91724 221.01901 213.19878 206.19855
 200.03031 194.96608 191.54585 189.58562 188.62039 188.68216 189.51493 190.82070
 192.54347 194.63624 196.89701 199.25378 201.69655 204.17432 206.26009 208.09986
 209.72363 210.86640 211.09317 211.31894 211.25371 210.95648 210.58725 210.21502
 209.82979 209.53756 209.34333 209.20510 209.13087 209.45964 209.84341 210.23017
 211.02094 212.19671 213.44448 215.22525 217.15102 219.19179 221.28456 223.36533
 225.42310 227.50487 229.59964 231.70341 233.83018 235.99995 238.25372 240.62149
 243.24026 245.48903 247.48880 249.25157 250.66634 251.78711 252.60688 252.92065
 252.95542 252.72719 252.08496 251.03073 249.63450 247.79326 245.70003 243.53080
 241.31957 239.12134 236.93911 234.77588 232.63365 230.49842 228.52219 226.67696
 224.95773 223.42750 222.05527 220.82504 219.70481 218.66258 217.76435 216.90312
 216.14289 215.32066 214.41643 213.77820 213.22597 213.22614 213.22652 213.05078
 212.30606 212.59305 214.25639 216.31421 218.67178 222.37483 228.12250 232.72638
 236.39052 240.35402 244.67793 249.21822 253.67659 256.97867 259.35913 261.51007
 263.68127 266.08670 268.54330 270.59082 272.71747 274.88510 276.64255 278.21823
 279.86685 281.37201 282.90533 284.26837 285.45074 286.50003 287.46109 288.33646
 289.12842 289.84085 290.46988 291.31931
 366.78100 356.33395 345.76490 334.62986 323.03181 311.22476 299.09371 286.89567
 274.60662 262.50257 250.51052 239.81048 229.93143 221.03438 213.21533 206.21629
 200.04924 194.98619 191.56714 189.60810 188.64405 188.70700 189.54095 190.84790
 192.57186 194.66581 196.92776 199.28571 201.72967 204.20862 206.29557 208.13652
 209.76148 210.90543 211.13338 211.36033 211.29629 211.00024 210.63219 210.26114
 209.87710 209.58605 209.39300 209.25595 209.18290 209.51286 209.89781 210.28576
 211.07771 212.25467 213.50362 215.28557 217.21252 219.25448 221.34843 223.43038
 225.48933 227.57229 229.66824 231.77319 233.90114 236.07210 238.32705 240.69600
 243.31595 245.56590 247.56686 249.33081 250.74676 251.86871 252.68967 253.00462
 253.04057 252.81352 252.17248 251.11943 249.72438 247.88433 245.79229 243.62424
 241.41419 239.21714 237.03610 234.87405 232.73300 230.59895 228.62390 226.77986
 225.06181 223.53276 222.16171 220.93267 219.81362 218.77257 217.87552 217.01548
 216.25643 215.43538 214.53233 213.89529 213.34424 213.31390 213.24223 213.13162
 212.50540 212.62196 214.22849 216.36642 218.71492 222.35202 228.05304 232.63016
 236.30403 240.29333 244.65083 249.19775 253.60460 256.85831 259.20316 261.33517
 263.54617 265.98212 268.45309 270.54895 272.70319 274.86896 276.61392 278.18082
 279.84360 281.36993 282.90536 284.26810 285.45160 286.50003 287.46204 288.33691
 289.12994 289.84253 290.47031 291.31665
 366.78100 356.33445 345.76590 334.63135 323.03380 311.22725 299.09670 286.89915
 274.61060 262.50705 250.51550 239.81595 229.93740 221.04085 213.22230 206.22375
 200.05720 194.99465 191.57610 189.61756 188.65401 188.71746 189.55191 190.85936
 192.58381 194.67826 196.94071 199.29916 201.74361 204.22306 206.31051 208.15196
 209.77741 210.92186 211.15031 211.37776 211.31421 211.01866 210.65111 210.28056
 209.89701 209.60646 209.41391 209.27736 209.20481 209.53526 209.92071 210.30916
 211.10161 212.27906 213.52851 215.31096 217.23841 219.28086 221.37531 223.45777
 225.51722 227.60067 229.69712 231.80257 233.93102 236.10247 238.35792 240.72737
 243.34782 245.59827 247.59972 249.36417 250.78062 251.90307 252.72452 253.03997
 253.07642 252.84987 252.20932 251.15677 249.76222 247.92267 245.83112 243.66357
 241.45402 239.25747 237.07692 234.91537 232.77482 230.64127 228.66672 226.82317
 225.10562 223.57707 222.20652 220.97798 219.85943 218.81888 217.92233 217.06278
 216.30423 215.48368 214.58113 213.94458 213.39403 213.36832 213.30756 213.17767
 212.60220 212.79781 214.25694 216.36113 218.74675 222.30240 227.98059 232.53368
 236.21600 240.23564 244.62801 249.17824 253.52637 256.73312 259.04495 261.15500
 263.41043 265.88058 268.36609 270.51151 272.69403 274.85568 276.58594 278.14368
 279.82101 281.36990 282.90808 284.27158 285.45377 286.50458 287.46503 288.34067
 289.13293 289.84503 290.47549 291.32285
 366.78100 356.33512 345.76725 334.63337 323.03649 311.23062 299.10074 286.90386
 274.61598 262.51311 250.52223 239.82335 229.94548 221.04960 213.23172 206.23385
 200.06797 195.00609 191.58821 189.63034 188.66746 188.73158 189.56671 190.87483
 192.59995 194.69508 196.95820 199.31732 201.76245 204.24257 206.33069 208.17281
 209.79894 210.94406 211.17318 211.40131 211.33843 211.04355 210.67668 210.30680
 209.92392 209.63404 209.44217 209.30629 209.23441 209.56554 209.95166 210.34078
 211.13391 212.31203 213.56215 215.34527 217.27340 219.31652 221.41164 223.49477
 225.55489 227.63901 229.73614 231.84226 233.97138 236.14351 238.39963 240.76975
 243.39087 245.64200 247.64412 249.40924 250.82637 251.94949 252.77161 253.08774
 253.12486 252.89898 252.25910 251.20723 249.81335 247.97447 245.88360 243.71672
 241.50784 239.31197 237.13209 234.97121 232.83134 230.69846 228.72458 226.88170
 225.16483 223.63695 222.26707 221.03920 219.92132 218.88144 217.98557 217.12669
 216.36881 215.54893 214.64706 214.01118 213.46130 213.43195 213.36261 213.25670
 212.60928 212.94066 214.35951 216.39012 218.79404 222.25406 227.90076 232.43781
 236.13394 240.18668 244.61255 249.16191 253.44591 256.60681 258.88623 260.97049
 263.27271 265.78030 268.27948 270.47369 272.68454 274.84155 276.55472 278.10287
 279.79947 281.37204 282.91260 284.27704 285.46011 286.50955 287.47125 288.34674
 289.14023 289.85056 290.48038 291.32947
 366.78100 356.33582 345.76863 334.63545 323.03926 311.23408 299.10489 286.90871
 274.62152 262.51934 250.52915 239.83097 229.95378 221.05860 213.24141 206.24423
 200.07905 195.01786 191.60068 189.64349 188.68131 188.74612 189.58194 190.89075
 192.61657 194.71238 196.97620 199.33601 201.78183 204.26264 206.35146 208.19428
 209.82109 210.96691 211.19672 211.42554 211.36335 211.06917 210.70298 210.33380
 209.95161 209.66243 209.47124 209.33606 209.26487 209.59669 209.98351 210.37332
 211.16714 212.34595 213.59677 215.38058 217.30940 219.35321 221.44903 223.53284
 225.59366 227.67847 229.77629 231.88310 234.01292 236.18574 238.44255 240.81337
 243.43518 245.68700 247.68981 249.45563 250.87344 251.99726 252.82007 253.13689
 253.17470 252.94952 252.31033 251.25915 249.86596 248.02778 245.93760 243.77141
 241.56323 239.36804 237.18886 235.02867 232.88949 230.75730 228.78412 226.94193
 225.22575 223.69856 222.32938 221.10219 219.98501 218.94583 218.05064 217.19246
 216.43527 215.61609 214.71490 214.07972 213.53053 213.49730 213.41879 213.31633
 212.64343 213.05165 214.46494 216.44658 218.84552 222.20613 227.81639 232.34505
 236.05946 240.14653 244.60326 249.14616 253.36012 256.47382 258.72153 260.77994
 263.13266 265.68115 268.19293 270.43652 272.67499 274.82654 276.52109 278.06079
 279.77707 281.37579 282.91898 284.28363 285.46619 286.51605 287.47818 288.35382
 289.14734 289.86050 290.48724 291.33557
 366.78100 356.33642 345.76984 334.63727 323.04169 311.23711 299.10853 286.91296
 274.62638 262.52480 250.53522 239.83765 229.96107 221.06649 213.24991 206.25334
 200.08876 195.02818 191.61160 189.65503 188.69345 188.75887 189.59529 190.90472
 192.63114 194.72756 196.99198 199.35241 201.79883 204.28025 206.36967 208.21310
 209.84052 210.98694 211.21736 211.44679 211.38521 211.09163 210.72605 210.35748
 209.97590 209.68732 209.49674 209.36217 209.29159 209.62401 210.01143 210.40186
 211.19628 212.37570 213.62712 215.41155 217.34097 219.38539 221.48181 223.56624
 225.62766 227.71308 229.81150 231.91893 234.04935 236.22277 238.48019 240.85162
 243.47404 245.72646 247.72988 249.49631 250.91473 252.03915 252.86257 253.18000
 253.21842 252.99384 252.35526 251.30469 249.91211 248.07453 245.98495 243.81938
 241.61180 239.41722 237.23864 235.07907 232.94049 230.80891 228.83633 226.99476
 225.27918 223.75260 222.38402 221.15745 220.04087 219.00229 218.10771 217.25014
 216.49356 215.67498 214.77440 214.13983 213.59125 213.55971 213.48515 213.33714
 212.72427 213.15646 214.55443 216.51508 218.87514 222.15663 227.74080 232.26106
 235.99420 240.11328 244.59647 249.12735 253.26485 256.33035 258.54971 260.58597
 262.99323 265.58337 268.10831 270.40021 272.66492 274.81155 276.48633 278.01889
 279.75540 281.37866 282.92426 284.28879 285.47177 286.52179 287.48303 288.35904
 289.15222 289.86597 290.49136 291.34100
 366.78100 356.33730 345.77161 334.63991 323.04522 311.24152 299.11383 286.91913
 274.63344 262.53274 250.54404 239.84735 229.97165 221.07796 213.26226 206.26657
 200.10287 195.04318 191.62748 189.67178 188.71109 188.77739 189.61470 190.92500
 192.65231 194.74961 197.01492 199.37622 201.82352 204.30583 206.39613 208.24044
 209.86874 211.01605 211.24735 211.47766 211.41696 211.12426 210.75957 210.39187
 210.01118 209.72348 209.53379 209.40009 209.33040 209.66370 210.05200 210.44331
 211.23861 212.41892 213.67122 215.45653 217.38683 219.43213 221.52944 223.61474
 225.67705 227.76335 229.86266 231.97096 234.10227 236.27657 238.53487 240.90718
 243.53048 245.78379 247.78809 249.55540 250.97470 252.10001 252.92431 253.24261
 253.28192 253.05822 252.42053 251.37083 249.97914 248.14244 246.05375 243.88905
 241.68235 239.48866 237.31096 235.15227 233.01457 230.88388 228.91218 227.07149
 225.35679 223.83109 222.46340 221.23770 220.12201 219.08431 218.19062 217.33392
 216.57823 215.76053 214.86083 214.22714 213.67944 213.63643 213.53484 213.35199
 212.82285 213.25763 214.64226 216.58717 218.88754 222.11124 227.67564 232.18457
 235.93491 240.08495 244.58952 249.10214 253.15877 256.17606 258.37231 260.39240
 262.85614 265.48886 268.02719 270.36560 272.65399 274.79410 276.44943 277.97443
 279.72964 281.38062 282.92764 284.29239 285.47659 286.52554 287.48773 288.36270
 289.15598 289.86612 290.49411 291.34250
 366.78100 356.33849 345.77398 334.64346 323.04995 311.24744 299.12093 286.92741
 274.64290 262.54339 250.55588 239.86036 229.98585 221.09334 213.27883 206.28431
 200.12180 195.06329 191.64878 189.69426 188.73475 188.80224 189.64073 190.95221
 192.68070 194.77919 197.04568 199.40817 201.85665 204.34014 206.43163 208.27712
 209.90660 211.05509 211.28758 211.51907 211.45955 211.16804 210.80453 210.43802
 210.05850 209.77199 209.58348 209.45097 209.38245 209.71694 210.10643 210.49892
 211.29540 212.47689 213.73038 215.51687 217.44836 219.49484 221.59333 223.67982
 225.74331 227.83079 229.93128 232.04077 234.17326 236.34874 238.60823 240.98172
 243.60621 245.86069 247.86618 249.63467 251.05516 252.18164 253.00713 253.32662
 253.36711 253.14459 252.50808 251.45957 250.06906 248.23355 246.14603 243.98252
 241.77701 239.58450 237.40798 235.25047 233.11396 230.98445 229.01393 227.17442
 225.46091 223.93640 222.56988 221.34537 220.23086 219.19435 218.30183 217.44632
 216.69181 215.87530 214.97678 214.34427 213.79776 213.72766 213.56204 213.37817
 212.92172 213.35414 214.73416 216.65649 218.89438 222.07433 227.61391 232.11092
 235.88010 240.06097 244.58144 249.06888 253.04169 256.01193 258.19104 260.20206
 262.72375 265.39700 267.94974 270.33240 272.64151 274.77737 276.41479 277.93219
 279.70279 281.37753 282.92630 284.29120 285.47263 286.52194 287.48431 288.36084
 289.15469 289.86362 290.49200 291.33798
 366.78100 356.33976 345.77651 334.64727 323.05503 311.25378 299.12854 286.93630
 274.65306 262.55481 250.56857 239.87433 230.00108 221.10984 213.29660 206.30335
 200.14211 195.08487 191.67163 189.71838 188.76014 188.82890 189.66865 190.98141
 192.71117 194.81092 197.07868 199.44244 201.89220 204.37695 206.46971 208.31647
 209.94722 211.09698 211.33074 211.56349 211.50525 211.21501 210.85277 210.48752
 210.10928 209.82404 209.63679 209.50555 209.43831 209.77406 210.16482 210.55858
 211.35633 212.53909 213.79385 215.58161 217.51436 219.56212 221.66188 223.74963
 225.81439 227.90315 230.00490 232.11566 234.24942 236.42618 238.68693 241.06169
 243.68745 245.94320 247.94996 249.71972 251.14147 252.26923 253.09599 253.41675
 253.45850 253.23726 252.60202 251.55477 250.16553 248.33129 246.24504 244.08280
 241.87856 239.68732 237.51207 235.35583 233.22059 231.09234 229.12310 227.28486
 225.57261 224.04937 222.68413 221.46089 220.34764 219.31240 218.42116 217.56691
 216.81367 215.99843 215.10118 214.46994 213.92470 213.82245 213.58090 213.40991
 213.02071 213.44736 214.83055 216.72348 218.89980 222.04573 227.55267 232.03769
 235.83009 240.04091 244.57094 249.02591 252.91393 255.83913 258.00656 260.01706
 262.59567 265.30850 267.87601 270.29767 272.62662 274.75919 276.38309 277.89584
 279.67676 281.36774 282.91708 284.28079 285.46399 286.51520 287.47458 288.35080
 289.14398 289.85550 290.48242 291.32755
 366.78100 356.34099 345.77898 334.65098 323.05997 311.25996 299.13595 286.94494
 274.66293 262.56593 250.58092 239.88791 230.01590 221.12589 213.31389 206.32188
 200.16187 195.10586 191.69385 189.74185 188.78484 188.85483 189.69582 191.00981
 192.74080 194.84180 197.11079 199.47578 201.92677 204.41276 206.50676 208.35475
 209.98674 211.13773 211.37272 211.60672 211.54971 211.26070 210.89969 210.53568
 210.15867 209.87467 209.68866 209.55865 209.49264 209.82963 210.22163 210.61662
 211.41561 212.59960 213.85559 215.64459 217.57858 219.62757 221.72856 223.81755
 225.88354 227.97354 230.07653 232.18852 234.32351 236.50150 238.76350 241.13949
 243.76648 246.02347 248.03146 249.80246 251.22545 252.35444 253.18243 253.50442
 253.54741 253.32741 252.69340 251.64739 250.25938 248.42637 246.34137 244.18036
 241.97735 239.78734 237.61333 235.45833 233.32432 231.19731 229.22930 227.39229
 225.68128 224.15928 222.79527 221.57326 220.46125 219.42724 218.53724 217.68423
 216.93222 216.11821 215.22220 214.59220 214.04819 213.91481 213.59969 213.43944
 213.12148 213.54105 214.92963 216.78418 218.90504 222.02177 227.49055 231.96906
 235.78642 240.02452 244.55618 248.97078 252.77486 255.65759 257.82043 259.84192
 262.47540 265.22513 267.80670 270.26260 272.60715 274.73642 276.34705 277.85645
 279.64273 281.35498 282.90430 284.26868 285.45078 286.50110 287.46234 288.33752
 289.12930 289.84155 290.46664 291.31485
 366.78100 356.34213 345.78126 334.65438 323.06451 311.26564 299.14277 286.95290
 274.67202 262.57615 250.59228 239.90041 230.02954 221.14066 213.32979 206.33892
 200.18005 195.12518 191.71430 189.76343 188.80756 188.87869 189.72082 191.03594
 192.76807 194.87020 197.14033 199.50646 201.95859 204.44571 206.54084 208.38997
 210.02310 211.17523 211.41135 211.64648 211.59061 211.30274 210.94287 210.57999
 210.20412 209.92125 209.73638 209.60751 209.54263 209.88076 210.27389 210.67002
 211.47015 212.65527 213.91240 215.70253 217.63766 219.68779 221.78991 223.88004
 225.94717 228.03830 230.14243 232.25555 234.39168 236.57081 238.83394 241.21107
 243.83919 246.09732 248.10645 249.87858 251.30271 252.43283 253.26196 253.58509
 253.62922 253.41035 252.77748 251.73260 250.34573 248.51386 246.42999 244.27012
 242.06824 239.87937 237.70650 235.55263 233.41976 231.29388 229.32701 227.49114
 225.78127 224.26040 222.89752 221.67665 220.56578 219.53291 218.64404 217.79216
 217.04129 216.22842 215.33355 214.70468 214.16180 214.00142 213.62248 213.46359
 213.22585 213.63303 215.03133 216.84264 218.90782 221.99879 227.42807 231.90550
 235.74931 240.01205 244.53687 248.90231 252.62390 255.46677 257.63351 259.67969
 262.36588 265.14908 267.74606 270.23004 272.58722 274.71228 276.30945 277.81375
 279.60049 281.33212 282.88177 284.24472 285.42657 286.47617 287.43704 288.31305
 289.10406 289.81351 290.44064 291.28302
 366.78100 356.34332 345.78365 334.65797 323.06929 311.27162 299.14994 286.96126
 274.68159 262.58691 250.60424 239.91356 230.04388 221.15621 213.34653 206.35685
 200.19918 195.14550 191.73582 189.78615 188.83147 188.90379 189.74712 191.06344
 192.79677 194.90009 197.17141 199.53874 201.99206 204.48038 206.57671 208.42703
 210.06135 211.21468 211.45200 211.68832 211.63365 211.34697 210.98830 210.62662
 210.25194 209.97027 209.78659 209.65891 209.59524 209.93456 210.32888 210.72621
 211.52753 212.71385 213.97218 215.76350 217.69983 219.75115 221.85447 223.94580
 226.01412 228.10644 230.21177 232.32609 234.46341 236.64374 238.90806 241.28638
 243.91571 246.17503 248.18536 249.95868 251.38400 252.51533 253.34565 253.66997
 253.71530 253.49762 252.86594 251.82227 250.43659 248.60591 246.52324 244.36456
 242.16389 239.97621 237.80453 235.65186 233.52018 231.39550 229.42983 227.59515
 225.88647 224.36680 223.00512 221.78544 220.67577 219.64409 218.75642 217.90574
 217.15606 216.34439 215.45071 214.82303 214.28136 214.08986 213.63744 213.49471
 213.32950 213.72128 215.13098 216.90016 218.91383 221.97340 227.36331 231.84833
 235.72101 240.00502 244.51338 248.82048 252.46094 255.26591 257.44269 259.52771
 262.26495 265.08105 267.69485 270.20297 272.57098 274.69324 276.28027 277.77609
 279.55856 281.29214 282.84082 284.20505 285.38666 286.43518 287.39532 288.26978
 289.06165 289.77206 290.39618 291.23965
 366.78100 356.34435 345.78570 334.66106 323.07341 311.27676 299.15611 286.96847
 274.68982 262.59617 250.61452 239.92487 230.05623 221.16958 213.36093 206.37228
 200.21563 195.16299 191.75434 189.80569 188.85204 188.92540 189.76975 191.08710
 192.82145 194.92580 197.19816 199.56651 202.02086 204.51021 206.60756 208.45892
 210.09427 211.24862 211.48697 211.72433 211.67068 211.38503 211.02738 210.66673
 210.29309 210.01244 209.82979 209.70314 209.64050 209.98085 210.37620 210.77455
 211.57690 212.76426 214.02361 215.81596 217.75331 219.80566 221.91002 224.00237
 226.07172 228.16507 230.27143 232.38678 234.52513 236.70648 238.97183 241.35119
 243.98154 246.24189 248.25324 250.02759 251.45395 252.58630 253.41765 253.74300
 253.78936 253.57271 252.94206 251.89941 250.51476 248.68512 246.60347 244.44582
 242.24617 240.05953 237.88888 235.73723 233.60658 231.48293 229.51829 227.68464
 225.97699 224.45834 223.09769 221.87905 220.77040 219.73975 218.85310 218.00346
 217.25481 216.44416 215.55151 214.92486 214.38422 214.16905 213.66069 213.51491
 213.44394 213.81119 215.23015 216.95178 218.90822 221.94943 227.30130 231.79950
 235.69989 240.00241 244.48447 248.72369 252.28398 255.05307 257.24765 259.38666
 262.17404 265.02167 267.65353 270.18216 272.55844 274.68066 276.25977 277.74554
 279.51730 281.23865 282.78680 284.14990 285.33173 286.38007 287.33896 288.21469
 289.00565 289.71695 290.34003 291.18219
 366.78100 356.34588 345.78877 334.66565 323.07954 311.28442 299.16531 286.97919
 274.70208 262.60996 250.62984 239.94173 230.07461 221.18950 213.38238 206.39527
 200.24015 195.18904 191.78192 189.83480 188.88269 188.95757 189.80346 191.12234
 192.85823 194.96411 197.23800 199.60788 202.06376 204.55465 206.65353 208.50642
 210.14330 211.29919 211.53907 211.77796 211.72584 211.44172 211.08561 210.72649
 210.35438 210.07526 209.89415 209.76903 209.70792 210.04980 210.44668 210.84657
 211.65045 212.83934 214.10022 215.89411 217.83299 219.88688 221.99276 224.08664
 226.15753 228.25241 230.36030 232.47718 234.61707 236.79995 239.06684 241.44772
 244.07960 246.34149 248.35437 250.13026 251.55814 252.69203 253.52491 253.85180
 253.89968 253.68456 253.05545 252.01433 250.63122 248.80310 246.72299 244.56687
 242.36876 240.18364 238.01452 235.86441 233.73529 231.61318 229.65006 227.81795
 226.11183 224.59472 223.23560 222.01849 220.91137 219.88225 218.99714 218.14902
 217.40191 216.59279 215.70168 215.07656 214.53745 214.27238 213.64615 213.56808
 213.56151 213.88721 215.31020 217.00829 218.91975 221.91769 227.23376 231.75267
 235.68399 240.00282 244.44997 248.61472 252.09915 254.83614 257.05542 259.25861
 262.09344 264.96945 267.62070 270.16336 272.54626 274.66766 276.24176 277.71625
 279.47128 281.17548 282.72141 284.08456 285.26691 286.31534 287.27371 288.14966
 288.93967 289.64990 290.27405 291.11639
 366.78100 356.34699 345.79098 334.66896 323.08395 311.28994 299.17193 286.98691
 274.71090 262.61989 250.64088 239.95386 230.08785 221.20384 213.39783 206.41181
 200.25780 195.20779 191.80178 189.85576 188.90475 188.98074 189.82773 191.14771
 192.88470 194.99169 197.26668 199.63766 202.09465 204.58664 206.68663 208.54061
 210.17860 211.33559 211.57658 211.81656 211.76555 211.48254 211.12753 210.76951
 210.39850 210.12049 209.94048 209.81646 209.75645 210.09944 210.49743 210.89841
 211.70340 212.89339 214.15538 215.95036 217.89035 219.94534 222.05233 224.14731
 226.21930 228.31529 230.42428 232.54226 234.68325 236.86724 239.13523 241.51721
 244.15020 246.41319 248.42718 250.20416 251.63315 252.76814 253.60213 253.93011
 253.97910 253.76509 253.13708 252.09706 250.71505 248.88804 246.80903 244.65401
 242.45700 240.27299 238.10498 235.95596 233.82795 231.70694 229.74493 227.91391
 226.20890 224.69289 223.33488 222.11886 221.01285 219.98484 219.10083 218.25381
 217.50780 216.69979 215.80978 215.18576 214.64775 214.35321 213.65733 213.59857
 213.68661 213.96883 215.40547 217.05145 218.88976 221.88980 227.17876 231.71751
 235.67610 240.00751 244.41147 248.49411 251.90463 254.61011 256.85925 259.13745
 262.01868 264.92267 267.59415 270.14850 272.53638 274.66034 276.23300 277.69351
 279.42313 281.10474 282.64902 284.01074 285.19400 286.24045 287.20071 288.07437
 288.86539 289.57669 290.20013 291.03601
 366.78100 356.34774 345.79249 334.67123 323.08697 311.29372 299.17646 286.99221
 274.71695 262.62669 250.64844 239.96218 230.09692 221.21367 213.40841 206.42315
 200.26990 195.22064 191.81538 189.87013 188.91987 188.99662 189.84436 191.16510
 192.90285 195.01059 197.28633 199.65808 202.11582 204.60856 206.70931 208.56405
 210.20279 211.36054 211.60228 211.84303 211.79277 211.51051 211.15626 210.79900
 210.42874 210.15149 209.97223 209.84897 209.78972 210.13346 210.53220 210.93395
 211.73969 212.93044 214.19318 215.98892 217.92967 219.98541 222.09315 224.18890
 226.26164 228.35838 230.46813 232.58687 234.72861 236.91336 239.18210 241.56485
 244.19859 246.46233 248.47708 250.25482 251.68456 252.82031 253.65505 253.98379
 254.03354 253.82028 253.19303 252.15377 250.77251 248.94626 246.86800 244.71374
 242.51749 240.33423 238.16697 236.01872 233.89146 231.77120 229.80995 227.97969
 226.27544 224.76018 223.40292 222.18767 221.08241 220.05515 219.17190 218.32564
 217.58038 216.77313 215.88387 215.26061 214.72336 214.41658 213.69180 213.58319
 213.85847 214.06271 215.45384 217.09630 218.91496 221.86708 227.10414 231.67159
 235.66631 240.00798 244.36189 248.35663 251.69691 254.37444 256.66052 259.02637
 261.95316 264.88504 267.57846 270.14233 272.53644 274.66507 276.24081 277.68347
 279.37701 281.02829 282.56866 283.93295 285.11493 286.16174 287.12106 287.99377
 288.78598 289.49380 290.12155 290.95386
 366.78100 356.34811 345.79322 334.67233 323.08844 311.29555 299.17866 286.99476
 274.71987 262.62998 250.65209 239.96620 230.10131 221.21842 213.41353 206.42864
 200.27575 195.22686 191.82197 189.87707 188.92718 189.00429 189.85240 191.17351
 192.91162 195.01973 197.29584 199.66795 202.12606 204.61917 206.72028 208.57538
 210.21449 211.37260 211.61471 211.85582 211.80593 211.52404 211.17015 210.81326
 210.44337 210.16648 209.98759 209.86469 209.80580 210.14991 210.54902 210.95113
 211.75724 212.94835 214.21146 216.00757 217.94868 220.00479 222.11290 224.20901
 226.28211 228.37922 230.48933 232.60844 234.75055 236.93566 239.20477 241.58788
 244.22199 246.48610 248.50121 250.27932 251.70942 252.84553 253.68064 254.00975
 254.05986 253.84697 253.22008 252.18119 250.80030 248.97441 246.89652 244.74263
 242.54673 240.36384 238.19695 236.04906 233.92217 231.80228 229.84139 228.01150
 226.30761 224.79272 223.43583 222.22094 221.11604 220.08915 219.20626 218.36037
 217.61548 216.80859 215.91970 215.29681 214.75992 214.45993 213.75117 213.56911
 213.93510 214.22824 215.49097 217.14519 218.94597 221.79721 227.04189 231.64429
 235.66779 240.01407 244.31177 248.21664 251.49294 254.14850 256.47638 258.93253
 261.90033 264.85699 267.57056 270.14069 272.53934 274.67270 276.25226 277.67725
 279.33112 280.94946 282.48627 283.85025 285.03152 286.07840 287.03922 287.91113
 288.70197 289.41135 290.03696 290.87216
 366.78100 356.34857 345.79414 334.67372 323.09029 311.29786 299.18143 286.99800
 274.72358 262.63415 250.65672 239.97129 230.10687 221.22444 213.42001 206.43558
 200.28315 195.23473 191.83030 189.88587 188.93644 189.01401 189.86259 191.18416
 192.92273 195.03130 197.30788 199.68045 202.13902 204.63259 206.73416 208.58974
 210.22931 211.38788 211.63045 211.87202 211.82260 211.54117 211.18774 210.83131
 210.46189 210.18546 210.00703 209.88460 209.82617 210.17075 210.57032 210.97289
 211.77946 212.97103 214.23461 216.03118 217.97275 220.02932 222.13790 224.23447
 226.30804 228.40561 230.51618 232.63576 234.77833 236.96390 239.23347 241.61704
 244.25162 246.51619 248.53176 250.31033 251.74091 252.87748 253.71305 254.04262
 254.09319 253.88077 253.25434 252.21591 250.83548 249.01005 246.93263 244.77920
 242.58377 240.40134 238.23491 236.08749 233.96106 231.84163 229.88120 228.05178
 226.34835 224.83392 223.47749 222.26306 221.15864 220.13221 219.24978 218.40435
 217.65992 216.85350 215.96507 215.34264 214.80621 214.50563 213.79549 213.60527
 213.97516 214.35149 215.53467 217.18858 218.95912 221.74174 226.99841 231.63220
 235.67659 240.02412 244.26079 248.07439 251.29231 253.92802 256.29871 258.84799
 261.85239 264.82941 267.56155 270.13489 272.53647 274.67416 276.25790 277.66943
 279.28613 280.87097 282.40399 283.76547 284.94724 285.99472 286.95413 287.82742
 288.61801 289.32816 289.95444 290.78735
 366.78100 356.34901 345.79503 334.67504 323.09205 311.30006 299.18408 287.00109
 274.72710 262.63811 250.66113 239.97614 230.11215 221.23016 213.42618 206.44219
 200.29020 195.24221 191.83823 189.89424 188.94525 189.02326 189.87228 191.19429
 192.93330 195.04231 197.31933 199.69234 202.15135 204.64536 206.74738 208.60339
 210.24340 211.40241 211.64543 211.88744 211.83845 211.55746 211.20448 210.84849
 210.47950 210.20351 210.02553 209.90354 209.84555 210.19056 210.59058 210.99359
 211.80060 212.99261 214.25663 216.05364 217.99565 220.05266 222.16168 224.25869
 226.33270 228.43071 230.54173 232.66174 234.80475 236.99076 239.26078 241.64479
 244.27980 246.54481 248.56083 250.33984 251.77085 252.90786 253.74388 254.07389
 254.12490 253.91291 253.28693 252.24894 250.86895 249.04396 246.96698 244.81399
 242.61900 240.43701 238.27103 236.12404 233.99805 231.87906 229.91908 228.09009
 226.38710 224.87311 223.51713 222.30314 221.19915 220.17316 219.29118 218.44619
 217.70220 216.89621 216.00823 215.38624 214.85025 214.54877 213.83647 213.64883
 214.02928 214.44156 215.58186 217.23163 218.95857 221.71028 226.96045 231.62349
 235.68831 240.03297 244.20508 247.92593 251.08975 253.70822 256.12183 258.76630
 261.80508 264.80008 267.54922 270.12540 272.53024 274.67444 276.26440 277.66510
 279.24438 280.79620 282.32233 283.68475 284.86566 285.91385 286.87146 287.74600
 288.53482 289.24628 289.87274 290.70563
 366.78100 356.34938 345.79577 334.67615 323.09353 311.30192 299.18630 287.00369
 274.73007 262.64145 250.66484 239.98022 230.11660 221.23499 213.43137 206.44775
 200.29614 195.24852 191.84490 189.90129 188.95267 189.03106 189.88044 191.20282
 192.94221 195.05159 197.32897 199.70236 202.16174 204.65612 206.75851 208.61489
 210.25528 211.41466 211.65804 211.90043 211.85181 211.57119 211.21858 210.86296
 210.49434 210.21873 210.04111 209.91949 209.86188 210.20726 210.60765 211.01103
 211.81841 213.01080 214.27518 216.07256 218.01495 220.07233 222.18171 224.27910
 226.35348 228.45186 230.56325 232.68363 234.82702 237.01340 239.28378 241.66817
 244.30355 246.56893 248.58532 250.36470 251.79608 252.93347 253.76985 254.10024
 254.15162 253.94000 253.31439 252.27677 250.89715 249.07254 246.99592 244.84330
 242.64869 240.46707 238.30145 236.15484 234.02922 231.91061 229.95099 228.12237
 226.41976 224.90614 223.55052 222.33691 221.23329 220.20767 219.32606 218.48144
 217.73783 216.93221 216.04459 215.42298 214.88736 214.58665 213.87622 213.69191
 214.09865 214.51881 215.61858 217.26894 218.95549 221.69347 226.92178 231.61542
 235.70160 240.03946 244.14384 247.77171 250.88448 253.48715 255.94571 258.68610
 261.75763 264.76852 267.53467 270.11353 272.52472 274.67749 276.27707 277.66953
 279.20956 280.72769 282.24652 283.60959 284.79019 285.83762 286.79608 287.66977
 288.46017 289.16931 289.79520 290.62875
 366.78100 356.34969 345.79637 334.67706 323.09475 311.30344 299.18812 287.00581
 274.73250 262.64419 250.66787 239.98356 230.12025 221.23894 213.43562 206.45231
 200.30100 195.25369 191.85037 189.90706 188.95875 189.03744 189.88712 191.20981
 192.94950 195.05918 197.33687 199.71056 202.17025 204.66493 206.76762 208.62431
 210.26500 211.42468 211.66837 211.91106 211.86275 211.58243 211.23012 210.87481
 210.50650 210.23118 210.05387 209.93256 209.87525 210.22093 210.62162 211.02531
 211.83300 213.02568 214.29037 216.08806 218.03074 220.08843 222.19812 224.29581
 226.37049 228.46918 230.58087 232.70156 234.84524 237.03193 239.30262 241.68731
 244.32299 246.58868 248.60537 250.38506 251.81674 252.95443 253.79112 254.12181
 254.17349 253.96218 253.33687 252.29955 250.92024 249.09593 247.01962 244.86730
 242.67299 240.49168 238.32637 236.18005 234.05474 231.93643 229.97712 228.14880
 226.44649 224.93318 223.57787 222.36455 221.26124 220.23593 219.35462 218.51030
 217.76699 216.96168 216.07437 215.45305 214.91774 214.61909 213.91351 213.74190
 214.17589 214.59099 215.64487 217.29469 218.95737 221.68443 226.88489 231.61092
 235.71680 240.04352 244.07643 247.61113 250.67685 253.26642 255.77266 258.60867
 261.71146 264.73657 267.51852 270.10062 272.51837 274.68118 276.29318 277.67853
 279.18259 280.66904 282.17883 283.54062 284.72275 285.76978 286.72894 287.60205
 288.39316 289.10126 289.72516 290.56091
 366.78100 356.34990 345.79680 334.67770 323.09560 311.30450 299.18940 287.00730
 274.73420 262.64610 250.67000 239.98590 230.12280 221.24170 213.43860 206.45550
 200.30440 195.25730 191.85420 189.91110 188.96301 189.04191 189.89181 191.21471
 192.95461 195.06451 197.34241 199.71631 202.17621 204.67111 206.77401 208.63091
 210.27181 211.43171 211.67561 211.91851 211.87041 211.59031 211.23821 210.88311
 210.51501 210.23991 210.06281 209.94171 209.88461 210.23051 210.63141 211.03531
 211.84321 213.03611 214.30101 216.09891 218.04181 220.09971 222.20961 224.30751
 226.38241 228.48131 230.59322 232.71412 234.85802 237.04492 239.31582 241.70072
 244.33662 246.60252 248.61942 250.39932 251.83122 252.96912 253.80602 254.13692
 254.18882 253.97772 253.35262 252.31552 250.93642 249.11232 247.03622 244.88412
 242.69002 240.50892 238.34382 236.19772 234.07262 231.95452 229.99542 228.16732
 226.46522 224.95212 223.59702 222.38392 221.28082 220.25572 219.37462 218.53052
 217.78742 216.98233 216.09523 215.47413 214.93903 214.64479 213.94963 213.80179
 214.25433 214.65977 215.66971 217.31071 218.96280 221.67538 226.85139 231.60921
 235.73145 240.04121 244.00076 247.44414 250.46756 253.05017 255.60744 258.53546
 261.66718 264.70349 267.49911 270.08310 272.50842 274.68246 276.30646 277.68994
 279.16129 280.62057 282.12177 283.48294 284.66470 285.71320 286.67236 287.54514
 288.33508 289.04523 289.67001 290.50076
 366.78100 356.34997 345.79694 334.67790 323.09587 311.30484 299.18981 287.00778
 274.73474 262.64671 250.67068 239.98665 230.12362 221.24258 213.43955 206.45652
 200.30549 195.25846 191.85542 189.91239 188.96436 189.04333 189.89330 191.21626
 192.95623 195.06620 197.34417 199.71814 202.17810 204.67307 206.77604 208.63301
 210.27398 211.43394 211.67791 211.92088 211.87285 211.59282 211.24078 210.88575
 210.51772 210.24269 210.06566 209.94462 209.88759 210.23356 210.63453 211.03850
 211.84646 213.03943 214.30440 216.10237 218.04534 220.10330 222.21327 224.31124
 226.38621 228.48518 230.59714 232.71811 234.86208 237.04905 239.32002 241.70498
 244.34095 246.60692 248.62389 250.40386 251.83582 252.97379 253.81076 254.14173
 254.19370 253.98266 253.35763 252.32060 250.94157 249.11754 247.04150 244.88947
 242.69544 240.51441 238.34938 236.20334 234.07831 231.96028 230.00125 228.17322
 226.47118 224.95815 223.60312 222.39009 221.28706 220.26202 219.38099 218.53696
 217.79393 216.98890 216.10186 215.48083 214.94580 214.66116 213.98869 213.86697
 214.33418 214.72537 215.70078 217.32254 218.96538 221.66380 226.82068 231.60806
 235.74223 240.03030 243.91551 247.27248 250.26099 252.84274 255.45146 258.46536
 261.62207 264.66678 267.47171 270.05865 272.49271 274.67911 276.31628 277.70190
 279.14990 280.58539 282.07761 283.43857 284.62006 285.66870 286.62814 287.50040
 288.29153 289.00180 289.62503 290.45670
 366.78100 356.34988 345.79676 334.67764 323.09552 311.30440 299.18928 287.00716
 274.73403 262.64591 250.66979 239.98567 230.12255 221.24143 213.43831 206.45519
 200.30407 195.25695 191.85383 189.91071 188.96259 189.04147 189.89135 191.21423
 192.95410 195.06398 197.34186 199.71574 202.17562 204.67050 206.77338 208.63026
 210.27114 211.43102 211.67490 211.91778 211.86966 211.58954 211.23742 210.88229
 210.51417 210.23905 210.06193 209.94081 209.88369 210.22957 210.63045 211.03433
 211.84221 213.03509 214.29997 216.09785 218.04073 220.09861 222.20849 224.30636
 226.38124 228.48012 230.59200 232.71288 234.85676 237.04364 239.31452 241.69940
 244.33528 246.60116 248.61804 250.39792 251.82980 252.96768 253.80455 254.13543
 254.18731 253.97619 253.35107 252.31395 250.93483 249.11071 247.03459 244.88247
 242.68835 240.50723 238.34211 236.19599 234.07087 231.95275 229.99362 228.16550
 226.46338 224.95026 223.59514 222.38202 221.27890 220.25378 219.37266 218.52854
 217.78542 216.98030 216.09318 215.47206 214.93694 214.66763 214.03139 213.93312
 214.41524 214.79387 215.73680 217.33632 218.96294 221.65382 226.79327 231.60852
 235.74901 240.00940 243.82063 247.09732 250.05617 252.64221 255.30299 258.39441
 261.57349 264.62250 267.43390 270.02676 272.47272 274.67340 276.32553 277.71848
 279.15039 280.56787 282.05014 283.41113 284.59479 285.64243 286.60114 287.47525
 288.26624 288.97614 289.59906 290.43018
 366.78100 356.34979 345.79657 334.67736 323.09515 311.30394 299.18872 287.00651
 274.73330 262.64509 250.66887 239.98466 230.12145 221.24024 213.43702 206.45381
 200.30260 195.25539 191.85217 189.90896 188.96075 189.03954 189.88932 191.21211
 192.95190 195.06169 197.33947 199.71326 202.17305 204.66784 206.77062 208.62741
 210.26820 211.42799 211.67177 211.91456 211.86635 211.58614 211.23392 210.87871
 210.51050 210.23529 210.05807 209.93686 209.87965 210.22544 210.62622 211.03001
 211.83780 213.03059 214.29537 216.09316 218.03595 220.09374 222.20352 224.30131
 226.37610 228.47489 230.58667 232.70746 234.85125 237.03804 239.30882 241.69361
 244.32940 246.59519 248.61197 250.39176 251.82355 252.96134 253.79812 254.12891
 254.18070 253.96949 253.34427 252.30706 250.92785 249.10364 247.02742 244.87521
 242.68100 240.49979 238.33457 236.18836 234.06315 231.94494 229.98572 228.15751
 226.45530 224.94209 223.58687 222.37366 221.27045 220.24524 219.36402 218.51981
 217.77660 216.97139 216.08417 215.46296 214.92775 214.67215 214.06825 214.00655
 214.49538 214.86308 215.77951 217.35464 218.96046 221.64638 226.77206 231.61221
 235.75223 239.97934 243.71497 246.91499 249.84692 252.44141 255.15622 258.31979
 261.51892 264.56973 267.38635 269.98969 272.45093 274.66861 276.33972 277.74329
 279.16504 280.56735 282.04010 283.39981 284.58362 285.63254 286.59152 287.46579
 288.25571 288.96509 289.59094 290.42032
 366.78100 356.34961 345.79621 334.67682 323.09443 311.30304 299.18764 287.00525
 274.73186 262.64346 250.66707 239.98268 230.11929 221.23789 213.43450 206.45111
 200.29971 195.25232 191.84893 189.90554 188.95714 189.03575 189.88536 191.20796
 192.94757 195.05718 197.33479 199.70839 202.16800 204.66261 206.76521 208.62182
 210.26243 211.42204 211.66564 211.90825 211.85986 211.57946 211.22707 210.87168
 210.50329 210.22789 210.05050 209.92911 209.87171 210.21732 210.61793 211.02154
 211.82914 213.02175 214.28636 216.08396 218.02657 220.08418 222.19379 224.29139
 226.36600 228.46461 230.57621 232.69682 234.84043 237.02704 239.29764 241.68225
 244.31786 246.58346 248.60007 250.37968 251.81129 252.94889 253.78550 254.11611
 254.16771 253.95632 253.33093 252.29354 250.91414 249.08975 247.01336 244.86096
 242.66657 240.48518 238.31979 236.17339 234.04800 231.92961 229.97021 228.14182
 226.43943 224.92604 223.57064 222.35725 221.25386 220.22846 219.34707 218.50268
 217.75929 216.95389 216.06650 215.44511 214.90971 214.67041 214.10501 214.07773
 214.57881 214.94330 215.82062 217.37340 218.96156 221.64632 226.76085 231.61818
 235.75131 239.93669 243.59415 246.72054 249.62921 252.23956 255.01399 258.24432
 261.46063 264.51147 267.33292 269.94916 272.42819 274.66293 276.35327 277.77142
 279.18835 280.58130 282.04694 283.40701 284.59100 285.64120 286.60266 287.47504
 288.26584 288.97543 289.60214 290.43060
 366.78100 356.34962 345.79623 334.67685 323.09447 311.30309 299.18770 287.00532
 274.73194 262.64356 250.66717 239.98279 230.11941 221.23803 213.43464 206.45126
 200.29988 195.25250 191.84911 189.90573 188.95735 189.03596 189.88558 191.20820
 192.94782 195.05743 197.33505 199.70867 202.16829 204.66290 206.76552 208.62214
 210.26276 211.42237 211.66599 211.90861 211.86022 211.57984 211.22746 210.87208
 210.50369 210.22831 210.05093 209.92955 209.87216 210.21778 210.61840 211.02202
 211.82963 213.02225 214.28687 216.08449 218.02710 220.08472 222.19434 224.29195
 226.36657 228.46519 230.57681 232.69742 234.84104 237.02766 239.29828 241.68289
 244.31851 246.58413 248.60075 250.38036 251.81198 252.94960 253.78622 254.11683
 254.16845 253.95707 253.33168 252.29430 250.91492 249.09054 247.01415 244.86177
 242.66739 240.48601 238.32062 236.17424 234.04886 231.93048 229.97109 228.14271
 226.44033 224.92695 223.57156 222.35818 221.25480 220.22941 219.34803 218.50365
 217.76027 216.95488 216.06750 215.44612 214.91074 214.67639 214.12270 214.16507
 214.65984 215.02220 215.87653 217.40094 218.96774 221.64087 226.75389 231.62419
 235.74312 239.88098 243.45972 246.51831 249.40974 252.04434 254.88138 258.17096
 261.40164 264.44958 267.27292 269.90445 272.40097 274.65222 276.36026 277.79602
 279.21588 280.60632 282.06738 283.42740 284.61166 285.66199 286.62433 287.49692
 288.28714 288.99719 289.61972 290.45419
 366.78100 356.34950 345.79600 334.67650 323.09401 311.30251 299.18701 287.00451
 274.73101 262.64251 250.66601 239.98152 230.11802 221.23652 213.43302 206.44952
 200.29802 195.25052 191.84703 189.90353 188.95503 189.03353 189.88303 191.20553
 192.94503 195.05453 197.33204 199.70554 202.16504 204.65954 206.76204 208.61854
 210.25904 211.41855 211.66205 211.90455 211.85605 211.57555 211.22305 210.86755
 210.49906 210.22356 210.04606 209.92456 209.86706 210.21256 210.61306 211.01657
 211.82407 213.01657 214.28107 216.07857 218.02107 220.07857 222.18808 224.28558
 226.36008 228.45858 230.57008 232.69058 234.83408 237.02059 239.29109 241.67559
 244.31109 246.57659 248.59309 250.37259 251.80409 252.94160 253.77810 254.10860
 254.16010 253.94860 253.32310 252.28560 250.90611 249.08161 247.00511 244.85261
 242.65811 240.47661 238.31111 236.16462 234.03912 231.92062 229.96112 228.13262
 226.43012 224.91662 223.56113 222.34763 221.24413 220.21863 219.33713 218.49263
 217.74913 216.94364 216.05614 215.43464 214.89914 214.67458 214.14404 214.24127
 214.75407 215.11473 215.93594 217.42270 218.97835 221.65273 226.75624 231.63091
 235.72949 239.81281 243.31026 246.30492 249.18341 251.85066 254.75453 258.09717
 261.33899 264.38171 267.20590 269.85477 272.37158 274.63950 276.36560 277.82037
 279.25000 280.64343 282.09995 283.46088 284.64594 285.69690 286.65854 287.52969
 288.32230 289.02805 289.65677 290.48212
 366.78100 356.34896 345.79493 334.67489 323.09185 311.29982 299.18378 287.00074
 274.72671 262.63767 250.66063 239.97560 230.11156 221.22952 213.42549 206.44145
 200.28941 195.24138 191.83734 189.89330 188.94427 189.02223 189.87119 191.19316
 192.93212 195.04108 197.31805 199.69101 202.14997 204.64394 206.74590 208.60186
 210.24183 211.40079 211.64375 211.88572 211.83668 211.55564 211.20261 210.84657
 210.47753 210.20150 210.02346 209.90142 209.84339 210.18835 210.58831 210.99128
 211.79824 212.99021 214.25417 216.05113 217.99310 220.05006 222.15902 224.25599
 226.32995 228.42791 230.53888 232.65884 234.80180 236.98777 239.25773 241.64169
 244.27666 246.54162 248.55758 250.33655 251.76751 252.90447 253.74044 254.07040
 254.12136 253.90933 253.28329 252.24525 250.86522 249.04018 246.96314 244.81011
 242.61507 240.43303 238.26700 236.11996 233.99392 231.87489 229.91485 228.08581
 226.38278 224.86874 223.51270 222.29867 221.19463 220.16859 219.28656 218.44152
 217.69748 216.89145 216.00341 215.38137 214.84534 214.65042 214.18996 214.28900
 214.84520 215.23257 216.01385 217.47650 219.02274 221.65431 226.74944 231.62964
 235.70262 239.72200 243.13570 246.07352 248.94707 251.65813 254.63455 258.02463
 261.27560 264.31216 267.13812 269.80600 272.34515 274.63031 276.37701 277.85236
 279.29330 280.68939 282.14255 283.50360 284.68939 285.74112 286.70193 287.57657
 288.36383 289.07404 289.69925 290.52686
 366.78100 356.34840 345.79379 334.67319 323.08959 311.29698 299.18038 286.99678
 274.72217 262.63257 250.65497 239.96936 230.10476 221.22215 213.41755 206.43295
 200.28034 195.23174 191.82714 189.88253 188.93293 189.01033 189.85872 191.18012
 192.91852 195.02691 197.30331 199.67571 202.13410 204.62750 206.72890 208.58429
 210.22369 211.38208 211.62448 211.86588 211.81627 211.53467 211.18107 210.82446
 210.45486 210.17826 209.99965 209.87705 209.81845 210.16284 210.56224 210.96464
 211.77103 212.96243 214.22583 216.02222 217.96362 220.02001 222.12841 224.22481
 226.29820 228.39560 230.50600 232.62539 234.76779 236.95319 239.22258 241.60598
 244.24038 246.50477 248.52017 250.29857 251.72896 252.86536 253.70076 254.03015
 254.08055 253.86794 253.24134 252.20274 250.82213 248.99653 246.91893 244.76532
 242.56972 240.38712 238.22051 236.07291 233.94631 231.82670 229.86610 228.03650
 226.33289 224.81829 223.46169 222.24708 221.14248 220.11587 219.23327 218.38767
 217.64306 216.83646 215.94786 215.32525 214.78865 214.62383 214.23439 214.34235
 214.89763 215.36775 216.16414 217.52472 219.01292 221.65947 226.73451 231.61838
 235.66731 239.61847 242.95203 245.84367 248.72206 251.48564 254.53276 257.96222
 261.21912 264.24783 267.07416 269.76028 272.32050 274.62131 276.38647 277.88135
 279.33719 280.73813 282.19342 283.55392 284.74200 285.79349 286.75314 287.62616
 288.41779 289.12738 289.75150 290.57825
 366.78100 356.34815 345.79330 334.67244 323.08859 311.29574 299.17889 286.99504
 274.72018 262.63033 250.65248 239.96663 230.10178 221.21893 213.41407 206.42922
 200.27637 195.22752 191.82267 189.87781 188.92796 189.00511 189.85326 191.17441
 192.91255 195.02070 197.29685 199.66900 202.12715 204.62029 206.72144 208.57659
 210.21574 211.37389 211.61604 211.85718 211.80733 211.52548 211.17163 210.81478
 210.44492 210.16807 209.98922 209.86637 209.80752 210.15166 210.55081 210.95296
 211.75911 212.95026 214.21340 216.00955 217.95070 220.00685 222.11500 224.21115
 226.28429 228.38144 230.49159 232.61074 234.75289 236.93803 239.20718 241.59033
 244.22448 246.48863 248.50377 250.28192 251.71207 252.84822 253.68337 254.01251
 254.06266 253.84981 253.22296 252.18411 250.80325 248.97740 246.89955 244.74570
 242.54985 240.36700 238.20014 236.05229 233.92544 231.80559 229.84474 228.01488
 226.31103 224.79618 223.43933 222.22448 221.11962 220.09277 219.20992 218.36407
 217.61922 216.81236 215.92351 215.30066 214.76381 214.61290 214.25636 214.42339
 214.94470 215.47398 216.29539 217.56142 219.00629 221.67917 226.72615 231.60965
 235.63301 239.51578 242.77570 245.62949 248.51848 251.33664 254.44795 257.90741
 261.16534 264.18246 267.00690 269.71088 272.29102 274.60126 276.38382 277.90070
 279.37283 280.78534 282.24860 283.61044 284.79745 285.85107 286.81128 287.68402
 288.47375 289.18140 289.80701 290.63275
 366.78100 356.34818 345.79336 334.67254 323.08872 311.29590 299.17908 286.99525
 274.72043 262.63061 250.65279 239.96697 230.10215 221.21933 213.41451 206.42969
 200.27687 195.22805 191.82323 189.87841 188.92858 189.00576 189.85394 191.17512
 192.91330 195.02148 197.29766 199.66984 202.12802 204.62120 206.72238 208.57756
 210.21674 211.37491 211.61709 211.85827 211.80845 211.52663 211.17281 210.81599
 210.44617 210.16935 209.99053 209.86771 209.80889 210.15306 210.55224 210.95442
 211.76060 212.95178 214.21496 216.01114 217.95232 220.00850 222.11668 224.21286
 226.28604 228.38322 230.49339 232.61257 234.75475 236.93993 239.20911 241.59229
 244.22647 246.49065 248.50583 250.28401 251.71419 252.85037 253.68555 254.01472
 254.06490 253.85208 253.22526 252.18644 250.80562 248.97980 246.90198 244.74816
 242.55234 240.36952 238.20270 236.05488 233.92805 231.80823 229.84741 228.01759
 226.31377 224.79895 223.44213 222.22731 221.12249 220.09567 219.21285 218.36703
 217.62221 216.81538 215.92656 215.30374 214.76692 214.61609 214.25975 214.51613
 215.01001 215.56944 216.39331 217.59229 219.02373 221.71257 226.72356 231.60292
 235.59726 239.41081 242.60216 245.42461 248.32675 251.19991 254.37090 257.85220
 261.10638 264.10956 266.93054 269.65533 272.25449 274.57202 276.37140 277.91165
 279.40295 280.82925 282.30527 283.66766 284.85620 285.90869 286.86893 287.74359
 288.53015 289.23993 289.86356 290.68961
 366.78100 356.34828 345.79355 334.67283 323.08911 311.29639 299.17966 286.99594
 274.72122 262.63150 250.65377 239.96805 230.10333 221.22061 213.41588 206.43116
 200.27844 195.22972 191.82499 189.88027 188.93055 189.00783 189.85610 191.17738
 192.91566 195.02394 197.30021 199.67249 202.13077 204.62405 206.72532 208.58060
 210.21988 211.37816 211.62043 211.86171 211.81199 211.53027 211.17654 210.81982
 210.45010 210.17338 209.99465 209.87193 209.81321 210.15749 210.55676 210.95904
 211.76532 212.95660 214.21987 216.01615 217.95743 220.01371 222.12198 224.21826
 226.29154 228.38882 230.49909 232.61837 234.76065 236.94593 239.21520 241.59848
 244.23276 246.49704 248.51231 250.29059 251.72087 252.85715 253.69242 254.02170
 254.07198 253.85926 253.23253 252.19381 250.81309 248.98737 246.90964 244.75592
 242.56020 240.37748 238.21075 236.06303 233.93631 231.81659 229.85586 228.02614
 226.32242 224.80770 223.45097 222.23625 221.13153 220.10481 219.22208 218.37636
 217.63164 216.82492 215.93619 215.31347 214.77675 214.62225 214.25722 214.60066
 215.08997 215.66982 216.49092 217.62886 219.04167 221.74454 226.72153 231.59393
 235.55708 239.30061 242.42783 245.22388 248.14223 251.07118 254.29813 257.79468
 261.04126 264.03046 266.85196 269.59732 272.21503 274.53986 276.35468 277.92169
 279.43335 280.87549 282.35843 283.72153 284.90811 285.96219 286.92258 287.79468
 288.58224 289.29099 289.91425 290.73856
 366.78100 356.34833 345.79366 334.67299 323.08932 311.29665 299.17998 286.99631
 274.72164 262.63197 250.65430 239.96862 230.10395 221.22128 213.41661 206.43194
 200.27927 195.23060 191.82593 189.88126 188.93159 189.00892 189.85725 191.17858
 192.91691 195.02524 197.30157 199.67390 202.13223 204.62556 206.72689 208.58222
 210.22154 211.37987 211.62220 211.86353 211.81386 211.53219 211.17852 210.82185
 210.45218 210.17551 209.99684 209.87417 209.81550 210.15983 210.55916 210.96149
 211.76782 212.95915 214.22248 216.01881 217.96013 220.01646 222.12479 224.22112
 226.29445 228.39178 230.50211 232.62144 234.76377 236.94910 239.21843 241.60176
 244.23609 246.50042 248.51575 250.29408 251.72441 252.86074 253.69607 254.02540
 254.07573 253.86305 253.23638 252.19771 250.81704 248.99137 246.91370 244.76003
 242.56436 240.38169 238.21502 236.06735 233.94068 231.82101 229.86034 228.03067
 226.32700 224.81233 223.45566 222.24099 221.13632 220.10965 219.22697 218.38130
 217.63663 216.82996 215.94129 215.31862 214.78195 214.62549 214.25583 214.67079
 215.18166 215.77872 216.60098 217.67564 219.04503 221.76764 226.72035 231.58348
 235.51247 239.18567 242.25314 245.02921 247.96611 250.95190 254.23042 257.73636
 260.97311 263.94916 266.77344 269.53952 272.17398 274.50217 276.33444 277.92651
 279.45996 280.91879 282.41052 283.77322 284.96146 286.01529 286.97638 287.84952
 288.64163 289.35190 289.97952 290.80142
 366.78100 356.34832 345.79364 334.67296 323.08929 311.29661 299.17993 286.99625
 274.72157 262.63189 250.65422 239.96854 230.10386 221.22118 213.41650 206.43182
 200.27915 195.23047 191.82579 189.88111 188.93143 189.00875 189.85707 191.17840
 192.91672 195.02504 197.30136 199.67368 202.13200 204.62533 206.72665 208.58197
 210.22129 211.37961 211.62193 211.86326 211.81358 211.53190 211.17822 210.82154
 210.45186 210.17518 209.99651 209.87383 209.81515 210.15947 210.55879 210.96111
 211.76744 212.95876 214.22208 216.01840 217.95972 220.01604 222.12437 224.22069
 226.29401 228.39133 230.50165 232.62097 234.76330 236.94862 239.21794 241.60126
 244.23558 246.49990 248.51522 250.29355 251.72387 252.86019 253.69551 254.02483
 254.07515 253.86248 253.23580 252.19712 250.81644 248.99076 246.91308 244.75941
 242.56373 240.38105 238.21437 236.06669 233.94001 231.82033 229.85966 228.02998
 226.32630 224.81162 223.45494 222.24026 221.13559 220.10891 219.22623 218.38055
 217.63587 216.82919 215.94052 215.31784 214.78116 214.62486 214.25560 214.72876
 215.28249 215.89468 216.71545 217.72900 219.03748 221.78325 226.72252 231.57288
 235.46448 239.06648 242.07880 244.84055 247.79977 250.84183 254.16731 257.67780
 260.90326 263.86743 266.69641 269.48209 272.12921 274.46014 276.30643 277.92404
 279.47873 280.95651 282.45499 283.81912 285.00684 286.05988 287.02100 287.89450
 288.68695 289.39911 290.02634 290.84940
 366.78100 356.34823 345.79347 334.67270 323.08893 311.29617 299.17940 286.99563
 274.72087 262.63110 250.65333 239.96757 230.10280 221.22003 213.41527 206.43050
 200.27773 195.22897 191.82420 189.87943 188.92966 189.00690 189.85513 191.17636
 192.91460 195.02283 197.29906 199.67130 202.12953 204.62276 206.72400 208.57923
 210.21846 211.37670 211.61893 211.86016 211.81040 211.52863 211.17486 210.81810
 210.44833 210.17156 209.99280 209.87003 209.81126 210.15550 210.55473 210.95696
 211.76320 212.95443 214.21766 216.01390 217.95513 220.01136 222.11959 224.21583
 226.28906 228.38629 230.49653 232.61576 234.75799 236.94323 239.21246 241.59569
 244.22993 246.49416 248.50939 250.28763 251.71786 252.85409 253.68933 254.01856
 254.06879 253.85603 253.22926 252.19049 250.80973 248.98396 246.90619 244.75243
 242.55666 240.37389 238.20713 236.05936 233.93259 231.81283 229.85206 228.02229
 226.31852 224.80376 223.44699 222.23222 221.12746 220.10069 219.21792 218.37216
 217.62739 216.82062 215.93186 215.30909 214.77232 214.61929 214.25775 214.78195
 215.38660 216.01625 216.82654 217.78319 219.03128 221.79593 226.72946 231.56145
 235.41136 238.94220 241.90419 244.65918 247.64485 250.74287 254.10876 257.61899
 260.83139 263.78601 266.62119 269.42636 272.08249 274.41168 276.27020 277.91235
 279.48849 280.98511 282.48779 283.85052 285.03781 286.09113 287.05154 287.92435
 288.71460 289.42654 290.05511 290.87436
 366.78100 356.34822 345.79344 334.67266 323.08888 311.29610 299.17932 286.99555
 274.72077 262.63099 250.65321 239.96743 230.10265 221.21987 213.41509 206.43031
 200.27753 195.22875 191.82397 189.87919 188.92941 189.00664 189.85486 191.17608
 192.91430 195.02252 197.29874 199.67096 202.12918 204.62240 206.72362 208.57884
 210.21806 211.37628 211.61850 211.85973 211.80995 211.52817 211.17439 210.81761
 210.44783 210.17105 209.99227 209.86949 209.81071 210.15493 210.55415 210.95637
 211.76259 212.95382 214.21704 216.01326 217.95448 220.01070 222.11892 224.21514
 226.28836 228.38558 230.49580 232.61502 234.75724 236.94246 239.21168 241.59491
 244.22913 246.49335 248.50857 250.28679 251.71701 252.85323 253.68845 254.01767
 254.06789 253.85511 253.22833 252.18955 250.80878 248.98300 246.90522 244.75144
 242.55566 240.37288 238.20610 236.05832 233.93154 231.81176 229.85098 228.02120
 226.31742 224.80264 223.44587 222.23109 221.12631 220.09953 219.21675 218.37097
 217.62619 216.81941 215.93063 215.30785 214.77107 214.61626 214.25046 214.83627
 215.50034 216.13913 216.93202 217.83452 219.03023 221.80692 226.74011 231.54703
 235.35135 238.81212 241.73093 244.48718 247.50394 250.65495 254.05464 257.55963
 260.75806 263.70541 266.54855 269.37036 272.03238 274.35898 276.22952 277.89410
 279.49014 281.00461 282.50363 283.86661 285.05334 286.10657 287.06415 287.93860
 288.72876 289.43906 290.06564 290.88702
 366.78100 356.34821 345.79342 334.67263 323.08884 311.29605 299.17926 286.99546
 274.72067 262.63088 250.65309 239.96730 230.10251 221.21972 213.41493 206.43014
 200.27735 195.22856 191.82377 189.87898 188.92919 189.00639 189.85460 191.17581
 192.91402 195.02223 197.29844 199.67065 202.12886 204.62207 206.72328 208.57849
 210.21770 211.37591 211.61812 211.85932 211.80953 211.52774 211.17395 210.81716
 210.44737 210.17058 209.99179 209.86900 209.81021 210.15442 210.55363 210.95584
 211.76205 212.95325 214.21646 216.01267 217.95388 220.01009 222.11830 224.21451
 226.28772 228.38493 230.49514 232.61435 234.75656 236.94177 239.21098 241.59418
 244.22839 246.49260 248.50781 250.28602 251.71623 252.85244 253.68765 254.01686
 254.06707 253.85428 253.22749 252.18870 250.80791 248.98211 246.90432 244.75053
 242.55474 240.37195 238.20516 236.05737 233.93058 231.81079 229.85000 228.02021
 226.31642 224.80163 223.44484 222.23004 221.12525 220.09846 219.21567 218.36988
 217.62509 216.81830 215.92951 215.30672 214.76993 214.61166 214.23776 214.88739
 215.62218 216.26938 217.03331 217.88185 219.03851 221.81699 226.75026 231.52617
 235.28143 238.67404 241.55769 244.32570 247.37939 250.58066 254.00629 257.50143
 260.68405 263.62524 266.47803 269.31470 271.98001 274.30106 276.18213 277.86804
 279.48383 281.01321 282.50806 283.86987 285.05569 286.10715 287.06577 287.93735
 288.72672 289.43933 290.06473 290.88470
 366.78100 356.34814 345.79329 334.67243 323.08857 311.29572 299.17886 286.99500
 274.72015 262.63029 250.65244 239.96658 230.10172 221.21887 213.41401 206.42915
 200.27630 195.22744 191.82258 189.87773 188.92787 189.00501 189.85316 191.17430
 192.91244 195.02059 197.29673 199.66887 202.12702 204.62016 206.72131 208.57645
 210.21559 211.37374 211.61588 211.85702 211.80717 211.52531 211.17145 210.81460
 210.44474 210.16788 209.98903 209.86617 209.80731 210.15146 210.55060 210.95275
 211.75889 212.95003 214.21318 216.00932 217.95046 220.00661 222.11475 224.21089
 226.28404 228.38118 230.49132 232.61047 234.75261 236.93775 239.20690 241.59004
 244.22418 246.48833 248.50347 250.28162 251.71176 252.84790 253.68305 254.01219
 254.06233 253.84948 253.22262 252.18376 250.80291 248.97705 246.89919 244.74534
 242.54948 240.36662 238.19977 236.05191 233.92506 231.80520 229.84434 228.01449
 226.31063 224.79577 223.43892 222.22406 221.11920 220.09235 219.20949 218.36363
 217.61878 216.81192 215.92306 215.30021 214.76335 214.60500 214.23087 214.93199
 215.74254 216.40092 217.14810 217.93697 219.04938 221.82533 226.75874 231.49969
 235.20360 238.53088 241.38747 244.17647 247.27272 250.52086 253.96425 257.44415
 260.60818 263.54462 266.40884 269.25760 271.92227 274.23694 276.12891 277.83563
 279.47150 281.01413 282.49963 283.85959 285.04474 286.09500 287.05234 287.92374
 288.71307 289.42355 290.04941 290.86664
 366.78100 356.34823 345.79347 334.67270 323.08893 311.29617 299.17940 286.99563
 274.72087 262.63110 250.65333 239.96757 230.10280 221.22003 213.41527 206.43050
 200.27773 195.22897 191.82420 189.87943 188.92967 189.00690 189.85513 191.17637
 192.91460 195.02283 197.29907 199.67130 202.12953 204.62277 206.72400 208.57924
 210.21847 211.37670 211.61894 211.86017 211.81040 211.52864 211.17487 210.81810
 210.44834 210.17157 209.99280 209.87004 209.81127 210.15550 210.55474 210.95697
 211.76320 212.95444 214.21767 216.01390 217.95514 220.01137 222.11960 224.21584
 226.28907 228.38630 230.49654 232.61577 234.75800 236.94324 239.21247 241.59570
 244.22994 246.49417 248.50940 250.28764 251.71787 252.85410 253.68934 254.01857
 254.06880 253.85604 253.22927 252.19050 250.80974 248.98397 246.90620 244.75244
 242.55667 240.37390 238.20714 236.05937 233.93260 231.81284 229.85207 228.02230
 226.31854 224.80377 223.44700 222.23224 221.12747 220.10071 219.21794 218.37217
 217.62741 216.82064 215.93187 215.30911 214.77234 214.60840 214.22110 214.97255
 215.87512 216.53752 217.25204 217.99049 219.07567 221.83618 226.76212 231.46397
 235.11375 238.37556 241.21292 244.03433 247.18021 250.47304 253.92676 257.38589
 260.53003 263.46347 266.33923 269.19794 271.85965 274.16687 276.06949 277.79773
 279.45441 281.00800 282.48575 283.84464 285.02762 286.07721 287.03235 287.90381
 288.69202 289.40466 290.02814 290.84576
 366.78100 356.34889 345.79478 334.67467 323.09156 311.29945 299.18334 287.00023
 274.72612 262.63701 250.65990 239.97479 230.11068 221.22857 213.42446 206.44035
 200.28823 195.24012 191.83601 189.89190 188.94279 189.02068 189.86957 191.19146
 192.93035 195.03924 197.31613 199.68902 202.14791 204.64180 206.74369 208.59958
 210.23947 211.39836 211.64125 211.88314 211.83403 211.55292 211.19981 210.84370
 210.47459 210.19848 210.02037 209.89826 209.84015 210.18504 210.58492 210.98781
 211.79470 212.98659 214.25048 216.04737 217.98926 220.04615 222.15504 224.25193
 226.32582 228.42371 230.53460 232.65449 234.79738 236.98327 239.25316 241.63705
 244.27194 246.53683 248.55272 250.33161 251.76250 252.89939 253.73528 254.06517
 254.11606 253.90395 253.27784 252.23973 250.85961 249.03450 246.95739 244.80428
 242.60917 240.42706 238.26095 236.11384 233.98773 231.86862 229.90851 228.07940
 226.37629 224.86218 223.50607 222.29196 221.18785 220.16174 219.27963 218.43452
 217.69041 216.88430 215.99619 215.37408 214.83797 214.64340 214.18370 215.02460
 216.01814 216.67775 217.37418 218.03539 219.07611 221.83057 226.75545 231.41759
 235.01222 238.21155 241.03780 243.90205 247.10364 250.43755 253.89436 257.32776
 260.44965 263.37997 266.26837 269.13480 271.79117 274.08896 276.00250 277.75201
 279.42719 280.99084 282.46371 283.82022 285.00287 286.05154 287.00589 287.87469
 288.66238 289.37405 289.99664 290.81140
 366.78100 356.34978 345.79655 334.67733 323.09510 311.30388 299.18866 287.00643
 274.73321 262.64499 250.66876 239.98454 230.12131 221.24009 213.43687 206.45364
 200.30242 195.25520 191.85197 189.90875 188.96052 189.03930 189.88908 191.21185
 192.95163 195.06141 197.33918 199.71296 202.17273 204.66751 206.77029 208.62706
 210.26784 211.42761 211.67139 211.91417 211.86594 211.58572 211.23350 210.87827
 210.51005 210.23482 210.05760 209.93638 209.87915 210.22493 210.62571 211.02948
 211.83726 213.03003 214.29481 216.09259 218.03536 220.09314 222.20292 224.30069
 226.37547 228.47424 230.58602 232.70680 234.85057 237.03735 239.30812 241.69290
 244.32868 246.59445 248.61123 250.39101 251.82278 252.96056 253.79733 254.12811
 254.17989 253.96866 253.34344 252.30622 250.92699 249.10277 247.02654 244.87432
 242.68010 240.49887 238.33365 236.18743 234.06220 231.94398 229.98475 228.15653
 226.45431 224.94108 223.58586 222.37263 221.26941 220.24419 219.36296 218.51874
 217.77552 216.97029 216.08307 215.46184 214.92662 214.69090 214.13400 215.06192
 216.19327 216.82280 217.46538 218.06848 219.09354 221.83295 226.74554 231.36523
 234.90204 238.03993 240.86234 243.77876 247.04132 250.41296 253.86586 257.26822
 260.36597 263.29449 266.19699 269.06915 271.71622 274.00330 275.92624 277.69186
 279.38867 280.96591 282.43558 283.78970 284.97034 286.01547 286.96997 287.83752
 288.62634 289.33212 289.95612 290.76715
 366.78100 356.34983 345.79667 334.67750 323.09533 311.30417 299.18900 287.00684
 274.73367 262.64550 250.66934 239.98517 230.12200 221.24084 213.43767 206.45450
 200.30334 195.25617 191.85300 189.90984 188.96167 189.04051 189.89034 191.21317
 192.95301 195.06284 197.34067 199.71451 202.17434 204.66917 206.77201 208.62884
 210.26967 211.42951 211.67334 211.91618 211.86801 211.58784 211.23568 210.88051
 210.51234 210.23718 210.06001 209.93884 209.88168 210.22751 210.62834 211.03218
 211.84001 213.03285 214.29768 216.09551 218.03835 220.09618 222.20601 224.30385
 226.37868 228.47751 230.58935 232.71018 234.85401 237.04085 239.31168 241.69652
 244.33235 246.59818 248.61502 250.39485 251.82668 252.96452 253.80135 254.13218
 254.18402 253.97285 253.34768 252.31052 250.93135 249.10719 247.03102 244.87885
 242.68469 240.50352 238.33835 236.19219 234.06702 231.94885 229.98969 228.16152
 226.45935 224.94619 223.59102 222.37786 221.27469 220.24952 219.36836 218.52419
 217.78102 216.97586 216.08869 215.46752 214.93236 214.69322 214.12825 215.06601
 216.34906 217.00945 217.61186 218.12013 219.08661 221.80997 226.71976 231.29498
 234.77193 237.85181 240.68039 243.66220 246.99277 250.40016 253.84361 257.21146
 260.28461 263.21310 266.12793 269.00208 271.63873 273.91513 275.83975 277.62805
 279.34732 280.93256 282.39914 283.74728 284.92493 285.96909 286.92157 287.78763
 288.57245 289.28149 289.90170 290.71371
 366.78100 356.34927 345.79553 334.67580 323.09306 311.30133 299.18559 287.00286
 274.72912 262.64039 250.66365 239.97892 230.11518 221.23345 213.42971 206.44598
 200.29425 195.24651 191.84278 189.89904 188.95031 189.02857 189.87784 191.20010
 192.93937 195.04863 197.32590 199.69916 202.15843 204.65269 206.75496 208.61123
 210.25149 211.41076 211.65402 211.89629 211.84755 211.56682 211.21408 210.85835
 210.48961 210.21388 210.03614 209.91441 209.85667 210.20194 210.60221 211.00547
 211.81274 213.00500 214.26927 216.06653 218.00880 220.06606 222.17533 224.27259
 226.34686 228.44512 230.55639 232.67666 234.81992 237.00619 239.27645 241.66072
 244.29598 246.56125 248.57751 250.35678 251.78804 252.92531 253.76157 254.09184
 254.14310 253.93137 253.30564 252.26790 250.88817 249.06343 246.98670 244.83396
 242.63923 240.45749 238.29176 236.14502 234.01929 231.90055 229.94082 228.11208
 226.40935 224.89562 223.53988 222.32615 221.22241 220.19668 219.31494 218.47021
 217.72647 216.92074 216.03300 215.41127 214.87553 214.65875 214.14659 215.07684
 216.47417 217.19713 217.77890 218.17247 219.06664 221.78117 226.68866 231.21738
 234.63585 237.66313 240.50742 243.56212 246.96365 250.40125 253.82718 257.15601
 260.20319 263.13141 266.05746 268.93069 271.55533 273.81918 275.74789 277.55344
 279.28836 280.88394 282.34915 283.68683 284.86197 285.90277 286.85388 287.71906
 288.50107 289.20758 289.82806 290.63406
 366.78100 356.34895 345.79491 334.67486 323.09182 311.29977 299.18373 287.00068
 274.72664 262.63759 250.66055 239.97550 230.11146 221.22941 213.42537 206.44132
 200.28928 195.24123 191.83719 189.89314 188.94410 189.02205 189.87101 191.19296
 192.93192 195.04087 197.31783 199.69078 202.14974 204.64369 206.74564 208.60160
 210.24155 211.40051 211.64346 211.88542 211.83637 211.55533 211.20228 210.84624
 210.47719 210.20115 210.02310 209.90106 209.84301 210.18797 210.58792 210.99088
 211.79783 212.98979 214.25374 216.05070 217.99265 220.04961 222.15856 224.25552
 226.32947 228.42742 230.53838 232.65833 234.80129 236.98724 239.25720 241.64115
 244.27611 246.54106 248.55702 250.33597 251.76693 252.90388 253.73984 254.06979
 254.12075 253.90870 253.28266 252.24461 250.86457 249.03952 246.96248 244.80943
 242.61439 240.43234 238.26630 236.11925 233.99321 231.87416 229.91411 228.08507
 226.38202 224.86798 223.51193 222.29789 221.19384 220.16780 219.28575 218.44071
 217.69666 216.89062 216.00257 215.38053 214.84448 214.63510 214.14040 215.10634
 216.59276 217.37549 217.93718 218.23422 219.05733 221.76308 226.66154 231.14241
 234.50357 237.48303 240.34764 243.47792 246.94815 250.40767 253.80878 257.09265
 260.11105 263.03912 265.97897 268.85056 271.45700 273.70438 275.64346 277.46011
 279.21252 280.82190 282.28375 283.60739 284.77701 285.81683 286.76425 287.62665
 288.40973 289.11255 289.73187 290.53564
 366.78100 356.34894 345.79487 334.67481 323.09175 311.29968 299.18362 287.00056
 274.72649 262.63743 250.66037 239.97531 230.11124 221.22918 213.42512 206.44105
 200.28899 195.24093 191.83686 189.89280 188.94374 189.02167 189.87061 191.19255
 192.93148 195.04042 197.31736 199.69029 202.14923 204.64317 206.74510 208.60104
 210.24098 211.39992 211.64285 211.88479 211.83573 211.55466 211.20160 210.84554
 210.47647 210.20041 210.02235 209.90028 209.84222 210.18716 210.58709 210.99003
 211.79697 212.98890 214.25284 216.04978 217.99171 220.04865 222.15759 224.25453
 226.32846 228.42640 230.53734 232.65727 234.80021 236.98615 239.25608 241.64002
 244.27496 246.53989 248.55583 250.33477 251.76570 252.90264 253.73858 254.06851
 254.11945 253.90739 253.28132 252.24326 250.86320 249.03814 246.96107 244.80801
 242.61295 240.43088 238.26482 236.11776 233.99169 231.87263 229.91257 228.08350
 226.38044 224.86638 223.51031 222.29625 221.19219 220.16612 219.28406 218.43900
 217.69493 216.88887 216.00081 215.37875 214.84268 214.62744 214.11891 215.12772
 216.70267 217.54126 218.07883 218.29907 219.06274 221.75784 226.64024 231.07193
 234.37784 237.31400 240.20329 243.41202 246.94930 250.42477 253.79474 257.02805
 260.01624 262.94467 265.89780 268.76276 271.34354 273.57022 275.51974 277.34940
 279.12659 280.75043 282.20435 283.51343 284.67081 285.70139 286.64703 287.50821
 288.28949 288.99030 289.60791 290.40988
 366.78100 356.34879 345.79458 334.67437 323.09116 311.29895 299.18274 286.99953
 274.72532 262.63611 250.65890 239.97369 230.10948 221.22727 213.42306 206.43885
 200.28664 195.23843 191.83422 189.89000 188.94079 189.01858 189.86737 191.18916
 192.92795 195.03674 197.31353 199.68632 202.14511 204.63890 206.74069 208.59648
 210.23627 211.39506 211.63785 211.87964 211.83043 211.54922 211.19601 210.83980
 210.47059 210.19438 210.01617 209.89396 209.83575 210.18054 210.58033 210.98312
 211.78991 212.98170 214.24549 216.04228 217.98407 220.04086 222.14965 224.24643
 226.32022 228.41801 230.52880 232.64859 234.79138 236.97717 239.24696 241.63075
 244.26554 246.53033 248.54612 250.32491 251.75570 252.89249 253.72828 254.05807
 254.10886 253.89665 253.27044 252.23223 250.85202 249.02681 246.94960 244.79639
 242.60118 240.41897 238.25276 236.10555 233.97934 231.86013 229.89992 228.07071
 226.36750 224.85329 223.49708 222.28286 221.17865 220.15244 219.27023 218.42502
 217.68081 216.87460 215.98639 215.36418 214.82797 214.61423 214.10921 215.13811
 216.79860 217.68306 218.20131 218.35448 219.07320 221.75790 226.62126 231.00359
 234.25764 237.15790 240.07944 243.37148 246.97890 250.47119 253.80612 256.98825
 259.94595 262.87064 265.82602 268.67145 271.21701 273.41553 275.36877 277.22614
 279.02908 280.65768 282.09943 283.38910 284.52301 285.53574 286.46747 287.32504
 288.10400 288.80334 289.42032 290.22125
 366.78100 356.34852 345.79404 334.67357 323.09009 311.29761 299.18113 286.99766
 274.72318 262.63370 250.65622 239.97074 230.10627 221.22379 213.41931 206.43483
 200.28236 195.23388 191.82940 189.88492 188.93544 189.01297 189.86149 191.18301
 192.92153 195.03006 197.30658 199.67910 202.13762 204.63114 206.73267 208.58819
 210.22771 211.38623 211.62876 211.87028 211.82080 211.53932 211.18585 210.82937
 210.45989 210.18341 210.00493 209.88246 209.82398 210.16850 210.56802 210.97055
 211.77707 212.96859 214.23211 216.02863 217.97016 220.02668 222.13520 224.23172
 226.30525 228.40277 230.51329 232.63281 234.77533 236.96086 239.23038 241.61390
 244.24842 246.51295 248.52847 250.30699 251.73751 252.87403 253.70956 254.03908
 254.08960 253.87712 253.25065 252.21217 250.83169 249.00621 246.92873 244.77526
 242.57978 240.39730 238.23082 236.08335 233.95687 231.83739 229.87691 228.04743
 226.34396 224.82948 223.47300 222.25852 221.15405 220.12757 219.24509 218.39961
 217.65513 216.84866 215.96018 215.33770 214.80122 214.59367 214.10330 215.16667
 216.89919 217.80119 218.30070 218.38583 219.06863 221.74828 226.59508 230.92688
 234.13188 237.00313 239.96674 243.35049 247.03699 250.54861 253.85344 256.98837
 259.91495 262.82715 265.77454 268.59470 271.10742 273.28021 275.22437 277.09326
 278.91925 280.52698 281.93994 283.18610 284.27618 285.24942 286.15750 287.00690
 287.78210 288.47964 289.09702 289.90121
 366.78100 356.34848 345.79396 334.67344 323.08992 311.29741 299.18089 286.99737
 274.72285 262.63333 250.65581 239.97029 230.10577 221.22325 213.41873 206.43422
 200.28170 195.23318 191.82866 189.88414 188.93462 189.01210 189.86058 191.18206
 192.92054 195.02903 197.30551 199.67799 202.13647 204.62995 206.73143 208.58691
 210.22639 211.38487 211.62736 211.86884 211.81932 211.53780 211.18428 210.82776
 210.45824 210.18172 210.00320 209.88068 209.82217 210.16665 210.56613 210.96861
 211.77509 212.96657 214.23005 216.02653 217.96801 220.02450 222.13298 224.22946
 226.30294 228.40042 230.51090 232.63038 234.77286 236.95834 239.22782 241.61131
 244.24579 246.51027 248.52575 250.30423 251.73471 252.87119 253.70667 254.03615
 254.08663 253.87412 253.24760 252.20908 250.82856 249.00304 246.92552 244.77200
 242.57648 240.39396 238.22745 236.07993 233.95341 231.83389 229.87337 228.04385
 226.34033 224.82581 223.46929 222.25477 221.15026 220.12374 219.24122 218.39570
 217.65118 216.84466 215.95614 215.33362 214.79710 214.58195 214.07364 215.22438
 217.02960 217.92200 218.38399 218.39377 219.03903 221.71823 226.55177 230.82666
 233.98012 236.82664 239.84109 243.32542 247.09480 250.63213 253.91690 257.01746
 259.92078 262.82135 265.76083 268.57013 271.06577 273.21237 275.08536 277.02628
 278.81793 280.38129 281.73907 282.92587 283.95523 284.86966 285.73151 286.57065
 287.34390 288.04022 288.65353 289.45148
 366.78100 356.34887 345.79475 334.67462 323.09149 311.29937 299.18324 287.00011
 274.72599 262.63686 250.65973 239.97461 230.11048 221.22836 213.42423 206.44010
 200.28798 195.23985 191.83572 189.89160 188.94247 189.02034 189.86922 191.19109
 192.92996 195.03884 197.31571 199.68858 202.14746 204.64133 206.74320 208.59908
 210.23895 211.39783 211.64070 211.88257 211.83345 211.55232 211.19919 210.84307
 210.47394 210.19781 210.01969 209.89756 209.83943 210.18431 210.58418 210.98705
 211.79393 212.98580 214.24967 216.04655 217.98842 220.04530 222.15417 224.25104
 226.32492 228.42279 230.53366 232.65354 234.79641 236.98228 239.25216 241.63603
 244.27090 246.53578 248.55165 250.33052 251.76140 252.89827 253.73414 254.06402
 254.11489 253.90277 253.27664 252.23851 250.85839 249.03326 246.95613 244.80301
 242.60788 240.42575 238.25963 236.11250 233.98637 231.86725 229.90712 228.07799
 226.37487 224.86074 223.50461 222.29049 221.18636 220.16024 219.27811 218.43298
 217.68886 216.88273 215.99460 215.37248 214.83635 214.59239 214.01601 215.27666
 217.18843 218.07867 218.48715 218.41125 219.00232 221.67609 226.49237 230.70171
 233.79826 236.61865 239.68782 243.27406 247.11980 250.68019 253.95113 257.03070
 259.92386 262.82492 265.76633 268.57623 271.07394 273.21664 275.05734 277.01718
 278.75330 280.27328 281.57220 282.69836 283.65900 284.50342 285.31006 286.14072
 286.91696 287.61545 288.23096 289.03693
 366.78100 356.34940 345.79580 334.67620 323.09360 311.30200 299.18640 287.00380
 274.73020 262.64160 250.66500 239.98040 230.11680 221.23520 213.43160 206.44800
 200.29640 195.24880 191.84520 189.90160 188.95300 189.03140 189.88081 191.20321
 192.94261 195.05201 197.32941 199.70281 202.16221 204.65661 206.75901 208.61541
 210.25581 211.41521 211.65861 211.90101 211.85241 211.57181 211.21921 210.86361
 210.49501 210.21941 210.04181 209.92021 209.86261 210.20801 210.60841 211.01181
 211.81921 213.01161 214.27601 216.07341 218.01581 220.07321 222.18261 224.28001
 226.35441 228.45281 230.56421 232.68461 234.82801 237.01441 239.28481 241.66921
 244.30461 246.57001 248.58642 250.36582 251.79722 252.93462 253.77102 254.10142
 254.15282 253.94122 253.31562 252.27802 250.89842 249.07382 246.99722 244.84462
 242.65002 240.46842 238.30282 236.15622 234.03062 231.91202 229.95242 228.12382
 226.42122 224.90762 223.55202 222.33842 221.23482 220.20922 219.32762 218.48302
 217.73942 216.93382 216.04622 215.42462 214.88902 214.61174 213.95665 215.29944
 217.34315 218.26620 218.62735 218.46904 218.98555 221.63771 226.42792 230.56651
 233.60321 236.39894 239.52280 243.20567 247.10699 250.67673 253.93703 257.00562
 259.90189 262.81516 265.76859 268.57925 271.08783 273.26141 275.00937 277.04984
 278.75687 280.23697 281.50555 282.58496 283.47311 284.22586 284.95831 285.78497
 286.56223 287.26334 287.88159 288.69678
 366.78100 356.34965 345.79630 334.67695 323.09460 311.30325 299.18790 287.00555
 274.73221 262.64386 250.66751 239.98316 230.11981 221.23846 213.43511 206.45176
 200.30041 195.25306 191.84971 189.90636 188.95801 189.03666 189.88631 191.20896
 192.94862 195.05827 197.33592 199.70957 202.16922 204.66387 206.76652 208.62317
 210.26382 211.42347 211.66712 211.90977 211.86142 211.58107 211.22872 210.87337
 210.50503 210.22968 210.05233 209.93098 209.87363 210.21928 210.61993 211.02358
 211.83123 213.02388 214.28853 216.08618 218.02883 220.08648 222.19613 224.29378
 226.36844 228.46709 230.57874 232.69939 234.84304 237.02969 239.30034 241.68499
 244.32064 246.58629 248.60294 250.38259 251.81424 252.95189 253.78854 254.11919
 254.17085 253.95950 253.33415 252.29680 250.91745 249.09310 247.01675 244.86440
 242.67005 240.48870 238.32335 236.17700 234.05165 231.93330 229.97395 228.14560
 226.44325 224.92991 223.57456 222.36121 221.25786 220.23251 219.35116 218.50681
 217.76346 216.95811 216.07076 215.44941 214.91406 214.61928 213.92279 215.30469
 217.47935 218.45514 218.77605 218.54640 218.98337 221.60616 226.36520 230.43500
 233.41829 236.19638 239.37653 243.14763 247.08766 250.65271 253.89574 256.95300
 259.85257 262.78384 265.74969 268.55511 271.07794 273.27991 275.06247 277.02731
 278.73801 280.19345 281.45175 282.50262 283.33990 284.00900 284.66965 285.49304
 286.27216 286.97797 287.59573 288.41620
 366.78100 356.34953 345.79606 334.67660 323.09413 311.30266 299.18719 287.00473
 274.73126 262.64279 250.66632 239.98186 230.11839 221.23692 213.43345 206.44999
 200.29852 195.25105 191.84758 189.90412 188.95565 189.03418 189.88371 191.20624
 192.94578 195.05531 197.33284 199.70637 202.16591 204.66044 206.76297 208.61950
 210.26004 211.41957 211.66310 211.90563 211.85717 211.57670 211.22423 210.86876
 210.50029 210.22483 210.04736 209.92589 209.86842 210.21396 210.61449 211.01802
 211.82555 213.01809 214.28262 216.08015 218.02268 220.08022 222.18975 224.28728
 226.36181 228.46035 230.57188 232.69241 234.83594 237.02247 239.29301 241.67754
 244.31307 246.57860 248.59514 250.37467 251.80620 252.94373 253.78027 254.11080
 254.16233 253.95086 253.32540 252.28793 250.90846 249.08399 247.00752 244.85506
 242.66059 240.47912 238.31365 236.16719 234.04172 231.92325 229.96378 228.13532
 226.43285 224.91938 223.56391 222.35045 221.24698 220.22151 219.34004 218.49558
 217.75211 216.94664 216.05917 215.43770 214.90224 214.61093 213.92268 215.31252
 217.57716 218.61621 218.90805 218.61703 218.98218 221.57645 226.30699 230.31419
 233.25137 236.02406 239.26424 243.11719 247.08887 250.64388 253.85866 256.89941
 259.80112 262.74841 265.71674 268.51480 271.05023 273.26096 275.10577 276.98007
 278.67355 280.11026 281.34528 282.35895 283.16040 283.79272 284.42526 285.25192
 286.03607 286.74435 287.36386 288.18457
 366.78100 356.34897 345.79494 334.67492 323.09189 311.29986 299.18383 287.00080
 274.72678 262.63775 250.66072 239.97569 230.11166 221.22963 213.42561 206.44158
 200.28955 195.24152 191.83749 189.89347 188.94444 189.02241 189.87138 191.19335
 192.93233 195.04130 197.31827 199.69124 202.15021 204.64419 206.74616 208.60213
 210.24210 211.40107 211.64405 211.88602 211.83699 211.55596 211.20293 210.84690
 210.47788 210.20185 210.02382 209.90179 209.84376 210.18874 210.58871 210.99168
 211.79865 212.99062 214.25460 216.05157 217.99354 220.05051 222.15948 224.25646
 226.33043 228.42840 230.53937 232.65934 234.80231 236.98829 239.25826 241.64223
 244.27720 246.54217 248.55815 250.33712 251.76809 252.90506 253.74103 254.07101
 254.12198 253.90995 253.28392 252.24589 250.86587 249.04084 246.96381 244.81078
 242.61575 240.43373 238.26770 236.12067 233.99464 231.87561 229.91558 228.08656
 226.38353 224.86950 223.51347 222.29944 221.19542 220.16939 219.28736 218.44233
 217.69830 216.89228 216.00425 215.38222 214.84619 214.57690 213.94069 215.36232
 217.63948 218.72133 218.99979 218.67186 218.98248 221.54796 226.24910 230.19678
 233.09871 235.87831 239.18309 243.11597 247.11998 250.66293 253.83965 256.86710
 259.77081 262.72110 265.68039 268.46954 271.00632 273.22189 275.11679 276.93616
 278.59415 280.00262 281.18555 282.15521 282.93823 283.56958 284.20383 285.03995
 285.82852 286.54187 287.16260 287.99005
 366.78100 356.34820 345.79340 334.67260 323.08880 311.29600 299.17920 286.99539
 274.72059 262.63079 250.65299 239.96719 230.10239 221.21959 213.41479 206.42999
 200.27719 195.22839 191.82359 189.87878 188.92898 189.00618 189.85438 191.17558
 192.91378 195.02198 197.29818 199.67038 202.12858 204.62178 206.72298 208.57818
 210.21737 211.37557 211.61777 211.85897 211.80917 211.52737 211.17357 210.81677
 210.44697 210.17017 209.99137 209.86857 209.80977 210.15396 210.55316 210.95536
 211.76156 212.95276 214.21596 216.01216 217.95336 220.00956 222.11776 224.21396
 226.28716 228.38435 230.49455 232.61375 234.75595 236.94115 239.21035 241.59355
 244.22775 246.49195 248.50715 250.28535 251.71555 252.85175 253.68694 254.01614
 254.06634 253.85354 253.22674 252.18794 250.80714 248.98134 246.90354 244.74974
 242.55394 240.37114 238.20434 236.05653 233.92973 231.80993 229.84913 228.01933
 226.31553 224.80073 223.44393 222.22913 221.12433 220.09753 219.21473 218.36892
 217.62412 216.81732 215.92852 215.30572 214.76892 214.53539 213.98360 215.41093
 217.69908 218.79703 219.05196 218.69244 218.96349 221.51057 226.19121 230.08415
 232.95322 235.74687 239.12059 243.13051 247.16289 250.69417 253.83653 256.85370
 259.75610 262.70364 265.65924 268.42969 270.96115 273.18143 275.10425 276.91379
 278.51996 279.88477 281.01007 281.94458 282.71616 283.34576 284.00159 284.84097
 285.63916 286.36633 286.98590 287.81528
 366.78100 356.34767 345.79235 334.67102 323.08670 311.29337 299.17605 286.99172
 274.71640 262.62607 250.64775 239.96142 230.09610 221.21277 213.40745 206.42212
 200.26880 195.21947 191.81415 189.86882 188.91850 188.99517 189.84285 191.16352
 192.90120 195.00887 197.28455 199.65622 202.11390 204.60657 206.70725 208.56192
 210.20060 211.35827 211.59995 211.84062 211.79030 211.50797 211.15365 210.79632
 210.42600 210.14867 209.96935 209.84602 209.78670 210.13037 210.52905 210.93072
 211.73640 212.92707 214.18975 215.98542 217.92610 219.98177 222.08945 224.18512
 226.25780 228.35447 230.46415 232.58282 234.72450 236.90917 239.17784 241.56052
 244.19419 246.45787 248.47254 250.25022 251.67989 252.81557 253.65024 253.97892
 254.02859 253.81527 253.18794 252.14862 250.76729 248.94097 246.86264 244.70832
 242.51199 240.32867 238.16134 236.01302 233.88569 231.76537 229.80404 227.97372
 226.26939 224.75407 223.39674 222.18142 221.07609 220.04877 219.16544 218.31912
 217.57379 216.76647 215.87714 215.25382 214.71649 214.51277 214.03149 215.42352
 217.78539 218.89665 219.06638 218.68681 218.94682 221.47183 226.12312 229.95204
 232.79408 235.60983 239.05888 243.14461 247.20905 250.72545 253.83408 256.84039
 259.74335 262.70010 265.65991 268.40759 270.92871 273.15527 275.08853 276.90930
 278.45752 279.76675 280.84177 281.74445 282.49994 283.13281 283.82184 284.66464
 285.46439 286.19513 286.81348 287.64301
 366.78100 356.34734 345.79168 334.67003 323.08537 311.29171 299.17405 286.98939
 274.71374 262.62308 250.64442 239.95776 230.09211 221.20845 213.40279 206.41713
 200.26347 195.21382 191.80816 189.86250 188.91184 188.98818 189.83553 191.15587
 192.89321 195.00055 197.27590 199.64724 202.10458 204.59692 206.69726 208.55161
 210.18995 211.34729 211.58863 211.82897 211.77832 211.49566 211.14100 210.78334
 210.41268 210.13503 209.95537 209.83171 209.77205 210.11540 210.51374 210.91508
 211.72042 212.91076 214.17311 215.96845 217.90879 219.96413 222.07147 224.16682
 226.23916 228.33550 230.44484 232.56319 234.70453 236.88887 239.15721 241.53955
 244.17290 246.43624 248.45058 250.22792 251.65726 252.79261 253.62695 253.95529
 254.00463 253.79097 253.16332 252.12366 250.74200 248.91534 246.83669 244.68203
 242.48537 240.30171 238.13405 235.98540 233.85774 231.73708 229.77542 227.94476
 226.24011 224.72445 223.36679 222.15113 221.04548 220.01782 219.13416 218.28750
 217.54184 216.73419 215.84453 215.22087 214.68321 214.49963 214.06592 215.41980
 217.87547 219.05533 219.14664 218.64529 218.86923 221.39508 226.03897 229.81364
 232.62132 235.46597 238.99719 243.15485 247.24921 250.75836 253.83719 256.83411
 259.74704 262.71744 265.67178 268.39563 270.90576 273.14542 275.08365 276.91046
 278.41302 279.66818 280.70117 281.57053 282.30215 282.93878 283.63501 284.47983
 285.28156 286.01508 286.63336 287.46347
 366.78100 356.34676 345.79051 334.66827 323.08302 311.28878 299.17053 286.98529
 274.70904 262.61780 250.63855 239.95131 230.08506 221.20082 213.39457 206.40833
 200.25408 195.20384 191.79759 189.85135 188.90011 188.97586 189.82262 191.14237
 192.87913 194.98588 197.26064 199.63139 202.08815 204.57990 206.67966 208.53341
 210.17117 211.32792 211.56868 211.80843 211.75719 211.47394 211.11870 210.76046
 210.38921 210.11097 209.93072 209.80648 209.74623 210.08899 210.48674 210.88750
 211.69225 212.88201 214.14376 215.93852 217.87827 219.93303 222.03978 224.13454
 226.20630 228.30205 230.41081 232.52856 234.66932 236.85307 239.12083 241.50258
 244.13534 246.39809 248.41185 250.18860 251.61736 252.75211 253.58587 253.91362
 253.96238 253.74813 253.11989 252.07965 250.69740 248.87016 246.79091 244.63567
 242.43842 240.25418 238.08593 235.93669 233.80844 231.68720 229.72495 227.89371
 226.18846 224.67222 223.31397 222.09773 220.99148 219.96324 219.07900 218.23175
 217.48551 216.67726 215.78702 215.16277 214.62453 214.47536 214.12294 215.39626
 217.92532 219.21649 219.26299 218.61320 218.77287 221.30156 225.94398 229.65948
 232.43724 235.31982 238.94067 243.16933 247.30324 250.80330 253.84772 256.84442
 259.77985 262.75595 265.69232 268.38660 270.88168 273.13394 275.08267 276.90036
 278.36206 279.57050 280.57089 281.41669 282.12973 282.74799 283.46381 284.30908
 285.11884 285.86050 286.47763 287.31018
 366.78100 356.34536 345.78773 334.66409 323.07746 311.28182 299.16218 286.97555
 274.69791 262.60528 250.62464 239.93600 230.06837 221.18273 213.37510 206.38746
 200.23182 195.18019 191.77255 189.82492 188.87228 188.94664 189.79201 191.11037
 192.84574 194.95110 197.22446 199.59383 202.04919 204.53956 206.63792 208.49028
 210.12665 211.28201 211.52138 211.75974 211.70710 211.42247 211.06583 210.70619
 210.33356 210.05392 209.87229 209.74665 209.68501 210.02638 210.42274 210.82211
 211.62547 212.81383 214.07420 215.86756 217.80593 219.85929 221.96465 224.05802
 226.12838 228.22275 230.33011 232.44647 234.58584 236.76820 239.03457 241.41493
 244.04629 246.30766 248.32002 250.09539 251.52275 252.65611 253.48848 253.81484
 253.86221 253.64657 253.01693 251.97530 250.59166 248.76303 246.68239 244.52575
 242.32712 240.14148 237.97185 235.82121 233.69157 231.56894 229.60530 227.77267
 226.06603 224.54839 223.18876 221.97112 220.86349 219.83385 218.94821 218.09958
 217.35194 216.54231 215.65067 215.02503 214.48540 214.41225 214.23941 215.37927
 217.88811 219.33499 219.39072 218.62581 218.70842 221.21617 225.84648 229.50581
 232.25363 235.18138 238.88614 243.18967 247.36447 250.84230 253.86360 256.86850
 259.82794 262.79556 265.69736 268.35999 270.84076 273.10208 275.07507 276.86804
 278.30338 279.48242 280.45798 281.26959 281.94974 282.55206 283.27673 284.12735
 284.94724 285.69077 286.31488 287.14822
 366.78100 356.34351 345.78403 334.65854 323.07005 311.27257 299.15108 286.96259
 274.68310 262.58862 250.60613 239.91564 230.04616 221.15867 213.34918 206.35970
 200.20221 195.14872 191.73924 189.78975 188.83526 188.90777 189.75129 191.06780
 192.80131 194.90483 197.17634 199.54385 201.99737 204.48588 206.58239 208.43291
 210.06742 211.22093 211.45844 211.69496 211.64047 211.35398 210.99550 210.63401
 210.25952 209.97804 209.79455 209.66706 209.60358 209.94309 210.33760 210.73511
 211.53663 212.72314 213.98165 215.77317 217.70968 219.76119 221.86471 223.95622
 226.02473 228.11725 230.22276 232.33727 234.47478 236.65530 238.91981 241.29832
 243.92784 246.18735 248.19786 249.97138 251.39689 252.52840 253.35892 253.68343
 253.72894 253.51146 252.87997 251.83648 250.45099 248.62051 246.53802 244.37953
 242.17905 239.99156 237.82007 235.66759 233.53610 231.41161 229.44613 227.61164
 225.90315 224.38366 223.02218 221.80269 220.69320 219.66172 218.77423 217.92374
 217.17426 216.36277 215.46928 214.84180 214.30031 214.32281 214.37599 215.42485
 217.78333 219.34837 219.45737 218.63768 218.67010 221.15524 225.76578 229.36148
 232.09683 235.07541 238.86563 243.23763 247.42958 250.89673 253.89639 256.90997
 259.87253 262.82715 265.69638 268.33093 270.80563 273.08331 275.08743 276.86035
 278.25089 279.38861 280.31445 281.09174 281.74432 282.35132 283.15036 284.00397
 284.80554 285.51413 286.12915 286.95505
 366.78100 356.34237 345.78174 334.65511 323.06548 311.26685 299.14422 286.95459
 274.67396 262.57833 250.59471 239.90308 230.03245 221.14382 213.33319 206.34256
 200.18393 195.12930 191.71867 189.76804 188.81241 188.88378 189.72615 191.04152
 192.77389 194.87626 197.14663 199.51300 201.96537 204.45274 206.54812 208.39749
 210.03086 211.18323 211.41960 211.65497 211.59934 211.31171 210.95208 210.58945
 210.21382 209.93119 209.74656 209.61793 209.55330 209.89167 210.28504 210.68141
 211.48178 212.66715 213.92453 215.71490 217.65027 219.70064 221.80301 223.89338
 225.96075 228.05212 230.15649 232.26986 234.40623 236.58560 238.84897 241.22634
 243.85471 246.11308 248.12245 249.89482 251.31919 252.44956 253.27894 253.60231
 253.64668 253.42805 252.79542 251.75079 250.36416 248.53253 246.44890 244.28927
 242.08764 239.89901 237.72638 235.57275 233.44012 231.31449 229.34786 227.51223
 225.80260 224.28197 222.91935 221.69872 220.58809 219.55546 218.66683 217.81520
 217.06457 216.25194 215.35731 214.72868 214.18605 214.26755 214.46011 215.52576
 217.71107 219.30620 219.46712 218.61156 218.62599 221.09093 225.67564 229.22775
 231.93787 234.97217 238.83325 243.28227 247.54425 251.01143 254.01724 257.03568
 259.99091 262.91940 265.74637 268.33499 270.77136 273.02829 275.03912 276.75574
 278.10251 279.17139 280.08557 280.87933 281.54172 282.12851 282.94952 283.80270
 284.60678 285.31534 285.92746 286.75467
 366.78100 356.34234 345.78167 334.65501 323.06535 311.26669 299.14402 286.95436
 274.67370 262.57804 250.59437 239.90271 230.03205 221.14339 213.33272 206.34206
 200.18340 195.12874 191.71807 189.76741 188.81175 188.88309 189.72542 191.04076
 192.77310 194.87543 197.14577 199.51211 201.96445 204.45178 206.54712 208.39646
 210.02980 211.18213 211.41847 211.65381 211.59815 211.31048 210.95082 210.58816
 210.21250 209.92983 209.74517 209.61651 209.55185 209.89018 210.28352 210.67986
 211.48019 212.66553 213.92287 215.71321 217.64854 219.69888 221.80122 223.89156
 225.95889 228.05023 230.15457 232.26791 234.40424 236.58358 238.84692 241.22426
 243.85259 246.11093 248.12027 249.89261 251.31694 252.44728 253.27662 253.59995
 253.64429 253.42563 252.79297 251.74830 250.36164 248.52998 246.44632 244.28665
 242.08499 239.89633 237.72367 235.57000 233.43734 231.31168 229.34502 227.50935
 225.79969 224.27903 222.91637 221.69570 220.58504 219.55238 218.66371 217.81205
 217.06139 216.24873 215.35406 214.72540 214.18274 214.27501 214.49301 215.58821
 217.74203 219.36551 219.55746 218.63902 218.58797 221.02509 225.57170 229.02066
 231.72849 234.81590 238.77989 243.30038 247.59407 251.07034 254.06535 257.09482
 260.04135 262.95474 265.72223 268.25604 270.67737 272.93723 274.95825 276.65762
 277.97522 278.97235 279.87302 280.68784 281.34146 282.00488 282.74838 283.52319
 284.22864 284.83826 285.42328 286.23849
 366.78100 356.34416 345.78533 334.66049 323.07265 311.27581 299.15498 286.96714
 274.68830 262.59446 250.61263 239.92279 230.05395 221.16711 213.35828 206.36944
 200.21260 195.15977 191.75093 189.80209 188.84825 188.92142 189.76558 191.08274
 192.81690 194.92107 197.19323 199.56139 202.01555 204.50472 206.60188 208.45304
 210.08820 211.24237 211.48053 211.71769 211.66386 211.37802 211.02018 210.65934
 210.28551 210.00467 209.82183 209.69499 209.63216 209.97232 210.36748 210.76564
 211.56781 212.75497 214.01413 215.80630 217.74346 219.79562 221.89978 223.99195
 226.06111 228.15427 230.26043 232.37560 234.51376 236.69492 238.96008 241.33925
 243.96941 246.22957 248.24073 250.01490 251.44106 252.57322 253.40439 253.72955
 253.77571 253.55887 252.92804 251.88520 250.50036 248.67052 246.58869 244.43085
 242.23101 240.04417 237.87334 235.72150 233.59066 231.46683 229.50199 227.66815
 225.96031 224.44148 223.08064 221.86180 220.75296 219.72213 218.83529 217.98545
 217.23661 216.42578 215.53294 214.90610 214.36526 214.40092 214.49629 215.53049
 217.78346 219.43602 219.64766 218.58723 218.34222 220.77968 225.41241 228.92178
 231.49370 234.61028 238.69991 243.31596 247.60736 251.06007 254.00069 256.99054
 259.96085 262.88681 265.65677 268.20959 270.61401 272.87131 274.90027 276.60529
 277.92072 278.93204 279.76569 280.45212 281.10004 281.88205 282.61856 283.22391
 284.00375 284.75125 285.40427 286.23645
 366.78100 356.34448 345.78596 334.66145 323.07393 311.27741 299.15689 286.96938
 274.69086 262.59734 250.61582 239.92630 230.05779 221.17127 213.36275 206.37423
 200.21771 195.16520 191.75668 189.80816 188.85464 188.92813 189.77261 191.09009
 192.82457 194.92905 197.20154 199.57002 202.02450 204.51398 206.61147 208.46295
 210.09843 211.25291 211.49139 211.72888 211.67536 211.38984 211.03232 210.67180
 210.29829 210.01777 209.83525 209.70873 209.64622 209.98670 210.38218 210.78066
 211.58314 212.77063 214.03011 215.82259 217.76007 219.81255 221.91704 224.00952
 226.07900 228.17248 230.27897 232.39445 234.53293 236.71441 238.97989 241.35938
 243.98986 246.25034 248.26182 250.03631 251.46279 252.59527 253.42675 253.75223
 253.79872 253.58220 252.95168 251.90916 250.52464 248.69513 246.61361 244.45609
 242.25657 240.07006 237.89954 235.74802 233.61750 231.49398 229.52947 227.69595
 225.98843 224.46991 223.10940 221.89088 220.78236 219.75184 218.86532 218.01581
 217.26729 216.45677 215.56425 214.93773 214.39722 214.46040 214.64810 215.51562
 217.55470 219.20045 219.48720 218.64961 218.62105 220.90366 225.22469 228.81950
 231.41330 234.68643 238.80016 243.36061 247.57222 251.04182 254.09096 257.07339
 260.05176 262.98700 265.76382 268.31793 270.71490 272.94739 274.94659 276.61789
 277.85397 278.79419 279.47574 280.11978 280.85220 281.75790 282.79211 283.72906
 284.57175 285.32214 285.97769 286.81308
 366.78100 356.33832 345.77364 334.64295 323.04927 311.24659 299.11991 286.92622
 274.64154 262.54186 250.55418 239.85850 229.98381 221.09113 213.27645 206.28177
 200.11908 195.06040 191.64572 189.69104 188.73136 188.79867 189.63699 190.94831
 192.67663 194.77494 197.04126 199.40358 201.85190 204.33522 206.42653 208.27185
 209.90117 211.04949 211.28180 211.51312 211.45344 211.16176 210.79808 210.43139
 210.05171 209.76503 209.57635 209.44366 209.37498 209.70930 210.09862 210.49094
 211.28725 212.46857 213.72189 215.50821 217.43952 219.48584 221.58416 223.67048
 225.73380 227.82111 229.92143 232.03075 234.16307 236.33838 238.59770 240.97102
 243.59534 245.84966 247.85497 249.62329 251.04361 252.16993 252.99524 253.31456
 253.35488 253.13220 252.49551 251.44683 250.05615 248.22047 246.13279 243.96910
 241.76342 239.57074 237.39406 235.23637 233.09969 230.97001 228.99933 227.15965
 225.44596 223.92128 222.55460 221.32992 220.21523 219.17855 218.28587 217.43019
 216.67551 215.85882 214.96014 214.32746 213.78078 214.15276 215.02608 215.60928
 216.86177 218.79837 219.51204 218.85141 218.80505 221.01526 225.33313 228.88507
 231.43651 234.69250 238.84787 243.45081 247.64395 251.11566 254.15523 257.13388
 260.12262 263.05408 265.81705 268.34836 270.74557 273.02448 275.06839 276.74258
 277.96173 278.81671 279.38126 279.98526 280.87073 281.70490 282.74707 283.71353
 284.58279 285.35684 286.03305 286.89481
 366.78100 356.33484 345.76668 334.63252 323.03536 311.22921 299.09905 286.90189
 274.61373 262.51057 250.51941 239.82025 229.94209 221.04593 213.22777 206.22962
 200.06346 195.00130 191.58314 189.62498 188.66182 188.72566 189.56050 190.86834
 192.59319 194.68803 196.95087 199.30971 201.75455 204.23439 206.32223 208.16407
 209.78991 210.93475 211.16360 211.39144 211.32828 211.03312 210.66596 210.29580
 209.91264 209.62248 209.43032 209.29417 209.22201 209.55285 209.93869 210.32753
 211.12037 212.29821 213.54805 215.33089 217.25873 219.30158 221.39642 223.47926
 225.53910 227.62294 229.71978 231.82562 233.95446 236.12630 238.38215 240.75199
 243.37283 245.62367 247.62551 249.39035 250.80719 251.93003 252.75187 253.06771
 253.10456 252.87840 252.23824 251.18608 249.79192 247.95276 245.86160 243.69444
 241.48528 239.28913 237.10897 234.94781 232.80765 230.67449 228.70033 226.85717
 225.14001 223.61185 222.24169 221.01354 219.89538 218.85522 217.95906 217.09990
 216.34174 215.52158 214.61942 213.98326 213.43311 213.95389 215.18430 215.99741
 216.67542 218.48730 219.39113 218.88454 218.89655 221.10422 225.46645 228.81340
 231.41016 234.65125 238.84552 243.48997 247.65735 251.10670 254.15079 257.13083
 260.09927 263.00299 265.75742 268.29190 270.66721 272.91443 274.94992 276.65656
 277.97644 278.96298 279.73651 280.40695 281.03256 281.79123 282.70157 283.18900
 283.98492 284.78442 285.52203 286.46201
 366.78100 356.33803 345.77305 334.64208 323.04811 311.24513 299.11816 286.92419
 274.63921 262.53924 250.55127 239.85529 229.98032 221.08735 213.27237 206.27740
 200.11443 195.05546 191.64048 189.68551 188.72554 188.79256 189.63059 190.94162
 192.66964 194.76767 197.03370 199.39572 201.84375 204.32678 206.41780 208.26283
 209.89186 211.03988 211.27191 211.50294 211.44296 211.15099 210.78702 210.42004
 210.04007 209.75310 209.56412 209.43115 209.36218 209.69621 210.08523 210.47726
 211.27329 212.45431 213.70734 215.49337 217.42439 219.47042 221.56845 223.65447
 225.71750 227.80453 229.90455 232.01358 234.14561 236.32063 238.57966 240.95269
 243.57671 245.83074 247.83577 249.60379 251.02382 252.14985 252.97487 253.29390
 253.33393 253.11096 252.47398 251.42501 250.03404 248.19806 246.11009 243.94612
 241.74014 239.54717 237.37020 235.21222 233.07525 230.94528 228.97430 227.13433
 225.42036 223.89538 222.52841 221.30344 220.18846 219.15149 218.25852 217.40254
 216.64757 215.83060 214.93162 214.29865 213.75168 214.12976 215.02303 216.05959
 217.05775 218.64656 219.32530 218.71591 218.77313 221.02419 225.31241 228.54402
 231.21342 234.56459 238.85878 243.45921 247.54689 251.01884 254.13351 257.15646
 260.16925 263.07620 265.79095 268.24991 270.57916 272.79697 274.79599 276.53479
 277.86786 278.87592 279.67346 280.40158 281.31174 282.06525 282.69971 283.25226
 283.90198 284.62280 285.28635 286.21103
 366.78100 356.34051 345.77802 334.64953 323.05804 311.25755 299.13307 286.94158
 274.65909 262.56160 250.57611 239.88262 230.01013 221.11964 213.30715 206.31466
 200.15417 195.09769 191.68520 189.73271 188.77522 188.84473 189.68524 190.99875
 192.72926 194.82977 197.09828 199.46279 201.91331 204.39882 206.49233 208.33984
 209.97135 211.12186 211.35637 211.58988 211.53239 211.24290 210.88141 210.51693
 210.13944 209.85495 209.66846 209.53797 209.47148 209.80799 210.19950 210.59401
 211.39252 212.57603 213.83155 215.62006 217.55357 219.60208 221.70259 223.79110
 225.85661 227.94612 230.04863 232.16014 234.29465 236.47217 238.73368 241.10919
 243.73570 245.99221 247.99972 249.77023 251.19274 252.32125 253.14876 253.47028
 253.51279 253.29230 252.65781 251.61132 250.22283 248.38934 246.30385 244.14236
 241.93887 239.74838 237.57390 235.41841 233.28392 231.15643 229.18794 227.35045
 225.63896 224.11647 222.75198 221.52949 220.41700 219.38252 218.49203 217.63854
 216.88605 216.07156 215.17507 214.54458 214.00009 214.29936 215.00641 215.87560
 217.14760 218.83595 219.49316 218.74525 218.64413 220.87088 225.16972 228.35652
 230.99789 234.42714 238.85263 243.49319 247.54185 251.00510 254.17699 257.25754
 260.28964 263.18607 265.88062 268.29459 270.56223 272.72009 274.68719 276.40274
 277.75299 278.79996 279.61542 280.42493 281.45602 282.12888 282.67123 283.27869
 283.93076 284.52847 285.08157 285.79810
 366.78100 356.34050 345.77800 334.64949 323.05799 311.25749 299.13299 286.94149
 274.65898 262.56148 250.57598 239.88248 230.00998 221.11948 213.30697 206.31447
 200.15397 195.09747 191.68497 189.73246 188.77496 188.84446 189.68496 190.99846
 192.72895 194.82945 197.09795 199.46245 201.91295 204.39844 206.49194 208.33944
 209.97094 211.12144 211.35594 211.58943 211.53193 211.24243 210.88093 210.51643
 210.13892 209.85442 209.66792 209.53742 209.47092 209.80741 210.19891 210.59341
 211.39191 212.57541 213.83090 215.61940 217.55290 219.60140 221.70190 223.79040
 225.85589 227.94539 230.04789 232.15939 234.29389 236.47138 238.73288 241.10838
 243.73488 245.99138 247.99887 249.76937 251.19187 252.32037 253.14787 253.46936
 253.51186 253.29136 252.65686 251.61036 250.22186 248.38835 246.30285 244.14135
 241.93785 239.74735 237.57284 235.41734 233.28284 231.15534 229.18684 227.34933
 225.63783 224.11533 222.75083 221.52833 220.41583 219.38132 218.49082 217.63732
 216.88482 216.07032 215.17381 214.54331 213.99881 214.33829 215.14034 215.81683
 216.98979 218.80296 219.57333 218.79634 218.58606 220.81801 225.07292 228.15736
 230.85944 234.39201 238.89844 243.54370 247.53970 251.01196 254.25053 257.37656
 260.37527 263.28931 265.96420 268.35809 270.57748 272.62372 274.44226 276.24597
 277.58936 278.66855 279.64175 280.63565 281.46240 282.15573 282.83301 283.44357
 283.95914 284.47095 284.95364 285.56882
 366.78100 356.34073 345.77847 334.65020 323.05893 311.25867 299.13440 286.94313
 274.66086 262.56360 250.57833 239.88506 230.01280 221.12253 213.31026 206.31800
 200.15773 195.10146 191.68920 189.73693 188.77966 188.84939 189.69013 191.00386
 192.73459 194.83533 197.10406 199.46879 201.91953 204.40526 206.49899 208.34673
 209.97846 211.12919 211.36392 211.59766 211.54039 211.25112 210.88986 210.52559
 210.14832 209.86406 209.67779 209.54752 209.48126 209.81799 210.20972 210.60445
 211.40319 212.58692 213.84265 215.63139 217.56512 219.61385 221.71459 223.80332
 225.86905 227.95879 230.06152 232.17325 234.30799 236.48572 238.74745 241.12318
 243.74992 246.00665 248.01438 249.78512 251.20785 252.33658 253.16432 253.48605
 253.52878 253.30852 252.67425 251.62798 250.23971 248.40645 246.32118 244.15991
 241.95665 239.76638 237.59211 235.43685 233.30258 231.17531 229.20705 227.36978
 225.65851 224.13624 222.77198 221.54971 220.43744 219.40318 218.51291 217.65964
 216.90738 216.09311 215.19684 214.56658 214.02231 214.39095 215.26039 215.82108
 216.90411 218.50745 219.49704 218.90350 218.48535 220.64348 224.97591 228.24284
 230.71986 234.33691 238.90611 243.55399 247.53938 250.99211 254.25473 257.41113
 260.43246 263.34900 266.01944 268.41336 270.59985 272.55106 274.23776 275.83469
 277.26553 278.49481 279.59161 280.49606 281.35495 282.09055 282.64484 283.23242
 283.84799 284.39615 284.87500 285.48526
 366.78100 356.33919 345.77538 334.64557 323.05276 311.25095 299.12514 286.93233
 274.64852 262.54971 250.56290 239.86809 229.99429 221.10248 213.28867 206.29486
 200.13305 195.07524 191.66143 189.70762 188.74881 188.81700 189.65619 190.96838
 192.69757 194.79676 197.06395 199.42714 201.87633 204.36052 206.45271 208.29890
 209.92909 211.07828 211.31147 211.54366 211.48486 211.19405 210.83124 210.46543
 210.08662 209.80081 209.61300 209.48119 209.41338 209.74857 210.13876 210.53195
 211.32914 212.51133 213.76552 215.55271 217.48490 219.53209 221.63128 223.71847
 225.78266 227.87085 229.97204 232.08223 234.21543 236.39162 238.65181 241.02600
 243.65119 245.90638 247.91257 249.68176 251.10295 252.23014 253.05633 253.37652
 253.41771 253.19590 252.56009 251.51228 250.12247 248.28766 246.20085 244.03804
 241.83323 239.64142 237.46561 235.30880 233.17300 231.04419 229.07438 227.23557
 225.52276 223.99895 222.63314 221.40933 220.29552 219.25971 218.36790 217.51309
 216.75928 215.94347 215.04566 214.41385 213.86804 214.37111 215.48886 215.84082
 216.80409 218.27834 219.34750 219.15305 219.15709 221.01656 224.88121 228.13649
 230.77675 234.43405 238.94937 243.48184 247.44733 250.94148 254.26308 257.46045
 260.48761 263.33307 265.95947 268.35260 270.61420 272.56369 274.17856 275.70496
 277.04996 278.22287 279.23352 280.17874 281.05707 281.83417 282.54312 283.18542
 283.76306 284.27750 284.72687 285.29956
 366.78100 356.33665 345.77029 334.63794 323.04259 311.23824 299.10988 286.91453
 274.62818 262.52683 250.53747 239.84012 229.96377 221.06942 213.25306 206.25671
 200.09236 195.03201 191.61565 189.65930 188.69795 188.76360 189.60024 190.90989
 192.63654 194.73318 196.99783 199.35848 201.80513 204.28677 206.37642 208.22007
 209.84772 210.99436 211.22501 211.45466 211.39331 211.09995 210.73460 210.36625
 209.98490 209.69654 209.50619 209.37184 209.30149 209.63413 210.02178 210.41243
 211.20707 212.38672 213.63837 215.42302 217.35266 219.39731 221.49396 223.57861
 225.64025 227.72590 229.82455 231.93220 234.06284 236.23649 238.49414 240.86579
 243.48843 245.74108 247.74473 249.51138 250.93002 252.05467 252.87832 253.19596
 253.23461 253.01026 252.37191 251.32155 249.92920 248.09185 246.00250 243.83714
 241.62979 239.43544 237.25709 235.09773 232.95938 230.82803 228.85568 227.01432
 225.29897 223.77262 222.40427 221.17791 220.06156 219.02321 218.12885 217.27150
 216.51515 215.69680 214.79644 214.16209 213.61374 214.29703 215.71571 215.89062
 216.40471 218.13556 219.53966 219.40079 219.22032 221.02061 225.04465 228.12701
 230.85504 234.53877 238.98576 243.42595 247.39136 250.96664 254.34833 257.55957
 260.58737 263.42593 266.06696 268.51151 270.71191 272.55502 274.34784 275.90869
 277.20416 278.24075 279.13776 279.92538 280.60703 281.21008 281.76028 282.25873
 282.70703 283.10626 283.45499 283.89941
 366.78100 356.33741 345.77183 334.64024 323.04566 311.24207 299.11448 286.91990
 274.63431 262.53373 250.54514 239.84856 229.97297 221.07938 213.26380 206.26821
 200.10463 195.04504 191.62945 189.67387 188.71328 188.77970 189.61711 190.92753
 192.65494 194.75235 197.01777 199.37918 201.82660 204.30901 206.39942 208.24384
 209.87225 211.01967 211.25108 211.48150 211.42091 211.12832 210.76374 210.39615
 210.01557 209.72798 209.53839 209.40481 209.33522 209.66864 210.05705 210.44846
 211.24388 212.42429 213.67671 215.46212 217.39254 219.43795 221.53536 223.62078
 225.68319 227.76961 229.86902 231.97743 234.10885 236.28326 238.54168 240.91409
 243.53751 245.79092 247.79533 249.56275 250.98216 252.10758 252.93199 253.25040
 253.28982 253.06623 252.42865 251.37906 249.98747 248.15089 246.06230 243.89772
 241.69113 239.49755 237.31996 235.16137 233.02379 230.89320 228.92162 227.08103
 225.36644 223.84086 222.47327 221.24769 220.13210 219.09452 218.20093 217.34434
 216.58876 215.77117 214.87159 214.23800 213.69041 214.34964 215.80457 216.05710
 216.08188 217.82553 219.39864 219.35220 219.37061 221.06065 225.13950 228.21181
 230.88962 234.57689 239.04651 243.49728 247.46404 251.02495 254.40866 257.63727
 260.69006 263.56284 266.26752 268.67752 270.74561 272.63840 274.29190 275.80612
 276.97241 277.96271 278.81961 279.57205 280.22324 280.79935 281.32498 281.80115
 282.22943 282.61081 282.94397 283.36853
 366.78100 356.33953 345.77605 334.64658 323.05410 311.25263 299.12715 286.93468
 274.65121 262.55273 250.56626 239.87178 229.99831 221.10683 213.29336 206.29988
 200.13841 195.08094 191.66746 189.71399 188.75551 188.82404 189.66356 190.97609
 192.70562 194.80514 197.07267 199.43619 201.88572 204.37024 206.46277 208.30930
 209.93982 211.08935 211.32287 211.55540 211.49692 211.20645 210.84397 210.47850
 210.10003 209.81455 209.62708 209.49560 209.42813 209.76365 210.15418 210.54771
 211.34523 212.52776 213.78228 215.56981 217.50233 219.54986 221.64939 223.73691
 225.80144 227.88996 229.99149 232.10201 234.23554 236.41206 238.67259 241.04712
 243.67264 245.92817 247.93469 249.70422 251.12574 252.25327 253.07980 253.40032
 253.44185 253.22037 252.58490 251.53742 250.14795 248.31348 246.22700 244.06453
 241.86005 239.66858 237.49310 235.33663 233.20116 231.07268 229.10321 227.26473
 225.55226 224.02878 222.66331 221.43983 220.32636 219.29089 218.39941 217.54494
 216.79146 215.97599 215.07851 214.44704 213.90157 214.47260 215.80339 216.22917
 216.07849 217.60985 219.21057 219.21082 219.31534 221.09474 225.13777 228.16756
 230.81717 234.55067 239.04851 243.46767 247.40633 250.98242 254.39574 257.66064
 260.73584 263.64542 266.36456 268.71664 270.74567 272.68195 274.09384 275.57852
 276.67188 277.60864 278.41925 279.13104 279.74704 280.29202 280.78925 281.23969
 281.64481 282.00558 282.32074 282.72238
 366.78100 356.34039 345.77778 334.64917 323.05756 311.25695 299.13234 286.94073
 274.65812 262.56051 250.57490 239.88129 230.00868 221.11807 213.30546 206.31285
 200.15224 195.09563 191.68302 189.73041 188.77280 188.84218 189.68257 190.99596
 192.72635 194.82674 197.09513 199.45952 201.90991 204.39530 206.48869 208.33608
 209.96747 211.11786 211.35225 211.58564 211.52803 211.23842 210.87681 210.51220
 210.13459 209.84998 209.66337 209.53276 209.46615 209.80254 210.19393 210.58832
 211.38671 212.57010 213.82549 215.61388 217.54727 219.59566 221.69605 223.78444
 225.84983 227.93922 230.04161 232.15300 234.28739 236.46478 238.72617 241.10155
 243.72794 245.98433 247.99172 249.76211 251.18450 252.31289 253.14028 253.46167
 253.50406 253.28345 252.64884 251.60223 250.21362 248.38001 246.29440 244.13279
 241.92918 239.73857 237.56396 235.40835 233.27374 231.14613 229.17752 227.33991
 225.62830 224.10569 222.74108 221.51847 220.40586 219.37125 218.48064 217.62703
 216.87442 216.05981 215.16320 214.53259 213.98798 214.56248 215.85606 216.24654
 215.98590 217.39992 219.14743 219.21324 219.33897 221.15773 225.07608 228.09451
 230.70546 234.49222 239.05701 243.44218 247.36272 250.96425 254.41013 257.71625
 260.81656 263.74951 266.45990 268.77969 270.78906 272.65121 273.85257 274.68576
 275.21896 275.67599 276.07147 276.41876 276.71927 276.98517 277.22775 277.44751
 277.64517 277.82120 277.97495 278.17090
 366.78100 356.33874 345.77449 334.64423 323.05098 311.24872 299.12247 286.92921
 274.64496 262.54570 250.55845 239.86319 229.98894 221.09668 213.28243 206.28817
 200.12592 195.06766 191.65340 189.69915 188.73989 188.80764 189.64638 190.95813
 192.68687 194.78562 197.05236 199.41511 201.86385 204.34760 206.43934 208.28509
 209.91483 211.06358 211.29632 211.52806 211.46881 211.17755 210.81430 210.44804
 210.06879 209.78253 209.59428 209.46202 209.39377 209.72851 210.11826 210.51100
 211.30775 212.48949 213.74324 215.52998 217.46172 219.50847 221.60721 223.69396
 225.75770 227.84545 229.94619 232.05594 234.18868 236.36443 238.62417 240.99792
 243.62266 245.87741 247.88315 249.65190 251.07264 252.19939 253.02513 253.34487
 253.38562 253.16336 252.52711 251.47885 250.08860 248.25334 246.16609 244.00283
 241.79758 239.60532 237.42907 235.27181 233.13556 231.00630 229.03605 227.19679
 225.48353 223.95928 222.59302 221.36877 220.25451 219.21826 218.32600 217.47075
 216.71649 215.90024 215.00198 214.36973 213.82347 214.53558 216.01863 216.19034
 215.71384 217.09621 218.93289 219.09584 219.29553 221.22610 225.05002 228.15149
 230.81030 234.60760 239.11116 243.48724 247.43633 251.06389 254.53813 257.86435
 260.98264 263.91794 266.62146 268.94904 270.91873 272.59662 273.59885 274.12631
 274.58414 274.97656 275.31613 275.61432 275.87238 276.10068 276.30896 276.49765
 276.66736 276.81851 276.95053 277.11877
 366.78100 356.34023 345.77746 334.64869 323.05692 311.25615 299.13138 286.93961
 274.65684 262.55907 250.57330 239.87953 230.00676 221.11599 213.30322 206.31045
 200.14968 195.09291 191.68014 189.72737 188.76960 188.83883 189.67906 190.99229
 192.72252 194.82275 197.09098 199.45521 201.90544 204.39067 206.48390 208.33113
 209.96236 211.11259 211.34681 211.58004 211.52227 211.23250 210.87073 210.50596
 210.12819 209.84342 209.65665 209.52588 209.45911 209.79534 210.18657 210.58080
 211.37903 212.56226 213.81749 215.60572 217.53895 219.58718 221.68741 223.77564
 225.84087 227.93010 230.03233 232.14356 234.27779 236.45502 238.71625 241.09148
 243.71771 245.97394 247.98117 249.75140 251.17363 252.30186 253.12909 253.45032
 253.49255 253.27178 252.63701 251.59024 250.20147 248.36770 246.28193 244.12016
 241.91639 239.72562 237.55085 235.39508 233.26031 231.13254 229.16377 227.32600
 225.61423 224.09146 222.72669 221.50392 220.39115 219.35638 218.46561 217.61184
 216.85907 216.04430 215.14753 214.51676 213.97198 214.62450 216.08051 216.29735
 215.53429 216.77478 218.72896 218.94960 219.23120 221.20758 225.09521 228.25043
 230.90158 234.70204 239.21411 243.59212 247.53830 251.16364 254.64114 257.98428
 261.10391 264.04236 266.77966 269.15506 271.17874 272.94745 273.92236 274.90698
 275.76157 276.49408 277.12793 277.68454 278.16620 278.59238 278.98117 279.33340
 279.65021 279.93231 280.17874 280.49280
 366.78100 356.34385 345.78469 334.65954 323.07139 311.27424 299.15308 286.96493
 274.68578 262.59163 250.60947 239.91932 230.05017 221.16301 213.35386 206.36471
 200.20756 195.15440 191.74525 189.79610 188.84194 188.91479 189.75864 191.07549
 192.80933 194.91318 197.18503 199.55288 202.00672 204.49557 206.59242 208.44326
 210.07811 211.23196 211.46981 211.70665 211.65250 211.36635 211.00820 210.64704
 210.27289 209.99174 209.80858 209.68143 209.61828 209.95813 210.35297 210.75082
 211.55267 212.73952 213.99836 215.79021 217.72706 219.77890 221.88275 223.97460
 226.04345 228.13629 230.24214 232.35699 234.49483 236.67568 238.94053 241.31938
 243.94922 246.20907 248.21992 249.99377 251.41961 252.55146 253.38231 253.70715
 253.75300 253.53585 252.90470 251.86154 250.47639 248.64624 246.56409 244.40593
 242.20578 240.01863 237.84747 235.69532 233.56417 231.44002 229.47486 227.64071
 225.93256 224.41341 223.05225 221.83310 220.72395 219.69279 218.80564 217.95549
 217.20634 216.39518 215.50203 214.87488 214.33372 214.80664 216.00940 216.49812
 215.68687 216.59520 218.47136 218.73880 219.12846 221.16870 225.05600 228.31779
 231.04117 234.80353 239.27557 243.64714 247.56691 251.18217 254.65750 257.99268
 261.10437 264.02835 266.76736 269.18765 271.30386 273.06558 274.43503 276.34146
 278.77493 280.86078 282.66577 284.25064 285.62222 286.83575 287.94287 288.94586
 289.84796 290.65125 291.35300 292.24731
 366.78100 356.34397 345.78494 334.65991 323.07188 311.27485 299.15382 286.96579
 274.68677 262.59274 250.61071 239.92068 230.05165 221.16462 213.35559 206.36656
 200.20953 195.15650 191.74747 189.79844 188.84441 188.91738 189.76136 191.07833
 192.81230 194.91627 197.18824 199.55621 202.01018 204.49915 206.59612 208.44709
 210.08206 211.23603 211.47400 211.71097 211.65694 211.37092 211.01289 210.65186
 210.27783 209.99680 209.81377 209.68674 209.62371 209.96368 210.35865 210.75662
 211.55859 212.74556 214.00453 215.79651 217.73348 219.78545 221.88942 223.98139
 226.05036 228.14333 230.24930 232.36427 234.50224 236.68321 238.94818 241.32715
 243.95712 246.21710 248.22807 250.00204 251.42801 252.55998 253.39095 253.71592
 253.76189 253.54486 252.91383 251.87080 250.48577 248.65574 246.57371 244.41568
 242.21566 240.02863 237.85760 235.70557 233.57454 231.45051 229.48548 227.65145
 225.94342 224.42439 223.06336 221.84433 220.73530 219.70427 218.81725 217.96722
 217.21819 216.40716 215.51413 214.88710 214.34607 214.83978 216.04260 216.52869
 215.80716 216.52475 218.14731 218.49506 218.88457 221.18057 224.93855 228.34644
 231.12035 234.85751 239.27983 243.62518 247.56259 251.18710 254.67207 258.00485
 261.10324 263.99396 266.68753 269.09857 271.23251 273.08261 274.71942 276.28647
 278.30731 280.26447 281.95810 283.44522 284.73218 285.87082 286.90967 287.85077
 288.69720 289.45096 290.10941 290.94855
 366.78100 356.34173 345.78046 334.65319 323.06292 311.26364 299.14037 286.95010
 274.66883 262.57256 250.58829 239.89602 230.02475 221.13548 213.32420 206.33293
 200.17366 195.11839 191.70712 189.75585 188.79958 188.87031 189.71204 191.02676
 192.75849 194.86022 197.12995 199.49568 201.94741 204.43414 206.52887 208.37760
 210.01032 211.16205 211.39778 211.63251 211.57624 211.28797 210.92770 210.56443
 210.18815 209.90488 209.71961 209.59034 209.52507 209.86280 210.25553 210.65126
 211.45099 212.63571 213.89244 215.68217 217.61690 219.66663 221.76836 223.85809
 225.92482 228.01555 230.11927 232.23200 234.36773 236.54646 238.80919 241.18592
 243.81365 246.07138 248.08011 249.85183 251.27556 252.40529 253.23402 253.55675
 253.60048 253.38121 252.74794 251.70267 250.31539 248.48312 246.39885 244.23858
 242.03631 239.84704 237.67377 235.51950 233.38623 231.25995 229.29268 227.45641
 225.74614 224.22487 222.86160 221.64033 220.52906 219.49579 218.60651 217.75424
 217.00297 216.18970 215.29443 214.66516 214.12189 214.75871 216.19482 216.49255
 215.75391 216.37112 217.91792 218.38052 218.92776 221.26506 224.89113 228.37813
 231.13969 234.88280 239.31729 243.66478 247.61307 251.26550 254.76572 258.10522
 261.19290 264.05762 266.71680 269.09094 271.20316 273.07455 274.87634 276.45871
 277.98569 279.91998 281.63116 283.13370 284.43399 285.58444 286.63403 287.58493
 288.44012 289.20169 289.86697 290.71478
 366.78100 356.34086 345.77872 334.65058 323.05944 311.25930 299.13516 286.94402
 274.66189 262.56475 250.57961 239.88647 230.01433 221.12419 213.31205 206.31991
 200.15977 195.10363 191.69149 189.73935 188.78221 188.85207 189.69293 191.00679
 192.73766 194.83852 197.10738 199.47224 201.92310 204.40896 206.50282 208.35068
 209.98254 211.13340 211.36826 211.60212 211.54498 211.25584 210.89470 210.53057
 210.15343 209.86929 209.68315 209.55301 209.48687 209.82373 210.21559 210.61045
 211.40931 212.59317 213.84903 215.63789 217.57175 219.62061 221.72147 223.81034
 225.87620 227.96606 230.06892 232.18078 234.31564 236.49350 238.75536 241.13122
 243.75808 246.01494 248.02280 249.79366 251.21652 252.34538 253.17325 253.49511
 253.53797 253.31783 252.68369 251.63755 250.24941 248.41627 246.33113 244.16999
 241.96685 239.77671 237.60257 235.44743 233.31329 231.18615 229.21802 227.38088
 225.66974 224.14760 222.78346 221.56132 220.44918 219.41504 218.52490 217.67176
 216.91962 216.10548 215.20934 214.57920 214.03506 214.73578 216.29250 216.53789
 215.74577 216.17239 217.59473 218.13573 218.86403 221.26450 224.89740 228.41917
 231.17079 234.93793 239.39862 243.75491 247.71341 251.37856 254.88625 258.21957
 261.29654 264.14600 266.79568 269.15948 271.26364 273.15808 275.04016 276.58688
 277.77686 279.61139 281.34387 282.86511 284.18161 285.34637 286.40903 287.37173
 288.23758 289.00864 289.68219 290.54059
 366.78100 356.34159 345.78019 334.65278 323.06237 311.26296 299.13956 286.94915
 274.66774 262.57133 250.58693 239.89452 230.02311 221.13370 213.32230 206.33089
 200.17148 195.11607 191.70467 189.75326 188.79685 188.86744 189.70904 191.02363
 192.75522 194.85682 197.12641 199.49200 201.94359 204.43019 206.52478 208.37337
 210.00596 211.15756 211.39315 211.62774 211.57133 211.28293 210.92252 210.55911
 210.18270 209.89930 209.71389 209.58448 209.51907 209.85667 210.24926 210.64485
 211.44445 212.62904 213.88563 215.67522 217.60982 219.65941 221.76100 223.85059
 225.91719 228.00778 230.11137 232.22396 234.35956 236.53815 238.80074 241.17733
 243.80493 246.06252 248.07111 249.84270 251.26630 252.39589 253.22448 253.54708
 253.59067 253.37126 252.73785 251.69245 250.30504 248.47263 246.38822 244.22782
 242.02541 239.83600 237.66259 235.50819 233.37478 231.24837 229.28096 227.44456
 225.73415 224.21274 222.84933 221.62793 220.51652 219.48311 218.59371 217.74130
 216.98989 216.17648 215.28108 214.65167 214.10826 214.79030 216.30858 216.57341
 215.79530 216.12167 217.41403 217.87723 218.64371 221.12166 224.83304 228.36824
 231.18318 234.99229 239.45744 243.81854 247.79848 251.48813 255.01105 258.33740
 261.39069 264.22787 266.87311 269.24078 271.35315 273.32416 275.15323 276.69040
 277.84995 279.76016 281.53946 283.10184 284.45392 285.65018 286.74161 287.73032
 288.61960 289.41147 290.10327 290.98486
 366.78100 356.34185 345.78070 334.65355 323.06340 311.26425 299.14110 286.95095
 274.66981 262.57366 250.58951 239.89736 230.02621 221.13706 213.32591 206.33476
 200.17561 195.12046 191.70931 189.75816 188.80201 188.87286 189.71471 191.02956
 192.76142 194.86327 197.13312 199.49897 201.95082 204.43767 206.53252 208.38137
 210.01422 211.16607 211.40192 211.63677 211.58062 211.29247 210.93232 210.56917
 210.19303 209.90988 209.72473 209.59558 209.53043 209.86828 210.26113 210.65698
 211.45683 212.64168 213.89853 215.68838 217.62323 219.67308 221.77493 223.86479
 225.93164 228.02249 230.12634 232.23919 234.37504 236.55389 238.81674 241.19359
 243.82144 246.07929 248.08814 249.85999 251.28384 252.41369 253.24254 253.56540
 253.60925 253.39010 252.75695 251.71180 250.32465 248.49250 246.40835 244.24820
 242.04605 239.85690 237.68375 235.52960 233.39645 231.27030 229.30315 227.46701
 225.75686 224.23571 222.87256 221.65141 220.54026 219.50711 218.61796 217.76581
 217.01466 216.20151 215.30636 214.67721 214.13406 214.81870 216.33412 216.56601
 215.79570 216.07140 217.32280 217.75641 218.51547 221.04276 224.76562 228.30525
 231.14766 235.01108 239.51703 243.89070 247.88254 251.59004 255.12859 258.44516
 261.47552 264.29431 266.93704 269.31448 271.45663 273.49661 275.45160 276.87177
 278.02936 279.92389 281.69440 283.24902 284.59442 285.78476 286.87076 287.85458
 288.73944 289.52740 290.21576 291.09299
 366.78100 356.34179 345.78058 334.65337 323.06317 311.26396 299.14075 286.95054
 274.66933 262.57312 250.58891 239.89670 230.02550 221.13629 213.32508 206.33387
 200.17466 195.11945 191.70824 189.75703 188.80083 188.87162 189.71341 191.02820
 192.75999 194.86178 197.13157 199.49736 201.94916 204.43595 206.53074 208.37953
 210.01232 211.16411 211.39990 211.63469 211.57849 211.29028 210.93007 210.56686
 210.19065 209.90744 209.72223 209.59303 209.52782 209.86561 210.25840 210.65419
 211.45398 212.63877 213.89556 215.68536 217.62015 219.66994 221.77173 223.86152
 225.92831 228.01910 230.12289 232.23569 234.37148 236.55027 238.81306 241.18985
 243.81764 246.07543 248.08422 249.85602 251.27981 252.40960 253.23839 253.56118
 253.60497 253.38576 252.75255 251.70735 250.32014 248.48793 246.40372 244.24351
 242.04130 239.85209 237.67889 235.52468 233.39147 231.26526 229.29805 227.46184
 225.75163 224.23042 222.86722 221.64601 220.53480 219.50159 218.61238 217.76017
 217.00896 216.19575 215.30055 214.67134 214.12813 214.81801 216.36313 216.63426
 215.82208 215.90030 216.99803 217.55499 218.51398 221.04846 224.78918 228.34229
 231.11496 235.01950 239.58890 243.96948 247.96368 251.66684 255.18068 258.46646
 261.48880 264.30515 266.95834 269.36234 271.55878 273.65283 275.58160 277.08243
 278.20667 279.76215 281.40213 282.90604 284.20752 285.35901 286.40955 287.36127
 288.21725 288.97949 289.64539 290.49399
 366.78100 356.34245 345.78190 334.65535 323.06580 311.26725 299.14470 286.95514
 274.67459 262.57904 250.59549 239.90394 230.03339 221.14484 213.33429 206.34374
 200.18519 195.13064 191.72009 189.76954 188.81398 188.88543 189.72788 191.04333
 192.77578 194.87823 197.14868 199.51513 201.96758 204.45503 206.55048 208.39993
 210.03338 211.18582 211.42227 211.65772 211.60217 211.31462 210.95507 210.59252
 210.21697 209.93442 209.74987 209.62132 209.55677 209.89522 210.28867 210.68511
 211.48556 212.67101 213.92846 215.71891 217.65436 219.70481 221.80726 223.89771
 225.96516 228.05661 230.16106 232.27451 234.41095 236.59040 238.85385 241.23130
 243.85975 246.11820 248.12765 249.90010 251.32455 252.45500 253.28445 253.60790
 253.65235 253.43379 252.80124 251.75669 250.37014 248.53859 246.45504 244.29549
 242.09394 239.90539 237.73284 235.57929 233.44674 231.32119 229.35463 227.51908
 225.80953 224.28898 222.92643 221.70588 220.59533 219.56278 218.67423 217.82268
 217.07213 216.25958 215.36503 214.73647 214.19392 214.84964 216.34480 216.73990
 215.92574 215.78154 216.69994 217.27417 218.34288 220.94069 224.76567 228.28847
 231.15843 235.08447 239.63588 244.03792 248.04738 251.74803 255.25160 258.51346
 261.51312 264.32019 266.96161 269.37479 271.61768 273.76791 275.67126 277.11880
 278.14981 279.55353 281.11655 282.54004 283.80280 284.91998 285.93927 286.86270
 287.69318 288.43274 289.07883 289.90216
 366.78100 356.34326 345.78351 334.65777 323.06903 311.27129 299.14954 286.96080
 274.68106 262.58632 250.60357 239.91283 230.04309 221.15535 213.34560 206.35586
 200.19812 195.14437 191.73463 189.78489 188.83015 188.90240 189.74566 191.06192
 192.79518 194.89843 197.16969 199.53695 201.99021 204.47846 206.57472 208.42498
 210.05924 211.21249 211.44975 211.68601 211.63126 211.34452 210.98578 210.62404
 210.24929 209.96755 209.78381 209.65607 209.59232 209.93158 210.32584 210.72310
 211.52435 212.71061 213.96887 215.76012 217.69638 219.74764 221.85090 223.94215
 226.01041 228.10267 230.20793 232.32218 234.45944 236.63970 238.90396 241.28221
 243.91147 246.17073 248.18098 249.95424 251.37950 252.51076 253.34101 253.66527
 253.71053 253.49279 252.86104 251.81730 250.43156 248.60082 246.51807 244.35933
 242.15859 239.97084 237.79910 235.64636 233.51462 231.38987 229.42413 227.58939
 225.88065 224.36090 222.99916 221.77942 220.66968 219.63793 218.75019 217.89945
 217.14971 216.33796 215.44422 214.81648 214.27473 214.89467 216.31619 216.76074
 216.01994 215.78554 216.54453 217.07170 218.20673 220.85864 224.73389 228.26187
 231.13106 235.11125 239.69252 244.11717 248.15465 251.87296 255.36935 258.59708
 261.55600 264.33316 266.96515 269.38763 271.68347 273.88959 275.76331 277.15302
 278.19565 279.50345 281.02179 282.45773 283.73889 284.87244 285.90659 286.84348
 287.68610 288.43643 289.09192 289.92728
 366.78100 356.34467 345.78634 334.66201 323.07468 311.27835 299.15802 286.97069
 274.69236 262.59903 250.61770 239.92837 230.06004 221.17371 213.36538 206.37705
 200.22072 195.16840 191.76007 189.81174 188.85841 188.93208 189.77675 191.09442
 192.82909 194.93376 197.20643 199.57510 202.02977 204.51944 206.61711 208.46878
 210.10445 211.25912 211.49779 211.73546 211.68213 211.39680 211.03947 210.67914
 210.30581 210.02548 209.84315 209.71682 209.65449 209.99516 210.39083 210.78950
 211.59217 212.77985 214.03952 215.83219 217.76986 219.82253 221.92720 224.01987
 226.08954 228.18321 230.28988 232.40555 234.54422 236.72589 238.99156 241.37123
 244.00190 246.26257 248.27424 250.04891 251.47558 252.60825 253.43992 253.76559
 253.81226 253.59593 252.96560 251.92327 250.53894 248.70961 246.62828 244.47095
 242.27162 240.08530 237.91497 235.76364 233.63331 231.50998 229.54565 227.71232
 226.00499 224.48666 223.12633 221.90800 220.79967 219.76934 218.88301 218.03368
 217.28535 216.47502 215.58269 214.95636 214.41603 214.96750 216.25047 216.79520
 216.13118 215.76923 216.35666 216.86403 218.08447 220.81163 224.77585 228.29250
 231.15196 235.16379 239.79620 244.25583 248.29054 251.98827 255.45338 258.63196
 261.55002 264.32285 266.96295 269.40201 271.76291 274.03677 275.83469 277.14572
 278.21149 279.44495 280.96112 282.39682 283.68265 284.82025 285.85815 286.79840
 287.64407 288.39713 289.05499 289.89337
 366.78100 356.34734 345.79167 334.67001 323.08534 311.29168 299.17401 286.98935
 274.71368 262.62302 250.64436 239.95769 230.09203 221.20836 213.40270 206.41703
 200.26337 195.21370 191.80804 189.86238 188.91171 188.98805 189.83538 191.15572
 192.89305 195.00039 197.27572 199.64706 202.10440 204.59673 206.69707 208.55140
 210.18974 211.34707 211.58841 211.82874 211.77808 211.49542 211.14075 210.78309
 210.41242 210.13476 209.95509 209.83143 209.77176 210.11510 210.51344 210.91477
 211.72011 212.91044 214.17278 215.96811 217.90845 219.96378 222.07112 224.16646
 226.23879 228.33513 230.44446 232.56280 234.70413 236.88847 239.15680 241.53914
 244.17248 246.43581 248.45015 250.22748 251.65682 252.79215 253.62649 253.95482
 254.00416 253.79050 253.16283 252.12317 250.74150 248.91484 246.83617 244.68151
 242.48484 240.30118 238.13352 235.98485 233.85719 231.73652 229.77486 227.94419
 226.23953 224.72386 223.36620 222.15054 221.04487 220.01721 219.13354 218.28688
 217.54121 216.73355 215.84389 215.22022 214.68256 215.10951 216.14445 216.78702
 216.28496 215.96194 216.34537 216.66455 217.89420 220.63092 224.68163 228.16473
 231.06264 235.17729 239.83403 244.30327 248.36508 252.09891 255.57016 258.73074
 261.61444 264.36215 266.99384 269.48450 271.90320 274.11053 275.82578 277.11761
 278.28613 279.76578 281.48315 283.03128 284.37103 285.55640 286.63785 287.61755
 288.49869 289.28336 289.96884 290.84238
 366.78100 356.34799 345.79298 334.67197 323.08796 311.29495 299.17794 286.99394
 274.71893 262.62892 250.65091 239.96490 230.09989 221.21688 213.41187 206.42686
 200.27385 195.22484 191.81983 189.87482 188.92482 189.00181 189.84980 191.17079
 192.90878 195.01677 197.29276 199.66475 202.12274 204.61573 206.71672 208.57171
 210.21070 211.36870 211.61069 211.85168 211.80167 211.51966 211.16565 210.80864
 210.43863 210.16162 209.98261 209.85960 209.80059 210.14458 210.54358 210.94557
 211.75156 212.94255 214.20554 216.00153 217.94252 219.99851 222.10650 224.20249
 226.27548 228.37247 230.48246 232.60146 234.74345 236.92844 239.19743 241.58042
 244.21441 246.47840 248.49339 250.27138 251.70137 252.83736 253.67235 254.00134
 254.05134 253.83833 253.21132 252.17231 250.79130 248.96529 246.88728 244.73327
 242.53726 240.35425 238.18724 236.03923 233.91223 231.79222 229.83121 228.00120
 226.29719 224.78218 223.42517 222.21016 221.10515 220.07814 219.19513 218.34912
 217.60411 216.79711 215.90810 215.28509 214.74808 215.15251 216.12006 216.67145
 216.33371 216.12939 216.45908 216.61003 217.74644 220.48691 224.60376 228.01282
 231.00920 235.21292 239.92288 244.40039 248.46494 252.20699 255.68132 258.83398
 261.70340 264.44522 267.08154 269.59686 272.13156 274.47891 276.14935 277.33597
 278.58371 280.44525 282.23987 283.81567 285.17938 286.38593 287.48669 288.48395
 289.38086 290.17953 290.87726 291.76645
 366.78100 356.34611 345.78923 334.66634 323.08045 311.28557 299.16668 286.98079
 274.70391 262.61202 250.63213 239.94424 230.07736 221.19247 213.38558 206.39870
 200.24381 195.19292 191.78604 189.83915 188.88726 188.96238 189.80849 191.12760
 192.86372 194.96983 197.24394 199.61406 202.07017 204.56128 206.66040 208.51351
 210.15062 211.30673 211.54685 211.78596 211.73407 211.45019 211.09430 210.73541
 210.36353 210.08464 209.90375 209.77887 209.71798 210.06009 210.45721 210.85732
 211.66143 212.85055 214.11166 215.90577 217.84489 219.89900 222.00511 224.09922
 226.17034 228.26545 230.37356 232.49068 234.63079 236.81390 239.08102 241.46213
 244.09424 246.35636 248.36947 250.14558 251.57370 252.70781 253.54092 253.86804
 253.91615 253.70126 253.07238 252.03149 250.64860 248.82071 246.74083 244.58494
 242.38705 240.20217 238.03328 235.88339 233.75451 231.63262 229.66973 227.83785
 226.13196 224.61507 223.25619 222.03930 220.93241 219.90353 219.01864 218.17075
 217.42387 216.61498 215.72409 215.09920 214.56032 215.05356 216.18126 216.61098
 216.39751 216.13295 216.30458 216.52844 217.69974 220.45366 224.43117 227.93837
 230.99921 235.26627 240.01794 244.48903 248.53061 252.23488 255.66728 258.80472
 261.70755 264.48087 267.16406 269.73672 272.23843 274.52744 276.27783 277.64597
 278.93567 280.40942 281.94128 283.38541 284.63892 285.74799 286.75983 287.67651
 288.50095 289.23511 289.87646 290.69379
 366.78100 356.34482 345.78664 334.66246 323.07528 311.27910 299.15892 286.97174
 274.69356 262.60038 250.61920 239.93003 230.06185 221.17567 213.36749 206.37931
 200.22313 195.17095 191.76277 189.81459 188.86141 188.93523 189.78005 191.09787
 192.83269 194.93751 197.21033 199.57915 202.03397 204.52379 206.62161 208.47343
 210.10925 211.26408 211.50290 211.74072 211.68754 211.40236 211.04518 210.68500
 210.31182 210.03164 209.84946 209.72328 209.66110 210.00192 210.39774 210.79656
 211.59938 212.78720 214.04702 215.83984 217.77766 219.83048 221.93530 224.02813
 226.09795 228.19177 230.29859 232.41441 234.55323 236.73505 239.00087 241.38069
 244.01151 246.27233 248.28415 250.05897 251.48579 252.61861 253.45043 253.77625
 253.82307 253.60689 252.97671 251.93453 250.55035 248.72118 246.64000 244.48282
 242.28364 240.09746 237.92728 235.77610 233.64592 231.52274 229.55856 227.72538
 226.01820 224.50002 223.13984 221.92166 220.81348 219.78330 218.89712 218.04794
 217.29976 216.48958 215.59740 214.97123 214.43105 214.98035 216.22545 216.57565
 216.52249 216.24214 216.19621 216.28038 217.42345 220.22430 224.20229 227.75102
 231.00243 235.31410 240.05936 244.54088 248.61189 252.34506 255.78049 258.89761
 261.78140 264.54987 267.23843 269.82394 272.35336 274.66583 276.41422 277.73816
 278.96799 280.23792 281.43591 282.70105 283.92450 285.00693 285.99448 286.88916
 287.69379 288.41034 289.03629 289.83401
 366.78100 356.34516 345.78732 334.66349 323.07665 311.28081 299.16097 286.97413
 274.69630 262.60346 250.62262 239.93378 230.06594 221.18011 213.37227 206.38443
 200.22859 195.17675 191.76892 189.82108 188.86824 188.94240 189.78756 191.10572
 192.84089 194.94605 197.21921 199.58837 202.04353 204.53370 206.63186 208.48402
 210.12018 211.27534 211.51451 211.75267 211.69983 211.41499 211.05815 210.69832
 210.32548 210.04564 209.86380 209.73796 209.67613 210.01729 210.41345 210.81261
 211.61577 212.80394 214.06410 215.85726 217.79542 219.84858 221.95375 224.04691
 226.11707 228.21123 230.31839 232.43455 234.57372 236.75588 239.02204 241.40220
 244.03336 246.29453 248.30669 250.08185 251.50901 252.64217 253.47434 253.80050
 253.84766 253.63182 253.00198 251.96015 250.57631 248.74747 246.66663 244.50979
 242.31096 240.12512 237.95528 235.80444 233.67460 231.55177 229.58793 227.75509
 226.04825 224.53041 223.17058 221.95274 220.84490 219.81506 218.92922 218.08038
 217.33255 216.52271 215.63087 215.00503 214.46519 214.98454 216.18059 216.55988
 216.58217 216.28177 216.06073 216.05719 217.20598 220.05148 224.12035 227.65045
 231.03801 235.35483 240.11563 244.62387 248.71080 252.44528 255.86049 258.95285
 261.81317 264.57785 267.29370 269.92218 272.48804 274.86328 276.72940 278.10184
 279.31689 280.47763 281.52512 282.41757 283.40350 284.42938 285.37338 286.22858
 286.99774 287.68268 288.28104 289.04355
 366.78100 356.34740 345.79180 334.67020 323.08559 311.29199 299.17439 286.98979
 274.71419 262.62359 250.64499 239.95839 230.09278 221.20918 213.40358 206.41798
 200.26438 195.21478 191.80918 189.86358 188.91297 188.98937 189.83677 191.15717
 192.89457 195.00197 197.27737 199.64877 202.10616 204.59856 206.69896 208.55336
 210.19176 211.34916 211.59056 211.83096 211.78035 211.49775 211.14315 210.78555
 210.41495 210.13735 209.95775 209.83415 209.77454 210.11794 210.51634 210.91774
 211.72314 212.91354 214.17594 215.97134 217.91173 219.96713 222.07453 224.16993
 226.24233 228.33873 230.44813 232.56653 234.70792 236.89232 239.16072 241.54312
 244.17652 246.43992 248.45432 250.23172 251.66111 252.79651 253.63091 253.95931
 254.00871 253.79511 253.16751 252.12790 250.74630 248.91970 246.84110 244.68650
 242.48990 240.30630 238.13870 235.99009 233.86249 231.74189 229.78029 227.94969
 226.24509 224.72949 223.37189 222.15628 221.05068 220.02308 219.13948 218.29288
 217.54728 216.73968 215.85008 215.22647 214.68887 215.08881 216.02991 216.61201
 216.69240 216.32143 215.99260 215.92693 217.06670 219.93097 224.04129 227.56160
 231.02158 235.38504 240.15858 244.67448 248.76093 252.47527 255.85883 258.91470
 261.74008 264.48444 267.20010 269.87460 272.51633 274.94028 276.81934 278.24472
 279.53625 280.71887 281.76202 282.59991 283.38443 284.35941 285.29034 286.13370
 286.89221 287.56766 288.15771 288.90970
 366.78100 356.34734 345.79169 334.67003 323.08538 311.29172 299.17407 286.98941
 274.71376 262.62310 250.64444 239.95779 230.09213 221.20848 213.40282 206.41717
 200.26351 195.21385 191.80820 189.86254 188.91189 188.98823 189.83558 191.15592
 192.89327 195.00061 197.27595 199.64730 202.10464 204.59699 206.69733 208.55168
 210.19002 211.34737 211.58871 211.82905 211.77840 211.49574 211.14109 210.78343
 210.41278 210.13512 209.95547 209.83181 209.77215 210.11550 210.51384 210.91519
 211.72053 212.91088 214.17322 215.96856 217.90891 219.96425 222.07160 224.16694
 226.23929 228.33563 230.44498 232.56332 234.70466 236.88901 239.15735 241.53970
 244.17304 246.43639 248.45073 250.22808 251.65742 252.79276 253.62711 253.95545
 254.00480 253.79114 253.16349 252.12383 250.74218 248.91552 246.83686 244.68221
 242.48555 240.30190 238.13424 235.98559 233.85793 231.73727 229.77562 227.94496
 226.24031 224.72465 223.36700 222.15134 221.04569 220.01803 219.13437 218.28772
 217.54206 216.73441 215.84475 215.22110 214.68344 215.09166 216.03720 216.47566
 216.71956 216.49254 216.15926 216.04436 217.11140 219.89056 223.89957 227.46719
 230.96379 235.41359 240.19035 244.70959 248.78601 252.49069 255.87097 258.92865
 261.75006 264.47668 267.18030 269.86533 272.55566 275.03165 276.88580 278.28375
 279.58914 280.79871 281.77234 282.62027 283.64429 284.64566 285.55927 286.38693
 287.13132 287.79422 288.37329 289.11127
 366.78100 356.34556 345.78811 334.66467 323.07823 311.28279 299.16334 286.97690
 274.69946 262.60701 250.62657 239.93813 230.07069 221.18524 213.37780 206.39036
 200.23491 195.18347 191.77603 189.82859 188.87614 188.95070 189.79626 191.11481
 192.85037 194.95593 197.22949 199.59904 202.05460 204.54516 206.64371 208.49627
 210.13283 211.28839 211.52794 211.76650 211.71406 211.42961 211.07317 210.71373
 210.34129 210.06184 209.88040 209.75496 209.69351 210.03507 210.43163 210.83119
 211.63474 212.82330 214.08386 215.87741 217.81597 219.86953 221.97509 224.06864
 226.13920 228.23376 230.34131 232.45787 234.59743 236.77999 239.04654 241.42710
 244.05866 246.32021 248.33277 250.10833 251.53589 252.66944 253.50200 253.82856
 253.87611 253.66067 253.03123 251.98979 250.60634 248.77790 246.69746 244.54101
 242.34257 240.15713 237.98769 235.83724 233.70780 231.58536 229.62191 227.78947
 226.08303 224.56559 223.20614 221.98870 220.88126 219.85181 218.96637 218.11793
 217.37049 216.56104 215.66960 215.04416 214.50471 214.99570 216.12318 216.39766
 216.60170 216.52339 216.18651 216.00981 217.03484 219.80724 223.85301 227.36633
 230.95602 235.43852 240.23517 244.75278 248.82809 252.52290 255.89867 258.97165
 261.82550 264.55756 267.23206 269.90323 272.61844 275.12900 276.99689 278.38507
 279.68689 280.84045 281.73816 282.46768 283.23547 284.15729 285.10934 285.97186
 286.74759 287.43835 288.04184 288.81085
 366.78100 356.34775 345.79250 334.67124 323.08699 311.29374 299.17649 286.99223
 274.71698 262.62673 250.64848 239.96222 230.09697 221.21372 213.40847 206.42322
 200.26996 195.22071 191.81546 189.87021 188.91995 188.99670 189.84445 191.16520
 192.90294 195.01069 197.28644 199.65819 202.11594 204.60868 206.70943 208.56418
 210.20293 211.36067 211.60242 211.84317 211.79292 211.51066 211.15641 210.79916
 210.42891 210.15166 209.97240 209.84915 209.78990 210.13365 210.53239 210.93414
 211.73989 212.93064 214.19339 215.98913 217.92988 219.98563 222.09338 224.18912
 226.26187 228.35862 230.46837 232.58711 234.72886 236.91361 239.18236 241.56511
 244.19885 246.46260 248.47735 250.25510 251.68484 252.82059 253.65534 253.98409
 254.03383 253.82058 253.19333 252.15408 250.77283 248.94657 246.86832 244.71407
 242.51782 240.33456 238.16731 236.01906 233.89181 231.77155 229.81030 227.98005
 226.27580 224.76055 223.40329 222.18804 221.08279 220.05554 219.17228 218.32603
 217.58078 216.77353 215.88427 215.26102 214.72377 215.08759 215.94841 216.60049
 216.72992 216.51234 216.05678 215.79373 216.81076 219.63927 223.78644 227.15395
 230.91734 235.44264 240.27510 244.79326 248.87668 252.56364 255.93430 259.00467
 261.86172 264.59985 267.27612 269.94666 272.68018 275.24249 277.19647 278.60559
 279.88229 281.01300 281.87518 282.47000 282.93555 283.43326 284.16351 285.02240
 285.80380 286.49960 287.10745 287.88211
 366.78100 356.34897 345.79493 334.67490 323.09187 311.29983 299.18380 287.00077
 274.72674 262.63770 250.66067 239.97564 230.11160 221.22957 213.42554 206.44150
 200.28947 195.24144 191.83740 189.89337 188.94434 189.02230 189.87127 191.19324
 192.93221 195.04117 197.31814 199.69111 202.15007 204.64404 206.74601 208.60197
 210.24194 211.40091 211.64387 211.88584 211.83681 211.55577 211.20274 210.84671
 210.47768 210.20164 210.02361 209.90158 209.84354 210.18851 210.58848 210.99144
 211.79841 212.99038 214.25434 216.05131 217.99328 220.05024 222.15921 224.25618
 226.33015 228.42811 230.53908 232.65905 234.80201 236.98798 239.25795 241.64191
 244.27688 246.54185 248.55781 250.33678 251.76775 252.90471 253.74068 254.07065
 254.12162 253.90958 253.28355 252.24552 250.86548 249.04045 246.96342 244.81038
 242.61535 240.43332 238.26728 236.12025 233.99422 231.87518 229.91515 228.08612
 226.38309 224.86905 223.51302 222.29899 221.19495 220.16892 219.28689 218.44185
 217.69782 216.89179 216.00375 215.38172 214.84569 215.14319 215.84981 216.60201
 216.92537 216.72070 216.11667 215.63324 216.59711 219.44801 223.64934 226.98517
 230.87257 235.45987 240.32220 244.84395 248.92361 252.60452 255.97687 259.04507
 261.88889 264.59427 267.23300 269.90002 272.68076 275.31662 277.31784 278.76443
 280.07419 281.21854 282.06934 282.62421 283.03140 283.35452 283.80276 284.55188
 285.33478 286.03195 286.64102 287.41718
 366.78100 356.34616 345.78932 334.66649 323.08065 311.28581 299.16697 286.98113
 274.70430 262.61246 250.63262 239.94478 230.07794 221.19311 213.38627 206.39943
 200.24459 195.19375 191.78692 189.84008 188.88824 188.96340 189.80956 191.12873
 192.86489 194.97105 197.24521 199.61537 202.07154 204.56270 206.66186 208.51502
 210.15218 211.30835 211.54851 211.78767 211.73583 211.45199 211.09616 210.73732
 210.36548 210.08664 209.90580 209.78097 209.72013 210.06229 210.45945 210.85961
 211.66378 212.85294 214.11410 215.90826 217.84742 219.90159 222.00775 224.10191
 226.17307 228.26823 230.37640 232.49356 234.63372 236.81688 239.08404 241.46521
 244.09737 246.35953 248.37269 250.14885 251.57702 252.71118 253.54434 253.87150
 253.91966 253.70483 253.07599 252.03515 250.65231 248.82447 246.74464 244.58880
 242.39096 240.20612 238.03728 235.88745 233.75861 231.63677 229.67393 227.84209
 226.13626 224.61942 223.26058 222.04374 220.93690 219.90807 219.02323 218.17539
 217.42855 216.61971 215.72888 215.10404 214.56520 215.00288 216.03018 216.40230
 216.88358 216.86324 216.28108 215.64020 216.52008 219.32791 223.49728 226.91946
 230.85362 235.48701 240.36423 244.88242 248.94989 252.62976 256.01022 259.08926
 261.93372 264.61060 267.19711 269.82593 272.63126 275.37631 277.45728 278.94269
 280.26422 281.38919 282.20477 282.66907 282.92624 283.14673 283.66867 284.41806
 285.13568 285.77472 286.33298 287.04440
 366.78100 356.34468 345.78636 334.66204 323.07472 311.27840 299.15807 286.97075
 274.69243 262.59911 250.61779 239.92847 230.06015 221.17383 213.36551 206.37719
 200.22086 195.16854 191.76022 189.81190 188.85858 188.93226 189.77694 191.09462
 192.82930 194.93398 197.20665 199.57533 202.03001 204.51969 206.61737 208.46905
 210.10473 211.25941 211.49809 211.73577 211.68244 211.39712 211.03980 210.67948
 210.30616 210.02584 209.84352 209.71720 209.65488 209.99556 210.39123 210.78991
 211.59259 212.78027 214.03995 215.83263 217.77031 219.82299 221.92767 224.02035
 226.09002 228.18370 230.29038 232.40606 234.54474 236.72642 238.99210 241.37178
 244.00246 246.26314 248.27481 250.04949 251.47617 252.60885 253.44053 253.76621
 253.81289 253.59657 252.96625 251.92393 250.53960 248.71028 246.62896 244.47164
 242.27232 240.08600 237.91568 235.76436 233.63404 231.51072 229.54639 227.71307
 226.00575 224.48743 223.12711 221.90879 220.80047 219.77015 218.88383 218.03451
 217.28618 216.47586 215.58354 214.95722 214.41690 214.92262 216.11215 216.36443
 216.86597 216.87965 216.36833 215.62427 216.44559 219.23302 223.41293 226.84187
 230.84441 235.51822 240.41948 244.92953 248.98674 252.66513 256.05124 259.13611
 261.98260 264.64127 267.17105 269.74152 272.55762 275.38950 277.56442 279.09454
 280.46890 281.60440 282.38245 282.71387 282.85092 282.96326 283.45624 284.10211
 284.79199 285.41504 285.95932 286.65295
 366.78100 356.34552 345.78803 334.66455 323.07807 311.28258 299.16310 286.97662
 274.69913 262.60665 250.62617 239.93769 230.07020 221.18472 213.37724 206.38975
 200.23427 195.18279 191.77530 189.82782 188.87534 188.94985 189.79537 191.11389
 192.84940 194.95492 197.22844 199.59796 202.05347 204.54399 206.64251 208.49502
 210.13154 211.28706 211.52657 211.76509 211.71261 211.42812 211.07164 210.71216
 210.33967 210.06019 209.87871 209.75323 209.69174 210.03326 210.42978 210.82929
 211.63281 212.82133 214.08184 215.87536 217.81388 219.86739 221.97291 224.06643
 226.13694 228.23146 230.33898 232.45550 234.59501 236.77753 239.04405 241.42456
 244.05608 246.31760 248.33011 250.10563 251.53315 252.66666 253.49918 253.82570
 253.87321 253.65773 253.02825 251.98676 250.60328 248.77480 246.69432 244.53783
 242.33935 240.15387 237.98438 235.83390 233.70442 231.58193 229.61845 227.78597
 226.07948 224.56200 223.20252 221.98503 220.87755 219.84807 218.96259 218.11410
 217.36662 216.55714 215.66565 215.04017 214.50069 214.95636 216.03291 216.44838
 216.98407 216.90103 216.31699 215.58902 216.40820 219.14510 223.33960 226.73680
 230.82909 235.54433 240.47961 244.98564 249.03625 252.72043 256.11804 259.20279
 262.04129 264.67401 267.14697 269.64685 272.42859 275.32077 277.60083 279.18723
 280.53555 281.65833 282.38553 282.69089 282.80484 282.94940 283.31921 283.86700
 284.41913 285.02203 285.57596 286.28192
 366.78100 356.34572 345.78845 334.66517 323.07889 311.28361 299.16434 286.97806
 274.70078 262.60851 250.62823 239.93995 230.07267 221.18740 213.38012 206.39284
 200.23757 195.18629 191.77901 189.83173 188.87946 188.95418 189.79990 191.11863
 192.85435 194.96007 197.23379 199.60352 202.05924 204.54996 206.64869 208.50141
 210.13813 211.29385 211.53358 211.77230 211.72002 211.43575 211.07947 210.72019
 210.34791 210.06864 209.88736 209.76208 209.70081 210.04253 210.43925 210.83897
 211.64270 212.83142 214.09214 215.88587 217.82459 219.87831 221.98403 224.07776
 226.14848 228.24320 230.35093 232.46765 234.60737 236.79009 239.05682 241.43754
 244.06926 246.33099 248.34371 250.11943 251.54715 252.68088 253.51360 253.84032
 253.88805 253.67277 253.04349 252.00221 250.61894 248.79066 246.71038 244.55411
 242.35583 240.17055 238.00127 235.85100 233.72172 231.59944 229.63617 227.80389
 226.09761 224.58033 223.22106 222.00378 220.89650 219.86723 218.98195 218.13367
 217.38639 216.57712 215.68584 215.06056 214.52129 214.96408 216.01022 216.47536
 217.04631 216.95505 216.30110 215.53430 216.32175 219.01982 223.17201 226.70978
 230.82614 235.57449 240.50938 245.02167 249.07549 252.78204 256.20483 259.30353
 262.14603 264.75110 267.15903 269.55420 272.28708 275.28809 277.61954 279.21344
 280.59161 281.70023 282.34091 282.52191 282.57648 282.74451 283.19534 283.74573
 284.24460 284.76279 285.29837 285.98090
 366.78100 356.34550 345.78801 334.66451 323.07801 311.28252 299.16302 286.97652
 274.69903 262.60653 250.62603 239.93753 230.07004 221.18454 213.37704 206.38955
 200.23405 195.18255 191.77506 189.82756 188.87506 188.94957 189.79507 191.11357
 192.84908 194.95458 197.22808 199.59758 202.05309 204.54359 206.64209 208.49460
 210.13110 211.28660 211.52611 211.76461 211.71211 211.42762 211.07112 210.71162
 210.33913 210.05963 209.87813 209.75263 209.69114 210.03264 210.42914 210.82865
 211.63215 212.82065 214.08116 215.87466 217.81316 219.86667 221.97217 224.06567
 226.13618 228.23068 230.33818 232.45468 234.59419 236.77669 239.04319 241.42370
 244.05520 246.31670 248.32921 250.10471 251.53221 252.66572 253.49822 253.82472
 253.87223 253.65673 253.02723 251.98574 250.60224 248.77374 246.69324 244.53675
 242.33825 240.15275 237.98326 235.83276 233.70326 231.58077 229.61727 227.78477
 226.07828 224.56078 223.20128 221.98379 220.87629 219.84679 218.96129 218.11280
 217.36530 216.55580 215.66431 215.03881 214.49931 214.95245 216.02306 216.51390
 217.03070 216.94061 216.24088 215.44872 216.24107 218.91843 223.08478 226.69019
 230.82819 235.59770 240.54681 245.07373 249.13835 252.86232 256.30118 259.40366
 262.24191 264.83627 267.21738 269.53702 272.17392 275.20386 277.62848 279.24869
 280.62115 281.70831 282.32657 282.46530 282.50195 282.65396 283.05716 283.59238
 284.12347 284.65955 285.19476 285.87683
 354.97500 345.04800 334.58700 324.11500 313.32600 302.53700 291.65000 280.76700
 269.93100 259.19300 248.62200 238.61700 229.08700 220.35500 212.54000 205.53500
 199.46400 194.49300 191.14300 189.19000 188.08900 188.01400 188.72400 189.90600
 191.46900 193.38200 195.40300 197.55600 199.80700 202.06000 204.28800 206.47900
 208.55200 210.37800 212.02500 213.65900 214.99800 216.11800 217.17200 218.25900
 219.49400 220.64500 221.67900 222.61400 223.54500 224.98200 226.57100 228.19000
 229.79700 231.81100 233.86500 235.97200 238.24200 240.55300 242.89900 245.25300
 247.48800 249.53500 251.36600 252.84800 254.09800 255.16700 256.02700 256.25300
 256.09500 255.54300 253.93500 252.56600 251.38400 250.24500 249.05200 247.70100
 246.01600 243.99600 241.78400 239.39300 236.81300 234.22300 231.65800 229.14400
 226.74000 224.47300 222.33500 220.32500 218.44000 216.67700 214.96200 213.47200
 212.20000 211.10800 210.26000 209.63900 209.24400 209.03100 209.05800 209.33300
 209.78400 210.62600 211.33100 212.39100 213.62500 214.84668 217.72949 219.47640
 220.32566 220.86828 220.88710 220.27371 219.43733 218.84250 219.04934 220.86203
 222.60583 225.72206 229.03064 232.61777 236.12270 239.51333 242.70767 245.68587
 248.41061 250.90679 253.19353 254.91714 256.48655 257.94920 259.39966 260.69384
 261.81714 262.77997 263.71679 264.54570 265.26305 265.89772 266.47676 267.00133
 267.47312 267.89325 268.26027 268.72800
