|-------------------------------------------------------------------------|
|   File Name : in_temp.dat
|   Subject   : temperature profiles used for initial guess atmosphere
|   File Type : input of gmtr
|   Data Type : atmospherical data
|   Author/s  : WRF-Chem
|   Date      : Fri Jul 26 15:39:24 2024
|-------------------------------------------------------------------------|

 WRF-Chem temperature
#
 values of T (K)    (8f10.5)
#
 354.97500 345.04800 334.58700 324.11500 313.32600 302.53700 291.65000 280.76700
 269.93100 259.19300 248.62200 238.61700 229.08700 220.35500 212.54000 205.53500
 199.46400 194.49300 191.14300 189.19000 188.08900 188.01400 188.72400 189.90600
 191.46900 193.38200 195.40300 197.55600 199.80700 202.06000 204.28800 206.47900
 208.55200 210.37800 212.02500 213.65900 214.99800 216.11800 217.17200 218.25900
 219.49400 220.64500 221.67900 222.61400 223.54500 224.98200 226.57100 228.19000
 229.79700 231.81100 233.86500 235.97200 238.24200 240.55300 242.89900 245.25300
 247.48800 249.53500 251.36600 252.84800 254.09800 255.16700 256.02700 256.25300
 256.09500 255.54300 253.93500 252.56600 251.38400 250.24500 249.05200 247.70100
 246.01600 243.99600 241.78400 239.39300 236.81300 234.22300 231.65800 229.14400
 226.74000 224.47300 222.33500 220.32500 218.44000 216.67700 214.96200 213.47200
 212.20000 211.10800 210.26000 209.63900 209.24400 209.03100 209.05800 209.33300
 209.78400 210.62600 211.33100 212.39100 213.62500 214.84668 217.72949 219.47640
 220.32566 220.86828 220.88710 220.27371 219.43733 218.84250 219.04934 220.86203
 222.60583 225.72206 229.03064 232.61777 236.12270 239.51333 242.70767 245.68587
 248.41061 250.90679 253.19353 254.91714 256.48655 257.94920 259.39966 260.69384
 261.81714 262.77997 263.71679 264.54570 265.26305 265.89772 266.47676 267.00133
 267.47312 267.89325 268.26027 268.72800
 366.78100 356.33500 345.76700 334.63300 323.03600 311.23000 299.10000 286.90300
 274.61500 262.51200 250.52100 239.82200 229.94400 221.04800 213.23000 206.23200
 200.06600 195.00400 191.58600 189.62800 188.66500 188.72900 189.56400 190.87200
 192.59700 194.69200 196.95500 199.31400 201.75900 204.23900 206.32700 208.16900
 209.79500 210.94000 211.16900 211.39700 211.33400 211.03900 210.67200 210.30200
 209.91900 209.62900 209.43700 209.30100 209.22900 209.56000 209.94600 210.33500
 211.12800 212.30600 213.55600 215.33900 217.26700 219.31000 221.40500 223.48800
 225.54800 227.63200 229.72900 231.83500 233.96400 236.13600 238.39200 240.76200
 243.38300 245.63400 247.63600 249.40100 250.81800 251.94100 252.76300 253.07900
 253.11600 252.89000 252.25000 251.19800 249.80400 247.96500 245.87400 243.70700
 241.49800 239.30200 237.12200 234.96100 232.82100 230.68800 228.71400 226.87100
 225.15400 223.62600 222.25600 221.02800 219.91000 218.87000 217.97400 217.11500
 216.35700 215.53700 214.63500 213.99900 213.44900 212.85855 212.01316 212.61654
 214.26826 216.08686 218.14273 220.53346 223.40855 226.78828 231.49734 235.90155
 239.42278 243.28576 247.23140 251.11907 254.80144 258.23331 261.38913 264.27520
 266.89312 269.26852 271.44504 273.08845 274.58484 275.98591 277.39845 278.65879
 279.75272 280.69038 281.56708 282.34086 283.01050 283.60295 284.14348 284.63317
 285.07358 285.46577 285.80838 286.24500
 381.81900 372.39900 361.20600 349.77600 337.62200 324.85300 311.81000 298.35300
 284.86000 271.32400 258.56100 246.30400 236.08700 226.79600 218.44800 211.29000
 205.52200 200.89400 197.38100 194.84800 193.01500 192.31500 192.25000 192.43100
 192.91200 193.53700 194.13600 194.71200 195.26200 195.83100 196.39300 196.97600
 197.60400 198.14900 198.58400 199.05700 199.69500 200.37800 201.05400 201.70800
 202.31300 202.85700 203.35500 203.86200 204.56900 205.29700 206.02600 206.98700
 208.19300 209.44100 210.96900 212.57600 214.46200 216.51300 218.63000 220.85300
 223.34100 225.96200 228.73900 231.69700 234.70600 237.70600 240.69200 243.65700
 246.73700 249.69900 252.52100 255.06300 257.29000 259.23300 260.63300 261.68000
 262.46100 262.79800 262.69100 262.22400 261.06900 259.52500 257.70700 255.50700
 253.00100 250.30200 247.39800 244.45200 241.65400 239.05400 236.73300 234.59000
 232.59500 230.72500 228.83400 226.82600 224.66600 222.38700 220.10400 217.71500
 215.45900 213.06600 210.54600 208.09300 205.35400 202.08130 196.05959 200.71215
 209.01611 216.90438 223.84126 229.78593 235.00632 240.20838 245.98943 250.68668
 254.32982 257.93487 261.55666 264.96801 268.15192 271.06452 273.76717 276.25691
 278.57680 280.74479 282.77456 284.60533 286.27232 287.81705 289.31715 290.65561
 291.81734 292.81312 293.70701 294.49387 295.17482 295.77730 296.32696 296.82492
 297.27278 297.67160 298.02000 298.46400
 399.33000 389.90700 379.81300 368.66800 357.52200 345.30100 333.07400 320.22700
 307.21600 293.84800 280.37600 267.29600 254.61000 242.98700 232.15100 221.97700
 212.67200 204.28600 197.66900 192.82100 189.48600 187.45200 186.81400 187.08900
 187.78100 189.05400 190.64800 192.54200 194.63000 196.75200 198.67100 200.15800
 201.53500 202.48700 202.97500 203.34000 203.53900 203.49700 203.38500 203.24700
 203.00500 202.78600 202.60300 202.43700 202.42600 202.88800 203.42000 203.95100
 204.89500 205.99200 207.30100 208.95800 210.73800 213.10000 215.56400 218.18000
 220.96600 223.91800 226.96100 230.09200 233.29300 236.55700 239.95500 243.53700
 246.84500 249.39000 251.54200 253.47400 255.19500 256.48400 257.43100 258.05900
 258.21200 258.04000 257.58200 256.64300 255.23900 253.50700 251.40800 249.05600
 246.57600 243.99400 241.38900 238.83000 236.34400 233.98600 231.96900 230.11800
 228.42300 226.89900 225.54800 224.29700 223.10500 221.96500 220.95800 220.11300
 219.49000 218.92000 218.32500 217.88100 217.42300 216.96366 216.35568 216.80261
 217.73415 218.28582 218.64258 219.10077 220.44626 222.53987 226.38451 230.35736
 233.59734 237.39164 241.29814 245.22796 248.98002 252.51130 255.78595 258.80109
 261.54781 264.05210 266.34239 268.04198 269.58951 271.01303 272.35754 273.55718
 274.59842 275.49092 276.28989 276.99307 277.60161 278.14001 278.63122 279.07623
 279.47646 279.83287 280.14422 280.54100
 399.73800 389.78500 379.66200 368.15100 356.64100 344.35000 331.79200 318.88800
 305.72600 292.49300 279.20900 266.73800 254.69600 244.21100 234.45700 225.43300
 217.56900 210.45100 204.30000 199.30600 195.45800 192.57600 191.02700 190.38600
 190.23900 190.53400 191.16600 191.92500 192.79500 193.76600 194.73200 195.31200
 195.80000 196.05200 196.11500 196.11500 196.03900 195.72300 195.34000 194.98900
 194.75100 194.79200 195.13300 195.59800 196.50600 198.13600 199.85800 201.56600
 204.17900 206.82300 209.89300 213.28400 216.82800 220.60500 224.38700 228.20900
 232.03200 235.82500 239.56000 243.25800 246.84500 250.20100 253.70900 257.46800
 261.53000 264.22100 266.60100 268.68100 270.32900 271.74100 272.83600 273.47400
 273.89800 274.00200 273.75700 273.28800 272.37100 271.10000 269.58900 267.77900
 265.81600 263.72100 261.39300 258.91600 256.29800 253.42300 250.33100 247.11400
 243.83700 240.52900 237.24900 233.99900 230.72800 227.51500 224.25400 220.95200
 217.62700 213.65600 210.12100 206.78900 204.01000 201.99491 199.07309 198.76551
 199.40006 200.48994 201.46112 202.31912 203.45100 204.96110 207.47502 210.85391
 213.70530 217.29629 220.99574 224.72316 228.28753 231.64854 234.68024 237.40893
 239.70644 241.60899 243.46854 245.67368 247.68154 249.52395 251.24767 252.78566
 254.12057 255.26479 256.23740 257.09036 257.82852 258.48160 259.07744 259.61723
 260.10271 260.53504 260.91270 261.39400
 399.73800 389.78500 379.66200 368.15100 356.64100 344.35000 331.79200 318.88800
 305.72600 292.49300 279.20900 266.73800 254.69600 244.21100 234.45700 225.43300
 217.56900 210.45100 204.30000 199.30600 195.45800 192.57600 191.02700 190.38600
 190.23900 190.53400 191.16600 191.92500 192.79500 193.76600 194.73200 195.31200
 195.80000 196.05200 196.11500 196.11500 196.03900 195.72300 195.34000 194.98900
 194.75100 194.79200 195.13300 195.59800 196.50600 198.13600 199.85800 201.56600
 204.17900 206.82300 209.89300 213.28400 216.82800 220.60500 224.38700 228.20900
 232.03200 235.82500 239.56000 243.25800 246.84500 250.20100 253.70900 257.46800
 261.53000 264.22100 266.60100 268.68100 270.32900 271.74100 272.83600 273.47400
 273.89800 274.00200 273.75700 273.28800 272.37100 271.10000 269.58900 267.77900
 265.81600 263.72100 261.39300 258.91600 256.29800 253.42300 250.33100 247.11400
 243.83700 240.52900 237.24900 233.99900 230.72800 227.51500 224.25400 220.95200
 217.62700 213.65600 210.12100 206.78900 204.01000 201.99491 199.07309 198.76551
 199.40006 200.48994 201.46112 202.31912 203.45100 204.96110 207.47502 210.85391
 213.70530 217.29629 220.99574 224.72316 228.28753 231.64854 234.68024 237.40893
 239.70644 241.60899 243.46854 245.67368 247.68154 249.52395 251.24767 252.78566
 254.12057 255.26479 256.23740 257.09036 257.82852 258.48160 259.07744 259.61723
 260.10271 260.53504 260.91270 261.39400
 399.33000 389.90700 379.81300 368.66800 357.52200 345.30100 333.07400 320.22700
 307.21600 293.84800 280.37600 267.29600 254.61000 242.98700 232.15100 221.97700
 212.67200 204.28600 197.66900 192.82100 189.48600 187.45200 186.81400 187.08900
 187.78100 189.05400 190.64800 192.54200 194.63000 196.75200 198.67100 200.15800
 201.53500 202.48700 202.97500 203.34000 203.53900 203.49700 203.38500 203.24700
 203.00500 202.78600 202.60300 202.43700 202.42600 202.88800 203.42000 203.95100
 204.89500 205.99200 207.30100 208.95800 210.73800 213.10000 215.56400 218.18000
 220.96600 223.91800 226.96100 230.09200 233.29300 236.55700 239.95500 243.53700
 246.84500 249.39000 251.54200 253.47400 255.19500 256.48400 257.43100 258.05900
 258.21200 258.04000 257.58200 256.64300 255.23900 253.50700 251.40800 249.05600
 246.57600 243.99400 241.38900 238.83000 236.34400 233.98600 231.96900 230.11800
 228.42300 226.89900 225.54800 224.29700 223.10500 221.96500 220.95800 220.11300
 219.49000 218.92000 218.32500 217.88100 217.42300 216.96366 216.35568 216.80261
 217.73415 218.28582 218.64258 219.10077 220.44626 222.53987 226.38451 230.35736
 233.59734 237.39164 241.29814 245.22796 248.98002 252.51130 255.78595 258.80109
 261.54781 264.05210 266.34239 268.04198 269.58951 271.01303 272.35754 273.55718
 274.59842 275.49092 276.28989 276.99307 277.60161 278.14001 278.63122 279.07623
 279.47646 279.83287 280.14422 280.54100
 381.81900 372.39900 361.20600 349.77600 337.62200 324.85300 311.81000 298.35300
 284.86000 271.32400 258.56100 246.30400 236.08700 226.79600 218.44800 211.29000
 205.52200 200.89400 197.38100 194.84800 193.01500 192.31500 192.25000 192.43100
 192.91200 193.53700 194.13600 194.71200 195.26200 195.83100 196.39300 196.97600
 197.60400 198.14900 198.58400 199.05700 199.69500 200.37800 201.05400 201.70800
 202.31300 202.85700 203.35500 203.86200 204.56900 205.29700 206.02600 206.98700
 208.19300 209.44100 210.96900 212.57600 214.46200 216.51300 218.63000 220.85300
 223.34100 225.96200 228.73900 231.69700 234.70600 237.70600 240.69200 243.65700
 246.73700 249.69900 252.52100 255.06300 257.29000 259.23300 260.63300 261.68000
 262.46100 262.79800 262.69100 262.22400 261.06900 259.52500 257.70700 255.50700
 253.00100 250.30200 247.39800 244.45200 241.65400 239.05400 236.73300 234.59000
 232.59500 230.72500 228.83400 226.82600 224.66600 222.38700 220.10400 217.71500
 215.45900 213.06600 210.54600 208.09300 205.35400 202.08130 196.05959 200.71215
 209.01611 216.90438 223.84126 229.78593 235.00632 240.20838 245.98943 250.68668
 254.32982 257.93487 261.55666 264.96801 268.15192 271.06452 273.76717 276.25691
 278.57680 280.74479 282.77456 284.60533 286.27232 287.81705 289.31715 290.65561
 291.81734 292.81312 293.70701 294.49387 295.17482 295.77730 296.32696 296.82492
 297.27278 297.67160 298.02000 298.46400
 366.78100 356.33430 345.76560 334.63090 323.03320 311.22651 299.09581 286.89811
 274.60941 262.50571 250.51401 239.81431 229.93561 221.03892 213.22022 206.22152
 200.05482 194.99212 191.57342 189.61472 188.65102 188.71433 189.54863 190.85593
 192.58023 194.67453 196.93683 199.29513 201.73943 204.21873 206.30604 208.14734
 209.77264 210.91694 211.14524 211.37254 211.30884 211.01314 210.64545 210.27475
 209.89105 209.60035 209.40765 209.27095 209.19825 209.52855 209.91386 210.30216
 211.09446 212.27176 213.52106 215.30336 217.23066 219.27296 221.36726 223.44957
 225.50887 227.59217 229.68847 231.79377 233.92207 236.09337 238.34867 240.71798
 243.33828 245.58858 247.58988 249.35418 250.77048 251.89278 252.71408 253.02939
 253.06569 252.83899 252.19829 251.14559 249.75089 247.91119 245.81949 243.65179
 241.44210 239.24540 237.06470 234.90300 232.76230 230.62860 228.65390 226.81020
 225.09251 223.56381 222.19311 220.96441 219.84571 218.80501 217.90831 217.04861
 216.28992 215.46922 214.56652 213.92982 213.37912 212.93079 211.87398 211.67471
 212.37306 214.27699 216.09608 216.96786 218.73364 222.80727 228.78893 233.79747
 237.61423 241.33426 245.06860 248.89459 252.79013 255.95174 258.51917 261.03726
 263.85968 266.55295 268.92899 270.98340 272.86145 274.65033 276.29614 277.94266
 279.63437 281.26984 282.76556 284.12054 285.30151 286.34897 287.30774 288.17935
 288.96884 289.67685 290.30042 291.13736
 366.78100 356.33193 345.76086 334.62379 323.02372 311.21465 299.08158 286.88151
 274.59044 262.48438 250.49031 239.78824 229.90717 221.00810 213.18703 206.18596
 200.01689 194.95182 191.53075 189.56968 188.60361 188.66454 189.49647 190.80140
 192.52333 194.61526 196.87520 199.23113 201.67306 204.14999 206.23492 208.07385
 209.69678 210.83871 211.06464 211.28957 211.22350 210.92543 210.55536 210.18229
 209.79622 209.50315 209.30808 209.16902 209.09395 209.42188 209.80481 210.19074
 210.98067 212.15560 213.40253 215.18246 217.10739 219.14732 221.23925 223.31918
 225.37611 227.45704 229.55097 231.65391 233.77984 235.94877 238.20170 240.56863
 243.18656 245.43449 247.43342 249.19535 250.60928 251.72921 252.54814 252.86107
 252.89500 252.66593 252.02286 250.96779 249.57073 247.72866 245.63459 243.46452
 241.25245 239.05338 236.87031 234.70624 232.56317 230.42710 228.45003 226.60396
 224.88389 223.35282 221.97975 220.74868 219.62761 218.58455 217.68548 216.82341
 216.06234 215.23927 214.33420 213.69513 213.14206 212.81230 212.03452 211.81723
 212.48033 214.35751 216.09747 217.00708 218.65219 222.71837 228.74136 233.71913
 237.52908 241.26317 245.02429 248.86023 252.73270 255.85625 258.39609 260.91968
 263.71078 266.41107 268.82541 270.88229 272.73981 274.50867 276.15695 277.81238
 279.51248 281.15604 282.65854 284.01489 285.19595 286.24380 287.20334 288.07559
 288.86563 289.57449 290.20004 291.03198
 366.78100 356.32989 345.75678 334.61768 323.01557 311.20446 299.06935 286.86725
 274.57414 262.46603 250.46992 239.76581 229.88271 220.98160 213.15849 206.15538
 199.98427 194.91717 191.49406 189.53095 188.56284 188.62174 189.45163 190.75452
 192.47441 194.56430 196.82220 199.17609 201.61598 204.09087 206.17377 208.01066
 209.63155 210.77144 210.99533 211.21823 211.15012 210.85001 210.47790 210.10279
 209.71469 209.41958 209.22247 209.08136 209.00426 209.33015 209.71104 210.09493
 210.88282 212.05572 213.30061 215.07850 217.00139 219.03929 221.12918 223.20707
 225.26196 227.34085 229.43275 231.53364 233.65753 235.82442 238.07531 240.44021
 243.05610 245.30199 247.29888 249.05878 250.47067 251.58856 252.40545 252.71634
 252.74824 252.51713 251.87202 250.81491 249.41581 247.57170 245.47559 243.30348
 241.08937 238.88827 236.70316 234.53705 232.39194 230.25383 228.27473 226.42662
 224.70451 223.17140 221.79630 220.56319 219.44008 218.39497 217.49386 216.62976
 215.86665 215.04154 214.13443 213.49332 212.93822 212.70937 212.16928 211.97131
 212.58717 214.42784 216.10167 217.05193 218.59830 222.65222 228.69673 233.63820
 237.43758 241.18565 244.97522 248.82108 252.66452 255.75497 258.27725 260.80963
 263.56531 266.26831 268.71735 270.77481 272.61310 274.36581 276.01910 277.68347
 279.39532 281.04608 282.55563 283.91299 285.09424 286.14279 287.10172 287.97592
 288.76587 289.47620 290.10187 290.93753
 366.78100 356.32805 345.75309 334.61214 323.00818 311.19523 299.05827 286.85432
 274.55936 262.44941 250.45145 239.74550 229.86054 220.95759 213.13263 206.12768
 199.95472 194.88577 191.46081 189.49586 188.52590 188.58295 189.41099 190.71204
 192.43008 194.51813 196.77417 199.12622 201.56426 204.03731 206.11835 207.95340
 209.57244 210.71049 210.93253 211.15358 211.08362 210.78167 210.40771 210.03076
 209.64080 209.34385 209.14489 209.00194 208.92298 209.24703 209.62607 210.00812
 210.79416 211.96521 213.20825 214.98430 216.90534 218.94139 221.02944 223.10548
 225.15853 227.23557 229.32562 231.42466 233.54671 235.71175 237.96080 240.32384
 242.93789 245.18193 247.17698 248.93502 250.34507 251.46111 252.27616 252.58520
 252.61525 252.38229 251.73534 250.67638 249.27543 247.42947 245.33152 243.15756
 240.94161 238.73865 236.55170 234.38374 232.23679 230.09683 228.11588 226.26592
 224.54197 223.00701 221.63006 220.39510 219.27015 218.22319 217.32024 216.45428
 215.68933 214.86237 213.95342 213.31046 212.75351 212.61473 212.28706 212.13292
 212.68779 214.49245 216.12480 217.10063 218.55576 222.60847 228.64919 233.55429
 237.34355 241.10582 244.92253 248.77637 252.58665 255.64819 258.16086 260.70502
 263.42142 266.12003 268.59998 270.65829 272.48318 274.22510 275.88599 277.56329
 279.28671 280.94199 282.45801 283.81577 284.99823 286.04694 287.00650 287.88019
 288.67374 289.38089 290.01105 290.84409
 366.78100 356.32636 345.74972 334.60708 323.00144 311.18680 299.04817 286.84253
 274.54589 262.43425 250.43461 239.72697 229.84033 220.93569 213.10905 206.10241
 199.92778 194.85714 191.43050 189.46386 188.49222 188.54758 189.37394 190.67330
 192.38966 194.47602 196.73039 199.08075 201.51711 203.98847 206.06783 207.90119
 209.51855 210.65491 210.87527 211.09463 211.02300 210.71936 210.34372 209.96508
 209.57344 209.27480 209.07416 208.92952 208.84888 209.17124 209.54861 209.92897
 210.71333 211.88269 213.12405 214.89841 216.81777 218.85213 220.93849 223.01285
 225.06422 227.13958 229.22794 231.32530 233.44566 235.60902 237.85638 240.21774
 242.83010 245.07246 247.06582 248.82219 250.23055 251.34491 252.15827 252.46563
 252.49399 252.25935 251.61071 250.55007 249.14743 247.29980 245.20016 243.02452
 240.80688 238.60224 236.41360 234.24396 232.09532 229.95368 227.97104 226.11941
 224.39377 222.85713 221.47849 220.24185 219.11521 218.06657 217.16193 216.29429
 215.52765 214.69902 213.78838 213.14374 212.58510 212.52797 212.39294 212.28841
 212.79199 214.55983 216.16553 217.14244 218.52687 222.58298 228.59764 233.47293
 237.25270 241.02812 244.86938 248.72755 252.49724 255.53275 258.04312 260.60007
 263.27478 265.96280 268.46890 270.53235 272.35254 274.09171 275.75986 277.45221
 279.18314 280.84592 282.36661 283.72571 284.90799 285.95737 286.91782 287.79367
 288.58322 289.29611 289.92166 290.76288
 366.78100 356.32487 345.74673 334.60260 322.99546 311.17933 299.03919 286.83206
 274.53392 262.42079 250.41965 239.71052 229.82238 220.91625 213.08811 206.07998
 199.90384 194.83171 191.40357 189.43544 188.46230 188.51617 189.34103 190.63890
 192.35376 194.43863 196.69149 199.04036 201.47522 203.94509 206.02295 207.85482
 209.47069 210.60555 210.82442 211.04228 210.96915 210.66401 210.28688 209.90674
 209.51361 209.21347 209.01134 208.86520 208.78307 209.10393 209.47980 209.85866
 210.64153 211.80939 213.04926 214.82212 216.73999 218.77285 220.85772 222.93058
 224.98045 227.05431 229.14118 231.23704 233.35591 235.51777 237.76364 240.12351
 242.73437 244.97524 246.96710 248.72197 250.12883 251.24170 252.05356 252.35943
 252.38629 252.15016 251.50002 250.43789 249.03375 247.18462 245.08348 242.90635
 240.68721 238.48108 236.29094 234.11981 231.96967 229.82654 227.84240 225.98927
 224.26213 222.72400 221.34386 220.10573 218.97760 217.92746 217.02133 216.15219
 215.38406 214.55392 213.64179 212.99565 212.43552 212.45067 212.48628 212.43491
 212.90305 214.63463 216.21640 217.16884 218.52158 222.57245 228.54384 233.39653
 237.16846 240.95485 244.81616 248.67445 252.39728 255.40909 257.92444 260.49536
 263.12610 265.79584 268.32224 270.39276 272.21921 273.96722 275.64709 277.35089
 279.08560 280.75623 282.28018 283.64056 284.82205 285.87054 286.83304 287.70685
 288.49908 289.21030 289.83881 290.67661
 366.78100 356.32360 345.74420 334.59879 322.99039 311.17299 299.03159 286.82319
 274.52378 262.40938 250.40698 239.69658 229.80718 220.89977 213.07037 206.06097
 199.88357 194.81017 191.38077 189.41136 188.43696 188.48956 189.31316 190.60976
 192.32335 194.40695 196.65855 199.00615 201.43975 203.90834 205.98494 207.81554
 209.43014 210.56374 210.78133 210.99793 210.92353 210.61713 210.23873 209.85732
 209.46292 209.16152 208.95812 208.81072 208.72732 209.04691 209.42151 209.79911
 210.58071 211.74731 212.98590 214.75750 216.67410 218.70570 220.78930 222.86089
 224.90949 226.98209 229.06769 231.16229 233.27988 235.44048 237.68508 240.04368
 242.65328 244.89287 246.88347 248.63707 250.04267 251.15427 251.96487 252.26946
 252.29506 252.05766 251.40626 250.34286 248.93745 247.08705 244.98465 242.80625
 240.58585 238.37844 236.18704 234.01464 231.86324 229.71884 227.73343 225.87903
 224.15063 222.61123 221.22983 219.99042 218.86102 217.80962 216.90222 216.03182
 215.26242 214.43101 213.51761 212.87021 212.30881 212.38527 212.56575 212.57573
 213.02075 214.71861 216.26785 217.18402 218.55222 222.57964 228.49274 233.32379
 237.08955 240.88519 244.76387 248.61879 252.28719 255.27798 257.80609 260.39066
 262.97681 265.62122 268.15771 270.23499 272.07672 273.84650 275.54471 277.26239
 279.00092 280.67456 282.19977 283.56030 284.74231 285.79245 286.75427 287.62985
 288.42267 289.13412 289.76257 290.60345
 366.78100 356.32260 345.74220 334.59581 322.98641 311.16801 299.02561 286.81621
 274.51581 262.40042 250.39702 239.68562 229.79522 220.88682 213.05643 206.04603
 199.86763 194.79323 191.36283 189.39243 188.41704 188.46864 189.29124 190.58684
 192.29944 194.38205 196.63265 198.97925 201.41185 203.87945 205.95505 207.78466
 209.39826 210.53086 210.74746 210.96306 210.88767 210.58027 210.20087 209.81847
 209.42307 209.12067 208.91628 208.76788 208.68348 209.00208 209.37568 209.75229
 210.53289 211.69849 212.93609 214.70669 216.62230 218.65290 220.73550 222.80610
 224.85370 226.92530 229.00991 231.10351 233.22011 235.37971 237.62331 239.98092
 242.58952 244.82812 246.81772 248.57032 249.97492 251.08553 251.89513 252.19873
 252.22333 251.98493 251.33254 250.26814 248.86174 247.01034 244.90694 242.72754
 240.50615 238.29775 236.10535 233.93195 231.77955 229.63416 227.64776 225.79236
 224.06296 222.52256 221.14016 219.89977 218.76937 217.71697 216.80857 215.93717
 215.16678 214.33438 213.41998 212.77158 212.20918 212.33440 212.63013 212.71129
 213.14745 214.80980 216.31912 217.19954 218.60129 222.59305 228.44981 233.25322
 237.01088 240.81671 244.71123 248.56155 252.16728 255.13620 257.68396 260.28531
 262.82986 265.44366 267.98343 270.06680 271.93011 273.72614 275.44427 277.17697
 278.92136 280.60132 282.13184 283.49271 284.67618 285.72632 286.68790 287.56500
 288.35956 289.07120 289.70032 290.54330
 366.78100 356.32184 345.74068 334.59353 322.98337 311.16421 299.02105 286.81089
 274.50974 262.39358 250.38942 239.67726 229.78611 220.87695 213.04579 206.03463
 199.85547 194.78032 191.34916 189.37800 188.40184 188.45268 189.27453 190.56937
 192.28121 194.36305 196.61289 198.95874 201.39058 203.85742 205.93226 207.76110
 209.37395 210.50579 210.72163 210.93647 210.86032 210.55216 210.17200 209.78884
 209.39268 209.08953 208.88437 208.73521 208.65005 208.96789 209.34074 209.71658
 210.49642 211.66126 212.89810 214.66795 216.58279 218.61263 220.69447 222.76432
 224.81116 226.88200 228.96584 231.05868 233.17453 235.33337 237.57621 239.93305
 242.54089 244.77874 246.76758 248.51942 249.92326 251.03310 251.84195 252.14479
 252.16863 251.92947 251.27631 250.21116 248.80400 246.95184 244.84768 242.66753
 240.44537 238.23621 236.04305 233.86889 231.71574 229.56958 227.58242 225.72626
 223.99610 222.45495 221.07179 219.83063 218.69947 217.64631 216.73716 215.86500
 215.09384 214.26068 213.34553 212.69637 212.13321 212.29675 212.68312 212.84041
 213.28171 214.91148 216.36801 217.21860 218.67389 222.61020 228.40877 233.18367
 236.93117 240.74780 244.65811 248.50195 252.03702 254.98212 257.55557 260.17526
 262.68250 265.26382 267.79904 269.89340 271.78714 273.61298 275.34808 277.09198
 278.84763 280.53500 282.07120 283.43393 284.61691 285.66891 286.63104 287.50824
 288.30188 289.01630 289.64645 290.49149
 366.78100 356.32136 345.73971 334.59207 322.98143 311.16178 299.01814 286.80749
 274.50585 262.38921 250.38456 239.67192 229.78028 220.87063 213.03899 206.02734
 199.84770 194.77206 191.34041 189.36877 188.39213 188.44248 189.26384 190.55819
 192.26955 194.35091 196.60026 198.94562 201.37698 203.84333 205.91769 207.74604
 209.35840 210.48976 210.70511 210.91947 210.84283 210.53418 210.15354 209.76989
 209.37325 209.06961 208.86396 208.71432 208.62868 208.94603 209.31839 209.69374
 210.47310 211.63746 212.87381 214.64317 216.55753 218.58688 220.66824 222.73759
 224.78395 226.85431 228.93766 231.03002 233.14538 235.30373 237.54609 239.90244
 242.50980 244.74716 246.73551 248.48687 249.89023 250.99958 251.80794 252.11029
 252.13365 251.89401 251.24036 250.17472 248.76708 246.91443 244.80979 242.62914
 240.40650 238.19686 236.00321 233.82857 231.67493 229.52828 227.54064 225.68399
 223.95335 222.41171 221.02806 219.78642 218.65478 217.60113 216.69149 215.81884
 215.04720 214.21356 213.29791 212.64827 212.08463 212.27452 212.72316 212.96764
 213.41823 215.00597 216.43936 217.25621 218.73447 222.63318 228.38049 233.11562
 236.84875 240.67690 244.60323 248.43776 251.89546 254.81342 257.41681 260.05692
 262.53387 265.08179 267.60809 269.71906 271.65460 273.51437 275.25986 277.00525
 278.77090 280.47760 282.02054 283.38467 284.56860 285.61984 286.58344 287.46036
 288.25632 288.97174 289.60150 290.44980
 366.78100 356.32101 345.73902 334.59103 322.98004 311.16005 299.01607 286.80508
 274.50309 262.38610 250.38111 239.66812 229.77613 220.86614 213.03415 206.02216
 199.84218 194.76619 191.33420 189.36221 188.38522 188.43523 189.25624 190.55025
 192.26126 194.34227 196.59128 198.93630 201.36731 203.83332 205.90733 207.73534
 209.34735 210.47836 210.69337 210.90738 210.83039 210.52141 210.14042 209.75643
 209.35944 209.05545 208.84946 208.69947 208.61348 208.93049 209.30250 209.67751
 210.45653 211.62054 212.85655 214.62556 216.53957 218.56858 220.64959 222.71860
 224.76461 226.83462 228.91763 231.00965 233.12466 235.28267 237.52468 239.88069
 242.48770 244.72471 246.71272 248.46373 249.86674 250.97576 251.78377 252.08578
 252.10879 251.86880 251.21481 250.14882 248.74083 246.88784 244.78285 242.60186
 240.37888 238.16889 235.97490 233.79991 231.64592 229.49893 227.51094 225.65395
 223.92296 222.38097 220.99699 219.75500 218.62301 217.56902 216.65903 215.78604
 215.01405 214.18006 213.26407 212.61408 212.05009 212.26192 212.76234 213.07054
 213.56242 215.13080 216.49579 217.30295 218.85074 222.66107 228.33560 233.03561
 236.76183 240.60326 244.54694 248.36586 251.73860 254.62627 257.26245 259.92688
 262.38321 264.89948 267.41571 269.55063 271.53714 273.44016 275.19562 276.93417
 278.70187 280.42477 281.97000 283.33542 284.51877 285.57068 286.53531 287.41370
 288.20917 288.92661 289.55508 290.40790
 366.78100 356.32097 345.73893 334.59090 322.97987 311.15983 299.01580 286.80477
 274.50273 262.38570 250.38067 239.66763 229.77560 220.86557 213.03353 206.02150
 199.84147 194.76543 191.33340 189.36137 188.38433 188.43430 189.25527 190.54923
 192.26020 194.34117 196.59013 198.93510 201.36607 203.83203 205.90600 207.73397
 209.34593 210.47690 210.69187 210.90583 210.82880 210.51977 210.13873 209.75470
 209.35767 209.05363 208.84760 208.69757 208.61153 208.92850 209.30047 209.67543
 210.45440 211.61837 212.85433 214.62330 216.53727 218.56623 220.64720 222.71617
 224.76213 226.83210 228.91507 231.00704 233.12200 235.27997 237.52194 239.87790
 242.48487 244.72184 246.70980 248.46077 249.86374 250.97270 251.78067 252.08264
 252.10560 251.86557 251.21154 250.14550 248.73747 246.88444 244.77940 242.59837
 240.37534 238.16530 235.97127 233.79624 231.64220 229.49517 227.50714 225.65010
 223.91907 222.37704 220.99300 219.75097 218.61894 217.56490 216.65487 215.78184
 215.00980 214.17577 213.25974 212.60970 212.04567 212.26724 212.79073 213.16702
 213.68130 215.27309 216.65703 217.33765 218.88091 222.68674 228.30698 232.96593
 236.67894 240.53009 244.48550 248.28230 251.56769 254.42688 257.10123 259.79413
 262.24060 264.72461 267.22598 269.38602 271.42477 273.37546 275.14172 276.87329
 278.64047 280.37637 281.92310 283.28873 284.47351 285.52597 286.49051 287.37012
 288.16721 288.88458 289.51474 290.36880
 366.78100 356.32130 345.73959 334.59189 322.98118 311.16148 299.01778 286.80707
 274.50537 262.38867 250.38396 239.67126 229.77955 220.86985 213.03815 206.02644
 199.84674 194.77103 191.33933 189.36763 188.39092 188.44122 189.26251 190.55681
 192.26811 194.34940 196.59870 198.94400 201.37529 203.84159 205.91588 207.74418
 209.35648 210.48777 210.70307 210.91736 210.84066 210.53196 210.15125 209.76755
 209.37085 209.06714 208.86144 208.71173 208.62603 208.94333 209.31562 209.69092
 210.47021 211.63451 212.87081 214.64010 216.55440 218.58370 220.66499 222.73429
 224.78058 226.85088 228.93418 231.02647 233.14177 235.30006 237.54236 239.89866
 242.50595 244.74325 246.73154 248.48284 249.88614 250.99543 251.80373 252.10603
 252.12932 251.88962 251.23591 250.17021 248.76251 246.90980 244.80510 242.62439
 240.40169 238.19199 235.99828 233.82358 231.66988 229.52317 227.53547 225.67876
 223.94806 222.40636 221.02265 219.78095 218.64924 217.59554 216.68584 215.81313
 215.04143 214.20772 213.29202 212.64232 212.07861 212.29372 212.80190 213.27963
 213.79735 215.34357 216.83316 217.46880 218.95990 222.69618 228.25902 232.87225
 236.57472 240.44333 244.41553 248.19344 251.39644 254.23186 256.94623 259.66794
 262.10934 264.55862 267.03580 269.21893 271.31149 273.31204 275.08969 276.81647
 278.58368 280.32886 281.87814 283.24380 284.42822 285.48233 286.44730 287.32712
 288.12582 288.84140 289.47385 290.33109
 366.78100 356.32163 345.74026 334.59289 322.98252 311.16315 299.01978 286.80941
 274.50804 262.39167 250.38730 239.67493 229.78356 220.87419 213.04282 206.03145
 199.85208 194.77670 191.34533 189.37396 188.39759 188.44822 189.26985 190.56448
 192.27611 194.35774 196.60737 198.95300 201.38463 203.85126 205.92589 207.75452
 209.36715 210.49878 210.71441 210.92904 210.85267 210.54430 210.16393 209.78056
 209.38419 209.08082 208.87545 208.72608 208.64071 208.95834 209.33097 209.70660
 210.48623 211.65085 212.88748 214.65711 216.57174 218.60137 220.68300 222.75263
 224.79926 226.86989 228.95352 231.04615 233.16178 235.32041 237.56304 239.91967
 242.52730 244.76493 246.75356 248.50519 249.90882 251.01845 251.82708 252.12971
 252.15334 251.91397 251.26060 250.19523 248.78786 246.93549 244.83112 242.65075
 240.42838 238.21900 236.02563 233.85126 231.69789 229.55152 227.56415 225.70778
 223.97741 222.43604 221.05267 219.81130 218.67993 217.62656 216.71719 215.84482
 215.07345 214.24008 213.32471 212.67534 212.11197 212.32253 212.82001 213.38496
 213.93649 215.39958 216.95337 217.60355 219.06523 222.69147 228.20557 232.77925
 236.47946 240.37117 244.36040 248.11711 251.23660 254.04147 256.78915 259.53583
 261.97501 264.39252 266.84421 269.05377 271.20456 273.26028 275.05377 276.77747
 278.53406 280.28046 281.83017 283.19614 284.38287 285.43527 286.40134 287.28159
 288.08099 288.79733 289.43091 290.28726
 366.78100 356.32184 345.74069 334.59353 322.98337 311.16422 299.02106 286.81090
 274.50975 262.39359 250.38943 239.67728 229.78612 220.87697 213.04581 206.03465
 199.85550 194.78034 191.34918 189.37803 188.40187 188.45271 189.27456 190.56940
 192.28124 194.36309 196.61293 198.95877 201.39062 203.85746 205.93230 207.76115
 209.37399 210.50583 210.72168 210.93652 210.86036 210.55221 210.17205 209.78890
 209.39274 209.08958 208.88443 208.73527 208.65011 208.96796 209.34080 209.71664
 210.49649 211.66133 212.89817 214.66802 216.58286 218.61270 220.69455 222.76439
 224.81123 226.88208 228.96592 231.05876 233.17461 235.33345 237.57629 239.93314
 242.54098 244.77883 246.76767 248.51951 249.92336 251.03320 251.84204 252.14489
 252.16873 251.92957 251.27642 250.21126 248.80410 246.95195 244.84779 242.66763
 240.44548 238.23632 236.04316 233.86901 231.71585 229.56969 227.58254 225.72638
 223.99622 222.45507 221.07191 219.83076 218.69960 217.64644 216.73729 215.86513
 215.09397 214.26082 213.34566 212.69650 212.13335 212.34789 212.85475 213.46457
 214.09306 215.48459 217.02467 217.72386 219.17403 222.68829 228.16281 232.71132
 236.40669 240.31512 244.30951 248.03325 251.06195 253.83038 256.61099 259.38324
 261.82861 264.22476 266.65829 268.90396 271.11765 273.23227 275.04477 276.76035
 278.49228 280.23196 281.78162 283.14795 284.33392 285.38773 286.35388 287.23648
 288.03372 288.75366 289.38498 290.24829
 366.78100 356.32202 345.74105 334.59407 322.98410 311.16512 299.02214 286.81217
 274.51119 262.39521 250.39124 239.67926 229.78829 220.87931 213.04833 206.03736
 199.85838 194.78341 191.35243 189.38145 188.40548 188.45650 189.27852 190.57355
 192.28557 194.36760 196.61762 198.96364 201.39567 203.86269 205.93771 207.76674
 209.37976 210.51179 210.72781 210.94283 210.86686 210.55888 210.17891 209.79593
 209.39995 209.09698 208.89200 208.74302 208.65805 208.97607 209.34910 209.72512
 210.50514 211.67017 212.90719 214.67722 216.59224 218.62226 220.70429 222.77431
 224.82133 226.89236 228.97638 231.06941 233.18543 235.34445 237.58748 239.94450
 242.55252 244.79055 246.77957 248.53160 249.93562 251.04564 251.85467 252.15769
 252.18172 251.94274 251.28976 250.22479 248.81781 246.96583 244.86186 242.68188
 240.45991 238.25093 236.05795 233.88398 231.73100 229.58503 227.59805 225.74207
 224.01210 222.47112 221.08814 219.84717 218.71619 217.66322 216.75424 215.88226
 215.11129 214.27831 213.36333 212.71436 212.15138 212.37401 212.89995 213.52789
 214.24593 215.58992 217.06435 217.84785 219.30516 222.69958 228.13490 232.66245
 236.34322 240.25836 244.24673 247.92911 250.86696 253.60135 256.41748 259.21939
 261.68088 264.06427 266.48380 268.76880 271.04218 273.21194 275.04242 276.75031
 278.45325 280.19193 281.74060 283.10797 284.29285 285.34753 286.31393 287.19550
 287.99545 288.71262 289.34906 290.21075
 366.78100 356.32218 345.74136 334.59454 322.98472 311.16590 299.02309 286.81327
 274.51245 262.39663 250.39281 239.68099 229.79017 220.88135 213.05053 206.03971
 199.86089 194.78607 191.35526 189.38444 188.40862 188.45980 189.28198 190.57716
 192.28934 194.37152 196.62170 198.96788 201.40006 203.86724 205.94243 207.77161
 209.38479 210.51697 210.73315 210.94833 210.87251 210.56469 210.18487 209.80205
 209.40623 209.10341 208.89860 208.74978 208.66496 208.98314 209.35632 209.73250
 210.51268 211.67786 212.91504 214.68522 216.60040 218.63058 220.71277 222.78295
 224.83013 226.90131 228.98549 231.07867 233.19485 235.35403 237.59721 239.95439
 242.56257 244.80075 246.78994 248.54212 249.94630 251.05648 251.86566 252.16884
 252.19302 251.95420 251.30138 250.23656 248.82974 246.97792 244.87411 242.69429
 240.47247 238.26365 236.07083 233.89701 231.74419 229.59837 227.61155 225.75573
 224.02591 222.48509 221.10228 219.86146 218.73064 217.67782 216.76900 215.89718
 215.12636 214.29354 213.37872 212.72990 212.16708 212.40045 212.95180 213.59428
 214.37665 215.68446 217.08699 217.98694 219.48102 222.73009 228.12520 232.61804
 236.27565 240.19368 244.17183 247.81148 250.66730 253.37114 256.22147 259.05273
 261.53586 263.91052 266.31580 268.63791 270.96594 273.18405 275.03278 276.74313
 278.44608 280.14847 281.69327 283.06006 284.24692 285.30066 286.26764 287.15051
 287.95020 288.66943 289.30530 290.16800
 366.78100 356.32240 345.74179 334.59519 322.98558 311.16698 299.02437 286.81477
 274.51417 262.39856 250.39496 239.68335 229.79275 220.88414 213.05354 206.04294
 199.86433 194.78973 191.35912 189.38852 188.41291 188.46431 189.28670 190.58210
 192.29450 194.37689 196.62729 198.97368 201.40608 203.87347 205.94887 207.77827
 209.39166 210.52406 210.74045 210.95585 210.88024 210.57264 210.19304 209.81043
 209.41483 209.11222 208.90762 208.75901 208.67441 208.99281 209.36620 209.74260
 210.52299 211.68839 212.92578 214.69618 216.61158 218.64197 220.72437 222.79476
 224.84216 226.91355 228.99795 231.09135 233.20774 235.36714 237.61053 239.96793
 242.57632 244.81472 246.80411 248.55651 249.96091 251.07130 251.88070 252.18409
 252.20849 251.96988 251.31728 250.25268 248.84607 246.99447 244.89086 242.71126
 240.48965 238.28105 236.08845 233.91484 231.76224 229.61663 227.63003 225.77442
 224.04482 222.50422 221.12161 219.88101 218.75040 217.69780 216.78919 215.91759
 215.14699 214.31438 213.39978 212.75117 212.18857 212.43083 213.00320 213.66560
 214.49535 215.76463 217.10895 218.14053 219.68721 222.77269 228.12436 232.56819
 236.20157 240.12256 244.08676 247.68138 250.46332 253.13991 256.02048 258.88086
 261.39044 263.76239 266.15903 268.51794 270.89389 273.15085 275.01215 276.72638
 278.45273 280.10318 281.64392 283.01074 284.19775 285.25308 286.21915 287.10355
 287.90341 288.62308 289.25858 290.12317
 366.78100 356.32288 345.74276 334.59664 322.98752 311.16940 299.02729 286.81817
 274.51805 262.40293 250.39981 239.68869 229.79857 220.89045 213.06033 206.05021
 199.87209 194.79798 191.36786 189.39774 188.42262 188.47450 189.29738 190.59326
 192.30614 194.38902 196.63990 198.98678 201.41967 203.88755 205.96343 207.79331
 209.40719 210.54007 210.75695 210.97283 210.89771 210.59059 210.21147 209.82936
 209.43424 209.13212 208.92800 208.77988 208.69576 209.01464 209.38852 209.76540
 210.54628 211.71216 212.95005 214.72093 216.63681 218.66769 220.75057 222.82145
 224.86933 226.94121 229.02609 231.11997 233.23685 235.39674 237.64062 239.99850
 242.60738 244.84626 246.83614 248.58902 249.99390 251.10478 251.91466 252.21854
 252.24343 252.00531 251.35319 250.28907 248.88295 247.03183 244.92871 242.74959
 240.52847 238.32035 236.12823 233.95512 231.80300 229.65788 227.67176 225.81664
 224.08752 222.54740 221.16528 219.92516 218.79504 217.74292 216.83481 215.96369
 215.19357 214.36145 213.44733 212.79921 212.23709 212.47639 213.04178 213.73212
 214.62239 215.85358 217.15701 218.30563 219.88733 222.81668 228.11526 232.50957
 236.12206 240.04610 243.98865 247.52942 250.24052 252.89703 255.80754 258.69870
 261.24310 263.62610 266.02640 268.42450 270.84094 273.12784 275.00021 276.71329
 278.45154 280.05908 281.59671 282.96411 284.15094 285.20514 286.17313 287.05545
 287.85611 288.57611 289.21164 290.07483
 366.78100 356.32369 345.74438 334.59906 322.99075 311.17344 299.03213 286.82381
 274.52450 262.41019 250.40788 239.69756 229.80825 220.90094 213.07163 206.06231
 199.88500 194.81169 191.38238 189.41307 188.43875 188.49144 189.31513 190.61182
 192.32550 194.40919 196.66088 199.00857 201.44225 203.91094 205.98763 207.81832
 209.43300 210.56669 210.78438 211.00107 210.92676 210.62044 210.24213 209.86082
 209.46651 209.16519 208.96188 208.81457 208.73126 209.05094 209.42563 209.80332
 210.58501 211.75169 212.99038 214.76207 216.67876 218.71045 220.79413 222.86582
 224.91451 226.98720 229.07288 231.16757 233.28526 235.44595 237.69063 240.04932
 242.65901 244.89870 246.88938 248.64307 250.04876 251.16045 251.97113 252.27582
 252.30151 252.06420 251.41289 250.34957 248.94426 247.09395 244.99164 242.81332
 240.59301 238.38570 236.19439 234.02207 231.87076 229.72645 227.74114 225.88682
 224.15851 222.61920 221.23789 219.99858 218.86926 217.81795 216.91064 216.04033
 215.27101 214.43970 213.52639 212.87908 212.31776 212.54031 213.06613 213.78871
 214.75661 215.96233 217.24121 218.47476 220.07178 222.86960 228.09300 232.45044
 236.04276 239.96524 243.87326 247.34724 249.99352 252.63857 255.57913 258.50241
 261.08875 263.49921 265.91794 268.35870 270.80957 273.12030 275.00775 276.71405
 278.44678 280.02597 281.56116 282.93039 284.11874 285.17328 286.14249 287.02972
 287.83817 288.56512 289.20670 290.06802
 366.78100 356.32483 345.74665 334.60248 322.99531 311.17913 299.03896 286.83179
 274.53361 262.42044 250.41927 239.71010 229.82192 220.91575 213.08758 206.07940
 199.90323 194.83106 191.40288 189.43471 188.46154 188.51536 189.34019 190.63802
 192.35284 194.43767 196.69050 199.03933 201.47415 203.94398 206.02181 207.85363
 209.46946 210.60429 210.82311 211.04094 210.96777 210.66259 210.28542 209.90525
 209.51207 209.21190 209.00973 208.86356 208.78138 209.10221 209.47804 209.85686
 210.63969 211.80752 213.04734 214.82017 216.73800 218.77082 220.85565 222.92848
 224.97830 227.05213 229.13896 231.23478 233.35361 235.51544 237.76127 240.12109
 242.73192 244.97275 246.96457 248.71940 250.12623 251.23905 252.05088 252.35671
 252.38353 252.14736 251.49719 250.43501 249.03084 247.18167 245.08050 242.90332
 240.68415 238.47798 236.28780 234.11663 231.96646 229.82328 227.83911 225.98594
 224.25876 222.72059 221.34042 220.10224 218.97407 217.92390 217.01773 216.14855
 215.38038 214.55021 213.63803 212.99186 212.43169 212.62245 213.07314 213.84705
 214.88400 216.07820 217.34851 218.63782 220.25334 222.95097 228.06941 232.40660
 235.97441 239.88492 243.74025 247.13208 249.72330 252.36429 255.33455 258.29077
 260.92651 263.38159 265.83203 268.31738 270.79605 273.12195 275.02188 276.72034
 278.44553 280.00095 281.53497 282.90344 284.09222 285.14908 286.11890 287.00653
 287.81851 288.54761 289.18781 290.05234
 366.78100 356.32625 345.74950 334.60675 323.00100 311.18626 299.04751 286.84176
 274.54501 262.43326 250.43351 239.72576 229.83901 220.93426 213.10752 206.10077
 199.92602 194.85527 191.42852 189.46177 188.49002 188.54527 189.37152 190.67078
 192.38703 194.47328 196.72753 199.07778 201.51403 203.98528 206.06453 207.89778
 209.51504 210.65129 210.87154 211.09079 211.01904 210.71529 210.33954 209.96079
 209.56904 209.27030 209.06955 208.92480 208.84405 209.16630 209.54355 209.92380
 210.70805 211.87730 213.11856 214.89281 216.81206 218.84631 220.93256 223.00681
 225.05806 227.13331 229.22156 231.31882 233.43907 235.60232 237.84957 240.21082
 242.82307 245.06532 247.05857 248.81482 250.22308 251.33733 252.15058 252.45783
 252.48608 252.25133 251.60258 250.54183 249.13909 247.29134 245.19159 243.01584
 240.79809 238.59334 236.40459 234.23484 232.08609 229.94435 227.96160 226.10985
 224.38410 222.84735 221.46860 220.23185 219.10510 218.05635 217.15161 216.28386
 215.51711 214.68836 213.77761 213.13286 212.57411 212.72020 213.06534 213.90727
 215.00311 216.19675 217.46896 218.79314 220.44156 223.05629 228.05576 232.38222
 235.92043 239.80566 243.59030 246.88470 249.43106 252.07236 255.07173 258.06387
 260.75934 263.27338 265.76822 268.29691 270.79611 273.13080 275.04126 276.73450
 278.45297 279.98407 281.51135 282.87781 284.06412 285.11951 286.08774 286.97614
 287.78806 288.52066 289.16235 290.02374
 366.78100 356.32784 345.75267 334.61151 323.00735 311.19418 299.05702 286.85286
 274.55770 262.44753 250.44937 239.74321 229.85804 220.95488 213.12972 206.12455
 199.95139 194.88223 191.45707 189.49190 188.52174 188.57858 189.40641 190.70725
 192.42509 194.51292 196.76876 199.12060 201.55844 204.03127 206.11211 207.94695
 209.56578 210.70362 210.92546 211.14629 211.07613 210.77397 210.39980 210.02264
 209.63248 209.33532 209.13615 208.99299 208.91383 209.23766 209.61650 209.99834
 210.78417 211.95501 213.19785 214.97369 216.89452 218.93036 221.01820 223.09403
 225.14687 227.22371 229.31354 231.41238 233.53422 235.69905 237.94789 240.31073
 242.92457 245.16840 247.16324 248.92108 250.33091 251.44675 252.26159 252.57042
 252.60026 252.36710 251.71994 250.66077 249.25961 247.41345 245.31528 243.14112
 240.92496 238.72179 236.53463 234.36647 232.21931 230.07914 228.09798 226.24782
 224.52365 222.98849 221.61133 220.37616 219.25100 218.20384 217.30067 216.43451
 215.66935 214.84219 213.93302 213.28986 212.73270 212.82747 213.05136 213.96716
 215.11089 216.31284 217.60019 218.95465 220.63353 223.17033 228.05264 232.36768
 235.88136 239.73141 243.43227 246.61646 249.12224 251.76543 254.79276 257.82336
 260.58694 263.17197 265.71912 268.28732 270.80249 273.14249 275.06464 276.75873
 278.46573 279.98315 281.49362 282.85620 284.04080 285.09338 286.06198 286.94965
 287.76193 288.49634 289.14075 289.99612
 366.78100 356.32900 345.75500 334.61500 323.01200 311.19999 299.06399 286.86099
 274.56699 262.45799 250.46099 239.75599 229.87199 220.96998 213.14598 206.14198
 199.96998 194.90198 191.47798 189.51398 188.54498 188.60297 189.43197 190.73397
 192.45297 194.54197 196.79897 199.15197 201.59097 204.06496 206.14696 207.98296
 209.60296 210.74196 210.96496 211.18696 211.11796 210.81695 210.44395 210.06795
 209.67895 209.38295 209.18495 209.04295 208.96495 209.28994 209.66994 210.05294
 210.83994 212.01194 213.25594 215.03294 216.95494 218.99193 221.08093 223.15793
 225.21193 227.28993 229.38093 231.48093 233.60393 235.76992 238.01992 240.38392
 242.99892 245.24392 247.23992 248.99892 250.40992 251.52692 252.34291 252.65291
 252.68391 252.45191 251.80591 250.74791 249.34791 247.50291 245.40590 243.23290
 241.01790 238.81590 236.62990 234.46290 232.31690 230.17790 228.19789 226.34889
 224.62589 223.09189 221.71589 220.48189 219.35789 218.31189 217.40988 216.54488
 215.78088 214.95488 214.04688 213.40488 212.84888 212.91389 213.06752 214.00876
 215.20302 216.43730 217.71727 219.11499 220.84654 223.28232 228.06508 232.35945
 235.85150 239.65938 243.26791 246.33974 248.81076 251.45798 254.50992 257.58005
 260.41617 263.07501 265.67554 268.27924 270.81058 273.15387 275.08868 276.78943
 278.48944 280.06967 281.44519 282.79837 283.98639 285.04251 286.01129 286.90112
 287.71680 288.45209 289.09454 289.94781
 366.78100 356.32994 345.75688 334.61782 323.01576 311.20470 299.06965 286.86759
 274.57453 262.46647 250.47041 239.76635 229.88329 220.98223 213.15917 206.15611
 199.98505 194.91799 191.49494 189.53188 188.56382 188.62276 189.45270 190.75564
 192.47558 194.56552 196.82346 199.17740 201.61734 204.09228 206.17523 208.01217
 209.63311 210.77305 210.99699 211.21993 211.15187 210.85181 210.47975 210.10469
 209.71663 209.42157 209.22452 209.08346 209.00640 209.33234 209.71328 210.09722
 210.88516 212.05810 213.30304 215.08098 217.00392 219.04186 221.13181 223.20975
 225.26469 227.34363 229.43557 231.53651 233.66045 235.82739 238.07833 240.44327
 243.05921 245.30516 247.30210 249.06204 250.47398 251.59192 252.40886 252.71980
 252.75174 252.52068 251.87562 250.81856 249.41950 247.57545 245.47939 243.30733
 241.09327 238.89221 236.70715 234.54109 232.39603 230.25797 228.27891 226.43085
 224.70879 223.17574 221.80068 220.56762 219.44456 218.39950 217.49844 216.63438
 215.87132 215.04626 214.13920 213.49814 212.94308 212.98849 213.09578 214.05537
 215.28128 216.54611 217.84239 219.26134 221.03430 223.41338 228.08629 232.35201
 235.83168 239.59846 243.11188 246.07228 248.51086 251.15929 254.23000 257.33569
 260.24219 262.97488 265.62967 268.27295 270.81882 273.15784 275.09570 276.80185
 278.50012 280.07562 281.42587 282.77292 283.95685 285.00687 285.96982 286.85464
 287.66565 288.39624 289.02036 289.85284
 366.78100 356.33084 345.75868 334.62052 323.01936 311.20920 299.07504 286.87388
 274.58172 262.47456 250.47940 239.77624 229.89408 220.99392 213.17176 206.16961
 199.99945 194.93329 191.51113 189.54897 188.58181 188.64165 189.47249 190.77633
 192.49717 194.58801 196.84685 199.20169 201.64253 204.11837 206.20221 208.04005
 209.66189 210.80273 211.02757 211.25141 211.18425 210.88509 210.51393 210.13977
 209.75261 209.45845 209.26229 209.12214 209.04598 209.37282 209.75466 210.13950
 210.92834 212.10218 213.34802 215.12686 217.05070 219.08954 221.18038 223.25922
 225.31506 227.39490 229.48774 231.58958 233.71442 235.88226 238.13410 240.49994
 243.11678 245.36362 247.36146 249.12230 250.53514 251.65398 252.47182 252.78367
 252.81651 252.58635 251.94219 250.88603 249.48787 247.64471 245.54955 243.37839
 241.16523 238.96507 236.78091 234.61575 232.47159 230.33443 228.35627 226.50911
 224.78795 223.25579 221.88163 220.64947 219.52731 218.48315 217.58299 216.71983
 215.95767 215.13351 214.22735 213.58719 213.03304 213.06125 213.12790 214.07655
 215.42725 216.63841 217.86200 219.39223 221.26469 223.53529 228.13596 232.38919
 235.84000 239.55865 242.96585 245.79938 248.19443 250.84596 253.93741 257.08102
 260.06082 262.87466 265.59070 268.27734 270.82986 273.15460 275.08429 276.79498
 278.49805 280.07837 281.42227 282.75513 283.93463 284.98340 285.94507 286.82880
 287.64160 288.37140 288.98846 289.81888
 366.78100 356.33155 345.76011 334.62266 323.02221 311.21277 299.07932 286.87888
 274.58743 262.48098 250.48654 239.78409 229.90264 221.00320 213.18175 206.18031
 200.01086 194.94541 191.52397 189.56252 188.59607 188.65663 189.48818 190.79274
 192.51429 194.60584 196.86540 199.22095 201.66250 204.13906 206.22361 208.06216
 209.68472 210.82627 211.05183 211.27638 211.20993 210.91149 210.54104 210.16759
 209.78115 209.48770 209.29226 209.15281 209.07736 209.40492 209.78747 210.17302
 210.96258 212.13713 213.38369 215.16324 217.08779 219.12735 221.21890 223.29845
 225.35501 227.43556 229.52911 231.63167 233.75722 235.92578 238.17833 240.54488
 243.16244 245.40999 247.40854 249.17010 250.58365 251.70321 252.52176 252.83431
 252.86787 252.63842 251.99497 250.93953 249.54208 247.69963 245.60519 243.43474
 241.22230 239.02285 236.83940 234.67496 232.53151 230.39506 228.41762 226.57117
 224.85073 223.31928 221.94583 220.71439 219.59294 218.54949 217.65005 216.78760
 216.02616 215.20271 214.29726 213.65782 213.10437 213.12439 213.17169 214.09683
 215.51445 216.76408 217.90202 219.46669 221.46860 223.78838 228.21158 232.42365
 235.84715 239.51062 242.79884 245.49213 247.84119 250.51268 253.63969 256.83334
 259.89438 262.79337 265.56897 268.28912 270.83917 273.14438 275.06866 276.78735
 278.49631 280.07651 281.49069 282.71176 283.88394 284.93503 285.89740 286.78244
 287.59692 288.32974 288.94424 289.76923
 366.78100 356.33252 345.76204 334.62556 323.02608 311.21761 299.08513 286.88565
 274.59517 262.48969 250.49621 239.79473 229.91425 221.01577 213.19530 206.19482
 200.02634 194.96186 191.54138 189.58090 188.61542 188.67694 189.50946 190.81499
 192.53751 194.63003 196.89055 199.24707 201.68959 204.16711 206.25263 208.09215
 209.71568 210.85820 211.08472 211.31024 211.24476 210.94728 210.57780 210.20532
 209.81984 209.52737 209.33289 209.19441 209.11993 209.44845 209.83197 210.21849
 211.00901 212.18453 213.43206 215.21258 217.13810 219.17862 221.27114 223.35166
 225.40918 227.49070 229.58522 231.68875 233.81527 235.98479 238.23831 240.60583
 243.22435 245.47287 247.47239 249.23491 250.64944 251.76996 252.58948 252.90300
 252.93752 252.70904 252.06656 251.01208 249.61560 247.77413 245.68065 243.51117
 241.29969 239.10121 236.91873 234.75525 232.61277 230.47729 228.50082 226.65534
 224.93586 223.40538 222.03290 220.80242 219.68194 218.63946 217.74098 216.87951
 216.11903 215.29655 214.39207 213.75359 213.20111 213.19868 213.19295 214.16524
 215.57887 216.83864 218.00203 219.57275 221.62988 224.02829 228.27611 232.44427
 235.84131 239.44763 242.61197 245.16920 247.48816 250.19618 253.36761 256.61276
 259.75052 262.72641 265.55432 268.29825 270.84372 273.12869 275.04620 276.76746
 278.47736 280.04929 281.48154 282.68149 283.85077 284.90228 285.86417 286.74765
 287.56329 288.28763 288.90347 289.72232
 366.78100 356.33363 345.76425 334.62888 323.03051 311.22313 299.09176 286.89339
 274.60402 262.49964 250.50727 239.80690 229.92752 221.03015 213.21078 206.21140
 200.04403 194.98066 191.56128 189.60191 188.63754 188.70017 189.53379 190.84042
 192.56405 194.65767 196.91930 199.27693 201.72055 204.19918 206.28581 208.12643
 209.75106 210.89469 211.12232 211.34894 211.28457 210.98820 210.61982 210.24845
 209.86408 209.57270 209.37933 209.24196 209.16858 209.49821 209.88284 210.27046
 211.06209 212.23872 213.48735 215.26897 217.19560 219.23723 221.33085 223.41248
 225.47111 227.55373 229.64936 231.75399 233.88161 236.05224 238.30687 240.67550
 243.29512 245.54475 247.54538 249.30900 250.72463 251.84626 252.66688 252.98151
 253.01714 252.78976 252.14839 251.09502 249.69965 247.85927 245.76690 243.59853
 241.38815 239.19078 237.00941 234.84703 232.70566 230.57129 228.59591 226.75154
 225.03317 223.50380 222.13242 220.90305 219.78368 218.74230 217.84493 216.98456
 216.22518 215.40381 214.50044 213.86306 213.31169 213.27914 213.20222 214.24709
 215.65689 216.86667 218.13223 219.72472 221.76183 224.21678 228.32271 232.45874
 235.83617 239.38313 242.42380 244.85983 247.16402 249.90552 253.11319 256.39954
 259.60605 262.65396 265.53232 268.30273 270.84378 273.10992 275.02350 276.74948
 278.45575 280.02463 281.44034 282.64780 283.82001 284.86795 285.82489 286.70581
 287.52121 288.23764 288.85013 289.66434
 366.78100 356.33463 345.76626 334.63189 323.03452 311.22815 299.09778 286.90040
 274.61203 262.50866 250.51729 239.81792 229.93955 221.04318 213.22481 206.22644
 200.06007 194.99770 191.57933 189.62096 188.65759 188.72121 189.55584 190.86347
 192.58810 194.68273 196.94536 199.30399 201.74862 204.22825 206.31588 208.15751
 209.78314 210.92777 211.15639 211.38402 211.32065 211.02528 210.65791 210.28754
 209.90417 209.61380 209.42143 209.28506 209.21269 209.54332 209.92895 210.31758
 211.11020 212.28783 213.53746 215.32009 217.24772 219.29035 221.38498 223.46761
 225.52724 227.61087 229.70750 231.81313 233.94176 236.11339 238.36901 240.73864
 243.35927 245.60990 247.61153 249.37616 250.79279 251.91542 252.73705 253.05268
 253.08931 252.86294 252.22257 251.17019 249.77582 247.93645 245.84508 243.67771
 241.46834 239.27197 237.09160 234.93023 232.78986 230.65649 228.68212 226.83875
 225.12138 223.59300 222.22263 220.99426 219.87589 218.83552 217.93915 217.07978
 216.32141 215.50104 214.59867 213.96230 213.41193 213.35522 213.22128 214.31522
 215.75293 216.89430 218.24390 219.87492 221.88158 224.38155 228.37265 232.47917
 235.83884 239.32388 242.24348 244.55786 246.84811 249.62366 252.85936 256.18011
 259.45715 262.58286 265.51279 268.30997 270.84738 273.09375 275.00162 276.72498
 278.42160 279.98547 281.39325 282.60754 283.77777 284.82352 285.77756 286.66016
 287.47980 288.18729 288.79849 289.61185
 366.78100 356.33541 345.76782 334.63423 323.03763 311.23204 299.10245 286.90586
 274.61827 262.51568 250.52508 239.82649 229.94890 221.05331 213.23572 206.23813
 200.07253 195.01094 191.59335 189.63576 188.67317 188.73758 189.57298 190.88139
 192.60680 194.70221 196.96562 199.32503 201.77043 204.25084 206.33925 208.18166
 209.80807 210.95348 211.18288 211.41129 211.34870 211.05411 210.68752 210.31793
 209.93534 209.64574 209.45415 209.31856 209.24697 209.57838 209.96479 210.35419
 211.14760 212.32601 213.57642 215.35983 217.28824 219.33164 221.42705 223.51046
 225.57087 227.65528 229.75269 231.85909 233.98850 236.16091 238.41732 240.78773
 243.40914 245.66054 247.66295 249.42836 250.84577 251.96918 252.79159 253.10799
 253.14540 252.91981 252.28022 251.22863 249.83504 247.99644 245.90585 243.73926
 241.53067 239.33508 237.15549 234.99490 232.85530 230.72271 228.74912 226.90653
 225.18994 223.66235 222.29275 221.06516 219.94757 218.90798 218.01239 217.15380
 216.39620 215.57661 214.67502 214.03943 213.48984 213.42239 213.26308 214.36942
 215.83661 216.96962 218.34882 219.96487 221.95924 224.52316 228.44830 232.52962
 235.84352 239.24654 242.05513 244.26927 246.54344 249.34348 252.60669 255.97493
 259.33185 262.52563 265.49454 268.30750 270.83417 273.05887 274.95905 276.68170
 278.36914 279.92416 281.33716 282.56641 283.74036 284.78830 285.74313 286.62943
 287.45380 288.15094 288.76312 289.57364
 366.78100 356.33590 345.76881 334.63571 323.03961 311.23452 299.10542 286.90932
 274.62223 262.52013 250.53003 239.83194 229.95484 221.05974 213.24265 206.24555
 200.08045 195.01935 191.60226 189.64516 188.68306 188.74797 189.58387 190.89277
 192.61868 194.71458 196.97848 199.33839 201.78429 204.26519 206.35410 208.19700
 209.82390 210.96981 211.19971 211.42861 211.36652 211.07242 210.70632 210.33723
 209.95513 209.66603 209.47494 209.33984 209.26874 209.60064 209.98755 210.37745
 211.17135 212.35026 213.60116 215.38506 217.31397 219.35787 221.45377 223.53768
 225.59858 227.68348 229.78139 231.88829 234.01819 236.19110 238.44800 240.81890
 243.44081 245.69271 247.69561 249.46152 250.87942 252.00332 252.82623 253.14313
 253.18103 252.95593 252.31684 251.26574 249.87264 248.03455 245.94445 243.77835
 241.57026 239.37516 237.19606 235.03597 232.89687 230.76477 228.79168 226.94958
 225.23348 223.70639 222.33729 221.11019 219.99310 218.95400 218.05890 217.20081
 216.44371 215.62461 214.72352 214.08842 213.53932 213.47820 213.33377 214.38142
 215.95213 217.05838 218.39920 220.07071 222.07443 224.67003 228.54294 232.59691
 235.86586 239.19217 241.87785 243.97792 246.23486 249.05531 252.35124 255.77448
 259.19815 262.43420 265.42505 268.25073 270.77924 272.99112 274.90811 276.65707
 278.33987 279.89212 281.26550 282.59714 283.77594 284.83173 285.81430 286.70200
 287.48743 288.17709 288.78214 289.58347
 366.78100 356.33638 345.76976 334.63714 323.04151 311.23689 299.10827 286.91265
 274.62603 262.52441 250.53478 239.83716 229.96054 221.06592 213.24930 206.25268
 200.08805 195.02743 191.61081 189.65419 188.69257 188.75795 189.59432 190.90370
 192.63008 194.72646 196.99084 199.35122 201.79759 204.27897 206.36835 208.21173
 209.83911 210.98549 211.21586 211.44524 211.38362 211.09000 210.72438 210.35576
 209.97414 209.68551 209.49489 209.36027 209.28965 209.62203 210.00941 210.39978
 211.19416 212.37354 213.62492 215.40930 217.33868 219.38305 221.47943 223.56381
 225.62519 227.71057 229.80895 231.91632 234.04670 236.22008 238.47746 240.84884
 243.47122 245.72359 247.72697 249.49335 250.91173 252.03611 252.85949 253.17686
 253.21524 252.99062 252.35200 251.30138 249.90876 248.07114 245.98151 243.81589
 241.60827 239.41365 237.23503 235.07541 232.93678 230.80516 228.83254 226.99092
 225.27530 223.74868 222.38005 221.15343 220.03681 218.99819 218.10357 217.24595
 216.48932 215.67070 214.77008 214.13546 213.58684 213.52780 213.38832 214.49481
 216.02531 216.98744 218.49319 220.32375 222.28893 224.81975 228.65721 232.63899
 235.84357 239.07863 241.66325 243.67075 245.91983 248.77684 252.11391 255.59659
 259.04614 262.29153 265.29379 268.11029 270.63882 272.86127 274.84598 276.67575
 278.38953 279.93445 281.27243 282.61255 283.79678 284.85690 285.84256 286.73007
 287.51071 288.19812 288.80170 289.59595
 366.78100 356.33418 345.76536 334.63054 323.03272 311.22590 299.09508 286.89726
 274.60844 262.50462 250.51280 239.81298 229.93416 221.03734 213.21852 206.21970
 200.05288 194.99006 191.57124 189.61242 188.64860 188.71178 189.54596 190.85314
 192.57732 194.67150 196.93368 199.29186 201.73604 204.21522 206.30240 208.14358
 209.76876 210.91294 211.14112 211.36830 211.30448 211.00866 210.64084 210.27002
 209.88620 209.59538 209.40256 209.26574 209.19292 209.52310 209.90828 210.29645
 211.08863 212.26581 213.51499 215.29717 217.22435 219.26653 221.36071 223.44289
 225.50207 227.58525 229.68143 231.78661 233.91479 236.08597 238.34115 240.71033
 243.33051 245.58069 247.58187 249.34605 250.76223 251.88441 252.70559 253.02077
 253.05695 252.83013 252.18931 251.13649 249.74167 247.90185 245.81003 243.64221
 241.43239 239.23557 237.05475 234.89293 232.75211 230.61829 228.64347 226.79965
 225.08183 223.55301 222.18219 220.95337 219.83455 218.79373 217.89691 217.03709
 216.27827 215.45745 214.55463 213.91781 213.36699 213.42607 213.56566 214.73502
 215.95892 216.95276 218.61121 220.41985 222.32397 224.85365 228.77228 232.57283
 235.76328 238.91820 241.43250 243.40282 245.63829 248.53412 251.92458 255.46899
 258.96490 262.24377 265.25598 268.05627 270.57846 272.78925 274.73700 276.50049
 278.17609 279.74121 281.20084 282.56317 283.74564 284.80197 285.78104 286.65555
 287.42465 288.00552 288.60074 289.38214
 366.78100 356.33289 345.76278 334.62667 323.02756 311.21945 299.08734 286.88823
 274.59812 262.49301 250.49990 239.79879 229.91868 221.02057 213.20046 206.20035
 200.03224 194.96813 191.54802 189.58791 188.62280 188.68469 189.51758 190.82348
 192.54637 194.63926 196.90015 199.25704 201.69993 204.17782 206.26371 208.10360
 209.72749 210.87038 211.09727 211.32316 211.25805 210.96094 210.59183 210.21972
 209.83461 209.54250 209.34839 209.21028 209.13617 209.46506 209.84895 210.23584
 211.02673 212.20262 213.45051 215.23140 217.15729 219.19818 221.29107 223.37196
 225.42985 227.51174 229.60663 231.71052 233.83741 236.00730 238.26119 240.62908
 243.24797 245.49686 247.49675 249.25964 250.67453 251.79543 252.61532 252.92921
 252.96410 252.73599 252.09388 251.03977 249.64366 247.80255 245.70944 243.54033
 241.32922 239.13111 236.94900 234.78589 232.64378 230.50867 228.53256 226.68745
 224.96834 223.43823 222.06612 220.83601 219.71590 218.67379 217.77568 216.91457
 216.15446 215.33235 214.42824 213.79013 213.23802 213.36507 213.66524 214.92343
 216.04927 217.12675 218.69206 220.39098 222.27551 224.88602 228.87567 232.44612
 235.62677 238.67355 241.11914 243.08028 245.31250 248.25595 251.74295 255.36726
 258.91852 262.25183 265.30237 268.10724 270.61252 272.80148 274.71976 276.45056
 278.09131 279.60791 280.99469 282.25668 283.38641 284.40762 285.27704 286.14456
 286.97113 287.66229 288.26208 289.04059
 366.78100 356.33498 345.76696 334.63293 323.03591 311.22989 299.09987 286.90285
 274.61482 262.51180 250.52078 239.82176 229.94374 221.04772 213.22969 206.23167
 200.06565 195.00363 191.58561 189.62758 188.66456 188.72854 189.56352 190.87150
 192.59647 194.69145 196.95443 199.31341 201.75839 204.23836 206.32634 208.16832
 209.79430 210.93928 211.16825 211.39623 211.33321 211.03819 210.67117 210.30115
 209.91812 209.62810 209.43608 209.30006 209.22804 209.55901 209.94499 210.33397
 211.12695 212.30493 213.55490 215.33788 217.26586 219.30884 221.40382 223.48679
 225.54677 227.63075 229.72773 231.83371 233.96268 236.13466 238.39064 240.76062
 243.38160 245.63258 247.63455 249.39953 250.81651 251.93949 252.76147 253.07744
 253.11442 252.88840 252.24838 251.19636 249.80233 247.96331 245.87229 243.70527
 241.49625 239.30022 237.12020 234.95918 232.81916 230.68614 228.71211 226.86909
 225.15207 223.62405 222.25403 221.02601 219.90798 218.86796 217.97194 217.11292
 216.35490 215.53487 214.63285 213.99683 213.44681 213.50238 213.64952 214.92201
 216.05748 217.30481 218.79726 220.45914 222.34787 224.99049 228.95953 232.33032
 235.62364 238.53876 240.90369 242.75699 244.94902 247.98526 251.58989 255.28207
 258.84991 262.19656 265.24225 268.03098 270.52429 272.69958 274.64682 276.44440
 278.08237 279.52496 280.82184 282.08005 283.25800 284.30734 285.27371 286.16620
 286.99805 287.74902 288.40512 289.24127
 366.78100 356.33780 345.77259 334.64139 323.04719 311.24398 299.11678 286.92258
 274.63737 262.53717 250.54897 239.85276 229.97756 221.08435 213.26915 206.27395
 200.11074 195.05154 191.63634 189.68113 188.72093 188.78773 189.62552 190.93632
 192.66412 194.76191 197.02771 199.38951 201.83730 204.32010 206.41090 208.25569
 209.88449 211.03229 211.26408 211.49488 211.43468 211.14247 210.77827 210.41106
 210.03086 209.74366 209.55445 209.42125 209.35205 209.68584 210.07464 210.46644
 211.26223 212.44303 213.69583 215.48162 217.41242 219.45822 221.55601 223.64181
 225.70461 227.79140 229.89120 232.00000 234.13179 236.30659 238.56538 240.93818
 243.56198 245.81577 247.82057 249.58837 251.00816 252.13396 252.95876 253.27755
 253.31735 253.09415 252.45694 251.40774 250.01654 248.18033 246.09213 243.92793
 241.72172 239.52852 237.35132 235.19311 233.05591 230.92571 228.95450 227.11430
 225.40009 223.87489 222.50769 221.28248 220.16728 219.13008 218.23687 217.38067
 216.62547 215.80826 214.90906 214.27586 213.72865 213.69955 213.70358 214.83832
 215.88959 217.31686 219.02596 220.76318 222.67888 225.26544 228.97311 232.41226
 235.47871 238.33206 240.65132 242.55161 244.81665 247.90813 251.53644 255.22583
 258.79504 262.12271 265.16437 268.00650 270.56885 272.81366 274.79663 276.52725
 277.98203 279.22092 280.44229 281.80063 283.00208 284.09946 285.20258 286.22449
 287.14355 287.96201 288.67697 289.58813
 366.78100 356.33812 345.77324 334.64236 323.04848 311.24559 299.11871 286.92483
 274.63995 262.54007 250.55219 239.85631 229.98143 221.08855 213.27367 206.27878
 200.11590 195.05702 191.64214 189.68726 188.72738 188.79450 189.63262 190.94374
 192.67185 194.76997 197.03609 199.39821 201.84633 204.32945 206.42057 208.26569
 209.89481 211.04293 211.27504 211.50616 211.44628 211.15440 210.79052 210.42364
 210.04376 209.75688 209.56800 209.43511 209.36623 209.70035 210.08947 210.48159
 211.27771 212.45883 213.71195 215.49807 217.42919 219.47530 221.57342 223.65954
 225.72266 227.80978 229.90990 232.01902 234.15114 236.32626 238.58537 240.95849
 243.58261 245.83673 247.84185 249.60997 251.03009 252.15621 252.98133 253.30045
 253.34056 253.11768 252.48080 251.43192 250.04104 248.20516 246.11728 243.95340
 241.74752 239.55463 237.37775 235.21987 233.08299 230.95311 228.98223 227.14235
 225.42847 223.90359 222.53671 221.31182 220.19694 219.16006 218.26718 217.41130
 216.65642 215.83954 214.94066 214.30778 213.76089 213.75977 213.85596 214.86069
 216.11014 217.43027 219.29997 221.13893 222.97885 225.39180 228.93730 232.42200
 235.24118 238.00789 240.26776 242.19878 244.55675 247.76920 251.44543 255.16252
 258.77664 262.10938 265.17328 268.03497 270.58380 272.75867 274.57120 276.07764
 277.35187 278.63599 280.14969 281.58472 283.05292 284.39725 285.62378 286.73492
 287.73428 288.62421 289.40161 290.39236
 366.78100 356.33897 345.77493 334.64490 323.05186 311.24983 299.12379 286.93076
 274.64672 262.54769 250.56065 239.86562 229.99158 221.09955 213.28551 206.29148
 200.12944 195.07141 191.65737 189.70334 188.74430 188.81227 189.65123 190.96320
 192.69216 194.79113 197.05810 199.42106 201.87003 204.35399 206.44596 208.29192
 209.92189 211.07085 211.30382 211.53578 211.47675 211.18571 210.82268 210.45664
 210.07761 209.79157 209.60354 209.47150 209.40347 209.73843 210.12840 210.52136
 211.31833 212.50029 213.75426 215.54123 217.47319 219.52016 221.61912 223.70609
 225.77005 227.85802 229.95898 232.06895 234.20191 236.37788 238.63784 241.01181
 243.63677 245.89174 247.89770 249.66667 251.08763 252.21460 253.04056 253.36053
 253.40149 253.17946 252.54342 251.49539 250.10536 248.27032 246.18329 244.02025
 241.81522 239.62318 237.44715 235.29011 233.15408 231.02504 229.05501 227.21597
 225.50294 223.97890 222.61287 221.38883 220.27480 219.23876 218.34673 217.49169
 216.73766 215.92162 215.02359 214.39155 213.84552 213.84169 213.93163 214.91563
 216.43098 217.49893 219.38492 221.35564 223.15637 225.38812 228.90582 232.30345
 235.01709 237.62100 239.82083 241.82617 244.35263 247.73010 251.44290 255.19398
 258.77643 262.07343 265.10498 267.87686 270.27603 272.29227 273.94974 275.34589
 276.70197 278.38834 280.03110 281.77365 283.30322 284.65652 285.89120 287.00974
 288.01575 288.91159 289.69418 290.69150
 366.78100 356.33859 345.77417 334.64376 323.05034 311.24793 299.12151 286.92810
 274.64369 262.54427 250.55686 239.86144 229.98703 221.09461 213.28020 206.28579
 200.12337 195.06496 191.65054 189.69613 188.73671 188.80430 189.64289 190.95447
 192.68306 194.78164 197.04823 199.41081 201.85940 204.34299 206.43457 208.28016
 209.90974 211.05833 211.29091 211.52250 211.46309 211.17167 210.80826 210.44184
 210.06243 209.77601 209.58760 209.45519 209.38677 209.72136 210.11094 210.50353
 211.30011 212.48170 213.73529 215.52187 217.45346 219.50004 221.59863 223.68521
 225.74880 227.83639 229.93697 232.04656 234.17914 236.35473 238.61431 240.98790
 243.61249 245.86707 247.87266 249.64124 251.06183 252.18841 253.01400 253.33359
 253.37417 253.15176 252.51534 251.46693 250.07651 248.24110 246.15369 243.99027
 241.78486 239.59244 237.41603 235.25861 233.12220 230.99279 229.02237 227.18296
 225.46954 223.94513 222.57871 221.35430 220.23989 219.20347 218.31106 217.45564
 216.70123 215.88481 214.98640 214.35399 213.80757 213.85681 214.02524 214.84535
 216.58615 217.71867 219.44839 221.37489 223.22081 225.41881 228.84726 232.29517
 234.92908 237.41107 239.50475 241.53929 244.17706 247.58600 251.56143 255.34438
 258.88312 262.08701 264.99286 267.63150 269.91034 271.79309 273.38522 274.86032
 276.38034 278.03220 279.62500 281.14825 282.59055 283.86661 285.03082 286.08554
 287.03412 287.87885 288.61679 289.55719
 366.78100 356.33563 345.76826 334.63489 323.03852 311.23315 299.10378 286.90741
 274.62004 262.51767 250.52729 239.82892 229.95155 221.05618 213.23881 206.24144
 200.07607 195.01470 191.59733 189.63996 188.67759 188.74222 189.57785 190.88648
 192.61211 194.70774 196.97137 199.33100 201.77663 204.25725 206.34588 208.18851
 209.81514 210.96077 211.19040 211.41903 211.35666 211.06229 210.69592 210.32655
 209.94418 209.65481 209.46344 209.32807 209.25670 209.58833 209.97496 210.36459
 211.15821 212.33684 213.58747 215.37110 217.29973 219.34336 221.43899 223.52262
 225.58325 227.66788 229.76551 231.87214 234.00177 236.17440 238.43103 240.80166
 243.42329 245.67492 247.67755 249.44317 250.86080 251.98443 252.80706 253.12369
 253.16132 252.93595 252.29658 251.24521 249.85184 248.01347 245.92310 243.75673
 241.54836 239.35299 237.17362 235.01325 232.87388 230.74151 228.76813 226.92576
 225.20939 223.68202 222.31265 221.08528 219.96791 218.92854 218.03317 217.17480
 216.41743 215.59806 214.69669 214.06132 213.51195 213.72223 214.22942 214.87225
 216.44427 217.66714 219.35944 221.31532 223.25668 225.49452 228.79785 232.36134
 234.93561 237.33626 239.27681 241.26068 243.91301 247.50133 251.55034 255.35495
 258.88666 262.01932 264.83234 267.43350 269.67075 271.52847 273.18369 274.67035
 276.16516 277.76697 279.32108 280.70566 281.91507 283.00241 284.05875 285.01569
 285.87634 286.64279 287.31232 288.16559
 366.78100 356.33516 345.76732 334.63348 323.03663 311.23079 299.10095 286.90411
 274.61627 262.51343 250.52258 239.82374 229.94590 221.05006 213.23222 206.23438
 200.06853 195.00669 191.58885 189.63101 188.66817 188.73233 189.56749 190.87564
 192.60080 194.69596 196.95912 199.31828 201.76344 204.24359 206.33175 208.17391
 209.80007 210.94523 211.17439 211.40255 211.33970 211.04486 210.67802 210.30818
 209.92534 209.63550 209.44365 209.30781 209.23597 209.56713 209.95329 210.34245
 211.13560 212.31376 213.56392 215.34708 217.27524 219.31840 221.41356 223.49671
 225.55687 227.64103 229.73819 231.84435 233.97351 236.14566 238.40182 240.77198
 243.39314 245.64430 247.64646 249.41162 250.82877 251.95193 252.77409 253.09025
 253.12741 252.90157 252.26172 251.20988 249.81604 247.97720 245.88636 243.71952
 241.51067 239.31483 237.13499 234.97415 232.83431 230.70147 228.72763 226.88478
 225.16794 223.64010 222.27026 221.04242 219.92458 218.88473 217.98889 217.13005
 216.37221 215.55237 214.65053 214.01469 213.46484 213.70538 214.28673 215.11780
 216.44829 217.76889 219.46895 221.36737 223.28471 225.51370 228.81615 232.39433
 234.94644 237.18810 238.93877 240.83762 243.60646 247.24254 251.39569 255.21712
 258.74017 261.88950 264.74210 267.35327 269.63788 271.55060 273.20190 274.73059
 276.19641 277.77664 279.32071 280.68253 281.87341 282.93719 283.92072 284.85175
 285.71716 286.48782 287.16107 288.01901
 366.78100 356.33635 345.76971 334.63706 323.04142 311.23677 299.10812 286.91248
 274.62583 262.52418 250.53454 239.83689 229.96025 221.06560 213.24895 206.25231
 200.08766 195.02701 191.61037 189.65372 188.69208 188.75743 189.59378 190.90314
 192.62949 194.72585 196.99020 199.35055 201.79691 204.27826 206.36761 208.21097
 209.83832 210.98468 211.21503 211.44438 211.38274 211.08909 210.72344 210.35480
 209.97315 209.68451 209.49386 209.35921 209.28857 209.62092 210.00828 210.39863
 211.19298 212.37234 213.62369 215.40804 217.33740 219.38175 221.47811 223.56246
 225.62381 227.70917 229.80752 231.91487 234.04523 236.21858 238.47594 240.84729
 243.46964 245.72200 247.72535 249.49171 250.91006 252.03441 252.85777 253.17512
 253.21347 252.98883 252.35018 251.29954 249.90689 248.06924 245.97960 243.81395
 241.60630 239.41166 237.23301 235.07337 232.93472 230.80307 228.83043 226.98878
 225.27314 223.74649 222.37784 221.15120 220.03455 218.99590 218.10126 217.24361
 216.48697 215.66832 214.76767 214.13303 213.58438 213.78497 214.26901 215.23511
 216.60590 217.94722 219.67963 221.48682 223.32431 225.54784 228.86783 232.33115
 234.76990 236.84360 238.54015 240.49852 243.38850 247.18108 251.21759 255.06642
 258.64587 261.83960 264.71597 267.36276 269.68347 271.59753 273.20605 274.65872
 276.06644 277.69052 279.24899 280.62802 281.82315 282.88467 283.85803 284.74771
 285.58157 286.35071 287.02258 287.87881
 366.78100 356.33577 345.76854 334.63532 323.03909 311.23386 299.10463 286.90841
 274.62118 262.51895 250.52872 239.83050 229.95327 221.05804 213.24081 206.24359
 200.07836 195.01713 191.59990 189.64268 188.68045 188.74522 189.58099 190.88977
 192.61554 194.71131 196.97508 199.33486 201.78063 204.26140 206.35017 208.19295
 209.81972 210.96549 211.19526 211.42404 211.36181 211.06758 210.70135 210.33213
 209.94990 209.66067 209.46944 209.33422 209.26299 209.59476 209.98153 210.37131
 211.16508 212.34385 213.59462 215.37840 217.30717 219.35094 221.44671 223.53048
 225.59126 227.67603 229.77380 231.88057 234.01035 236.18312 238.43989 240.81066
 243.43244 245.68421 247.68698 249.45275 250.87053 251.99430 252.81707 253.13384
 253.17162 252.94639 252.30716 251.25593 249.86271 248.02448 245.93425 243.76802
 241.55980 239.36457 237.18534 235.02511 232.88589 230.75366 228.78043 226.93820
 225.22198 223.69475 222.32552 221.09829 219.98107 218.94184 218.04661 217.18838
 216.43116 215.61193 214.71070 214.07547 213.52625 213.77835 214.37399 215.26804
 216.72823 218.12485 219.85197 221.62701 223.43231 225.67566 228.94965 232.25490
 234.57848 236.49689 238.20253 240.32111 243.34140 247.15332 251.13873 255.00655
 258.61844 261.82324 264.65070 267.33948 269.66888 271.55612 273.13303 274.60471
 276.06027 277.55096 279.08582 280.45914 281.64972 282.70691 283.67444 284.55771
 285.36194 286.08032 286.72330 287.54272
 366.78100 356.33412 345.76524 334.63037 323.03249 311.22561 299.09473 286.89685
 274.60797 262.50410 250.51222 239.81234 229.93346 221.03658 213.21770 206.21883
 200.05195 194.98907 191.57019 189.61131 188.64744 188.71056 189.54468 190.85180
 192.57592 194.67004 196.93217 199.29029 201.73441 204.21353 206.30065 208.14177
 209.76690 210.91102 211.13914 211.36626 211.30238 211.00650 210.63863 210.26775
 209.88387 209.59299 209.40011 209.26324 209.19036 209.52048 209.90560 210.29372
 211.08584 212.26297 213.51209 215.29421 217.22133 219.26345 221.35757 223.43970
 225.49882 227.58194 229.67806 231.78318 233.91131 236.08243 238.33755 240.70667
 243.32679 245.57691 247.57804 249.34216 250.75828 251.88040 252.70152 253.01664
 253.05277 252.82589 252.18501 251.13213 249.73725 247.89738 245.80550 243.63762
 241.42774 239.23086 237.04998 234.88811 232.74723 230.61335 228.63847 226.79459
 225.07671 223.54784 222.17696 220.94808 219.82920 218.78832 217.89145 217.03157
 216.27269 215.45181 214.54893 213.91205 213.36118 213.71153 214.53929 215.42015
 216.76682 218.17581 219.95656 221.73918 223.53932 225.79510 228.99477 232.17870
 234.40501 236.17697 237.85530 240.09863 243.27280 247.10851 251.11209 254.98976
 258.58789 261.78271 264.61246 267.30054 269.61923 271.50659 273.10989 274.60229
 276.06757 277.49792 278.96115 280.31998 281.50485 282.55893 283.52222 284.40176
 285.20197 285.91989 286.54425 287.34311
 366.78100 356.33359 345.76418 334.62877 323.03036 311.22296 299.09155 286.89314
 274.60373 262.49932 250.50691 239.80650 229.92709 221.02968 213.21027 206.21087
 200.04346 194.98005 191.56064 189.60123 188.63682 188.69941 189.53300 190.83959
 192.56319 194.65678 196.91837 199.27596 201.71955 204.19814 206.28473 208.12532
 209.74991 210.89350 211.12110 211.34769 211.28328 210.98687 210.61846 210.24705
 209.86264 209.57123 209.37782 209.24042 209.16701 209.49660 209.88119 210.26878
 211.06037 212.23696 213.48555 215.26714 217.19373 219.23533 221.32892 223.41051
 225.46910 227.55169 229.64728 231.75187 233.87946 236.05005 238.30465 240.67324
 243.29283 245.54242 247.54301 249.30660 250.72219 251.84378 252.66437 252.97896
 253.01456 252.78715 252.14574 251.09233 249.69692 247.85651 245.76410 243.59569
 241.38528 239.18788 237.00647 234.84406 232.70265 230.56824 228.59283 226.74842
 225.03001 223.50060 222.12919 220.89979 219.78038 218.73897 217.84156 216.98115
 216.22174 215.40033 214.49692 213.85951 213.30811 213.71507 214.68030 215.53761
 216.76462 218.12402 219.98407 221.77919 223.54387 225.76012 228.81187 232.14160
 234.13022 235.73398 237.38402 239.78195 243.14062 247.05014 251.07732 254.96268
 258.54904 261.74503 264.61816 267.27036 269.57901 271.46655 273.06094 274.53238
 275.96451 277.43375 278.85928 280.20380 281.38824 282.44391 283.41730 284.32358
 285.19650 285.97382 286.65286 287.51825
 366.78100 356.33366 345.76432 334.62898 323.03063 311.22329 299.09195 286.89361
 274.60427 262.49993 250.50759 239.80725 229.92790 221.03056 213.21122 206.21188
 200.04454 194.98120 191.56186 189.60251 188.63817 188.70083 189.53449 190.84115
 192.56481 194.65847 196.92012 199.27778 201.72144 204.20010 206.28676 208.12742
 209.75208 210.89574 211.12339 211.35005 211.28571 210.98937 210.62103 210.24969
 209.86535 209.57400 209.38066 209.24332 209.16998 209.49964 209.88430 210.27196
 211.06362 212.24027 213.48893 215.27059 217.19725 219.23891 221.33257 223.41423
 225.47288 227.55554 229.65120 231.75586 233.88352 236.05418 238.30884 240.67750
 243.29715 245.54681 247.54747 249.31113 250.72679 251.84845 252.66911 252.98376
 253.01942 252.79208 252.15074 251.09740 249.70206 247.86172 245.76937 243.60103
 241.39069 239.19335 237.01201 234.84967 232.70833 230.57399 228.59864 226.75430
 225.03596 223.50662 222.13528 220.90594 219.78660 218.74525 217.84791 216.98757
 216.22823 215.40689 214.50355 213.86621 213.31487 213.75200 214.78987 215.65912
 216.82491 218.21118 220.09889 221.90897 223.68501 225.81847 228.86427 231.95038
 233.76038 235.39180 237.19504 239.74301 243.11487 247.04817 251.12094 255.00891
 258.57745 261.74191 264.60349 267.20724 269.41269 271.26248 272.86667 274.35272
 275.80585 277.25052 278.56775 279.92645 281.20242 282.50140 283.68652 284.76016
 285.72577 286.58566 287.33685 288.29413
 366.78100 356.33369 345.76439 334.62908 323.03077 311.22347 299.09216 286.89385
 274.60455 262.50024 250.50793 239.80763 229.92832 221.03101 213.21171 206.21240
 200.04510 194.98179 191.56248 189.60318 188.63887 188.70156 189.53526 190.84195
 192.56564 194.65934 196.92103 199.27872 201.72242 204.20111 206.28780 208.12850
 209.75319 210.89688 211.12458 211.35127 211.28696 210.99066 210.62235 210.25104
 209.86674 209.57543 209.38212 209.24482 209.17151 209.50120 209.88590 210.27359
 211.06529 212.24198 213.49067 215.27237 217.19906 219.24075 221.33445 223.41614
 225.47483 227.55753 229.65322 231.75791 233.88561 236.05630 238.31099 240.67969
 243.29938 245.54907 247.54977 249.31346 250.72915 251.85085 252.67154 252.98623
 253.02193 252.79462 252.15331 251.10001 249.70470 247.86439 245.77209 243.60378
 241.39348 239.19617 237.01486 234.85256 232.71125 230.57694 228.60164 226.75733
 225.03902 223.50972 222.13841 220.90910 219.78980 218.74849 217.85118 216.99088
 216.23157 215.41026 214.50696 213.86965 213.31834 213.77803 214.86842 215.76135
 216.87190 218.23271 220.20622 222.08043 223.84503 225.91304 228.97029 231.94676
 233.66119 235.21001 237.00761 239.56160 243.03023 247.04637 251.11916 255.00200
 258.53870 261.63229 264.52969 267.04239 269.28391 271.15405 272.72940 274.21503
 275.69641 277.07440 278.36868 279.78262 281.21420 282.51324 283.69839 284.77206
 285.73770 286.59763 287.34885 288.30615
 366.78100 356.33332 345.76364 334.62796 323.02927 311.22159 299.08991 286.89123
 274.60155 262.49687 250.50419 239.80351 229.92382 221.02614 213.20646 206.20678
 200.03910 194.97542 191.55574 189.59606 188.63137 188.69369 189.52701 190.83333
 192.55665 194.64997 196.91129 199.26860 201.71192 204.19024 206.27656 208.11688
 209.74120 210.88452 211.11184 211.33815 211.27347 210.97679 210.60811 210.23643
 209.85175 209.56007 209.36638 209.22870 209.15502 209.48434 209.86866 210.25598
 211.04730 212.22362 213.47193 215.25325 217.17957 219.22089 221.31421 223.39553
 225.45385 227.53617 229.63148 231.73580 233.86312 236.03344 238.28776 240.65608
 243.27540 245.52471 247.52503 249.28835 250.70367 251.82499 252.64531 252.95963
 252.99495 252.76726 252.12558 251.07190 249.67622 247.83554 245.74286 243.57418
 241.36349 239.16581 236.98413 234.82145 232.67977 230.54509 228.56941 226.72473
 225.00604 223.47636 222.10468 220.87500 219.75532 218.71364 217.81596 216.95528
 216.19559 215.37391 214.47023 213.83255 213.28087 213.78821 214.98009 215.86169
 216.92542 218.31752 220.33650 222.24557 223.99724 225.97954 229.03479 231.86388
 233.48787 234.96761 236.77324 239.37981 242.88881 246.98601 251.12059 255.01465
 258.52710 261.63889 264.52066 267.05811 269.29471 271.02530 272.59149 274.10101
 275.59106 277.11380 278.69232 280.31522 281.83774 283.18481 284.41379 285.52716
 286.52853 287.42026 288.19922 289.19196
 366.78100 356.33313 345.76327 334.62740 323.02854 311.22067 299.08881 286.88994
 274.60007 262.49521 250.50234 239.80148 229.92161 221.02374 213.20388 206.20401
 200.03615 194.97228 191.55242 189.59255 188.62768 188.68982 189.52295 190.82909
 192.55222 194.64536 196.90649 199.26362 201.70676 204.18489 206.27103 208.11116
 209.73529 210.87843 211.10556 211.33170 211.26683 210.96997 210.60110 210.22923
 209.84437 209.55250 209.35864 209.22077 209.14691 209.47604 209.86017 210.24731
 211.03844 212.21458 213.46271 215.24384 217.16998 219.21111 221.30425 223.38538
 225.44352 227.52565 229.62078 231.72492 233.85205 236.02219 238.27632 240.64446
 243.26359 245.51272 247.51286 249.27599 250.69113 251.81226 252.63239 252.94653
 252.98166 252.75380 252.11193 251.05807 249.66220 247.82133 245.72847 243.55960
 241.34874 239.15087 236.96900 234.80614 232.66427 230.52941 228.55354 226.70868
 224.98981 223.45994 222.08808 220.85821 219.73835 218.69648 217.79862 216.93775
 216.17788 215.35602 214.45215 213.81429 213.26242 213.80573 215.08133 215.97095
 216.95016 218.37433 220.43510 222.34396 224.05234 226.03523 228.99788 231.73473
 233.27020 234.70180 236.53761 239.26433 242.80833 246.92189 251.08418 254.99591
 258.53485 261.70145 264.56595 267.15073 269.30521 271.03479 272.64096 274.16132
 275.68500 277.24487 278.80005 280.28201 281.80698 283.15619 284.38712 285.50229
 286.50525 287.39838 288.17859 289.17291
 366.78100 356.33263 345.76226 334.62590 323.02653 311.21816 299.08579 286.88643
 274.59606 262.49069 250.49732 239.79595 229.91559 221.01722 213.19685 206.19648
 200.02812 194.96375 191.54338 189.58301 188.61764 188.67928 189.51191 190.81754
 192.54017 194.63280 196.89344 199.25007 201.69270 204.17033 206.25597 208.09560
 209.71923 210.86186 211.08849 211.31413 211.24876 210.95139 210.58202 210.20966
 209.82429 209.53192 209.33755 209.19918 209.12482 209.45345 209.83708 210.22371
 211.01435 212.18998 213.43761 215.21824 217.14387 219.18451 221.27714 223.35777
 225.41540 227.49703 229.59167 231.69530 233.82193 235.99156 238.24520 240.61283
 243.23146 245.48009 247.47972 249.24236 250.65699 251.77762 252.59725 252.91089
 252.94552 252.71715 252.07478 251.02041 249.62405 247.78268 245.68931 243.51994
 241.30858 239.11021 236.92784 234.76447 232.62210 230.48674 228.51037 226.66500
 224.94563 223.41527 222.04290 220.81253 219.69216 218.64979 217.75143 216.89006
 216.12969 215.30732 214.40295 213.76459 213.21222 213.79384 215.16386 216.09930
 216.97600 218.29572 220.46645 222.38335 224.05208 226.01993 228.87598 231.60561
 233.00569 234.29417 236.14281 239.03575 242.75352 246.89146 251.04445 254.92766
 258.45142 261.60892 264.56464 267.14941 269.36755 271.16830 272.72519 274.24283
 275.74310 277.16907 278.50769 279.81906 281.03244 282.19000 283.36795 284.43509
 285.39484 286.24951 286.99615 287.94763
 366.78100 356.33341 345.76381 334.62822 323.02962 311.22203 299.09043 286.89184
 274.60224 262.49765 250.50506 239.80446 229.92487 221.02727 213.20768 206.20808
 200.04049 194.97689 191.55730 189.59770 188.63311 188.69552 189.52892 190.83533
 192.55873 194.65214 196.91354 199.27095 201.71435 204.19276 206.27917 208.11957
 209.74398 210.88738 211.11479 211.34119 211.27660 210.98000 210.61141 210.23981
 209.85522 209.56363 209.37003 209.23244 209.15884 209.48825 209.87265 210.26006
 211.05146 212.22787 213.47628 215.25768 217.18409 219.22549 221.31890 223.40030
 225.45871 227.54111 229.63652 231.74092 233.86833 236.03874 238.29314 240.66155
 243.28095 245.53036 247.53076 249.29417 250.70957 251.83098 252.65139 252.96579
 253.00120 252.77360 252.13201 251.07841 249.68282 247.84222 245.74963 243.58104
 241.37044 239.17285 236.99125 234.82866 232.68706 230.55247 228.57687 226.73228
 225.01368 223.48409 222.11250 220.88290 219.76331 218.72171 217.82412 216.96352
 216.20393 215.38233 214.47874 213.84115 213.28955 213.84990 215.17863 216.24225
 217.10715 218.29840 220.57726 222.51306 224.11057 225.98709 228.77444 231.50934
 232.74777 233.85716 235.65886 238.71022 242.63094 246.95743 251.09595 254.97269
 258.48352 261.64868 264.54742 267.17554 269.36584 271.18665 272.70972 274.19769
 275.64246 277.08789 278.38913 279.58133 280.74216 281.80399 282.82120 283.80630
 284.69232 285.48132 286.17059 287.04895
 366.78100 356.33369 345.76437 334.62906 323.03074 311.22343 299.09211 286.89380
 274.60448 262.50017 250.50785 239.80754 229.92822 221.03091 213.21159 206.21228
 200.04497 194.98165 191.56234 189.60302 188.63871 188.70139 189.53508 190.84176
 192.56545 194.65913 196.92082 199.27850 201.72219 204.20088 206.28756 208.12825
 209.75293 210.89662 211.12430 211.35099 211.28667 210.99036 210.62204 210.25073
 209.86641 209.57510 209.38178 209.24447 209.17116 209.50084 209.88553 210.27321
 211.06490 212.24158 213.49027 215.27195 217.19864 219.24032 221.33401 223.41569
 225.47438 227.55707 229.65275 231.75744 233.88512 236.05581 238.31049 240.67918
 243.29886 245.54855 247.54923 249.31292 250.72860 251.85029 252.67097 252.98566
 253.02135 252.79403 252.15272 251.09940 249.70409 247.86377 245.77146 243.60314
 241.39283 239.19551 237.01420 234.85188 232.71057 230.57626 228.60094 226.75663
 225.03831 223.50900 222.13768 220.90837 219.78905 218.74774 217.85042 216.99011
 216.23079 215.40948 214.50616 213.86885 213.31754 213.88139 215.21811 216.33690
 217.26443 218.40041 220.72638 222.65317 224.14830 225.97287 228.77779 231.35677
 232.51648 233.51996 235.35349 238.50800 242.53287 246.97710 251.11319 254.99280
 258.49683 261.65491 264.56067 267.19769 269.39624 271.18008 272.74100 274.19571
 275.63110 277.08530 278.39343 279.51410 280.66141 281.71878 282.70267 283.62961
 284.47977 285.23682 285.89816 286.74097
 366.78100 356.33217 345.76134 334.62451 323.02468 311.21584 299.08301 286.88318
 274.59235 262.48652 250.49269 239.79086 229.91003 221.01120 213.19037 206.18953
 200.02070 194.95587 191.53504 189.57421 188.60838 188.66955 189.50172 190.80689
 192.52905 194.62122 196.88139 199.23756 201.67973 204.15690 206.24207 208.08124
 209.70441 210.84657 211.07274 211.29791 211.23208 210.93425 210.56442 210.19159
 209.80576 209.51293 209.31810 209.17926 209.10443 209.43260 209.81577 210.20194
 210.99211 212.16728 213.41445 215.19462 217.11978 219.15995 221.25212 223.33229
 225.38946 227.47063 229.56480 231.66797 233.79414 235.96331 238.21647 240.58364
 243.20181 245.44998 247.44915 249.21132 250.62549 251.74566 252.56483 252.87799
 252.91216 252.68333 252.04050 250.98567 249.58884 247.74701 245.65318 243.48335
 241.27151 239.07268 236.88985 234.72602 232.58319 230.44736 228.47053 226.62470
 224.90487 223.37404 222.00120 220.77037 219.64954 218.60671 217.70788 216.84605
 216.08522 215.26239 214.35756 213.71872 213.16589 213.81679 215.35365 216.40404
 217.29585 218.62859 220.87305 222.66690 224.11807 225.95966 228.78661 230.92610
 232.25395 233.43727 235.29085 238.46603 242.45488 246.94315 251.09828 254.98573
 258.49908 261.64807 264.54929 267.19110 269.40851 271.19376 272.77209 274.27591
 275.75760 277.18515 278.50769 279.65265 280.73694 281.78329 282.76324 283.64828
 284.48419 285.24551 285.91055 286.75809
 366.78100 356.33106 345.75911 334.62117 323.02023 311.21028 299.07634 286.87540
 274.58345 262.47651 250.48157 239.77862 229.89668 220.99674 213.17479 206.17285
 200.00291 194.93696 191.51502 189.55308 188.58613 188.64619 189.47725 190.78130
 192.50236 194.59342 196.85247 199.20753 201.64859 204.12464 206.20870 208.04676
 209.66882 210.80987 211.03493 211.25899 211.19204 210.89310 210.52216 210.14821
 209.76127 209.46733 209.27138 209.13144 209.05550 209.38255 209.76461 210.14967
 210.93872 212.11278 213.35884 215.13789 217.06195 219.10101 221.19206 223.27112
 225.32718 227.40723 229.50029 231.60235 233.72740 235.89546 238.14752 240.51357
 243.13063 245.37769 247.37574 249.13680 250.54986 251.66891 252.48697 252.79903
 252.83208 252.60214 251.95820 250.90225 249.50431 247.66137 245.56642 243.39548
 241.18254 238.98259 236.79865 234.63371 232.48976 230.35282 228.37488 226.52793
 224.80699 223.27505 221.90111 220.66916 219.54722 218.50328 217.60333 216.74039
 215.97845 215.15450 214.24856 213.60862 213.05467 213.76736 215.45021 216.49875
 217.41118 218.85808 220.94617 222.63512 224.05135 225.89458 228.67654 230.47179
 231.88608 233.29509 235.30923 238.56468 242.58162 246.93384 251.13643 255.04623
 258.56577 261.72827 264.63889 267.28558 269.53506 271.33539 272.89301 274.38800
 275.88419 277.31778 278.61411 279.77148 280.78668 281.83261 282.79929 283.66980
 284.47345 285.26437 285.95529 286.83578
 366.78100 356.33047 345.75794 334.61941 323.01788 311.20736 299.07283 286.87130
 274.57877 262.47124 250.47571 239.77218 229.88965 220.98913 213.16660 206.16407
 199.99354 194.92701 191.50448 189.54195 188.57442 188.63390 189.46437 190.76784
 192.48831 194.57878 196.83725 199.19172 201.63219 204.10767 206.19114 208.02861
 209.65008 210.79055 211.01502 211.23849 211.17096 210.87144 210.49991 210.12538
 209.73785 209.44332 209.24679 209.10626 209.02973 209.35621 209.73768 210.12215
 210.91062 212.08409 213.32956 215.10803 217.03150 219.06998 221.16045 223.23892
 225.29439 227.37386 229.46633 231.56780 233.69227 235.85975 238.11122 240.47669
 243.09316 245.33963 247.33710 249.09757 250.51004 251.62852 252.44599 252.75746
 252.78993 252.55940 251.91487 250.85834 249.45981 247.61629 245.52076 243.34923
 241.13570 238.93517 236.75064 234.58511 232.44058 230.30306 228.32453 226.47700
 224.75547 223.22294 221.84841 220.61588 219.49335 218.44883 217.54830 216.68477
 215.92224 215.09771 214.19118 213.55065 212.99612 213.74384 215.51012 216.68538
 217.52614 218.92426 221.03729 222.71330 224.08035 225.88081 228.56459 230.07820
 231.47034 233.02917 235.20500 238.59914 242.66924 246.95996 251.17447 255.07939
 258.58194 261.75226 264.69080 267.34702 269.59677 271.42456 273.03479 274.55988
 276.03821 277.45792 278.74930 279.84784 280.95514 281.99661 282.95154 283.82538
 284.63376 285.44443 286.16934 287.09317
 366.78100 356.32792 345.75284 334.61176 323.00769 311.19461 299.05753 286.85345
 274.55837 262.44829 250.45021 239.74413 229.85906 220.95598 213.13090 206.12582
 199.95274 194.88366 191.45858 189.49351 188.52343 188.58035 189.40827 190.70919
 192.42711 194.51503 196.77096 199.12288 201.56080 204.03372 206.11464 207.94956
 209.56848 210.70640 210.92833 211.14925 211.07917 210.77709 210.40301 210.02593
 209.63585 209.33878 209.13970 208.99662 208.91754 209.24146 209.62038 210.00230
 210.78822 211.95915 213.20207 214.97799 216.89891 218.93483 221.02275 223.09867
 225.15160 227.22852 229.31844 231.41736 233.53928 235.70420 237.95312 240.31604
 242.92997 245.17389 247.16881 248.92673 250.33665 251.45257 252.26749 252.57642
 252.60634 252.37326 251.72618 250.66710 249.26602 247.41994 245.32187 243.14779
 240.93171 238.72863 236.54155 234.37347 232.22639 230.08631 228.10524 226.25516
 224.53108 222.99600 221.61892 220.38384 219.25876 218.21169 217.30861 216.44253
 215.67745 214.85037 213.94129 213.29821 212.74113 213.62059 215.68781 216.88145
 217.41780 218.87234 221.10622 222.74223 224.11366 225.90884 228.57181 229.92633
 231.10588 232.79909 234.99547 238.48698 242.64914 246.95618 251.15892 255.04309
 258.53207 261.70758 264.64990 267.27579 269.46304 271.27655 272.90305 274.48471
 276.02393 277.38708 278.74234 280.11426 281.30984 282.37610 283.36392 284.34610
 285.23523 286.02701 286.71869 287.60016
 366.78100 356.32449 345.74599 334.60148 322.99397 311.17746 299.03696 286.82945
 274.53094 262.41743 250.41593 239.70642 229.81791 220.91141 213.08290 206.07439
 199.89788 194.82538 191.39687 189.42836 188.45485 188.50835 189.33284 190.63033
 192.34482 194.42932 196.68181 199.03030 201.46480 203.93429 206.01178 207.84327
 209.45877 210.59326 210.81175 211.02924 210.95574 210.65023 210.27272 209.89222
 209.49871 209.19820 208.99569 208.84919 208.76668 209.08717 209.46266 209.84116
 210.62365 211.79114 213.03063 214.80313 216.72062 218.75311 220.83761 222.91010
 224.95959 227.03308 229.11958 231.21507 233.33356 235.49505 237.74055 240.10004
 242.71053 244.95103 246.94252 248.69701 250.10350 251.21600 252.02749 252.33298
 252.35947 252.12297 251.47246 250.40995 249.00544 247.15594 245.05443 242.87692
 240.65742 238.45091 236.26040 234.08889 231.93839 229.79488 227.81037 225.95686
 224.22936 222.69085 221.31034 220.07184 218.94333 217.89282 216.98631 216.11681
 215.34830 214.51779 213.60528 212.95878 212.39827 213.46222 215.89452 216.98935
 217.59149 219.24438 221.21904 222.78032 224.21590 225.97098 228.37383 229.75633
 230.98734 232.65681 235.09103 238.55336 242.69891 247.01761 251.21991 255.10970
 258.59711 261.74408 264.61963 267.18423 269.32642 271.00125 272.34454 274.11642
 275.96771 277.80325 279.50183 281.09384 282.47156 283.69049 284.80261 285.81009
 286.71622 287.52310 288.22800 289.12631
 366.78100 356.32649 345.74998 334.60747 323.00197 311.18746 299.04895 286.84344
 274.54693 262.43542 250.43592 239.72841 229.84190 220.93739 213.11088 206.10437
 199.92987 194.85936 191.43285 189.46634 188.49483 188.55032 189.37682 190.67631
 192.39280 194.47929 196.73378 199.08427 201.52076 203.99226 206.07175 207.90524
 209.52273 210.65922 210.87971 211.09921 211.02770 210.72419 210.34868 209.97017
 209.57866 209.28016 209.07965 208.93514 208.85463 209.17712 209.55461 209.93511
 210.71960 211.88909 213.13058 214.90507 216.82456 218.85905 220.94555 223.02004
 225.07153 227.14702 229.23551 231.33300 233.45350 235.61699 237.86448 240.22597
 242.83846 245.08095 247.07445 248.83094 250.23943 251.35392 252.16741 252.47490
 252.50340 252.26889 251.62038 250.55987 249.15736 247.30985 245.21034 243.03484
 240.81733 238.61282 236.42431 234.25480 232.10629 229.96479 227.98228 226.13077
 224.40526 222.86875 221.49024 220.25374 219.12723 218.07872 217.17421 216.30670
 215.54019 214.71168 213.80118 213.15667 212.59816 213.57129 215.83417 217.07140
 217.86237 219.41751 221.20163 222.80652 224.22957 225.54697 228.35744 229.48663
 230.71800 232.53461 235.15347 238.73531 242.89191 247.22958 251.45969 255.39053
 258.91354 262.05225 264.92389 267.46280 269.47815 270.84399 272.36774 274.78476
 277.69351 280.21646 282.39966 284.31665 285.97565 287.44345 288.78259 289.99576
 291.08685 292.05850 292.90729 293.98901
 366.78100 356.33360 345.76420 334.62880 323.03040 311.22301 299.09161 286.89321
 274.60381 262.49941 250.50701 239.80661 229.92721 221.02981 213.21042 206.21102
 200.04362 194.98022 191.56082 189.60142 188.63702 188.69962 189.53322 190.83983
 192.56343 194.65703 196.91863 199.27623 201.71983 204.19843 206.28503 208.12563
 209.75024 210.89384 211.12144 211.34804 211.28364 210.98724 210.61884 210.24744
 209.86305 209.57165 209.37825 209.24085 209.16745 209.49705 209.88165 210.26925
 211.06085 212.23746 213.48606 215.26766 217.19426 219.23586 221.32946 223.41106
 225.46966 227.55226 229.64787 231.75247 233.88007 236.05067 238.30527 240.67387
 243.29347 245.54307 247.54367 249.30728 250.72288 251.84448 252.66508 252.97968
 253.01528 252.78788 252.14648 251.09308 249.69769 247.85729 245.76489 243.59649
 241.38609 239.18869 237.00729 234.84489 232.70349 230.56910 228.59370 226.74930
 225.03090 223.50150 222.13010 220.90070 219.78130 218.73990 217.84251 216.98211
 216.22271 215.40131 214.49791 213.86051 213.30911 213.91415 215.49347 217.21666
 218.47023 219.82426 221.40106 222.81096 224.01715 225.59460 227.84010 228.93391
 230.08058 232.03693 234.88095 238.69330 242.95610 247.33458 251.63527 255.66679
 259.25980 262.40909 265.30298 267.96664 270.31332 271.96362 273.14233 274.73642
 277.02344 279.57559 281.78406 283.72324 285.40146 286.88623 288.24088 289.46808
 290.57181 291.55469 292.41333 293.50754
 366.78100 356.33873 345.77445 334.64418 323.05090 311.24863 299.12235 286.92908
 274.64481 262.54553 250.55826 239.86298 229.98871 221.09644 213.28216 206.28789
 200.12561 195.06734 191.65306 189.69879 188.73952 188.80724 189.64597 190.95769
 192.68642 194.78514 197.05187 199.41460 201.86332 204.34705 206.43877 208.28450
 209.91423 211.06295 211.29568 211.52740 211.46813 211.17685 210.81358 210.44731
 210.06803 209.78176 209.59348 209.46121 209.39293 209.72766 210.11739 210.51011
 211.30684 212.48856 213.74229 215.52902 217.46074 219.50747 221.60619 223.69292
 225.75664 227.84437 229.94510 232.05482 234.18755 236.36327 238.62300 240.99672
 243.62145 245.87618 247.88190 249.65063 251.07135 252.19808 253.02381 253.34353
 253.38426 253.16198 252.52571 251.47743 250.08716 248.25189 246.16461 244.00134
 241.79606 239.60379 237.42751 235.27024 233.13397 231.00469 229.03442 227.19514
 225.48187 223.95760 222.59132 221.36705 220.25277 219.21650 218.32422 217.46895
 216.71468 215.89840 215.00013 214.36785 213.82158 214.17833 215.15140 217.07829
 218.93565 220.29480 221.83446 223.05701 224.09013 225.44751 227.19492 228.27710
 229.48746 231.49870 234.53447 238.45706 242.78790 247.18361 251.46611 255.45804
 259.02838 262.21780 265.13837 267.80319 270.13312 272.06879 273.60672 275.17490
 276.56952 278.02979 279.59326 281.04520 282.55637 283.91833 285.16092 286.28662
 287.29907 288.20068 288.98828 289.99200
 366.78100 356.33876 345.77451 334.64427 323.05102 311.24878 299.12253 286.92929
 274.64504 262.54580 250.55855 239.86331 229.98906 221.09682 213.28257 206.28833
 200.12608 195.06784 191.65359 189.69935 188.74010 188.80786 189.64662 190.95837
 192.68713 194.78588 197.05264 199.41539 201.86415 204.34790 206.43966 208.28541
 209.91517 211.06392 211.29668 211.52843 211.46919 211.17794 210.81470 210.44845
 210.06921 209.78296 209.59472 209.46248 209.39423 209.72899 210.11874 210.51150
 211.30825 212.49001 213.74376 215.53052 217.46227 219.50903 221.60778 223.69454
 225.75829 227.84605 229.94680 232.05656 234.18931 236.36507 238.62482 240.99858
 243.62334 245.87809 247.88385 249.65260 251.07336 252.20011 253.02587 253.34562
 253.38638 253.16413 252.52789 251.47964 250.08940 248.25415 246.16691 244.00366
 241.79842 239.60617 237.42993 235.27268 233.13644 231.00720 229.03695 227.19771
 225.48446 223.96022 222.59397 221.36973 220.25548 219.21924 218.32699 217.47175
 216.71750 215.90126 215.00301 214.37077 213.82452 214.20306 215.16060 216.87697
 218.87157 220.41745 222.13727 223.44841 224.36707 225.54248 227.36739 228.01511
 229.04126 231.00739 234.14175 238.22575 242.66240 247.09787 251.38423 255.33876
 258.85999 262.01276 264.94354 267.63065 269.96396 271.85333 273.23352 274.57117
 276.33026 277.72684 279.16281 280.53555 281.75772 282.89337 284.01697 285.03485
 285.95035 286.76556 287.47775 288.38535
 366.78100 356.33524 345.76747 334.63371 323.03694 311.23118 299.10141 286.90465
 274.61688 262.51412 250.52335 239.82459 229.94682 221.05106 213.23329 206.23553
 200.06976 195.00800 191.59023 189.63247 188.66970 188.73394 189.56917 190.87741
 192.60264 194.69788 196.96111 199.32035 201.76559 204.24582 206.33406 208.17629
 209.80253 210.94776 211.17700 211.40523 211.34247 211.04770 210.68094 210.31117
 209.92841 209.63864 209.44688 209.31111 209.23935 209.57058 209.95682 210.34605
 211.13929 212.31752 213.56776 215.35099 217.27923 219.32247 221.41770 223.50094
 225.56117 227.64541 229.74264 231.84888 233.97811 236.15035 238.40658 240.77682
 243.39805 245.64929 247.65152 249.41676 250.83399 251.95723 252.77946 253.09570
 253.13293 252.90717 252.26740 251.21564 249.82187 247.98311 245.89234 243.72558
 241.51682 239.32105 237.14129 234.98052 232.84076 230.70799 228.73423 226.89146
 225.17470 223.64693 222.27717 221.04940 219.93164 218.89187 217.99611 217.13734
 216.37958 215.55981 214.65805 214.02228 213.47252 214.03851 215.40201 216.86078
 218.64056 220.43036 222.21912 223.52287 224.49564 225.73782 227.55721 228.06300
 228.91817 230.81718 233.98677 238.15312 242.61841 247.05887 251.32903 255.25351
 258.75546 261.92712 264.89160 267.59683 269.97299 271.87711 273.23422 274.49713
 276.23785 277.74847 279.18307 280.54779 281.75406 282.85254 283.94397 284.93274
 285.82205 286.61395 287.30576 288.18738
 366.78100 356.33418 345.76536 334.63053 323.03271 311.22589 299.09507 286.89725
 274.60842 262.50460 250.51278 239.81296 229.93414 221.03731 213.21849 206.21967
 200.05285 194.99003 191.57121 189.61238 188.64856 188.71174 189.54592 190.85310
 192.57727 194.67145 196.93363 199.29181 201.73599 204.21516 206.30234 208.14352
 209.76870 210.91288 211.14105 211.36823 211.30441 211.00859 210.64077 210.26994
 209.88612 209.59530 209.40248 209.26566 209.19283 209.52301 209.90819 210.29637
 211.08855 212.26572 213.51490 215.29708 217.22426 219.26644 221.36062 223.44279
 225.50197 227.58515 229.68133 231.78651 233.91468 236.08586 238.34104 240.71022
 243.33040 245.58057 247.58175 249.34593 250.76211 251.88429 252.70546 253.02064
 253.05682 252.83000 252.18918 251.13635 249.74153 247.90171 245.80989 243.64207
 241.43224 239.23542 237.05460 234.89278 232.75196 230.61814 228.64331 226.79949
 225.08167 223.55285 222.18203 220.95320 219.83438 218.79356 217.89674 217.03692
 216.27809 215.45727 214.55445 213.91763 213.36681 213.98358 215.46371 216.99057
 218.62195 220.46861 222.20560 223.44182 224.44199 225.77266 227.62140 227.90010
 228.79604 230.63930 233.87421 238.10101 242.58812 247.03168 251.29900 255.22864
 258.74573 261.92813 264.86423 267.53662 269.89905 271.82977 273.27222 274.60892
 276.29156 277.92038 279.39957 280.76233 281.96304 283.05521 284.13892 285.15985
 286.07806 286.89575 287.61005 288.52036
 366.78100 356.33581 345.76861 334.63542 323.03923 311.23403 299.10484 286.90865
 274.62146 262.51926 250.52907 239.83088 229.95368 221.05849 213.24130 206.24410
 200.07891 195.01772 191.60052 189.64333 188.68114 188.74595 189.58175 190.89056
 192.61637 194.71217 196.97598 199.33579 201.78159 204.26240 206.35121 208.19402
 209.82082 210.96663 211.19644 211.42524 211.36305 211.06886 210.70266 210.33347
 209.95128 209.66208 209.47089 209.33570 209.26451 209.59631 209.98312 210.37293
 211.16673 212.34554 213.59635 215.38015 217.30896 219.35277 221.44857 223.53238
 225.59319 227.67800 229.77580 231.88261 234.01242 236.18522 238.44203 240.81284
 243.43464 245.68645 247.68926 249.45506 250.87287 251.99668 252.81949 253.13629
 253.17410 252.94891 252.30971 251.25852 249.86533 248.02713 245.93694 243.77075
 241.56255 239.36736 237.18817 235.02798 232.88878 230.75659 228.78340 226.94120
 225.22501 223.69782 222.32862 221.10143 219.98424 218.94505 218.04985 217.19166
 216.43447 215.61527 214.71408 214.07889 213.52969 214.07201 215.39214 217.04271
 218.81053 220.63409 222.36618 223.55284 224.45750 225.73254 227.47406 227.64609
 228.56213 230.41527 233.76018 238.05223 242.57401 247.04048 251.32498 255.28040
 258.81857 261.98969 264.88434 267.51331 269.83301 271.73999 273.21890 274.57626
 276.27908 278.00720 279.53012 280.89499 282.09247 283.17709 284.27042 285.27216
 286.17313 286.97543 287.67633 288.56952
 366.78100 356.33630 345.76960 334.63689 323.04119 311.23649 299.10779 286.91208
 274.62538 262.52368 250.53398 239.83627 229.95957 221.06487 213.24817 206.25146
 200.08676 195.02606 191.60936 189.65266 188.69095 188.75625 189.59255 190.90185
 192.62814 194.72444 196.98874 199.34904 201.79533 204.27663 206.36593 208.20923
 209.83653 210.98282 211.21312 211.44242 211.38072 211.08701 210.72131 210.35261
 209.97091 209.68220 209.49150 209.35680 209.28610 209.61839 210.00569 210.39599
 211.19029 212.36959 213.62088 215.40518 217.33448 219.37878 221.47507 223.55937
 225.62067 227.70597 229.80426 231.91156 234.04186 236.21516 238.47245 240.84375
 243.46605 245.71835 247.72165 249.48794 250.90624 252.03054 252.85384 253.17113
 253.20943 252.98473 252.34603 251.29532 249.90262 248.06492 245.97522 243.80952
 241.60181 239.40711 237.22841 235.06871 232.93000 230.79830 228.82560 226.98390
 225.26819 223.74149 222.37279 221.14609 220.02938 218.99068 218.09598 217.23828
 216.48158 215.66287 214.76217 214.12747 213.57877 214.11591 215.42284 216.96413
 218.92946 220.92105 222.69171 223.78407 224.55345 225.73524 227.32542 227.48073
 228.34453 230.12711 233.59349 237.94704 242.51108 247.00552 251.30638 255.27242
 258.81689 261.98956 264.89822 267.52045 269.82816 271.74341 273.28049 274.70718
 276.43381 278.15143 279.69928 281.07590 282.29596 283.46213 284.57230 285.57800
 286.48254 287.28802 287.99170 288.88843
 366.78100 356.33512 345.76724 334.63336 323.03648 311.23060 299.10072 286.90384
 274.61596 262.51308 250.52220 239.82332 229.94545 221.04957 213.23169 206.23381
 200.06793 195.00605 191.58817 189.63029 188.66741 188.73153 189.56665 190.87477
 192.59989 194.69501 196.95813 199.31725 201.76237 204.24249 206.33061 208.17273
 209.79885 210.94397 211.17310 211.40122 211.33834 211.04346 210.67658 210.30670
 209.92382 209.63394 209.44206 209.30618 209.23430 209.56542 209.95154 210.34066
 211.13378 212.31190 213.56202 215.34514 217.27326 219.31638 221.41150 223.49462
 225.55474 227.63887 229.73599 231.84211 233.97123 236.14335 238.39947 240.76959
 243.39071 245.64183 247.64395 249.40907 250.82619 251.94931 252.77143 253.08755
 253.12467 252.89879 252.25891 251.20703 249.81315 247.97427 245.88339 243.71652
 241.50764 239.31176 237.13188 234.97100 232.83112 230.69824 228.72436 226.88148
 225.16460 223.63672 222.26684 221.03896 219.92108 218.88120 217.98532 217.12644
 216.36856 215.54868 214.64680 214.01092 213.46104 214.07222 215.53214 216.90802
 218.90254 221.13156 222.89035 223.91531 224.65553 225.82469 227.37703 227.33134
 228.08401 229.81639 233.41489 237.81497 242.40640 246.89937 251.18286 255.12643
 258.66522 261.85965 264.79160 267.43802 269.78705 271.79184 273.45691 274.93048
 276.60196 278.32727 279.87695 281.25095 282.47131 283.60001 284.68930 285.67612
 286.56366 287.35403 288.04446 288.92438
 366.78100 356.33352 345.76404 334.62856 323.03007 311.22259 299.09111 286.89263
 274.60315 262.49867 250.50618 239.80570 229.92622 221.02874 213.20926 206.20978
 200.04229 194.97881 191.55933 189.59985 188.63537 188.69789 189.53141 190.83792
 192.56144 194.65496 196.91648 199.27400 201.71752 204.19603 206.28255 208.12307
 209.74759 210.89111 211.11863 211.34514 211.28066 210.98418 210.61570 210.24422
 209.85974 209.56826 209.37477 209.23729 209.16381 209.49333 209.87785 210.26537
 211.05688 212.23340 213.48192 215.26344 217.18996 219.23148 221.32499 223.40651
 225.46503 227.54755 229.64307 231.74759 233.87511 236.04562 238.30014 240.66866
 243.28818 245.53770 247.53822 249.30173 250.71725 251.83877 252.65929 252.97381
 253.00933 252.78184 252.14036 251.08688 249.69140 247.85092 245.75844 243.58996
 241.37947 239.18199 237.00051 234.83803 232.69655 230.56207 228.58658 226.74210
 225.02362 223.49414 222.12266 220.89318 219.77369 218.73221 217.83473 216.97425
 216.21477 215.39329 214.48981 213.85232 213.30084 213.99631 215.64328 216.96115
 218.79874 221.11180 222.91754 223.99294 224.77818 225.95357 227.50993 227.17958
 227.87326 229.59801 233.31187 237.73149 242.34286 246.82906 251.09572 255.02156
 258.55078 261.73502 264.64270 267.27704 269.63776 271.71967 273.51495 275.11514
 276.72827 278.43011 279.97342 281.34143 282.54105 283.62338 284.65482 285.61523
 286.47903 287.24826 287.92023 288.77658
 366.78100 356.33222 345.76144 334.62466 323.02489 311.21611 299.08333 286.88355
 274.59277 262.48699 250.49321 239.79144 229.91066 221.01188 213.19110 206.19032
 200.02154 194.95676 191.53599 189.57521 188.60943 188.67065 189.50287 190.80809
 192.53031 194.62254 196.88276 199.23898 201.68120 204.15842 206.24364 208.08286
 209.70609 210.84831 211.07453 211.29975 211.23397 210.93619 210.56641 210.19364
 209.80786 209.51508 209.32030 209.18152 209.10674 209.43496 209.81819 210.20441
 210.99463 212.16985 213.41707 215.19729 217.12251 219.16274 221.25496 223.33518
 225.39240 227.47362 229.56784 231.67106 233.79729 235.96651 238.21973 240.58695
 243.20517 245.45339 247.45261 249.21484 250.62906 251.74928 252.56850 252.88172
 252.91594 252.68716 252.04439 250.98961 249.59283 247.75105 245.65727 243.48749
 241.27571 239.07694 236.89416 234.73038 232.58760 230.45182 228.47504 226.62926
 224.90949 223.37871 222.00593 220.77515 219.65437 218.61159 217.71281 216.85104
 216.09026 215.26748 214.36270 213.72392 213.17114 213.93091 215.72711 217.08160
 218.77061 221.07721 222.95599 224.08653 224.91792 226.09421 227.59743 227.06015
 227.65773 229.42838 233.23802 237.67204 242.30008 246.78526 251.04405 254.96658
 258.49542 261.66956 264.55289 267.16962 269.52850 271.64078 273.50287 275.18130
 276.82410 278.50119 280.04617 281.41580 282.61716 283.69583 284.69510 285.68860
 286.58484 287.38297 288.08017 288.96869
 366.78100 356.33270 345.76240 334.62610 323.02680 311.21850 299.08620 286.88690
 274.59661 262.49131 250.49801 239.79671 229.91641 221.01811 213.19781 206.19751
 200.02921 194.96491 191.54461 189.58431 188.61901 188.68071 189.51342 190.81912
 192.54182 194.63452 196.89522 199.25192 201.69462 204.17232 206.25802 208.09772
 209.72142 210.86412 211.09082 211.31652 211.25123 210.95393 210.58463 210.21233
 209.82703 209.53473 209.34043 209.20213 209.12783 209.45653 209.84023 210.22693
 211.01763 212.19333 213.44104 215.22174 217.14744 219.18814 221.28084 223.36154
 225.41924 227.50094 229.59564 231.69934 233.82604 235.99574 238.24944 240.61714
 243.23585 245.48455 247.48425 249.24695 250.66165 251.78235 252.60205 252.91575
 252.95045 252.72215 252.07985 251.02555 249.62925 247.78795 245.69465 243.52536
 241.31406 239.11576 236.93346 234.77016 232.62786 230.49256 228.51626 226.67096
 224.95166 223.42136 222.04906 220.81876 219.69846 218.65617 217.75787 216.89657
 216.13627 215.31397 214.40967 213.77137 213.21907 213.95981 215.71629 217.18236
 218.82611 221.08644 223.00464 224.15544 225.03517 226.17635 227.58160 226.94960
 227.46066 229.30429 233.16678 237.61426 242.25217 246.73253 250.98099 254.90446
 258.44223 261.62064 264.49548 267.10129 269.46344 271.59561 273.49478 275.23013
 276.89240 278.55615 280.09534 281.46286 282.65631 283.73602 284.73688 285.71674
 286.61072 287.40683 288.10226 288.98856
 366.78100 356.33326 345.76352 334.62777 323.02903 311.22129 299.08955 286.89080
 274.60106 262.49632 250.50358 239.80283 229.92309 221.02535 213.20561 206.20586
 200.03812 194.97438 191.55464 189.59490 188.63015 188.69241 189.52567 190.83193
 192.55518 194.64844 196.90970 199.26696 201.71021 204.18847 206.27473 208.11499
 209.73924 210.88250 211.10976 211.33602 211.27128 210.97453 210.60579 210.23405
 209.84931 209.55756 209.36382 209.22608 209.15234 209.48159 209.86585 210.25311
 211.04437 212.22062 213.46888 215.25014 217.17640 219.21766 221.31091 223.39217
 225.45043 227.53269 229.62794 231.73220 233.85946 236.02972 238.28397 240.65223
 243.27149 245.52075 247.52100 249.28426 250.69952 251.82078 252.64104 252.95529
 252.99055 252.76281 252.12107 251.06732 249.67158 247.83084 245.73810 243.56935
 241.35861 239.16087 236.97913 234.81638 232.67464 230.53990 228.56416 226.71942
 225.00067 223.47093 222.09919 220.86945 219.74970 218.70796 217.81022 216.94948
 216.18973 215.36799 214.46425 213.82651 213.27477 213.99883 215.72032 217.24548
 218.89740 221.07370 222.95493 224.16518 225.12923 226.25735 227.57123 226.95042
 227.33418 229.24608 233.12392 237.56894 242.21294 246.68716 250.92972 254.86142
 258.41589 261.60291 264.47192 267.06723 269.42172 271.55643 273.46313 275.23169
 276.93567 278.60861 280.15463 281.52393 282.72403 283.80997 284.83289 285.80270
 286.67493 287.45166 288.13022 288.99493
 366.78100 356.33374 345.76449 334.62923 323.03098 311.22372 299.09247 286.89421
 274.60496 262.50070 250.50845 239.80819 229.92894 221.03168 213.21243 206.21317
 200.04592 194.98266 191.56341 189.60415 188.63990 188.70264 189.53639 190.84313
 192.56688 194.66062 196.92237 199.28011 201.72386 204.20260 206.28935 208.13009
 209.75484 210.89858 211.12633 211.35307 211.28882 210.99256 210.62430 210.25305
 209.86879 209.57754 209.38428 209.24703 209.17377 209.50352 209.88826 210.27601
 211.06775 212.24450 213.49324 215.27499 217.20173 219.24348 221.33722 223.41897
 225.47771 227.56046 229.65620 231.76095 233.88869 236.05944 238.31418 240.68293
 243.30267 245.55242 247.55316 249.31691 250.73265 251.85440 252.67514 252.98989
 253.02563 252.79838 252.15712 251.10386 249.70861 247.86835 245.77610 243.60784
 241.39759 239.20033 237.01908 234.85682 232.71557 230.58131 228.60606 226.76180
 225.04355 223.51429 222.14304 220.91378 219.79453 218.75327 217.85602 216.99576
 216.23651 215.41525 214.51200 213.87474 213.32349 214.03398 215.73544 217.35521
 219.00290 220.98189 222.82146 224.13527 225.19531 226.34386 227.44563 227.14993
 227.32961 229.30209 233.09392 237.54848 242.18727 246.65933 250.89772 254.84036
 258.41559 261.61566 264.47882 267.06747 269.41760 271.53989 273.43433 275.17722
 276.93091 278.65021 280.20374 281.58023 282.79385 283.89725 284.96768 285.93744
 286.80963 287.58633 288.26483 289.12949
 366.78100 356.33613 345.76926 334.63639 323.04053 311.23566 299.10679 286.91092
 274.62405 262.52218 250.53231 239.83445 229.95758 221.06271 213.24584 206.24897
 200.08410 195.02324 191.60637 189.64950 188.68763 188.75276 189.58889 190.89802
 192.62416 194.72029 196.98442 199.34455 201.79068 204.27181 206.36094 208.20408
 209.83121 210.97734 211.20747 211.43660 211.37473 211.08087 210.71500 210.34613
 209.96426 209.67539 209.48452 209.34965 209.27879 209.61092 209.99805 210.38818
 211.18231 212.36144 213.61257 215.39671 217.32584 219.36997 221.46610 223.55023
 225.61136 227.69649 229.79463 231.90176 234.03189 236.20502 238.46215 240.83328
 243.45542 245.70755 247.71068 249.47681 250.89494 252.01907 252.84220 253.15934
 253.19747 252.97260 252.33373 251.28286 249.88999 248.05212 245.96226 243.79639
 241.58852 239.39365 237.21478 235.05491 232.91605 230.78418 228.81131 226.96944
 225.25357 223.72670 222.35783 221.13097 220.01410 218.97523 218.08036 217.22249
 216.46562 215.64675 214.74589 214.11102 213.56215 214.17154 215.66676 217.40958
 219.22949 221.12494 222.86658 224.14745 225.20923 226.33806 227.26654 227.12814
 227.27852 229.31961 233.07979 237.55727 242.18211 246.65677 250.90338 254.87137
 258.48608 261.71057 264.57486 267.16016 269.51212 271.63937 273.51028 275.22128
 276.96487 278.71182 280.27487 281.66626 282.92505 284.12158 285.21326 286.20221
 287.09167 287.88376 288.57571 289.45752
 366.78100 356.33786 345.77272 334.64159 323.04745 311.24431 299.11717 286.92303
 274.63790 262.53776 250.54962 239.85348 229.97834 221.08521 213.27007 206.27493
 200.11179 195.05265 191.63752 189.68238 188.72224 188.78910 189.62696 190.93783
 192.66569 194.76355 197.02941 199.39127 201.83914 204.32200 206.41286 208.25772
 209.88658 211.03445 211.26631 211.49717 211.43703 211.14489 210.78076 210.41362
 210.03348 209.74634 209.55720 209.42407 209.35493 209.68879 210.07765 210.46951
 211.26538 212.44624 213.69910 215.48496 217.41582 219.46169 221.55955 223.64541
 225.70827 227.79513 229.89500 232.00386 234.13572 236.31058 238.56944 240.94231
 243.56617 245.82003 247.82489 249.59275 251.01262 252.13848 252.96334 253.28220
 253.32206 253.09893 252.46179 251.41265 250.02151 248.18537 246.09724 243.93310
 241.72696 239.53382 237.35668 235.19855 233.06141 230.93127 228.96013 227.11999
 225.40586 223.88072 222.51358 221.28844 220.17330 219.13617 218.24303 217.38689
 216.63175 215.81461 214.91547 214.28234 213.73520 214.28214 215.63596 217.36580
 219.32233 221.35109 223.00342 224.14697 225.15689 226.28415 227.18697 226.93292
 227.09892 229.18047 233.00237 237.52718 242.16304 246.64359 250.90140 254.89896
 258.56366 261.84116 264.73273 267.33038 269.70154 271.86896 273.76489 275.41867
 277.05930 278.77057 280.32932 281.71738 282.98026 284.18182 285.27811 286.27124
 287.16446 287.95987 288.65475 289.54025
 366.78100 356.33715 345.77130 334.63946 323.04461 311.24076 299.11291 286.91807
 274.63222 262.53137 250.54252 239.84568 229.96983 221.07598 213.26013 206.26428
 200.10044 195.04059 191.62474 189.66889 188.70805 188.77420 189.61135 190.92150
 192.64866 194.74581 197.01096 199.37211 201.81926 204.30142 206.39157 208.23572
 209.86387 211.01103 211.24218 211.47233 211.41148 211.11864 210.75379 210.38594
 210.00509 209.71724 209.52740 209.39355 209.32370 209.65685 210.04501 210.43616
 211.23131 212.41146 213.66362 215.44877 217.37892 219.42407 221.52122 223.60638
 225.66853 227.75468 229.85383 231.96199 234.09314 236.26729 238.52544 240.89760
 243.52075 245.77390 247.77805 249.54520 250.96436 252.08951 252.91366 253.23181
 253.27097 253.04712 252.40927 251.35942 249.96758 248.13073 246.04188 243.87703
 241.67018 239.47634 237.29849 235.13964 233.00179 230.87095 228.89910 227.05825
 225.34340 223.81756 222.44971 221.22386 220.10801 219.07016 218.17632 217.31947
 216.56362 215.74577 214.84593 214.21208 213.66423 214.25818 215.69688 217.39978
 219.18198 221.28484 223.07547 224.18300 225.15160 226.28996 227.33876 226.69196
 226.89061 228.96262 232.88382 237.42616 242.05840 246.52826 250.78673 254.79199
 258.47110 261.77765 264.71262 267.34686 269.76584 272.00458 273.98322 275.66635
 277.22290 278.83502 280.36789 281.73904 282.93854 284.02954 285.09763 286.07510
 286.95425 287.73712 288.42102 289.29257
 366.78100 356.33594 345.76888 334.63582 323.03976 311.23470 299.10563 286.90957
 274.62251 262.52045 250.53039 239.83233 229.95527 221.06021 213.24315 206.24609
 200.08103 195.01996 191.60290 189.64584 188.68378 188.74872 189.58466 190.89360
 192.61954 194.71548 196.97942 199.33936 201.78529 204.26623 206.35517 208.19811
 209.82505 210.97099 211.20093 211.42987 211.36781 211.07375 210.70768 210.33862
 209.95656 209.66750 209.47644 209.34138 209.27032 209.60226 209.98920 210.37914
 211.17308 212.35201 213.60295 215.38689 217.31583 219.35977 221.45571 223.53965
 225.60059 227.68553 229.78347 231.89041 234.02034 236.19328 238.45022 240.82116
 243.44310 245.69504 247.69798 249.46392 250.88186 252.00580 252.82874 253.14567
 253.18361 252.95855 252.31949 251.26843 249.87537 248.03731 245.94725 243.78119
 241.57313 239.37807 237.19900 235.03894 232.89988 230.76782 228.79476 226.95270
 225.23664 223.70958 222.34052 221.11346 219.99640 218.95733 218.06227 217.20421
 216.44715 215.62809 214.72703 214.09197 213.54291 214.19855 215.75954 217.51553
 219.22539 221.23936 223.13994 224.29732 225.26968 226.37794 227.44112 226.56131
 226.78949 228.82532 232.77849 237.31276 241.94075 246.38583 250.63470 254.64304
 258.32361 261.63141 264.57755 267.23819 269.69275 271.96423 273.98318 275.74139
 277.32806 278.88809 280.39261 281.75558 282.94394 284.00735 284.98935 285.88809
 286.71262 287.44687 288.08829 288.90570
 366.78100 356.33524 345.76749 334.63373 323.03698 311.23122 299.10147 286.90471
 274.61695 262.51420 250.52344 239.82469 229.94693 221.05117 213.23342 206.23566
 200.06991 195.00815 191.59040 189.63264 188.66988 188.73413 189.56937 190.87762
 192.60286 194.69810 196.96135 199.32059 201.76584 204.24608 206.33433 208.17657
 209.80281 210.94806 211.17730 211.40555 211.34279 211.04804 210.68128 210.31152
 209.92877 209.63901 209.44726 209.31150 209.23974 209.57099 209.95723 210.34648
 211.13972 212.31797 213.56821 215.35145 217.27970 219.32294 221.41819 223.50143
 225.56167 227.64592 229.74316 231.84941 233.97865 236.15090 238.40714 240.77738
 243.39863 245.64987 247.65212 249.41736 250.83461 251.95785 252.78009 253.09634
 253.13358 252.90783 252.26807 251.21631 249.82256 247.98380 245.89305 243.72629
 241.51754 239.32178 237.14202 234.98127 232.84151 230.70876 228.73500 226.89224
 225.17549 223.64773 222.27798 221.05022 219.93247 218.89271 217.99695 217.13820
 216.38044 215.56069 214.65893 214.02317 213.47342 214.16582 215.80170 217.59944
 219.37860 221.25235 223.05981 224.32298 225.35880 226.45804 227.44908 226.67654
 226.81396 228.89388 232.76593 237.26001 241.84633 246.27312 250.52119 254.54631
 258.24722 261.56406 264.50397 267.16928 269.64099 271.93448 273.96631 275.73914
 277.36472 278.90475 280.37766 281.73410 282.92053 283.97751 284.94897 285.82773
 286.60504 287.29337 287.90015 288.67343
 366.78100 356.33545 345.76790 334.63435 323.03781 311.23226 299.10271 286.90616
 274.61861 262.51606 250.52551 239.82697 229.94942 221.05387 213.23632 206.23877
 200.07322 195.01167 191.59413 189.63658 188.67403 188.73848 189.57393 190.88238
 192.60783 194.70329 196.96674 199.32619 201.77164 204.25209 206.34054 208.18299
 209.80944 210.95490 211.18435 211.41280 211.35025 211.05570 210.68915 210.31960
 209.93706 209.64751 209.45596 209.32041 209.24886 209.58031 209.96676 210.35622
 211.14967 212.32812 213.57857 215.36202 217.29047 219.33392 221.42938 223.51283
 225.57328 227.65773 229.75518 231.86163 233.99108 236.16354 238.41999 240.79044
 243.41189 245.66334 247.66579 249.43124 250.84870 251.97215 252.79460 253.11105
 253.14850 252.92295 252.28340 251.23186 249.83831 247.99976 245.90921 243.74266
 241.53411 239.33856 237.15902 234.99847 232.85892 230.72637 228.75282 226.91027
 225.19372 223.66618 222.29663 221.06908 219.95153 218.91198 218.01643 217.15788
 216.40033 215.58079 214.67924 214.04369 213.49414 214.18246 215.80869 217.68390
 219.51755 221.29109 222.94289 224.25728 225.36464 226.50230 227.46362 226.78314
 226.78960 228.89214 232.74115 237.22653 241.76814 246.18335 250.43190 254.45915
 258.16779 261.49768 264.45428 267.13745 269.63480 271.95825 273.97681 275.72546
 277.35898 278.88467 280.33102 281.68265 282.86713 283.92072 284.88626 285.75577
 286.51471 287.17276 287.76749 288.54306
 366.78100 356.33645 345.76990 334.63736 323.04181 311.23726 299.10871 286.91317
 274.62662 262.52507 250.53552 239.83797 229.96143 221.06688 213.25033 206.25378
 200.08924 195.02869 191.61214 189.65559 188.69404 188.75950 189.59595 190.90540
 192.63185 194.72831 196.99276 199.35321 201.79966 204.28111 206.37057 208.21402
 209.84147 210.98792 211.21838 211.44783 211.38628 211.09273 210.72718 210.35864
 209.97709 209.68854 209.49799 209.36345 209.29290 209.62535 210.01280 210.40325
 211.19771 212.37716 213.62861 215.41306 217.34252 219.38697 221.48342 223.56787
 225.62932 227.71478 229.81323 231.92068 234.05113 236.22459 238.48204 240.85349
 243.47594 245.72839 247.73185 249.49830 250.91675 252.04120 252.86466 253.18211
 253.22056 252.99601 252.35747 251.30692 249.91437 248.07682 245.98727 243.82173
 241.61418 239.41963 237.24108 235.08154 232.94299 230.81144 228.83889 226.99734
 225.28180 223.75525 222.38670 221.16015 220.04361 219.00506 218.11051 217.25296
 216.49641 215.67787 214.77732 214.14277 213.59422 214.24312 215.77617 217.76570
 219.61447 221.31033 222.84700 224.15129 225.30873 226.52464 227.50468 226.88733
 226.81966 228.86018 232.72554 237.20589 241.70811 246.10246 250.35007 254.38530
 258.10934 261.45306 264.42081 267.11600 269.63358 271.97537 273.98538 275.72128
 277.35577 278.88397 280.29056 281.61923 282.80045 283.85236 284.81879 285.68539
 286.44131 287.07059 287.65894 288.44403
 366.78100 356.33799 345.77298 334.64197 323.04796 311.24496 299.11795 286.92394
 274.63893 262.53892 250.55091 239.85490 229.97989 221.08689 213.27188 206.27687
 200.11386 195.05485 191.63984 189.68483 188.72482 188.79182 189.62981 190.94080
 192.66879 194.76678 197.03277 199.39476 201.84275 204.32575 206.41674 208.26173
 209.89072 211.03871 211.27070 211.50169 211.44168 211.14968 210.78567 210.41866
 210.03865 209.75164 209.56263 209.42962 209.36061 209.69461 210.08360 210.47559
 211.27158 212.45257 213.70556 215.49155 217.42254 219.46854 221.56653 223.65252
 225.71551 227.80250 229.90249 232.01148 234.14347 236.31847 238.57746 240.95045
 243.57444 245.82843 247.83342 249.60141 251.02140 252.14739 252.97239 253.29138
 253.33137 253.10836 252.47135 251.42234 250.03133 248.19532 246.10732 243.94331
 241.73730 239.54429 237.36728 235.20927 233.07226 230.94225 228.97125 227.13124
 225.41723 223.89222 222.52521 221.30020 220.18519 219.14818 218.25518 217.39917
 216.64416 215.82715 214.92814 214.29513 213.74812 214.33249 215.71312 217.84660
 219.73727 221.31526 222.74913 224.02797 225.23158 226.51904 227.54358 226.99321
 226.89215 228.86919 232.72034 237.18987 241.65398 246.01892 250.26556 254.31091
 258.05237 261.41565 264.40451 267.11627 269.64957 272.00153 274.00400 275.72635
 277.35947 278.89072 280.26434 281.56454 282.74042 283.79080 284.75522 285.62323
 286.38312 287.01709 287.60718 288.39410
 366.78100 356.33951 345.77602 334.64653 323.05405 311.25256 299.12707 286.93458
 274.65109 262.55260 250.56612 239.87163 229.99814 221.10665 213.29316 206.29967
 200.13819 195.08070 191.66721 189.71372 188.75523 188.82374 189.66326 190.97577
 192.70528 194.80479 197.07230 199.43581 201.88533 204.36984 206.46235 208.30886
 209.93937 211.08888 211.32239 211.55491 211.49642 211.20593 210.84344 210.47795
 210.09946 209.81398 209.62649 209.49500 209.42751 209.76302 210.15353 210.54705
 211.34456 212.52707 213.78158 215.56909 217.50160 219.54912 221.64863 223.73614
 225.80065 227.88916 229.99067 232.10119 234.23470 236.41121 238.67172 241.04623
 243.67174 245.92726 247.93377 249.70328 251.12479 252.25230 253.07881 253.39932
 253.44084 253.21935 252.58386 251.53637 250.14688 248.31239 246.22591 244.06342
 241.85893 239.66744 237.49195 235.33546 233.19998 231.07149 229.10200 227.26351
 225.55102 224.02753 222.66205 221.43856 220.32507 219.28958 218.39809 217.54360
 216.79012 215.97463 215.07714 214.44565 213.90016 214.42299 215.65820 217.88095
 219.90759 221.35358 222.65364 223.87950 225.11188 226.47763 227.57106 227.12608
 226.96751 228.83743 232.70877 237.19864 241.61699 245.95198 250.19576 254.24554
 257.99625 261.37515 264.38644 267.12250 269.67838 272.04413 274.04211 275.74850
 277.36557 278.88858 280.25180 281.51169 282.67953 283.72632 284.68976 285.55795
 286.32916 287.00064 287.59515 288.38489
 366.78100 356.34035 345.77771 334.64906 323.05741 311.25677 299.13212 286.94047
 274.65783 262.56018 250.57453 239.88089 230.00824 221.11759 213.30495 206.31230
 200.15166 195.09501 191.68236 189.72972 188.77207 188.84142 189.68178 190.99513
 192.72548 194.82584 197.09419 199.45854 201.90890 204.39425 206.48760 208.33496
 209.96631 211.11666 211.35102 211.58437 211.52672 211.23708 210.87543 210.51078
 210.13314 209.84849 209.66184 209.53120 209.46455 209.80091 210.19226 210.58661
 211.38497 212.56832 213.82367 215.61203 217.54538 219.59373 221.69409 223.78244
 225.84779 227.93715 230.03950 232.15085 234.28521 236.46256 238.72391 241.09927
 243.72562 245.98197 247.98933 249.75968 251.18203 252.31039 253.13774 253.45909
 253.50145 253.28080 252.64615 251.59951 250.21086 248.37722 246.29157 244.12992
 241.92628 239.73563 237.56098 235.40534 233.27069 231.14304 229.17440 227.33675
 225.62510 224.10246 222.73781 221.51516 220.40252 219.36787 218.47722 217.62358
 216.87093 216.05628 215.15964 214.52899 213.98434 214.47987 215.65060 217.87149
 220.02991 221.46098 222.62654 223.71526 224.92969 226.37708 227.57625 227.26268
 227.05524 228.80936 232.70052 237.22673 241.60191 245.90004 250.14439 254.20558
 257.97562 261.37457 264.39908 267.14285 269.70529 272.07678 274.06332 275.75775
 277.36703 278.87961 280.23822 281.47266 282.63608 283.68497 284.65222 285.52603
 286.30621 286.99194 287.59393 288.39200
 366.78100 356.33906 345.77512 334.64518 323.05224 311.25029 299.12435 286.93141
 274.64747 262.54853 250.56159 239.86665 229.99271 221.10077 213.28682 206.29288
 200.13094 195.07300 191.65906 189.70512 188.74618 188.81424 189.65330 190.96535
 192.69441 194.79347 197.06053 199.42359 201.87265 204.35671 206.44877 208.29483
 209.92488 211.07394 211.30700 211.53906 211.48012 211.18918 210.82624 210.46030
 210.08136 209.79541 209.60747 209.47553 209.40759 209.74265 210.13271 210.52577
 211.32283 212.50489 213.75894 215.54600 217.47806 219.52512 221.62418 223.71124
 225.77530 227.86336 229.96442 232.07447 234.20753 236.38359 238.64365 241.01771
 243.64277 245.89783 247.90389 249.67295 251.09400 252.22106 253.04712 253.36718
 253.40824 253.18630 252.55036 251.50242 250.11248 248.27753 246.19059 244.02765
 241.82271 239.63077 237.45483 235.29789 233.16195 231.03301 229.06306 227.22412
 225.51118 223.98724 222.62130 221.39736 220.28342 219.24748 218.35554 217.50059
 216.74665 215.93071 215.03277 214.40083 213.85489 214.42413 215.76903 217.81891
 220.04539 221.57507 222.65520 223.65762 224.83121 226.27840 227.52242 227.28821
 227.06137 228.76268 232.68510 237.25148 241.60054 245.87234 250.11623 254.19611
 257.99957 261.43237 264.47250 267.20386 269.73550 272.08014 274.02994 275.69827
 277.31940 278.84467 280.20966 281.42737 282.58459 283.62943 284.58087 285.45041
 286.24377 286.94650 287.55740 288.36353
 366.78100 356.33776 345.77253 334.64129 323.04705 311.24382 299.11658 286.92234
 274.63711 262.53687 250.54863 239.85240 229.97716 221.08392 213.26869 206.27345
 200.11021 195.05098 191.63574 189.68050 188.72027 188.78703 189.62480 190.93556
 192.66332 194.76109 197.02685 199.38861 201.83638 204.31914 206.40990 208.25467
 209.88343 211.03119 211.26296 211.49372 211.43348 211.14125 210.77701 210.40977
 210.02954 209.74230 209.55306 209.41983 209.35059 209.68435 210.07312 210.46488
 211.26064 212.44141 213.69417 215.47993 217.41070 219.45646 221.55422 223.63999
 225.70275 227.78951 229.88928 231.99804 234.12981 236.30457 238.56333 240.93610
 243.55986 245.81362 247.81839 249.58615 251.00591 252.13168 252.95644 253.27520
 253.31497 253.09173 252.45449 251.40526 250.01402 248.17778 246.08955 243.92531
 241.71907 239.52584 237.34860 235.19036 233.05313 230.92289 228.95165 227.11142
 225.39718 223.87194 222.50471 221.27947 220.16423 219.12700 218.23376 217.37752
 216.62229 215.80505 214.90581 214.27258 213.72534 214.36469 215.87517 217.80470
 220.04370 221.55530 222.69305 223.76314 224.88066 226.23380 227.43027 227.20117
 226.97346 228.68793 232.66498 237.27022 241.60060 245.84476 250.09282 254.18936
 258.01590 261.47552 264.53644 267.26981 269.78302 272.09360 273.99548 275.61966
 277.23093 278.76703 280.14240 281.36734 282.52573 283.56931 284.52319 285.39291
 286.19046 286.90323 287.51682 288.32806
 366.78100 356.33972 345.77645 334.64717 323.05489 311.25362 299.12834 286.93606
 274.65278 262.55451 250.56823 239.87395 230.00068 221.10940 213.29612 206.30285
 200.14157 195.08429 191.67102 189.71774 188.75946 188.82819 189.66791 190.98063
 192.71035 194.81008 197.07780 199.44152 201.89125 204.37597 206.46869 208.31542
 209.94614 211.09586 211.32959 211.56231 211.50403 211.21375 210.85148 210.48620
 210.10792 209.82265 209.63537 209.50409 209.43682 209.77254 210.16326 210.55699
 211.35471 212.53743 213.79216 215.57988 217.51260 219.56032 221.66005 223.74777
 225.81249 227.90122 230.00294 232.11366 234.24739 236.42411 238.68483 241.05956
 243.68528 245.94100 247.94772 249.71745 251.13917 252.26689 253.09362 253.41434
 253.45606 253.23479 252.59951 251.55223 250.16296 248.32868 246.24240 244.08013
 241.87585 239.68457 237.50929 235.35302 233.21774 231.08946 229.12019 227.28191
 225.56963 224.04636 222.68108 221.45780 220.34453 219.30925 218.41797 217.56369
 216.81042 215.99514 215.09786 214.46659 213.92131 214.47192 215.77280 217.92470
 220.10385 221.48146 222.69241 223.78687 224.86363 226.20255 227.41417 227.23969
 226.99057 228.65385 232.65221 237.27679 241.57539 245.77847 250.00925 254.09503
 257.91205 261.37970 264.48425 267.28088 269.84692 272.17505 274.07550 275.66409
 277.21817 278.72360 280.09103 281.32266 282.48056 283.52402 284.48001 285.35400
 286.15109 286.87000 287.48560 288.29678
 366.78100 356.34325 345.78350 334.65774 323.06899 311.27124 299.14949 286.96074
 274.68098 262.58623 250.60348 239.91273 230.04298 221.15522 213.34547 206.35572
 200.19797 195.14422 191.73446 189.78471 188.82996 188.90221 189.74546 191.06170
 192.79495 194.89820 197.16945 199.53670 201.98995 204.47819 206.57444 208.42469
 210.05894 211.21219 211.44943 211.68568 211.63093 211.34418 210.98543 210.62367
 210.24892 209.96717 209.78342 209.65567 209.59191 209.93116 210.32541 210.72266
 211.52391 212.71015 213.96840 215.75965 217.69590 219.74715 221.85039 223.94164
 226.00989 228.10214 230.20739 232.32163 234.45888 236.63913 238.90338 241.28163
 243.91087 246.17012 248.18037 249.95362 251.37887 252.51011 253.34036 253.66461
 253.70986 253.49211 252.86035 251.81660 250.43085 248.60010 246.51735 244.35859
 242.15784 239.97009 237.79834 235.64559 233.51384 231.38908 229.42333 227.58858
 225.87983 224.36008 222.99832 221.77857 220.66882 219.63707 218.74932 217.89856
 217.14881 216.33706 215.44331 214.81556 214.27380 214.66167 215.57803 218.07730
 220.19438 221.51051 222.66994 223.60408 224.64618 226.09192 227.46140 227.47595
 227.20177 228.70248 232.66228 237.30052 241.57417 245.71126 249.89157 253.94466
 257.72815 261.18536 264.33459 267.22153 269.88376 272.27496 274.22028 275.81262
 277.30865 278.75519 280.09073 281.30426 282.45480 283.49747 284.45361 285.32858
 286.12460 286.84460 287.46075 288.27637
 366.78100 356.34491 345.78682 334.66272 323.07563 311.27954 299.15945 286.97235
 274.69426 262.60117 250.62008 239.93099 230.06289 221.17680 213.36871 206.38062
 200.22452 195.17243 191.76434 189.81625 188.86315 188.93706 189.78197 191.09988
 192.83479 194.93969 197.21260 199.58151 202.03642 204.52632 206.62423 208.47614
 210.11205 211.26696 211.50586 211.74377 211.69068 211.40559 211.04849 210.68840
 210.31531 210.03522 209.85312 209.72703 209.66494 210.00585 210.40176 210.80066
 211.60357 212.79148 214.05139 215.84429 217.78220 219.83511 221.94002 224.03293
 226.10283 228.19674 230.30365 232.41956 234.55846 236.74037 239.00628 241.38619
 244.01710 246.27800 248.28991 250.06482 251.49173 252.62463 253.45654 253.78245
 253.82936 253.61326 252.98317 251.94108 250.55699 248.72790 246.64680 244.48971
 242.29062 240.10453 237.93443 235.78334 233.65325 231.53016 229.56607 227.73297
 226.02588 224.50779 223.14770 221.92960 220.82151 219.79142 218.90533 218.05623
 217.30814 216.49805 215.60596 214.97987 214.43977 214.75755 215.50836 218.11584
 220.26538 221.63208 222.69841 223.39110 224.34883 225.87248 227.43460 227.68703
 227.43347 228.78703 232.69054 237.35521 241.64008 245.71155 249.84105 253.87003
 257.63168 261.06982 264.21716 267.13190 269.84052 272.27051 274.25500 275.88586
 277.38272 278.79831 280.10620 281.29453 282.43866 283.48117 284.43826 285.31223
 286.10794 286.82806 287.44479 288.26596
 366.78100 356.34429 345.78558 334.66086 323.07315 311.27644 299.15573 286.96802
 274.68930 262.59559 250.61388 239.92417 230.05546 221.16874 213.36003 206.37132
 200.21461 195.16190 191.75319 189.80447 188.85076 188.92405 189.76834 191.08563
 192.81991 194.92420 197.19649 199.56478 202.01907 204.50835 206.60564 208.45693
 210.09222 211.24651 211.48479 211.72208 211.66837 211.38266 211.02495 210.66423
 210.29052 210.00981 209.82710 209.70039 209.63768 209.97796 210.37325 210.77154
 211.57383 212.76112 214.02040 215.81269 217.74998 219.80227 221.90656 223.99884
 226.06813 228.16142 230.26771 232.38300 234.52128 236.70257 238.96786 241.34715
 243.97744 246.23772 248.24901 250.02330 251.44959 252.58188 253.41317 253.73845
 253.78474 253.56803 252.93732 251.89461 250.50989 248.68018 246.59847 244.44076
 242.24105 240.05433 237.88362 235.73191 233.60120 231.47749 229.51277 227.67906
 225.97135 224.45264 223.09193 221.87321 220.76450 219.73379 218.84708 217.99737
 217.24866 216.43794 215.54523 214.91852 214.37781 214.73680 215.58496 218.03648
 220.31912 221.75836 222.77110 223.29976 224.13773 225.62297 227.29935 227.73587
 227.54350 228.84088 232.71721 237.41391 241.72704 245.79352 249.87273 253.87799
 257.63715 261.06384 264.18256 267.06662 269.75818 272.16986 274.15207 275.82928
 277.37399 278.80167 280.10568 281.28131 282.43103 283.47556 284.43365 285.30865
 286.10492 286.82523 287.44678 288.26782
 366.78100 356.34333 345.78366 334.65799 323.06932 311.27166 299.14999 286.96132
 274.68165 262.58698 250.60431 239.91364 230.04397 221.15630 213.34663 206.35697
 200.19930 195.14563 191.73596 189.78629 188.83162 188.90395 189.74728 191.06361
 192.79695 194.90028 197.17161 199.53894 201.99227 204.48060 206.57693 208.42726
 210.06159 211.21492 211.45226 211.68859 211.63392 211.34725 210.98858 210.62691
 210.25224 209.97057 209.78690 209.65923 209.59557 209.93490 210.32923 210.72656
 211.52789 212.71422 213.97255 215.76388 217.70021 219.75155 221.85488 223.94621
 226.01454 228.10687 230.21220 232.32653 234.46386 236.64419 238.90852 241.28686
 243.91619 246.17552 248.18585 249.95918 251.38451 252.51584 253.34617 253.67050
 253.71584 253.49817 252.86650 251.82283 250.43716 248.60649 246.52382 244.36515
 242.16448 239.97681 237.80515 235.65248 233.52081 231.39614 229.43047 227.59580
 225.88713 224.36746 223.00579 221.78613 220.67646 219.64479 218.75712 217.90645
 217.15678 216.34511 215.45144 214.82377 214.28210 214.69968 215.68623 217.94096
 220.35916 221.84084 222.82668 223.31033 224.04236 225.41745 227.12151 227.68283
 227.56343 228.86380 232.74252 237.47322 241.81464 245.88054 249.92273 253.91173
 257.66525 261.08215 264.17352 267.02307 269.68533 272.06329 274.01224 275.71063
 277.31061 278.76935 280.08243 281.27310 282.43054 283.47836 284.43817 285.31561
 286.11520 286.83694 287.46066 288.28308
 366.78100 356.34317 345.78335 334.65752 323.06870 311.27087 299.14905 286.96022
 274.68040 262.58557 250.60275 239.91192 230.04210 221.15427 213.34444 206.35462
 200.19679 195.14297 191.73314 189.78332 188.82849 188.90067 189.74384 191.06002
 192.79319 194.89637 197.16754 199.53472 201.98789 204.47606 206.57224 208.42241
 210.05659 211.20976 211.44694 211.68311 211.62829 211.34146 210.98264 210.62081
 210.24599 209.96416 209.78033 209.65251 209.58868 209.92786 210.32203 210.71921
 211.52038 212.70656 213.96473 215.75591 217.69208 219.74326 221.84643 223.93761
 226.00578 228.09795 230.20313 232.31730 234.45448 236.63465 238.89883 241.27700
 243.90618 246.16535 248.17553 249.94870 251.37388 252.50505 253.33522 253.65940
 253.70457 253.48675 252.85492 251.81110 250.42527 248.59445 246.51162 244.35280
 242.15197 239.96415 237.79232 235.63950 233.50767 231.38284 229.41702 227.58219
 225.87337 224.35354 222.99172 221.77189 220.66207 219.63024 218.74242 217.89159
 217.14177 216.32994 215.43611 214.80829 214.26646 214.70474 215.74022 217.88834
 220.37845 221.90030 222.84468 223.32999 223.99210 225.25226 226.94995 227.61664
 227.57434 228.88997 232.77341 237.53300 241.89851 245.96127 249.97134 253.93420
 257.67465 261.07489 264.14767 266.98120 269.63416 271.99728 273.90762 275.59894
 277.23383 278.72318 280.04865 281.27475 282.44006 283.48831 284.45117 285.32935
 286.13205 286.85471 287.48349 288.30786
 366.78100 356.34356 345.78412 334.65867 323.07023 311.27279 299.15135 286.96291
 274.68347 262.58902 250.60658 239.91614 230.04670 221.15926 213.34982 206.36037
 200.20293 195.14949 191.74005 189.79061 188.83616 188.90872 189.75228 191.06884
 192.80240 194.90596 197.17751 199.54507 201.99863 204.48719 206.58375 208.43431
 210.06886 211.22242 211.45998 211.69654 211.64210 211.35566 210.99721 210.63577
 210.26133 209.97989 209.79645 209.66900 209.60556 209.94512 210.33968 210.73724
 211.53880 212.72535 213.98391 215.77547 217.71203 219.76359 221.86715 223.95870
 226.02726 228.11982 230.22538 232.33994 234.47749 236.65805 238.92261 241.30117
 243.93073 246.19029 248.20084 249.97440 251.39996 252.53152 253.36208 253.68664
 253.73219 253.51475 252.88331 251.83987 250.45443 248.62399 246.54154 244.38310
 242.18266 239.99522 237.82378 235.67133 233.53989 231.41545 229.45001 227.61557
 225.90713 224.38768 223.02624 221.80680 220.69736 219.66592 218.77848 217.92803
 217.17859 216.36715 215.47371 214.84627 214.30482 214.73811 215.76181 217.86891
 220.37042 221.95836 222.86963 223.33244 223.91631 225.08105 226.77843 227.56715
 227.60779 228.93124 232.81392 237.59898 241.99274 246.05301 250.02197 253.95192
 257.66678 261.04269 264.10077 266.93451 269.59622 271.96368 273.84756 275.51590
 277.16537 278.67691 280.01346 281.28546 282.45764 283.50699 284.47058 285.35062
 286.15604 286.88428 287.51642 288.33881
 366.78100 356.34398 345.78496 334.65994 323.07192 311.27490 299.15388 286.96587
 274.68685 262.59283 250.61081 239.92079 230.05177 221.16475 213.35573 206.36671
 200.20969 195.15667 191.74765 189.79863 188.84462 188.91760 189.76158 191.07856
 192.81254 194.91652 197.18850 199.55648 202.01046 204.49944 206.59642 208.44740
 210.08238 211.23637 211.47435 211.71133 211.65731 211.37129 211.01327 210.65225
 210.27823 209.99721 209.81419 209.68717 209.62415 209.96413 210.35912 210.75710
 211.55908 212.74606 214.00504 215.79702 217.73400 219.78598 221.88996 223.98194
 226.05092 228.14390 230.24988 232.36487 234.50285 236.68383 238.94881 241.32779
 243.95777 246.21775 248.22873 250.00271 251.42869 252.56067 253.39165 253.71663
 253.76262 253.54560 252.91458 251.87156 250.48654 248.65652 246.57450 244.41648
 242.21646 240.02944 237.85842 235.70640 233.57538 231.45136 229.48635 227.65233
 225.94431 224.42529 223.06427 221.84525 220.73623 219.70521 218.81819 217.96817
 217.21915 216.40813 215.51511 214.88810 214.34708 214.77328 215.78021 217.85704
 220.34344 222.00397 222.91211 223.33885 223.83563 224.89392 226.58673 227.49768
 227.64467 229.00116 232.87259 237.67162 242.08972 246.14656 250.08705 253.97758
 257.65860 261.00537 264.04865 266.88684 269.56039 271.93774 273.80566 275.45255
 277.10626 278.63058 279.97299 281.30026 282.48068 283.53146 284.49469 285.37927
 286.18478 286.91302 287.54855 288.37335
 366.78100 356.34424 345.78547 334.66071 323.07295 311.27618 299.15542 286.96765
 274.68889 262.59513 250.61336 239.92360 230.05484 221.16807 213.35931 206.37055
 200.21378 195.16102 191.75225 189.80349 188.84973 188.92296 189.76720 191.08444
 192.81867 194.92291 197.19515 199.56338 202.01762 204.50685 206.60409 208.45533
 210.09056 211.24480 211.48304 211.72027 211.66651 211.38074 211.02298 210.66222
 210.28845 210.00769 209.82493 209.69816 209.63540 209.97564 210.37087 210.76911
 211.57134 212.75858 214.01782 215.81005 217.74729 219.79953 221.90376 223.99600
 226.06524 228.15847 230.26471 232.37994 234.51818 236.69942 238.96465 241.34389
 243.97413 246.23436 248.24560 250.01984 251.44607 252.57831 253.40954 253.73478
 253.78102 253.56425 252.93349 251.89073 250.50596 248.67620 246.59444 244.43667
 242.23691 240.05014 237.87938 235.72762 233.59685 231.47309 229.50833 227.67456
 225.96680 224.44804 223.08727 221.86851 220.75974 219.72898 218.84222 217.99245
 217.24369 216.43293 215.54016 214.91340 214.37263 214.80020 215.81038 217.83879
 220.31107 222.03661 222.96375 223.33841 223.73763 224.71274 226.39197 227.42267
 227.66449 229.04863 232.93629 237.76189 242.21072 246.27254 250.18745 254.02769
 257.65829 260.96475 263.98801 266.82739 269.51062 271.88486 273.74265 275.38272
 277.04462 278.57736 279.96793 281.31470 282.50186 283.55634 284.52371 285.40958
 286.21802 286.94696 287.58362 288.41235
 366.78100 356.34434 345.78567 334.66101 323.07334 311.27668 299.15602 286.96835
 274.68969 262.59602 250.61436 239.92470 230.05603 221.16937 213.36070 206.37204
 200.21538 195.16271 191.75405 189.80538 188.85172 188.92506 189.76939 191.08673
 192.82106 194.92540 197.19774 199.56607 202.02041 204.50974 206.60708 208.45842
 210.09375 211.24809 211.48642 211.72376 211.67010 211.38443 211.02677 210.66610
 210.29244 210.01178 209.82911 209.70245 209.63978 209.98012 210.37546 210.77379
 211.57613 212.76346 214.02280 215.81514 217.75247 219.80481 221.90914 224.00148
 226.07082 228.16415 230.27049 232.38582 234.52416 236.70550 238.97083 241.35017
 243.98050 246.24084 248.25218 250.02651 251.45285 252.58518 253.41652 253.74186
 253.78819 253.57153 252.94086 251.89820 250.51354 248.68387 246.60221 244.44454
 242.24488 240.05822 237.88755 235.73589 233.60522 231.48156 229.51690 227.68323
 225.97557 224.45690 223.09624 221.87757 220.76891 219.73825 218.85158 218.00192
 217.25325 216.44259 215.54993 214.92326 214.38260 214.81953 215.85184 217.81563
 220.27019 222.06525 223.02628 223.35254 223.63496 224.46484 226.14850 227.29124
 227.70955 229.22166 233.04507 237.85057 242.34143 246.41174 250.30209 254.08057
 257.65057 260.91330 263.91483 266.75568 269.44275 271.80615 273.65808 275.30591
 276.98196 278.52853 279.97617 281.33240 282.52023 283.57742 284.54672 285.43463
 286.24225 286.97507 287.61255 288.44342
 366.78100 356.34434 345.78567 334.66101 323.07334 311.27668 299.15602 286.96835
 274.68969 262.59602 250.61436 239.92470 230.05603 221.16937 213.36070 206.37204
 200.21538 195.16271 191.75405 189.80538 188.85172 188.92506 189.76939 191.08673
 192.82106 194.92540 197.19774 199.56607 202.02041 204.50974 206.60708 208.45842
 210.09375 211.24809 211.48642 211.72376 211.67010 211.38443 211.02677 210.66610
 210.29244 210.01178 209.82911 209.70245 209.63978 209.98012 210.37546 210.77379
 211.57613 212.76346 214.02280 215.81514 217.75247 219.80481 221.90914 224.00148
 226.07082 228.16415 230.27049 232.38582 234.52416 236.70550 238.97083 241.35017
 243.98050 246.24084 248.25218 250.02651 251.45285 252.58518 253.41652 253.74186
 253.78819 253.57153 252.94086 251.89820 250.51354 248.68387 246.60221 244.44454
 242.24488 240.05822 237.88755 235.73589 233.60522 231.48156 229.51690 227.68323
 225.97557 224.45690 223.09624 221.87757 220.76891 219.73825 218.85158 218.00192
 217.25325 216.44259 215.54993 214.92326 214.38260 214.83334 215.89825 217.79745
 220.21320 222.08229 223.09515 223.38303 223.54912 224.22685 225.89021 227.09499
 227.71538 229.42630 233.18651 237.94736 242.46855 246.54950 250.40688 254.13058
 257.64575 260.86707 263.84854 266.68793 269.37369 271.72531 273.57391 275.23370
 276.92328 278.47348 279.99307 281.36084 282.54987 283.60818 284.57956 285.46790
 286.27942 287.01300 287.65506 288.49985
 366.78100 356.34430 345.78560 334.66090 323.07321 311.27651 299.15581 286.96811
 274.68941 262.59571 250.61402 239.92432 230.05562 221.16892 213.36022 206.37152
 200.21483 195.16213 191.75343 189.80473 188.85103 188.92433 189.76864 191.08594
 192.82024 194.92454 197.19684 199.56514 202.01945 204.50875 206.60605 208.45735
 210.09265 211.24695 211.48526 211.72256 211.66886 211.38316 211.02546 210.66476
 210.29107 210.01037 209.82767 209.70097 209.63827 209.97857 210.37388 210.77218
 211.57448 212.76178 214.02108 215.81338 217.75069 219.80299 221.90729 223.99959
 226.06889 228.16219 230.26850 232.38380 234.52210 236.70340 238.96870 241.34800
 243.97831 246.23861 248.24991 250.02421 251.45051 252.58281 253.41412 253.73942
 253.78572 253.56902 252.93832 251.89562 250.51093 248.68123 246.59953 244.44183
 242.24213 240.05543 237.88474 235.73304 233.60234 231.47864 229.51394 227.68024
 225.97255 224.45385 223.09315 221.87445 220.76575 219.73505 218.84836 217.99866
 217.24996 216.43926 215.54656 214.91986 214.37917 214.84505 215.94574 217.79041
 220.14415 222.07956 223.15613 223.41719 223.47923 224.02306 225.63818 226.86270
 227.68459 229.62531 233.34448 238.05142 242.59917 246.69060 250.51445 254.18655
 257.65161 260.83313 263.79214 266.62668 269.30606 271.64566 273.49390 275.16672
 276.87323 278.46167 280.00024 281.37430 282.56866 283.63098 284.60413 285.49670
 286.30753 287.04092 287.68460 288.52820
 366.78100 356.34428 345.78555 334.66083 323.07311 311.27638 299.15566 286.96794
 274.68921 262.59549 250.61377 239.92404 230.05532 221.16860 213.35987 206.37115
 200.21443 195.16170 191.75298 189.80426 188.85053 188.92381 189.76809 191.08536
 192.81964 194.92392 197.19619 199.56447 202.01875 204.50802 206.60530 208.45658
 210.09185 211.24613 211.48441 211.72168 211.66796 211.38224 211.02451 210.66379
 210.29007 210.00934 209.82662 209.69990 209.63717 209.97745 210.37273 210.77100
 211.57328 212.76055 214.01983 215.81211 217.74938 219.80166 221.90594 223.99821
 226.06749 228.16077 230.26704 232.38232 234.52060 236.70187 238.96715 241.34643
 243.97670 246.23698 248.24826 250.02253 251.44881 252.58109 253.41236 253.73764
 253.78392 253.56719 252.93647 251.89375 250.50902 248.67930 246.59758 244.43985
 242.24013 240.05341 237.88268 235.73096 233.60024 231.47651 229.51179 227.67807
 225.97034 224.45162 223.09090 221.87217 220.76345 219.73273 218.84600 217.99628
 217.24756 216.43683 215.54411 214.91739 214.37666 214.85744 215.99332 217.78947
 220.07182 222.05847 223.20103 223.44193 223.41481 223.84953 225.40086 226.62581
 227.63699 229.80656 233.51074 238.16492 242.72633 246.83017 250.62567 254.25098
 257.66650 260.80627 263.74164 266.56741 269.23788 271.56326 273.41141 275.10117
 276.82605 278.46237 280.00827 281.38690 282.58405 283.64877 284.62408 285.51691
 286.32697 287.05917 287.69864 288.55115
 366.78100 356.34432 345.78565 334.66097 323.07329 311.27662 299.15594 286.96826
 274.68958 262.59591 250.61423 239.92455 230.05588 221.16920 213.36052 206.37185
 200.21517 195.16249 191.75381 189.80514 188.85146 188.92478 189.76911 191.08643
 192.82075 194.92508 197.19740 199.56572 202.02004 204.50937 206.60669 208.45801
 210.09334 211.24766 211.48598 211.72331 211.66963 211.38395 211.02627 210.66560
 210.29192 210.01124 209.82857 209.70189 209.63921 209.97954 210.37486 210.77318
 211.57550 212.76283 214.02215 215.81447 217.75180 219.80412 221.90844 224.00077
 226.07009 228.16341 230.26974 232.38506 234.52338 236.70470 238.97003 241.34935
 243.97967 246.24000 248.25132 250.02564 251.45197 252.58429 253.41561 253.74093
 253.78726 253.57058 252.93990 251.89723 250.51255 248.68287 246.60120 244.44352
 242.24384 240.05716 237.88649 235.73481 233.60413 231.48046 229.51578 227.68210
 225.97443 224.45575 223.09507 221.87639 220.76772 219.73704 218.85036 218.00069
 217.25201 216.44133 215.54866 214.92198 214.38130 214.87384 216.03751 217.79106
 220.00453 222.02148 223.22780 223.45537 223.35075 223.69775 225.18022 226.40872
 227.59398 229.96065 233.66666 238.28044 242.85004 246.96721 250.74243 254.32492
 257.69101 260.78839 263.69696 266.51108 269.16794 271.47684 273.32770 275.03699
 276.77530 278.47427 280.02136 281.39658 282.59494 283.65939 284.63538 285.52631
 286.33636 287.06689 287.70486 288.55704
 366.78100 356.34428 345.78556 334.66084 323.07312 311.27640 299.15568 286.96796
 274.68924 262.59552 250.61380 239.92408 230.05536 221.16864 213.35992 206.37120
 200.21448 195.16176 191.75304 189.80432 188.85060 188.92388 189.76816 191.08544
 192.81972 194.92400 197.19628 199.56456 202.01884 204.50812 206.60540 208.45668
 210.09196 211.24624 211.48452 211.72180 211.66808 211.38236 211.02464 210.66392
 210.29020 210.00948 209.82676 209.70004 209.63732 209.97760 210.37288 210.77116
 211.57344 212.76072 214.02000 215.81228 217.74956 219.80184 221.90612 223.99840
 226.06768 228.16096 230.26724 232.38252 234.52080 236.70208 238.96736 241.34664
 243.97692 246.23720 248.24848 250.02276 251.44904 252.58132 253.41260 253.73788
 253.78416 253.56744 252.93672 251.89400 250.50928 248.67956 246.59784 244.44012
 242.24040 240.05368 237.88296 235.73124 233.60052 231.47680 229.51208 227.67836
 225.97064 224.45192 223.09120 221.87248 220.76376 219.73304 218.84632 217.99660
 217.24788 216.43716 215.54444 214.91772 214.37700 214.88509 216.08553 217.79559
 219.93399 221.97525 223.24094 223.45599 223.28316 223.55846 224.97244 226.21977
 227.56659 230.09174 233.80582 238.39287 242.97107 247.10500 250.86748 254.40805
 257.72488 260.78024 263.66205 266.46109 269.10074 271.39279 273.24667 274.97079
 276.71735 278.47540 280.03668 281.41190 282.60947 283.67316 284.64761 285.53659
 286.34424 287.07062 287.70636 288.55521
 366.78100 356.34392 345.78485 334.65977 323.07170 311.27462 299.15355 286.96547
 274.68640 262.59232 250.61025 239.92017 230.05110 221.16402 213.35495 206.36587
 200.20880 195.15572 191.74665 189.79757 188.84350 188.91642 189.76035 191.07727
 192.81120 194.91512 197.18705 199.55497 202.00890 204.49782 206.59475 208.44567
 210.08060 211.23452 211.47245 211.70937 211.65530 211.36922 211.01115 210.65007
 210.27600 209.99492 209.81185 209.68477 209.62170 209.96162 210.35655 210.75447
 211.55640 212.74332 214.00225 215.79417 217.73110 219.78302 221.88695 223.97887
 226.04780 228.14072 230.24665 232.36157 234.49950 236.68042 238.94534 241.32427
 243.95419 246.21412 248.22504 249.99897 251.42489 252.55682 253.38774 253.71267
 253.75859 253.54152 252.91044 251.86737 250.48229 248.65222 246.57014 244.41207
 242.21199 240.02492 237.85384 235.70177 233.57069 231.44662 229.48154 227.64747
 225.93939 224.42032 223.05924 221.84017 220.73109 219.70002 218.81294 217.96287
 217.21379 216.40272 215.50964 214.88257 214.34149 214.87924 216.14973 217.79460
 219.85718 221.92763 223.23929 223.43825 223.20787 223.42793 224.77434 226.05621
 227.55745 230.20334 233.92917 238.50562 243.09744 247.25169 251.00362 254.50267
 257.77069 260.78400 263.63672 266.41800 269.03754 271.31332 273.17108 274.91000
 276.69342 278.46637 280.03348 281.41278 282.61090 283.67233 284.64746 285.53400
 286.33698 287.05850 287.69067 288.53870
 366.78100 356.34406 345.78511 334.66017 323.07222 311.27528 299.15433 286.96639
 274.68744 262.59350 250.61156 239.92161 230.05267 221.16572 213.35678 206.36783
 200.21089 195.15794 191.74900 189.80006 188.84611 188.91917 189.76322 191.08028
 192.81433 194.91839 197.19044 199.55850 202.01255 204.50161 206.59867 208.44972
 210.08478 211.23883 211.47689 211.71394 211.66000 211.37405 211.01611 210.65517
 210.28122 210.00028 209.81733 209.69039 209.62744 209.96750 210.36255 210.76061
 211.56267 212.74972 214.00878 215.80083 217.73789 219.78994 221.89400 223.98605
 226.05511 228.14817 230.25422 232.36928 234.50733 236.68839 238.95344 241.33250
 243.96255 246.22261 248.23367 250.00772 251.43378 252.56583 253.39689 253.72194
 253.76800 253.55105 252.92011 251.87716 250.49222 248.66228 246.58033 244.42239
 242.22244 240.03550 237.86455 235.71261 233.58166 231.45772 229.49278 227.65883
 225.95089 224.43194 223.07100 221.85205 220.74311 219.71216 218.82522 217.97528
 217.22633 216.41539 215.52244 214.89550 214.35455 214.90019 216.18932 217.79776
 219.79578 221.86835 223.22670 223.41327 223.12535 223.29434 224.57416 225.89754
 227.55035 230.30540 234.04724 238.62012 243.22551 247.40005 251.14705 254.60904
 257.83218 260.80640 263.62842 266.38742 268.98257 271.23825 273.09619 274.85312
 276.67972 278.45721 280.02448 281.40387 282.60117 283.66534 284.63690 285.52386
 286.32504 287.05075 287.68134 288.52924
 366.78100 356.34484 345.78667 334.66251 323.07534 311.27918 299.15901 286.97185
 274.69369 262.60052 250.61936 239.93019 230.06203 221.17586 213.36770 206.37954
 200.22337 195.17121 191.76304 189.81488 188.86171 188.93555 189.78039 191.09822
 192.83306 194.93789 197.21073 199.57956 202.03440 204.52424 206.62207 208.47391
 210.10974 211.26458 211.50341 211.74125 211.68809 211.40292 211.04576 210.68559
 210.31243 210.03226 209.85010 209.72394 209.66177 210.00261 210.39844 210.79728
 211.60011 212.78795 214.04779 215.84062 217.77846 219.83129 221.93613 224.02896
 226.09880 228.19264 230.29947 232.41531 234.55414 236.73598 239.00181 241.38165
 244.01249 246.27332 248.28516 250.05999 251.48683 252.61966 253.45150 253.77734
 253.82417 253.60801 252.97784 251.93568 250.55151 248.72235 246.64119 244.48402
 242.28486 240.09869 237.92853 235.77736 233.64720 231.52404 229.55987 227.72671
 226.01954 224.50138 223.14121 221.92305 220.81489 219.78472 218.89856 218.04939
 217.30123 216.49106 215.59890 214.97274 214.43257 214.95871 216.20175 217.79977
 219.74850 221.80159 223.20018 223.37892 223.04752 223.17528 224.37643 225.73660
 227.53348 230.39101 234.15897 238.73415 243.35039 247.54184 251.28534 254.72057
 257.90591 260.84558 263.63773 266.37177 268.94226 271.18094 273.04010 274.81021
 276.66379 278.44492 280.01050 281.38931 282.58582 283.64728 284.61765 285.50269
 286.30795 287.03708 287.66876 288.49939
 366.78100 356.34549 345.78799 334.66448 323.07798 311.28247 299.16296 286.97646
 274.69895 262.60645 250.62594 239.93744 230.06993 221.18442 213.37692 206.38941
 200.23391 195.18240 191.77489 189.82739 188.87488 188.94938 189.79487 191.11337
 192.84886 194.95435 197.22785 199.59734 202.05284 204.54333 206.64182 208.49432
 210.13081 211.28631 211.52580 211.76429 211.71179 211.42728 211.07078 210.71127
 210.33877 210.05926 209.87775 209.75225 209.69074 210.03224 210.42873 210.82822
 211.63172 212.82021 214.08071 215.87420 217.81269 219.86619 221.97168 224.06518
 226.13567 228.23017 230.33766 232.45415 234.59365 236.77614 239.04264 241.42313
 244.05462 246.31612 248.32861 250.10411 251.53160 252.66510 253.49759 253.82408
 253.87158 253.65607 253.02657 251.98506 250.60155 248.77305 246.69254 244.53604
 242.33753 240.15202 237.98252 235.83201 233.70251 231.58000 229.61650 227.78399
 226.07748 224.55998 223.20047 221.98297 220.87546 219.84595 218.96045 218.11194
 217.36444 216.55493 215.66342 215.03792 214.49841 215.01318 216.22937 217.78758
 219.69373 221.72867 223.15546 223.33052 222.97137 223.07693 224.20181 225.57988
 227.50113 230.46411 234.27641 238.85347 243.47168 247.67729 251.42329 254.83861
 257.99011 260.89667 263.65668 266.36542 268.90695 271.12057 272.97513 274.76447
 276.64996 278.43701 280.00281 281.38113 282.57568 283.63617 284.60269 285.48770
 286.29480 287.03189 287.65512 288.48053
 366.78100 356.34593 345.78886 334.66579 323.07972 311.28465 299.16558 286.97951
 274.70244 262.61037 250.63030 239.94223 230.07516 221.19009 213.38302 206.39595
 200.24088 195.18981 191.78274 189.83567 188.88360 188.95853 189.80446 191.12339
 192.85932 194.96525 197.23918 199.60911 202.06504 204.55597 206.65490 208.50783
 210.14476 211.30069 211.54062 211.77955 211.72748 211.44341 211.08734 210.72827
 210.35620 210.07713 209.89606 209.77099 209.70992 210.05185 210.44878 210.84871
 211.65264 212.84157 214.10250 215.89643 217.83536 219.88929 221.99522 224.08915
 226.16008 228.25501 230.36294 232.47987 234.61980 236.80273 239.06966 241.45059
 244.08252 246.34445 248.35738 250.13331 251.56125 252.69518 253.52811 253.85504
 253.90297 253.68790 253.05883 252.01776 250.63469 248.80662 246.72655 244.57048
 242.37241 240.18734 238.01827 235.86820 233.73913 231.61706 229.65399 227.82192
 226.11585 224.59878 223.23971 222.02264 220.91557 219.88650 219.00143 218.15336
 217.40629 216.59722 215.70615 215.08108 214.54201 215.05446 216.26518 217.76973
 219.65265 221.66292 223.07816 223.24724 222.89621 222.99834 224.05016 225.44035
 227.45952 230.52884 234.39145 238.97200 243.59007 247.80804 251.56618 254.96503
 258.09232 260.97061 263.69601 266.37137 268.87329 271.05963 272.92184 274.73471
 276.62784 278.41110 279.97272 281.34521 282.53513 283.58838 284.54636 285.42645
 286.24466 286.97873 287.60117 288.42368
 366.78100 356.34647 345.78994 334.66741 323.08189 311.28736 299.16883 286.98330
 274.70677 262.61524 250.63572 239.94819 230.08166 221.19713 213.39060 206.40407
 200.24955 195.19902 191.79249 189.84596 188.89443 188.96990 189.81638 191.13585
 192.87232 194.97879 197.25326 199.62373 202.08021 204.57168 206.67115 208.52462
 210.16209 211.31856 211.55903 211.79851 211.74698 211.46345 211.10792 210.74939
 210.37786 210.09934 209.91881 209.79428 209.73375 210.07622 210.47369 210.87417
 211.67864 212.86811 214.12958 215.92405 217.86352 219.91800 222.02447 224.11894
 226.19041 228.28588 230.39435 232.51182 234.65230 236.83577 239.10324 241.48471
 244.11718 246.37965 248.39313 250.16960 251.59807 252.73254 253.56601 253.89348
 253.94196 253.72743 253.09890 252.05837 250.67584 248.84831 246.76879 244.61326
 242.41573 240.23120 238.06267 235.91314 233.78462 231.66309 229.70056 227.86903
 226.16350 224.64697 223.28844 222.07192 220.96539 219.93686 219.05233 218.20480
 217.45827 216.64975 215.75922 215.13469 214.59616 215.09686 216.27983 217.78091
 219.61967 221.55400 222.96175 223.14510 222.82138 222.96092 223.94809 225.31847
 227.40454 230.56158 234.48662 239.06984 243.67429 247.89857 251.66815 255.09354
 258.22125 261.08173 263.77109 266.40335 268.86429 271.00919 272.85669 274.68176
 276.60947 278.39914 279.96094 281.33649 282.52731 283.58765 284.56805 285.46310
 286.26459 286.96640 287.58560 288.39783
 366.78100 356.34710 345.79121 334.66931 323.08442 311.29052 299.17263 286.98773
 274.71183 262.62094 250.64204 239.95515 230.08925 221.20536 213.39946 206.41356
 200.25967 195.20977 191.80388 189.85798 188.90708 188.98319 189.83029 191.15040
 192.88750 194.99461 197.26971 199.64081 202.09792 204.59002 206.69013 208.54423
 210.18234 211.33944 211.58054 211.82065 211.76975 211.48686 211.13196 210.77407
 210.40317 210.12527 209.94538 209.82148 209.76159 210.10469 210.50279 210.90390
 211.70900 212.89911 214.16121 215.95632 217.89642 219.95152 222.05863 224.15373
 226.22584 228.32194 230.43105 232.54915 234.69025 236.87436 239.14246 241.52457
 244.15767 246.42078 248.43488 250.21198 251.64109 252.77619 253.61030 253.93840
 253.98751 253.77361 253.14571 252.10582 250.72392 248.89703 246.81813 244.66323
 242.46634 240.28244 238.11455 235.96565 233.83776 231.71686 229.75496 227.92407
 226.21917 224.70328 223.34538 222.12949 221.02359 219.99569 219.11180 218.26490
 217.51901 216.71111 215.82122 215.19732 214.65942 215.13930 216.27307 217.80258
 219.62036 221.47511 222.82011 223.00594 222.74361 222.90399 223.85448 225.22157
 227.36249 230.62077 234.60135 239.17409 243.74977 247.97021 251.76102 255.20898
 258.33136 261.17148 263.83475 266.44241 268.86127 270.97787 272.83737 274.68878
 276.58405 278.36279 279.92130 281.29340 282.48141 283.54074 284.52301 285.40033
 286.16940 286.86130 287.47449 288.29074
 366.78100 356.34701 345.79103 334.66904 323.08406 311.29007 299.17209 286.98710
 274.71111 262.62013 250.64114 239.95416 230.08817 221.20418 213.39820 206.41221
 200.25823 195.20824 191.80226 189.85627 188.90528 188.98130 189.82831 191.14833
 192.88534 194.99236 197.26737 199.63838 202.09540 204.58741 206.68743 208.54144
 210.17945 211.33647 211.57748 211.81750 211.76651 211.48353 211.12854 210.77055
 210.39957 210.12158 209.94160 209.81761 209.75763 210.10064 210.49865 210.89967
 211.70468 212.89470 214.15671 215.95172 217.89174 219.94675 222.05377 224.14878
 226.22080 228.31681 230.42582 232.54384 234.68485 236.86887 239.13688 241.51890
 244.15191 246.41492 248.42894 250.20595 251.63497 252.76998 253.60399 253.93201
 253.98102 253.76704 253.13905 252.09907 250.71708 248.89009 246.81111 244.65612
 242.45914 240.27515 238.10717 235.95818 233.83019 231.70921 229.74722 227.91624
 226.21125 224.69526 223.33728 222.12129 221.01531 219.98732 219.10334 218.25635
 217.51036 216.70238 215.81239 215.18841 214.65042 215.15205 216.33722 217.70792
 219.62106 221.53233 222.77838 222.81039 222.51079 222.75264 223.67361 225.01259
 227.28160 230.69760 234.76285 239.32544 243.90567 248.14636 251.98842 255.42867
 258.50818 261.29407 263.89246 266.43085 268.79901 270.87643 272.73474 274.56458
 276.56113 278.34363 279.89676 281.26013 282.43924 283.48978 284.45770 285.32553
 286.09659 286.79556 287.42072 288.24048
 366.78100 356.34566 345.78831 334.66497 323.07863 311.28328 299.16394 286.97760
 274.70025 262.60791 250.62757 239.93922 230.07188 221.18654 213.37919 206.39185
 200.23651 195.18516 191.77782 189.83048 188.87813 188.95279 189.79845 191.11710
 192.85276 194.95842 197.23207 199.60173 202.05739 204.54804 206.64670 208.49936
 210.13601 211.29167 211.53133 211.76998 211.71764 211.43330 211.07695 210.71761
 210.34527 210.06592 209.88458 209.75924 209.69789 210.03955 210.43621 210.83586
 211.63952 212.82818 214.08883 215.88249 217.82115 219.87480 221.98046 224.07412
 226.14477 228.23943 230.34708 232.46374 234.60340 236.78605 239.05271 241.43337
 244.06502 246.32668 248.33934 250.11499 251.54265 252.67631 253.50896 253.83562
 253.88328 253.66793 253.03859 251.99725 250.61390 248.78556 246.70522 244.54887
 242.35053 240.16519 237.99584 235.84550 233.71616 231.59381 229.63047 227.79813
 226.09178 224.57444 223.21510 221.99775 220.89041 219.86107 218.97572 218.12738
 217.38004 216.57069 215.67935 215.05401 214.51466 215.10680 216.50578 217.55443
 219.43178 221.45651 222.76514 222.73155 222.36687 222.53952 223.38765 224.89481
 227.22906 230.67894 234.83061 239.43336 243.99867 248.30711 252.25241 255.77711
 258.84189 261.55792 264.07220 266.50690 268.74313 270.71194 272.57785 274.54825
 276.44189 278.15463 279.67963 281.04724 282.18262 283.21191 284.16748 284.95673
 285.63046 286.23587 286.76474 287.43872
 366.78100 356.34553 345.78806 334.66459 323.07812 311.28264 299.16317 286.97670
 274.69923 262.60676 250.62629 239.93782 230.07035 221.18487 213.37740 206.38993
 200.23446 195.18299 191.77552 189.82805 188.87558 188.95010 189.79563 191.11416
 192.84969 194.95522 197.22875 199.59828 202.05381 204.54433 206.64286 208.49539
 210.13192 211.28745 211.52698 211.76551 211.71304 211.42856 211.07209 210.71262
 210.34015 210.06068 209.87921 209.75374 209.69227 210.03379 210.43032 210.82985
 211.63338 212.82191 214.08244 215.87597 217.81450 219.86802 221.97355 224.06708
 226.13761 228.23214 230.33967 232.45620 234.59573 236.77825 239.04478 241.42531
 244.05684 246.31837 248.33090 250.10643 251.53396 252.66749 253.50001 253.82654
 253.87407 253.65860 253.02913 251.98766 250.60419 248.77572 246.69524 244.53877
 242.34030 240.15483 237.98536 235.83489 233.70542 231.58295 229.61947 227.78700
 226.08053 224.56306 223.20359 221.98612 220.87865 219.84918 218.96370 218.11523
 217.36776 216.55829 215.66682 215.04135 214.50188 215.11577 216.56645 217.65233
 219.14381 220.97169 222.59801 222.88594 222.54344 222.52061 223.18082 224.90927
 227.14705 230.67134 234.86778 239.46291 244.03194 248.35590 252.35915 255.92509
 259.02887 261.76453 264.29022 266.67450 268.85779 270.76929 272.56821 274.47119
 276.33588 277.97375 279.26956 280.53549 281.68887 282.72653 283.70917 284.61148
 285.42303 286.14572 286.77707 287.58163
 366.78100 356.34715 345.79130 334.66945 323.08460 311.29075 299.17290 286.98806
 274.71221 262.62136 250.64251 239.95566 230.08981 221.20596 213.40011 206.41426
 200.26041 195.21056 191.80471 189.85886 188.90802 188.98417 189.83132 191.15147
 192.88862 194.99577 197.27092 199.64207 202.09922 204.59137 206.69152 208.54567
 210.18382 211.34098 211.58213 211.82228 211.77143 211.48858 211.13373 210.77588
 210.40503 210.12718 209.94733 209.82348 209.76363 210.10678 210.50494 210.90609
 211.71124 212.90139 214.16354 215.95869 217.89884 219.95399 222.06114 224.15629
 226.22844 228.32459 230.43375 232.55190 234.69305 236.87720 239.14535 241.52750
 244.16065 246.42380 248.43795 250.21510 251.64425 252.77940 253.61355 253.94171
 253.99086 253.77701 253.14916 252.10931 250.72746 248.90061 246.82176 244.66691
 242.47006 240.28621 238.11836 235.96951 233.84167 231.72082 229.75897 227.92812
 226.22327 224.70742 223.34957 222.13372 221.02787 220.00002 219.11617 218.26932
 217.52347 216.71563 215.82578 215.20193 214.66408 215.20889 216.51833 217.78455
 219.13069 220.80786 222.55534 223.07898 222.78680 222.54501 223.10487 224.86269
 227.12659 230.68205 234.92245 239.48122 244.02829 248.36502 252.38766 255.97932
 259.14981 261.90863 264.45679 266.84436 269.01007 270.90540 272.64203 274.47598
 276.29779 277.68683 279.00528 280.34576 281.57825 282.73853 283.79712 284.75610
 285.61862 286.38672 287.05768 287.91275
 366.78100 356.34783 345.79266 334.67148 323.08731 311.29414 299.17697 286.99279
 274.71762 262.62745 250.64928 239.96310 230.09793 221.21476 213.40959 206.42441
 200.27124 195.22207 191.81690 189.87173 188.92155 188.99838 189.84621 191.16704
 192.90486 195.01269 197.28852 199.66035 202.11817 204.61100 206.71183 208.56666
 210.20549 211.36331 211.60514 211.84597 211.79580 211.51362 211.15945 210.80228
 210.43211 210.15493 209.97576 209.85259 209.79342 210.13724 210.53607 210.93790
 211.74373 212.93456 214.19738 215.99321 217.93404 219.98987 222.09769 224.19352
 226.26635 228.36318 230.47300 232.59183 234.73366 236.91849 239.18731 241.57014
 244.20397 246.46780 248.48263 250.26045 251.69028 252.82611 253.66094 253.98976
 254.03959 253.82642 253.19925 252.16007 250.77890 248.95273 246.87456 244.72038
 242.52421 240.34104 238.17387 236.02570 233.89852 231.77835 229.81718 227.98701
 226.28283 224.76766 223.41049 222.19532 221.09014 220.06297 219.17980 218.33363
 217.58846 216.78128 215.89211 215.26894 214.73177 215.25565 216.52791 217.79582
 219.15829 220.79773 222.53758 223.11378 222.78845 222.42819 223.02731 224.74092
 227.09674 230.71428 235.01823 239.56230 244.08673 248.42288 252.45276 256.03949
 259.18820 262.05212 264.63406 267.02267 269.17441 271.04855 272.76971 274.58069
 276.26172 277.63663 279.14529 280.62601 281.96881 283.15680 284.24069 285.22263
 286.10574 286.89218 287.57919 288.45471
 366.78100 356.34756 345.79212 334.67068 323.08624 311.29280 299.17536 286.99092
 274.71548 262.62504 250.64660 239.96016 230.09472 221.21128 213.40584 206.42040
 200.26696 195.21752 191.81208 189.86664 188.91620 188.99276 189.84032 191.16088
 192.89844 195.00600 197.28156 199.65312 202.11068 204.60324 206.70380 208.55836
 210.19692 211.35448 211.59604 211.83660 211.78616 211.50372 211.14927 210.79183
 210.42139 210.14395 209.96451 209.84107 209.78163 210.12519 210.52375 210.92531
 211.73087 212.92143 214.18399 215.97955 217.92011 219.97567 222.08323 224.17879
 226.25135 228.34791 230.45747 232.57603 234.71759 236.90215 239.17071 241.55327
 244.18683 246.45039 248.46495 250.24251 251.67207 252.80763 253.64219 253.97075
 254.02031 253.80687 253.17943 252.13999 250.75855 248.93211 246.85367 244.69923
 242.50279 240.31935 238.15191 236.00347 233.87603 231.75559 229.79415 227.96371
 226.25927 224.74383 223.38639 222.17095 221.06551 220.03807 219.15463 218.30819
 217.56275 216.75531 215.86587 215.24243 214.70499 215.24689 216.55330 217.77875
 219.14131 220.76462 222.32135 222.86420 222.65179 222.37521 223.00917 224.71173
 227.10422 230.78188 235.14828 239.67876 244.16153 248.47289 252.48709 256.07132
 259.24777 262.16675 264.78650 267.19989 269.36746 271.24234 272.96198 274.71484
 276.37131 277.72537 279.23737 280.69962 282.02023 283.18866 284.25467 285.22040
 286.08896 286.86243 287.53809 288.39917
 366.78100 356.34708 345.79116 334.66924 323.08432 311.29040 299.17248 286.98756
 274.71164 262.62072 250.64180 239.95488 230.08897 221.20505 213.39913 206.41321
 200.25929 195.20937 191.80345 189.85753 188.90661 188.98269 189.82977 191.14985
 192.88693 194.99401 197.26909 199.64017 202.09725 204.58933 206.68941 208.54349
 210.18157 211.33865 211.57973 211.81982 211.76890 211.48598 211.13106 210.77314
 210.40222 210.12430 209.94438 209.82046 209.76054 210.10362 210.50170 210.90278
 211.70786 212.89794 214.16002 215.95510 217.89518 219.95026 222.05734 224.15242
 226.22450 228.32058 230.42967 232.54775 234.68883 236.87291 239.14099 241.52307
 244.15615 246.41923 248.43331 250.21039 251.63947 252.77455 253.60863 253.93671
 253.98579 253.77187 253.14395 252.10403 250.72211 248.89519 246.81627 244.66135
 242.46443 240.28052 238.11260 235.96368 233.83576 231.71484 229.75292 227.92200
 226.21708 224.70116 223.34324 222.12732 221.02140 219.99348 219.10956 218.26264
 217.51672 216.70880 215.81888 215.19496 214.65704 215.22278 216.57497 217.76599
 219.10699 220.69138 222.13258 222.56207 222.40260 222.24825 222.97150 224.73883
 227.16789 230.88077 235.28465 239.81107 244.25208 248.53662 252.53827 256.10818
 259.17615 262.21732 264.81894 267.22430 269.41882 271.33661 273.12146 274.83887
 276.48804 277.85672 279.16354 280.53680 281.81406 282.96445 284.01398 284.96481
 285.81995 286.58148 287.24673 288.09451
 366.78100 356.34669 345.79037 334.66806 323.08275 311.28843 299.17012 286.98481
 274.70849 262.61718 250.63786 239.95055 230.08424 221.19992 213.39361 206.40730
 200.25298 195.20267 191.79636 189.85004 188.89873 188.97442 189.82110 191.14079
 192.87747 194.98416 197.25885 199.62953 202.08622 204.57791 206.67759 208.53128
 210.16897 211.32565 211.56634 211.80603 211.75471 211.47140 211.11609 210.75777
 210.38646 210.10814 209.92783 209.80352 209.74320 210.08589 210.48358 210.88426
 211.68895 212.87864 214.14032 215.93501 217.87470 219.92938 222.03607 224.13075
 226.20244 228.29813 230.40681 232.52450 234.66519 236.84887 239.11656 241.49825
 244.13093 246.39362 248.40731 250.18399 251.61268 252.74737 253.58105 253.90874
 253.95742 253.74311 253.11480 252.07448 250.69217 248.86486 246.78554 244.63023
 242.43292 240.24860 238.08029 235.93098 233.80266 231.68135 229.71903 227.88772
 226.18241 224.66609 223.30778 222.09147 220.98515 219.95684 219.07253 218.22521
 217.47890 216.67059 215.78027 215.15596 214.61765 215.21732 216.63219 217.74152
 219.13744 220.77954 222.22240 222.52902 222.13564 221.93033 222.82886 224.62425
 227.15474 230.95003 235.40044 239.95137 244.40912 248.69347 252.68198 256.21515
 259.37186 262.17990 264.80612 267.21967 269.37674 271.28973 273.08929 274.85144
 276.39429 277.89188 279.50861 281.04834 282.38086 283.55981 284.63541 285.60983
 286.48621 287.26663 287.94843 288.81723
 366.78100 356.34682 345.79065 334.66847 323.08330 311.28912 299.17095 286.98577
 274.70960 262.61842 250.63924 239.95207 230.08589 221.20172 213.39554 206.40937
 200.25519 195.20501 191.79884 189.85266 188.90149 188.97731 189.82414 191.14396
 192.88079 194.98761 197.26243 199.63326 202.09008 204.58191 206.68173 208.53556
 210.17338 211.33020 211.57103 211.81085 211.75968 211.47650 211.12133 210.76315
 210.39198 210.11380 209.93362 209.80945 209.74927 210.09210 210.48992 210.89075
 211.69557 212.88540 214.14722 215.94204 217.88187 219.93669 222.04352 224.13834
 226.21017 228.30599 230.41481 232.53264 234.67346 236.85729 239.12511 241.50694
 244.13976 246.40259 248.41641 250.19323 251.62206 252.75688 253.59071 253.91853
 253.96736 253.75318 253.12501 252.08483 250.70265 248.87548 246.79630 244.64113
 242.44395 240.25978 238.09160 235.94242 233.81425 231.69307 229.73090 227.89972
 226.19455 224.67837 223.32020 222.10402 220.99784 219.96967 219.08549 218.23832
 217.49214 216.68397 215.79379 215.16961 214.63144 215.23949 216.65085 217.72829
 219.14969 220.85162 222.24298 222.47757 221.94734 221.66824 222.71068 224.46790
 227.07008 230.98997 235.52014 240.10085 244.58562 248.86378 252.85655 256.43298
 259.60199 262.38599 264.97739 267.34152 269.45218 271.32666 273.10660 274.71100
 276.68826 278.72833 280.55109 282.15158 283.53668 284.76215 285.88019 286.89304
 287.80402 288.61523 289.32391 290.22702
 366.78100 356.34730 345.79160 334.66989 323.08519 311.29149 299.17379 286.98909
 274.71338 262.62268 250.64398 239.95728 230.09158 221.20787 213.40217 206.41647
 200.26277 195.21307 191.80736 189.86166 188.91096 188.98726 189.83456 191.15485
 192.89215 194.99945 197.27475 199.64605 202.10334 204.59564 206.69594 208.55024
 210.18854 211.34583 211.58713 211.82743 211.77673 211.49403 211.13932 210.78162
 210.41092 210.13322 209.95352 209.82982 209.77011 210.11341 210.51171 210.91301
 211.71831 212.90860 214.17090 215.96620 217.90650 219.96180 222.06909 224.16439
 226.23669 228.33299 230.44229 232.56058 234.70188 236.88618 239.15448 241.53678
 244.17007 246.43337 248.44767 250.22497 251.65427 252.78956 253.62386 253.95216
 254.00146 253.78776 253.16005 252.12035 250.73865 248.91195 246.83325 244.67854
 242.48184 240.29814 238.13044 235.98174 233.85403 231.73333 229.77163 227.94093
 226.23623 224.72052 223.36282 222.14712 221.04142 220.01372 219.13001 218.28331
 217.53761 216.72991 215.84021 215.21650 214.67880 215.26175 216.62613 217.72255
 219.16466 220.81679 222.10286 222.27969 221.80125 221.63145 222.48924 224.39287
 227.07224 231.06749 235.63574 240.21738 244.69325 248.93431 252.87624 256.47748
 259.65460 262.47528 265.07233 267.46878 269.61346 271.50394 273.24429 274.93463
 276.95590 278.89877 280.66052 282.20746 283.54620 284.73065 285.81128 286.79025
 287.67075 288.45480 289.13977 290.01263
 366.78100 356.34721 345.79142 334.66964 323.08485 311.29106 299.17327 286.98848
 274.71270 262.62191 250.64312 239.95633 230.09054 221.20676 213.40097 206.41518
 200.26139 195.21160 191.80582 189.86003 188.90924 188.98545 189.83266 191.15288
 192.89009 194.99730 197.27251 199.64372 202.10094 204.59315 206.69336 208.54757
 210.18578 211.34299 211.58421 211.82442 211.77363 211.49084 211.13605 210.77827
 210.40748 210.12969 209.94990 209.82611 209.76633 210.10954 210.50775 210.90896
 211.71417 212.90439 214.16660 215.96181 217.90202 219.95723 222.06445 224.15966
 226.23187 228.32808 230.43729 232.55551 234.69672 236.88093 239.14914 241.53135
 244.16457 246.42778 248.44199 250.21920 251.64841 252.78363 253.61784 253.94605
 253.99526 253.78147 253.15369 252.11390 250.73211 248.90532 246.82653 244.67175
 242.47496 240.29117 238.12338 235.97459 233.84681 231.72602 229.76423 227.93344
 226.22865 224.71286 223.35508 222.13929 221.03350 220.00571 219.12192 218.27514
 217.52935 216.72156 215.83177 215.20798 214.67020 215.25673 216.62637 217.70374
 219.16484 220.80174 222.01959 222.11388 221.63957 221.51399 222.26878 224.29047
 227.06010 231.13315 235.74278 240.32896 244.80870 249.04274 252.92940 256.47122
 259.63806 262.46207 265.04990 267.45306 269.60858 271.51242 273.26236 275.03723
 277.03946 278.93222 280.70859 282.26834 283.61819 284.81244 285.90204 286.88913
 287.77689 288.56747 289.25809 290.13821
 366.78100 356.34671 345.79042 334.66813 323.08283 311.28854 299.17025 286.98496
 274.70867 262.61738 250.63809 239.95080 230.08450 221.20021 213.39392 206.40763
 200.25334 195.20305 191.79676 189.85047 188.89917 188.97488 189.82159 191.14130
 192.87801 194.98472 197.25943 199.63014 202.08684 204.57855 206.67826 208.53197
 210.16968 211.32639 211.56710 211.80681 211.75551 211.47222 211.11693 210.75864
 210.38735 210.10906 209.92877 209.80448 209.74418 210.08689 210.48460 210.88531
 211.69002 212.87973 214.14144 215.93615 217.87585 219.93056 222.03727 224.13198
 226.20369 228.29940 230.40811 232.52582 234.66652 236.85023 239.11794 241.49965
 244.13236 246.39507 248.40878 250.18548 251.61419 252.74890 253.58261 253.91032
 253.95903 253.74474 253.11645 252.07615 250.69386 248.86657 246.78728 244.63199
 242.43470 240.25041 238.08212 235.93282 233.80453 231.68324 229.72095 227.88966
 226.18437 224.66808 223.30979 222.09349 220.98720 219.95891 219.07462 218.22733
 217.48104 216.67275 215.78246 215.15816 214.61987 215.22874 216.64178 217.67087
 219.13756 220.80550 221.94231 221.89366 221.38176 221.35161 222.08710 224.18633
 227.07277 231.22162 235.87796 240.47423 244.96507 249.21933 253.11084 256.61902
 259.75589 262.57083 265.13327 267.51791 269.67484 271.58069 273.33334 275.02457
 276.87277 278.64514 280.32181 281.79416 283.06833 284.19568 285.22418 286.15598
 286.99399 287.74026 288.39218 289.22296
 366.78100 356.34625 345.78951 334.66676 323.08102 311.28627 299.16753 286.98178
 274.70504 262.61329 250.63355 239.94580 230.07906 221.19431 213.38756 206.40082
 200.24607 195.19533 191.78858 189.84184 188.89009 188.96535 189.81160 191.13086
 192.86711 194.97337 197.24762 199.61787 202.07413 204.56538 206.66464 208.51789
 210.15515 211.31140 211.55166 211.79091 211.73917 211.45542 211.09968 210.74093
 210.36919 210.09044 209.90969 209.78495 209.72420 210.06646 210.46371 210.86397
 211.66822 212.85748 214.11873 215.91299 217.85224 219.90650 222.01275 224.10700
 226.17826 228.27351 230.38177 232.49902 234.63928 236.82253 239.08979 241.47104
 244.10330 246.36555 248.37881 250.15506 251.58331 252.71757 253.55082 253.87808
 253.92633 253.71159 253.08284 252.04210 250.65935 248.83161 246.75186 244.59612
 242.39837 240.21362 238.04488 235.89513 233.76639 231.64464 229.68190 227.85015
 226.14441 224.62766 223.26892 222.05217 220.94543 219.91668 219.03194 218.18419
 217.43744 216.62870 215.73795 215.11321 214.57446 215.20436 216.65796 217.65750
 219.10487 220.81934 221.94925 221.75935 221.11157 221.06616 221.86452 224.11227
 227.09309 231.30833 235.99814 240.61545 245.12224 249.39595 253.30455 256.80341
 259.90277 262.67862 265.20871 267.56644 269.71552 271.64468 273.44919 275.13467
 276.72629 278.49078 280.24985 281.79440 283.13110 284.31375 285.39273 286.37021
 287.24936 288.03223 288.71613 289.58768
 366.78100 356.34656 345.79013 334.66769 323.08225 311.28781 299.16938 286.98394
 274.70750 262.61606 250.63663 239.94919 230.08275 221.19832 213.39188 206.40544
 200.25100 195.20057 191.79413 189.84769 188.89625 188.97182 189.81838 191.13794
 192.87450 194.98107 197.25563 199.62619 202.08276 204.57432 206.67388 208.52744
 210.16501 211.32157 211.56213 211.80169 211.75026 211.46682 211.11138 210.75295
 210.38151 210.10307 209.92263 209.79820 209.73776 210.08032 210.47788 210.87845
 211.68301 212.87257 214.13414 215.92870 217.86826 219.92282 222.02939 224.12395
 226.19551 228.29107 230.39964 232.51720 234.65776 236.84132 239.10889 241.49045
 244.12301 246.38558 248.39914 250.17570 251.60426 252.73883 253.57239 253.89995
 253.94851 253.73408 253.10564 252.06520 250.68277 248.85533 246.77589 244.62045
 242.42302 240.23858 238.07014 235.92070 233.79227 231.67083 229.70839 227.87696
 226.17152 224.65508 223.29664 222.08021 220.97377 219.94533 219.06089 218.21346
 217.46702 216.65858 215.76814 215.14371 214.60527 215.21764 216.63730 217.66466
 219.09439 220.80817 221.94890 221.64049 220.88023 220.89052 221.69414 224.01082
 227.11984 231.40007 236.10591 240.73851 245.25740 249.52734 253.40503 256.87344
 259.96497 262.73975 265.28116 267.64328 269.79419 271.73380 273.56281 275.26147
 276.94348 278.79358 280.50049 281.99924 283.29633 284.44388 285.49088 286.43936
 287.29242 288.05209 288.71570 289.56140
 366.78100 356.34663 345.79026 334.66789 323.08252 311.28815 299.16978 286.98441
 274.70804 262.61666 250.63729 239.94992 230.08355 221.19918 213.39281 206.40644
 200.25207 195.20170 191.79533 189.84896 188.89759 188.97322 189.81985 191.13948
 192.87611 194.98273 197.25736 199.62799 202.08462 204.57625 206.67588 208.52951
 210.16714 211.32377 211.56440 211.80403 211.75266 211.46929 211.11392 210.75555
 210.38418 210.10580 209.92543 209.80106 209.74069 210.08332 210.48095 210.88158
 211.68621 212.87584 214.13747 215.93210 217.87173 219.92636 222.03299 224.12762
 226.19925 228.29487 230.40350 232.52113 234.66176 236.84539 239.11302 241.49465
 244.12728 246.38991 248.40354 250.18017 251.60880 252.74343 253.57706 253.90469
 253.95332 253.73895 253.11057 252.07020 250.68783 248.86046 246.78109 244.62572
 242.42835 240.24398 238.07561 235.92624 233.79787 231.67650 229.71413 227.88276
 226.17739 224.66102 223.30264 222.08627 220.97990 219.95153 219.06716 218.21979
 217.47342 216.66505 215.77468 215.15031 214.61194 215.21248 216.61606 217.65662
 219.07153 220.78159 221.88103 221.52650 220.71004 220.64880 221.53127 223.97990
 227.17482 231.49213 236.21825 240.86499 245.40138 249.66835 253.49754 256.88864
 259.95172 262.77914 265.36261 267.73895 269.90030 271.85611 273.69339 275.36185
 276.90332 278.57547 280.23611 281.70999 282.98550 284.11401 285.14359 286.07632
 286.91522 287.66226 288.31485 289.14651
 366.78100 356.34598 345.78896 334.66594 323.07992 311.28490 299.16587 286.97985
 274.70283 262.61081 250.63079 239.94277 230.07575 221.19073 213.38371 206.39669
 200.24166 195.19064 191.78362 189.83660 188.88458 188.95956 189.80554 191.12452
 192.86050 194.96648 197.24046 199.61043 202.06641 204.55739 206.65637 208.50935
 210.14633 211.30231 211.54229 211.78127 211.72925 211.44523 211.08920 210.73018
 210.35816 210.07914 209.89812 209.77310 209.71208 210.05406 210.45104 210.85102
 211.65499 212.84397 214.10495 215.89893 217.83791 219.89189 221.99787 224.09185
 226.16283 228.25781 230.36579 232.48276 234.62274 236.80572 239.07270 241.45368
 244.08566 246.34764 248.36062 250.13660 251.56458 252.69855 253.53153 253.85851
 253.90649 253.69147 253.06245 252.02143 250.63841 248.81039 246.73037 244.57435
 242.37632 240.19130 238.02228 235.87226 233.74324 231.62122 229.65820 227.82618
 226.12016 224.60314 223.24411 222.02709 220.92007 219.89105 219.00603 218.15801
 217.41099 216.60197 215.71095 215.08593 214.54691 215.17770 216.63928 217.64384
 219.03160 220.77521 221.93929 221.54291 220.56729 220.29608 221.16481 223.91298
 227.20357 231.58531 236.32849 241.00256 245.56975 249.84914 253.67761 257.03430
 260.01431 262.78403 265.37839 267.77524 269.94354 271.89169 273.71271 275.39474
 276.83099 278.29004 279.90976 281.33203 282.56287 283.65186 284.64539 285.54544
 286.35495 287.07584 287.70557 288.50812
 366.78100 356.34577 345.78853 334.66530 323.07907 311.28384 299.16460 286.97837
 274.70114 262.60891 250.62867 239.94044 230.07321 221.18798 213.38074 206.39351
 200.23828 195.18705 191.77981 189.83258 188.88035 188.95512 189.80088 191.11965
 192.85542 194.96119 197.23495 199.60472 202.06049 204.55126 206.65002 208.50279
 210.13956 211.29532 211.53509 211.77386 211.72163 211.43739 211.08116 210.72193
 210.34970 210.07046 209.88923 209.76400 209.70277 210.04453 210.44130 210.84107
 211.64484 212.83360 214.09437 215.88814 217.82691 219.88067 221.98644 224.08021
 226.15098 228.24574 230.35351 232.47028 234.61004 236.79281 239.05958 241.44035
 244.07211 246.33388 248.34665 250.12242 251.55018 252.68395 253.51672 253.84349
 253.89125 253.67602 253.04679 252.00556 250.62232 248.79409 246.71386 244.55763
 242.35939 240.17416 238.00493 235.85470 233.72546 231.60323 229.64000 227.80777
 226.10153 224.58430 223.22507 222.00783 220.90060 219.87137 218.98614 218.13790
 217.39067 216.58144 215.69021 215.06497 214.52574 215.15845 216.63141 217.64642
 218.97905 220.69916 221.83022 221.42613 220.43526 220.11337 220.96640 223.90515
 227.30807 231.70871 236.45767 241.14200 245.72032 249.98682 253.80771 257.16537
 260.12247 262.83261 265.42545 267.84042 270.01685 271.99521 273.89468 275.62943
 276.80887 277.70651 279.30191 280.73682 281.97861 283.07727 284.07962 284.98770
 285.80441 286.53171 287.16705 287.97672
 366.78100 356.34479 345.78659 334.66238 323.07517 311.27896 299.15876 286.97155
 274.69334 262.60014 250.61893 239.92972 230.06152 221.17531 213.36710 206.37889
 200.22269 195.17048 191.76227 189.81407 188.86086 188.93465 189.77945 191.09724
 192.83203 194.93682 197.20962 199.57841 202.03320 204.52300 206.62079 208.47258
 210.10838 211.26317 211.50196 211.73975 211.68655 211.40134 211.04413 210.68393
 210.31072 210.03051 209.84831 209.72210 209.65989 210.00068 210.39648 210.79527
 211.59806 212.78586 214.04565 215.83844 217.77624 219.82903 221.93382 224.02661
 226.09641 228.19020 230.29699 232.41279 234.55158 236.73337 238.99917 241.37896
 244.00975 246.27054 248.28234 250.05713 251.48392 252.61672 253.44851 253.77430
 253.82110 253.60489 252.97468 251.93247 250.54827 248.71906 246.63785 244.48065
 242.28144 240.09523 237.92503 235.77382 233.64361 231.52040 229.55620 227.72299
 226.01578 224.49758 223.13737 221.91916 220.81096 219.78075 218.89454 218.04533
 217.29713 216.48692 215.59471 214.96851 214.42830 215.09053 216.64024 217.64421
 218.85834 220.58607 221.58249 221.06886 220.11800 219.92981 221.07439 223.92757
 227.54018 231.86850 236.58032 241.27716 245.85136 250.10992 253.92931 257.28851
 260.24698 262.92200 265.44598 267.84814 270.06226 272.09717 274.00739 275.69772
 276.92883 277.60730 277.86618 278.70465 279.95569 281.06540 282.07785 282.99503
 283.81995 284.55453 285.19626 286.01407
 366.78100 356.34448 345.78596 334.66145 323.07393 311.27741 299.15689 286.96938
 274.69086 262.59734 250.61582 239.92630 230.05779 221.17127 213.36275 206.37423
 200.21771 195.16520 191.75668 189.80816 188.85464 188.92813 189.77261 191.09009
 192.82457 194.92905 197.20154 199.57002 202.02450 204.51398 206.61147 208.46295
 210.09843 211.25291 211.49139 211.72888 211.67536 211.38984 211.03232 210.67180
 210.29829 210.01777 209.83525 209.70873 209.64622 209.98670 210.38218 210.78066
 211.58314 212.77063 214.03011 215.82259 217.76007 219.81255 221.91704 224.00952
 226.07900 228.17248 230.27897 232.39445 234.53293 236.71441 238.97989 241.35938
 243.98986 246.25034 248.26182 250.03631 251.46279 252.59527 253.42675 253.75223
 253.79872 253.58220 252.95168 251.90916 250.52464 248.69513 246.61361 244.45609
 242.25657 240.07006 237.89954 235.74802 233.61750 231.49398 229.52947 227.69595
 225.98843 224.46991 223.10940 221.89088 220.78236 219.75184 218.86532 218.01581
 217.26729 216.45677 215.56425 214.93773 214.39722 215.05373 216.60568 217.73955
 218.68222 220.34560 221.51523 220.88173 219.77826 219.50806 220.99304 223.74670
 227.63844 231.96999 236.70270 241.41135 245.97691 250.22458 254.02425 257.39517
 260.38538 263.06369 265.52139 267.84744 270.04694 272.09952 274.02725 275.71463
 276.88077 277.53598 277.83908 278.06348 278.78125 279.83179 280.84357 281.76013
 282.58450 283.31860 283.95990 284.77716
 366.78100 356.34520 345.78740 334.66360 323.07680 311.28101 299.16121 286.97441
 274.69661 262.60381 250.62301 239.93421 230.06641 221.18061 213.37281 206.38502
 200.22922 195.17742 191.76962 189.82182 188.86902 188.94322 189.78842 191.10662
 192.84182 194.94703 197.22023 199.58943 202.04463 204.53483 206.63303 208.48523
 210.12143 211.27663 211.51583 211.75404 211.70124 211.41644 211.05964 210.69984
 210.32704 210.04724 209.86544 209.73964 209.67784 210.01905 210.41525 210.81445
 211.61765 212.80585 214.06605 215.85925 217.79745 219.85065 221.95585 224.04906
 226.11926 228.21346 230.32066 232.43686 234.57606 236.75826 239.02446 241.40466
 244.03586 246.29707 248.30927 250.08447 251.51167 252.64487 253.47707 253.80327
 253.85047 253.63467 253.00487 251.96308 250.57928 248.75048 246.66968 244.51288
 242.31408 240.12828 237.95848 235.80768 233.67788 231.55509 229.59129 227.75849
 226.05169 224.53389 223.17409 221.95629 220.84849 219.81869 218.93289 218.08410
 217.33630 216.52650 215.63470 215.00890 214.46910 215.07475 216.51073 217.84106
 218.74258 220.19699 221.44518 220.78531 219.57741 219.12303 220.78152 223.66141
 227.72627 232.08597 236.83842 241.55234 246.11694 250.35260 254.13470 257.51251
 260.53091 263.23544 265.67404 267.92477 270.06439 272.11414 274.07770 275.76331
 276.86188 277.45383 277.73041 277.95691 278.39691 279.17856 280.13205 281.03241
 281.85010 282.57828 283.21439 284.02502
 354.97500 345.04800 334.58700 324.11500 313.32600 302.53700 291.65000 280.76700
 269.93100 259.19300 248.62200 238.61700 229.08700 220.35500 212.54000 205.53500
 199.46400 194.49300 191.14300 189.19000 188.08900 188.01400 188.72400 189.90600
 191.46900 193.38200 195.40300 197.55600 199.80700 202.06000 204.28800 206.47900
 208.55200 210.37800 212.02500 213.65900 214.99800 216.11800 217.17200 218.25900
 219.49400 220.64500 221.67900 222.61400 223.54500 224.98200 226.57100 228.19000
 229.79700 231.81100 233.86500 235.97200 238.24200 240.55300 242.89900 245.25300
 247.48800 249.53500 251.36600 252.84800 254.09800 255.16700 256.02700 256.25300
 256.09500 255.54300 253.93500 252.56600 251.38400 250.24500 249.05200 247.70100
 246.01600 243.99600 241.78400 239.39300 236.81300 234.22300 231.65800 229.14400
 226.74000 224.47300 222.33500 220.32500 218.44000 216.67700 214.96200 213.47200
 212.20000 211.10800 210.26000 209.63900 209.24400 209.03100 209.05800 209.33300
 209.78400 210.62600 211.33100 212.39100 213.62500 214.84668 217.72949 219.47640
 220.32566 220.86828 220.88710 220.27371 219.43733 218.84250 219.04934 220.86203
 222.60583 225.72206 229.03064 232.61777 236.12270 239.51333 242.70767 245.68587
 248.41061 250.90679 253.19353 254.91714 256.48655 257.94920 259.39966 260.69384
 261.81714 262.77997 263.71679 264.54570 265.26305 265.89772 266.47676 267.00133
 267.47312 267.89325 268.26027 268.72800
