|-------------------------------------------------------------------------|
|   File Name : in_temp.dat
|   Subject   : temperature profiles used for initial guess atmosphere
|   File Type : input of gmtr
|   Data Type : atmospherical data
|   Author/s  : WRF-Chem
|   Date      : Fri Jul 26 15:39:24 2024
|-------------------------------------------------------------------------|

 WRF-Chem temperature
#
 values of T (K)    (8f10.5)
#
 354.97500 345.04800 334.58700 324.11500 313.32600 302.53700 291.65000 280.76700
 269.93100 259.19300 248.62200 238.61700 229.08700 220.35500 212.54000 205.53500
 199.46400 194.49300 191.14300 189.19000 188.08900 188.01400 188.72400 189.90600
 191.46900 193.38200 195.40300 197.55600 199.80700 202.06000 204.28800 206.47900
 208.55200 210.37800 212.02500 213.65900 214.99800 216.11800 217.17200 218.25900
 219.49400 220.64500 221.67900 222.61400 223.54500 224.98200 226.57100 228.19000
 229.79700 231.81100 233.86500 235.97200 238.24200 240.55300 242.89900 245.25300
 247.48800 249.53500 251.36600 252.84800 254.09800 255.16700 256.02700 256.25300
 256.09500 255.54300 253.93500 252.56600 251.38400 250.24500 249.05200 247.70100
 246.01600 243.99600 241.78400 239.39300 236.81300 234.22300 231.65800 229.14400
 226.74000 224.47300 222.33500 220.32500 218.44000 216.67700 214.96200 213.47200
 212.20000 211.10800 210.26000 209.63900 209.24400 209.03100 209.05800 209.33300
 209.78400 210.62600 211.33100 212.39100 213.62500 214.84668 217.72949 219.47640
 220.32566 220.86828 220.88710 220.27371 219.43733 218.84250 219.04934 220.86203
 222.60583 225.72206 229.03064 232.61777 236.12270 239.51333 242.70767 245.68587
 248.41061 250.90679 253.19353 254.91714 256.48655 257.94920 259.39966 260.69384
 261.81714 262.77997 263.71679 264.54570 265.26305 265.89772 266.47676 267.00133
 267.47312 267.89325 268.26027 268.72800
 366.78100 356.33500 345.76700 334.63300 323.03600 311.23000 299.10000 286.90300
 274.61500 262.51200 250.52100 239.82200 229.94400 221.04800 213.23000 206.23200
 200.06600 195.00400 191.58600 189.62800 188.66500 188.72900 189.56400 190.87200
 192.59700 194.69200 196.95500 199.31400 201.75900 204.23900 206.32700 208.16900
 209.79500 210.94000 211.16900 211.39700 211.33400 211.03900 210.67200 210.30200
 209.91900 209.62900 209.43700 209.30100 209.22900 209.56000 209.94600 210.33500
 211.12800 212.30600 213.55600 215.33900 217.26700 219.31000 221.40500 223.48800
 225.54800 227.63200 229.72900 231.83500 233.96400 236.13600 238.39200 240.76200
 243.38300 245.63400 247.63600 249.40100 250.81800 251.94100 252.76300 253.07900
 253.11600 252.89000 252.25000 251.19800 249.80400 247.96500 245.87400 243.70700
 241.49800 239.30200 237.12200 234.96100 232.82100 230.68800 228.71400 226.87100
 225.15400 223.62600 222.25600 221.02800 219.91000 218.87000 217.97400 217.11500
 216.35700 215.53700 214.63500 213.99900 213.44900 212.85855 212.01316 212.61654
 214.26826 216.08686 218.14273 220.53346 223.40855 226.78828 231.49734 235.90155
 239.42278 243.28576 247.23140 251.11907 254.80144 258.23331 261.38913 264.27520
 266.89312 269.26852 271.44504 273.08845 274.58484 275.98591 277.39845 278.65879
 279.75272 280.69038 281.56708 282.34086 283.01050 283.60295 284.14348 284.63317
 285.07358 285.46577 285.80838 286.24500
 381.81900 372.39900 361.20600 349.77600 337.62200 324.85300 311.81000 298.35300
 284.86000 271.32400 258.56100 246.30400 236.08700 226.79600 218.44800 211.29000
 205.52200 200.89400 197.38100 194.84800 193.01500 192.31500 192.25000 192.43100
 192.91200 193.53700 194.13600 194.71200 195.26200 195.83100 196.39300 196.97600
 197.60400 198.14900 198.58400 199.05700 199.69500 200.37800 201.05400 201.70800
 202.31300 202.85700 203.35500 203.86200 204.56900 205.29700 206.02600 206.98700
 208.19300 209.44100 210.96900 212.57600 214.46200 216.51300 218.63000 220.85300
 223.34100 225.96200 228.73900 231.69700 234.70600 237.70600 240.69200 243.65700
 246.73700 249.69900 252.52100 255.06300 257.29000 259.23300 260.63300 261.68000
 262.46100 262.79800 262.69100 262.22400 261.06900 259.52500 257.70700 255.50700
 253.00100 250.30200 247.39800 244.45200 241.65400 239.05400 236.73300 234.59000
 232.59500 230.72500 228.83400 226.82600 224.66600 222.38700 220.10400 217.71500
 215.45900 213.06600 210.54600 208.09300 205.35400 202.08130 196.05959 200.71215
 209.01611 216.90438 223.84126 229.78593 235.00632 240.20838 245.98943 250.68668
 254.32982 257.93487 261.55666 264.96801 268.15192 271.06452 273.76717 276.25691
 278.57680 280.74479 282.77456 284.60533 286.27232 287.81705 289.31715 290.65561
 291.81734 292.81312 293.70701 294.49387 295.17482 295.77730 296.32696 296.82492
 297.27278 297.67160 298.02000 298.46400
 399.33000 389.90700 379.81300 368.66800 357.52200 345.30100 333.07400 320.22700
 307.21600 293.84800 280.37600 267.29600 254.61000 242.98700 232.15100 221.97700
 212.67200 204.28600 197.66900 192.82100 189.48600 187.45200 186.81400 187.08900
 187.78100 189.05400 190.64800 192.54200 194.63000 196.75200 198.67100 200.15800
 201.53500 202.48700 202.97500 203.34000 203.53900 203.49700 203.38500 203.24700
 203.00500 202.78600 202.60300 202.43700 202.42600 202.88800 203.42000 203.95100
 204.89500 205.99200 207.30100 208.95800 210.73800 213.10000 215.56400 218.18000
 220.96600 223.91800 226.96100 230.09200 233.29300 236.55700 239.95500 243.53700
 246.84500 249.39000 251.54200 253.47400 255.19500 256.48400 257.43100 258.05900
 258.21200 258.04000 257.58200 256.64300 255.23900 253.50700 251.40800 249.05600
 246.57600 243.99400 241.38900 238.83000 236.34400 233.98600 231.96900 230.11800
 228.42300 226.89900 225.54800 224.29700 223.10500 221.96500 220.95800 220.11300
 219.49000 218.92000 218.32500 217.88100 217.42300 216.96366 216.35568 216.80261
 217.73415 218.28582 218.64258 219.10077 220.44626 222.53987 226.38451 230.35736
 233.59734 237.39164 241.29814 245.22796 248.98002 252.51130 255.78595 258.80109
 261.54781 264.05210 266.34239 268.04198 269.58951 271.01303 272.35754 273.55718
 274.59842 275.49092 276.28989 276.99307 277.60161 278.14001 278.63122 279.07623
 279.47646 279.83287 280.14422 280.54100
 399.73800 389.78500 379.66200 368.15100 356.64100 344.35000 331.79200 318.88800
 305.72600 292.49300 279.20900 266.73800 254.69600 244.21100 234.45700 225.43300
 217.56900 210.45100 204.30000 199.30600 195.45800 192.57600 191.02700 190.38600
 190.23900 190.53400 191.16600 191.92500 192.79500 193.76600 194.73200 195.31200
 195.80000 196.05200 196.11500 196.11500 196.03900 195.72300 195.34000 194.98900
 194.75100 194.79200 195.13300 195.59800 196.50600 198.13600 199.85800 201.56600
 204.17900 206.82300 209.89300 213.28400 216.82800 220.60500 224.38700 228.20900
 232.03200 235.82500 239.56000 243.25800 246.84500 250.20100 253.70900 257.46800
 261.53000 264.22100 266.60100 268.68100 270.32900 271.74100 272.83600 273.47400
 273.89800 274.00200 273.75700 273.28800 272.37100 271.10000 269.58900 267.77900
 265.81600 263.72100 261.39300 258.91600 256.29800 253.42300 250.33100 247.11400
 243.83700 240.52900 237.24900 233.99900 230.72800 227.51500 224.25400 220.95200
 217.62700 213.65600 210.12100 206.78900 204.01000 201.99491 199.07309 198.76551
 199.40006 200.48994 201.46112 202.31912 203.45100 204.96110 207.47502 210.85391
 213.70530 217.29629 220.99574 224.72316 228.28753 231.64854 234.68024 237.40893
 239.70644 241.60899 243.46854 245.67368 247.68154 249.52395 251.24767 252.78566
 254.12057 255.26479 256.23740 257.09036 257.82852 258.48160 259.07744 259.61723
 260.10271 260.53504 260.91270 261.39400
 399.73800 389.78500 379.66200 368.15100 356.64100 344.35000 331.79200 318.88800
 305.72600 292.49300 279.20900 266.73800 254.69600 244.21100 234.45700 225.43300
 217.56900 210.45100 204.30000 199.30600 195.45800 192.57600 191.02700 190.38600
 190.23900 190.53400 191.16600 191.92500 192.79500 193.76600 194.73200 195.31200
 195.80000 196.05200 196.11500 196.11500 196.03900 195.72300 195.34000 194.98900
 194.75100 194.79200 195.13300 195.59800 196.50600 198.13600 199.85800 201.56600
 204.17900 206.82300 209.89300 213.28400 216.82800 220.60500 224.38700 228.20900
 232.03200 235.82500 239.56000 243.25800 246.84500 250.20100 253.70900 257.46800
 261.53000 264.22100 266.60100 268.68100 270.32900 271.74100 272.83600 273.47400
 273.89800 274.00200 273.75700 273.28800 272.37100 271.10000 269.58900 267.77900
 265.81600 263.72100 261.39300 258.91600 256.29800 253.42300 250.33100 247.11400
 243.83700 240.52900 237.24900 233.99900 230.72800 227.51500 224.25400 220.95200
 217.62700 213.65600 210.12100 206.78900 204.01000 201.99491 199.07309 198.76551
 199.40006 200.48994 201.46112 202.31912 203.45100 204.96110 207.47502 210.85391
 213.70530 217.29629 220.99574 224.72316 228.28753 231.64854 234.68024 237.40893
 239.70644 241.60899 243.46854 245.67368 247.68154 249.52395 251.24767 252.78566
 254.12057 255.26479 256.23740 257.09036 257.82852 258.48160 259.07744 259.61723
 260.10271 260.53504 260.91270 261.39400
 399.33000 389.90700 379.81300 368.66800 357.52200 345.30100 333.07400 320.22700
 307.21600 293.84800 280.37600 267.29600 254.61000 242.98700 232.15100 221.97700
 212.67200 204.28600 197.66900 192.82100 189.48600 187.45200 186.81400 187.08900
 187.78100 189.05400 190.64800 192.54200 194.63000 196.75200 198.67100 200.15800
 201.53500 202.48700 202.97500 203.34000 203.53900 203.49700 203.38500 203.24700
 203.00500 202.78600 202.60300 202.43700 202.42600 202.88800 203.42000 203.95100
 204.89500 205.99200 207.30100 208.95800 210.73800 213.10000 215.56400 218.18000
 220.96600 223.91800 226.96100 230.09200 233.29300 236.55700 239.95500 243.53700
 246.84500 249.39000 251.54200 253.47400 255.19500 256.48400 257.43100 258.05900
 258.21200 258.04000 257.58200 256.64300 255.23900 253.50700 251.40800 249.05600
 246.57600 243.99400 241.38900 238.83000 236.34400 233.98600 231.96900 230.11800
 228.42300 226.89900 225.54800 224.29700 223.10500 221.96500 220.95800 220.11300
 219.49000 218.92000 218.32500 217.88100 217.42300 216.96366 216.35568 216.80261
 217.73415 218.28582 218.64258 219.10077 220.44626 222.53987 226.38451 230.35736
 233.59734 237.39164 241.29814 245.22796 248.98002 252.51130 255.78595 258.80109
 261.54781 264.05210 266.34239 268.04198 269.58951 271.01303 272.35754 273.55718
 274.59842 275.49092 276.28989 276.99307 277.60161 278.14001 278.63122 279.07623
 279.47646 279.83287 280.14422 280.54100
 381.81900 372.39900 361.20600 349.77600 337.62200 324.85300 311.81000 298.35300
 284.86000 271.32400 258.56100 246.30400 236.08700 226.79600 218.44800 211.29000
 205.52200 200.89400 197.38100 194.84800 193.01500 192.31500 192.25000 192.43100
 192.91200 193.53700 194.13600 194.71200 195.26200 195.83100 196.39300 196.97600
 197.60400 198.14900 198.58400 199.05700 199.69500 200.37800 201.05400 201.70800
 202.31300 202.85700 203.35500 203.86200 204.56900 205.29700 206.02600 206.98700
 208.19300 209.44100 210.96900 212.57600 214.46200 216.51300 218.63000 220.85300
 223.34100 225.96200 228.73900 231.69700 234.70600 237.70600 240.69200 243.65700
 246.73700 249.69900 252.52100 255.06300 257.29000 259.23300 260.63300 261.68000
 262.46100 262.79800 262.69100 262.22400 261.06900 259.52500 257.70700 255.50700
 253.00100 250.30200 247.39800 244.45200 241.65400 239.05400 236.73300 234.59000
 232.59500 230.72500 228.83400 226.82600 224.66600 222.38700 220.10400 217.71500
 215.45900 213.06600 210.54600 208.09300 205.35400 202.08130 196.05959 200.71215
 209.01611 216.90438 223.84126 229.78593 235.00632 240.20838 245.98943 250.68668
 254.32982 257.93487 261.55666 264.96801 268.15192 271.06452 273.76717 276.25691
 278.57680 280.74479 282.77456 284.60533 286.27232 287.81705 289.31715 290.65561
 291.81734 292.81312 293.70701 294.49387 295.17482 295.77730 296.32696 296.82492
 297.27278 297.67160 298.02000 298.46400
 366.78100 356.35504 345.80707 334.69311 323.11614 311.33018 299.22021 287.04325
 274.77529 262.69232 250.72136 240.04239 230.18443 221.30846 213.51050 206.53254
 200.38657 195.34461 191.94664 190.00868 189.06572 189.14975 190.00479 191.33282
 193.07786 195.19289 197.47593 199.85497 202.32000 204.82004 206.92807 208.79011
 210.43614 211.60118 211.85022 212.09825 212.05529 211.78032 211.43336 211.08339
 210.72043 210.45047 210.27850 210.16254 210.11057 210.46161 210.86764 211.27668
 212.08972 213.28775 214.55779 216.36082 218.30886 220.37190 222.48693 224.58997
 226.67000 228.77404 230.89107 233.01711 235.16615 237.35818 239.63422 242.02425
 244.66529 246.93632 248.95836 250.74340 252.18043 253.32347 254.16550 254.50154
 254.55857 254.35261 253.73265 252.70068 251.32672 249.50775 247.43679 245.28982
 243.10086 240.92490 238.76493 236.62397 234.50400 232.39104 230.43708 228.61411
 226.91715 225.40918 224.05922 222.85125 221.75329 220.73333 219.85736 219.01840
 218.28043 217.48047 216.59850 215.98254 215.45258 213.73360 209.70045 208.92459
 210.13542 210.61800 211.94347 215.51678 219.87846 224.67294 230.44766 235.46642
 239.32368 243.37857 247.72826 251.99889 255.57268 258.49869 261.12613 263.79453
 266.62497 269.29367 271.89151 274.50412 276.54541 278.09552 279.43457 281.02240
 283.06458 284.84558 286.38968 287.74847 288.92276 289.95969 290.90707 291.76367
 292.53214 293.21552 293.80945 294.54254
 366.78100 356.35527 345.80754 334.69381 323.11708 311.33135 299.22162 287.04489
 274.77716 262.69443 250.72370 240.04497 230.18724 221.31151 213.51378 206.53605
 200.39032 195.34859 191.95087 190.01314 189.07041 189.15468 190.00995 191.33822
 193.08349 195.19876 197.48203 199.86130 202.32657 204.82684 206.93511 208.79738
 210.44365 211.60892 211.85819 212.10646 212.06373 211.78900 211.44227 211.09254
 210.72981 210.46008 210.28835 210.17262 210.12089 210.47216 210.87843 211.28770
 212.10097 213.29924 214.56951 216.37278 218.32105 220.38433 222.49960 224.60287
 226.68314 228.78741 230.90468 233.03095 235.18022 237.37249 239.64876 242.03903
 244.68030 246.95157 248.97384 250.75911 252.19638 253.33965 254.18192 254.51819
 254.57546 254.36973 253.75000 252.71827 251.34454 249.52581 247.45508 245.30835
 243.11962 240.94389 238.78416 236.64343 234.52370 232.41097 230.45724 228.63451
 226.93779 225.43006 224.08033 222.87260 221.77487 220.75514 219.87941 219.04068
 218.30295 217.50322 216.62149 216.00576 215.47603 213.76653 209.75407 208.97063
 210.15096 210.67235 211.97101 215.45714 219.81390 224.61209 230.38107 235.38768
 239.24103 243.29684 247.65182 251.93541 255.53581 258.49741 261.13385 263.77676
 266.59232 269.25549 271.84982 274.44418 276.45508 277.98923 279.35623 280.98297
 283.05496 284.83783 286.38226 287.73944 288.91409 289.95148 290.89734 291.75351
 292.52148 293.20435 293.79657 294.53220
 366.78100 356.35564 345.80828 334.69492 323.11856 311.33321 299.22385 287.04749
 274.78013 262.69777 250.72741 240.04905 230.19169 221.31634 213.51898 206.54162
 200.39626 195.35490 191.95754 190.02018 189.07782 189.16247 190.01811 191.34675
 193.09239 195.20803 197.49167 199.87131 202.33695 204.83760 206.94624 208.80888
 210.45552 211.62116 211.87080 212.11944 212.07708 211.80273 211.45637 211.10701
 210.74465 210.47529 210.30393 210.18857 210.13721 210.48886 210.89550 211.30514
 212.11878 213.31742 214.58806 216.39170 218.34034 220.40398 222.51963 224.62327
 226.70391 228.80855 230.92619 233.05283 235.20247 237.39511 239.67176 242.06240
 244.70404 246.97568 248.99832 250.78396 252.22160 253.36524 254.20789 254.54453
 254.60217 254.39681 253.77745 252.74609 251.37273 249.55437 247.48402 245.33766
 243.14930 240.97394 238.81458 236.67422 234.55486 232.44250 230.48915 228.66679
 226.97043 225.46307 224.11371 222.90635 221.80899 220.78963 219.91428 219.07592
 218.33856 217.53920 216.65784 216.04248 215.51312 213.80452 209.79311 209.03261
 210.16548 210.72256 211.98427 215.40492 219.76758 224.55484 230.30017 235.30724
 239.16362 243.22340 247.58051 251.87323 255.49719 258.49338 261.14026 263.75888
 266.55875 269.21558 271.80447 274.37967 276.36136 277.88043 279.27853 280.95224
 283.03613 284.82175 286.36798 287.72543 288.89932 289.93707 290.88260 291.73813
 292.50534 293.18744 293.77884 294.51230
 366.78100 356.35590 345.80880 334.69570 323.11960 311.33449 299.22539 287.04929
 274.78219 262.70009 250.72999 240.05189 230.19479 221.31968 213.52258 206.54548
 200.40038 195.35928 191.96218 190.02508 189.08298 189.16787 190.02377 191.35267
 193.09857 195.21447 197.49837 199.87827 202.34417 204.84507 206.95396 208.81686
 210.46376 211.62966 211.87956 212.12846 212.08636 211.81226 211.46615 211.11705
 210.75495 210.48585 210.31475 210.19965 210.14855 210.50045 210.90734 211.31724
 212.13114 213.33004 214.60094 216.40484 218.35374 220.41764 222.53353 224.63743
 226.71833 228.82323 230.94113 233.06803 235.21793 237.41083 239.68773 242.07862
 244.72052 246.99242 249.01532 250.80122 252.23912 253.38302 254.22592 254.56281
 254.62071 254.41561 253.79651 252.76541 251.39231 249.57421 247.50411 245.35800
 243.16990 240.99480 238.83570 236.69560 234.57650 232.46440 230.51130 228.68920
 226.99309 225.48599 224.13689 222.92979 221.83269 220.81359 219.93849 219.10039
 218.36328 217.56418 216.68308 216.06798 215.53888 213.83549 209.83528 209.09792
 210.18279 210.76389 211.99631 215.36270 219.71539 224.49553 230.22060 235.22998
 239.09090 243.15460 247.51094 251.81107 255.45695 258.48807 261.14792 263.74301
 266.52499 269.17297 271.75479 274.31003 276.26382 277.77023 279.19977 280.92191
 283.01083 284.79913 286.34668 287.70468 288.87869 289.91623 290.86133 291.71683
 292.48288 293.16403 293.75424 294.48480
 366.78100 356.35600 345.80901 334.69601 323.12001 311.33502 299.22602 287.05002
 274.78303 262.70103 250.73103 240.05303 230.19604 221.32104 213.52404 206.54705
 200.40205 195.36105 191.96406 190.02706 189.08506 189.17007 190.02607 191.35507
 193.10108 195.21708 197.50108 199.88109 202.34709 204.84809 206.95709 208.82010
 210.46710 211.63310 211.88311 212.13211 212.09011 211.81612 211.47012 211.12112
 210.75913 210.49013 210.31913 210.20414 210.15314 210.50514 210.91215 211.32215
 212.13615 213.33516 214.60616 216.41016 218.35916 220.42317 222.53917 224.64317
 226.72418 228.82918 230.94718 233.07419 235.22419 237.41719 239.69420 242.08520
 244.72720 246.99921 249.02221 250.80821 252.24622 253.39022 254.23322 254.57022
 254.62823 254.42323 253.80423 252.77324 251.40024 249.58224 247.51225 245.36625
 243.17825 241.00326 238.84426 236.70426 234.58527 232.47327 230.52027 228.69828
 227.00228 225.49528 224.14628 222.93929 221.84229 220.82329 219.94830 219.11030
 218.37330 217.57431 216.69331 216.07831 215.54932 213.85785 209.88443 209.16353
 210.20326 210.79617 212.00693 215.32744 219.65967 224.43422 230.14722 235.15749
 239.02039 243.08661 247.44221 251.74937 255.41768 258.48407 261.15714 263.72873
 266.49008 269.12704 271.70004 274.23468 276.16364 277.66324 279.12448 280.88898
 282.97983 284.76935 286.31744 287.67548 288.84836 289.88647 290.83218 291.68500
 292.45016 293.12991 293.71863 294.44580
 366.78100 356.35592 345.80884 334.69576 323.11968 311.33460 299.22553 287.04945
 274.78237 262.70029 250.73021 240.05213 230.19505 221.31997 213.52289 206.54581
 200.40073 195.35966 191.96258 190.02550 189.08342 189.16834 190.02426 191.35318
 193.09910 195.21502 197.49894 199.87886 202.34479 204.84571 206.95463 208.81755
 210.46447 211.63039 211.88031 212.12923 212.08715 211.81307 211.46699 211.11792
 210.75584 210.48676 210.31568 210.20060 210.14952 210.50144 210.90836 211.31828
 212.13220 213.33113 214.60205 216.40597 218.35489 220.41881 222.53473 224.63865
 226.71957 228.82449 230.94241 233.06933 235.21926 237.41218 239.68910 242.08002
 244.72194 246.99386 249.01678 250.80270 252.24062 253.38454 254.22746 254.56439
 254.62231 254.41723 253.79815 252.76707 251.39399 249.57591 247.50583 245.35975
 243.17167 240.99659 238.83752 236.69744 234.57836 232.46628 230.51320 228.69112
 226.99504 225.48796 224.13888 222.93180 221.83472 220.81565 219.94057 219.10249
 218.36541 217.56633 216.68525 216.07017 215.54109 213.86949 209.94151 209.22929
 210.22818 210.81934 212.01439 215.30042 219.60150 224.36923 230.07774 235.08714
 238.95079 243.01932 247.37526 251.68941 255.37999 258.48102 261.16818 263.71655
 266.45581 269.07962 271.64029 274.15393 276.06024 277.55521 279.04770 280.85001
 282.94186 284.73218 286.28055 287.63782 288.81204 289.84753 290.79312 291.64526
 292.40906 293.08698 293.67358 294.39560
 366.78100 356.35577 345.80853 334.69530 323.11907 311.33383 299.22460 287.04837
 274.78113 262.69890 250.72867 240.05043 230.19320 221.31797 213.52073 206.54350
 200.39827 195.35703 191.95980 190.02257 189.08033 189.16510 190.02087 191.34963
 193.09540 195.21117 197.49493 199.87470 202.34047 204.84123 206.95000 208.81277
 210.45953 211.62530 211.87507 212.12383 212.08160 211.80737 211.46113 211.11190
 210.74967 210.48043 210.30920 210.19397 210.14273 210.49450 210.90127 211.31103
 212.12480 213.32357 214.59433 216.39810 218.34687 220.41063 222.52640 224.63017
 226.71093 228.81570 230.93347 233.06023 235.21000 237.40277 239.67953 242.07030
 244.71207 246.98383 249.00660 250.79237 252.23013 253.37390 254.21667 254.55343
 254.61120 254.40597 253.78673 252.75550 251.38227 249.56403 247.49380 245.34757
 243.15933 240.98410 238.82487 236.68463 234.56540 232.45317 230.49993 228.67770
 226.98147 225.47423 224.12500 222.91777 221.82053 220.80130 219.92607 219.08783
 218.35060 217.55137 216.67013 216.05490 215.52567 213.87610 209.99870 209.30040
 210.25868 210.83382 212.02167 215.27899 219.53896 224.29892 230.00914 235.01752
 238.88162 242.95331 247.30988 251.63037 255.34315 258.47916 261.18164 263.70859
 266.42535 269.03271 271.57675 274.06827 275.95538 277.44833 278.97040 280.80615
 282.89743 284.68683 286.23544 287.59085 288.76453 289.79868 290.74207 291.59036
 292.35312 293.02820 293.61502 294.33115
 366.78100 356.35560 345.80819 334.69479 323.11838 311.33298 299.22357 287.04717
 274.77976 262.69736 250.72695 240.04855 230.19114 221.31574 213.51833 206.54093
 200.39552 195.35412 191.95671 190.01931 189.07690 189.16150 190.01709 191.34569
 193.09128 195.20688 197.49047 199.87007 202.33566 204.83626 206.94485 208.80745
 210.45404 211.61964 211.86923 212.11783 212.07543 211.80102 211.45462 211.10521
 210.74281 210.47340 210.30200 210.18659 210.13519 210.48678 210.89338 211.30297
 212.11657 213.31516 214.58576 216.38935 218.33795 220.40154 222.51714 224.62073
 226.70133 228.80592 230.92352 233.05011 235.19971 237.39230 239.66890 242.05949
 244.70109 246.97268 248.99528 250.78087 252.21847 253.36206 254.20466 254.54126
 254.59885 254.39345 253.77404 252.74264 251.36923 249.55083 247.48042 245.33402
 243.14561 240.97021 238.81080 236.67040 234.55099 232.43859 230.48518 228.66278
 226.96637 225.45897 224.10956 222.90216 221.80475 220.78535 219.90994 219.07154
 218.33413 217.53473 216.65332 216.03792 215.50851 213.88055 210.05292 209.37639
 210.29866 210.84062 212.02602 215.26146 219.47099 224.22299 229.94038 234.94974
 238.81534 242.89075 247.24794 251.57350 255.30641 258.47739 261.19824 263.70609
 266.39835 268.98502 271.50864 273.97729 275.84955 277.34387 278.89127 280.75131
 282.84152 284.62967 286.17584 287.53146 288.70245 289.73734 290.67688 291.52377
 292.27997 292.95294 293.53516 294.24326
 366.78100 356.35558 345.80817 334.69475 323.11834 311.33292 299.22351 287.04709
 274.77968 262.69726 250.72685 240.04843 230.19102 221.31560 213.51819 206.54077
 200.39536 195.35394 191.95653 190.01911 189.07670 189.16128 190.01686 191.34545
 193.09103 195.20662 197.49020 199.86979 202.33537 204.83596 206.94454 208.80713
 210.45371 211.61930 211.86888 212.11747 212.07505 211.80064 211.45422 211.10481
 210.74239 210.47298 210.30156 210.18615 210.13473 210.48631 210.89290 211.30248
 212.11607 213.31465 214.58524 216.38882 218.33741 220.40099 222.51658 224.62016
 226.70075 228.80533 230.92292 233.04950 235.19909 237.39167 239.66826 242.05884
 244.70043 246.97201 248.99459 250.78018 252.21776 253.36135 254.20393 254.54052
 254.59810 254.39269 253.77327 252.74186 251.36844 249.55003 247.47961 245.33320
 243.14478 240.96937 238.80995 236.66954 234.55012 232.43771 230.48429 228.66187
 226.96546 225.45804 224.10863 222.90121 221.80380 220.78438 219.90897 219.07055
 218.33314 217.53372 216.65231 216.03689 215.50748 213.89192 210.09273 209.46619
 210.34796 210.84157 212.02640 215.23412 219.39728 224.14703 229.87419 234.88536
 238.75368 242.83386 247.19066 251.51884 255.26985 258.47504 261.21622 263.70746
 266.37384 268.93613 271.43500 273.88104 275.74557 277.24905 278.81653 280.68851
 282.77585 284.56104 286.10477 287.45862 288.62860 289.66089 290.59909 291.44431
 292.19800 292.86734 293.44611 294.13586
 366.78100 356.35523 345.80746 334.69369 323.11693 311.33116 299.22139 287.04462
 274.77685 262.69408 250.72332 240.04455 230.18678 221.31101 213.51324 206.53547
 200.38970 195.34794 191.95017 190.01240 189.06963 189.15386 190.00909 191.33733
 193.08256 195.19779 197.48102 199.86025 202.32548 204.82571 206.93395 208.79618
 210.44241 211.60764 211.85687 212.10510 212.06233 211.78757 211.44080 211.09103
 210.72826 210.45849 210.28672 210.17096 210.11919 210.47042 210.87665 211.28588
 212.09911 213.29734 214.56758 216.37081 218.31904 220.38227 222.49750 224.60073
 226.68097 228.78520 230.90243 233.02866 235.17789 237.37012 239.64635 242.03659
 244.67782 246.94905 248.97128 250.75651 252.19374 253.33698 254.17921 254.51544
 254.57267 254.36690 253.74713 252.71536 251.34160 249.52283 247.45206 245.30529
 243.11652 240.94075 238.78099 236.64022 234.52045 232.40768 230.45391 228.63114
 226.93437 225.42661 224.07684 222.86907 221.77130 220.75153 219.87576 219.03700
 218.29923 217.49946 216.61769 216.00192 215.47215 213.88515 210.15196 209.53627
 210.42018 210.84908 211.99782 215.21523 219.32237 224.06259 229.80717 234.81996
 238.69321 242.78047 247.13704 251.46620 255.23320 258.47263 261.23682 263.71240
 266.35147 268.88586 271.35526 273.77740 275.64139 277.15881 278.74854 280.63428
 282.69754 284.48288 286.02640 287.38104 288.54926 289.57587 290.50568 291.35129
 292.10150 292.76642 293.31656 293.93692
 366.78100 356.35611 345.80921 334.69632 323.12042 311.33553 299.22664 287.05074
 274.78385 262.70196 250.73206 240.05417 230.19727 221.32238 213.52549 206.54859
 200.40370 195.36280 191.96591 190.02902 189.08712 189.17223 190.02834 191.35744
 193.10355 195.21965 197.50376 199.88387 202.34997 204.85108 206.96018 208.82329
 210.47040 211.63650 211.88661 212.13572 212.09382 211.81993 211.47403 211.12514
 210.76325 210.49435 210.32346 210.20856 210.15767 210.50978 210.91688 211.32699
 212.14110 213.34020 214.61131 216.41541 218.36452 220.42863 222.54473 224.64884
 226.72995 228.83505 230.95316 233.08026 235.23037 237.42348 239.70058 242.09169
 244.73379 247.00590 249.02901 250.81511 252.25322 253.39733 254.24043 254.57754
 254.63564 254.43075 253.81186 252.78096 251.40807 249.59017 247.52028 245.37439
 243.18649 241.01160 238.85271 236.71281 234.59392 232.48202 230.52913 228.70724
 227.01134 225.50445 224.15555 222.94866 221.85177 220.83287 219.95798 219.12009
 218.38319 217.58430 216.70340 216.08851 215.55962 213.93999 210.13007 209.65645
 210.51480 210.83313 211.99823 215.16299 219.21027 223.97701 229.74345 234.76364
 238.64473 242.74280 247.09613 251.42320 255.20419 258.47363 261.25812 263.71609
 266.32297 268.82407 271.26065 273.65717 275.52356 277.06094 278.67346 280.57239
 282.60669 284.39307 285.93442 287.28687 288.45361 289.47580 290.40475 291.24716
 292.00146 292.66861 293.22675 293.76163
 366.78100 356.35751 345.81202 334.70053 323.12604 311.34255 299.23505 287.06056
 274.79507 262.71458 250.74609 240.06960 230.21411 221.34062 213.54513 206.56964
 200.42614 195.38665 191.99116 190.05567 189.11518 189.20169 190.05920 191.38971
 193.13722 195.25473 197.54024 199.92174 202.38925 204.89176 207.00227 208.86678
 210.51529 211.68280 211.93431 212.18482 212.14433 211.87183 211.52734 211.17985
 210.81936 210.55187 210.38238 210.26889 210.21940 210.57291 210.98142 211.39293
 212.20843 213.40894 214.68145 216.48696 218.43747 220.50298 222.62049 224.72600
 226.80851 228.91502 231.03453 233.16303 235.31454 237.50905 239.78756 242.18007
 244.82358 247.09709 249.12160 250.90911 252.34862 253.49412 254.33863 254.67714
 254.73665 254.53316 253.91567 252.88618 251.51469 249.69820 247.62971 245.48522
 243.29872 241.12523 238.96774 236.82925 234.71176 232.60127 230.64978 228.82929
 227.13480 225.62931 224.28181 223.07632 221.98083 220.96334 220.08985 219.25336
 218.51787 217.72038 216.84089 216.22740 215.69991 214.03188 210.11842 209.68044
 210.74568 210.82420 211.82356 215.10986 219.15753 223.91411 229.70432 234.73450
 238.61267 242.72614 247.06749 251.38007 255.17647 258.47305 261.27798 263.73123
 266.29117 268.75665 271.15393 273.50339 275.37012 276.93625 278.58054 280.50162
 282.51538 284.29343 285.83295 287.18207 288.34631 289.36536 290.29459 291.14087
 291.89996 292.49936 292.86783 293.26727
 366.78100 356.35670 345.81040 334.69810 323.12279 311.33849 299.23019 287.05489
 274.78859 262.70729 250.73798 240.06068 230.20438 221.33008 213.53378 206.55748
 200.41317 195.37287 191.97657 190.04027 189.09897 189.18467 190.04136 191.37106
 193.11776 195.23446 197.51916 199.89986 202.36655 204.86825 206.97795 208.84165
 210.48935 211.65605 211.90674 212.15644 212.11514 211.84184 211.49654 211.14824
 210.78693 210.51863 210.34833 210.23403 210.18373 210.53643 210.94412 211.35482
 212.16952 213.36922 214.64092 216.44562 218.39531 220.46001 222.57671 224.68141
 226.76311 228.86881 230.98750 233.11520 235.26590 237.45960 239.73730 242.12900
 244.77169 247.04439 249.06809 250.85479 252.29349 253.43819 254.28188 254.61958
 254.67828 254.47398 253.85568 252.82538 251.45307 249.63577 247.56647 245.42117
 243.23387 241.05957 238.90127 236.76196 234.64366 232.53236 230.58006 228.75876
 227.06346 225.55715 224.20885 223.00255 221.90625 220.88795 220.01365 219.17634
 218.44004 217.64174 216.76144 216.14714 215.61884 214.01642 210.27846 209.64796
 210.81293 210.88379 211.76785 215.00340 219.07986 223.86392 229.65483 234.68962
 238.56009 242.70050 247.03728 251.32703 255.15030 258.48541 261.32303 263.80197
 266.29474 268.70755 271.06238 273.33582 275.20319 276.80280 278.48392 280.42429
 282.41278 284.18515 285.72189 287.06711 288.21503 289.22620 290.15628 290.99557
 291.67178 292.03317 292.28375 292.60309
 366.78100 356.35479 345.80658 334.69236 323.11515 311.32894 299.21873 287.04151
 274.77330 262.69009 250.71888 240.03966 230.18145 221.30524 213.50703 206.52881
 200.38260 195.34039 191.94218 190.00397 189.06075 189.14454 189.99933 191.32712
 193.07190 195.18669 197.46948 199.84827 202.31305 204.81284 206.92063 208.78242
 210.42820 211.59299 211.84178 212.08957 212.04636 211.77114 211.42393 211.07372
 210.71051 210.44029 210.26808 210.15187 210.09966 210.45044 210.85623 211.26502
 212.07781 213.27559 214.54538 216.34817 218.29596 220.35875 222.47353 224.57632
 226.65611 228.75990 230.87668 233.00247 235.15126 237.34305 239.61883 242.00862
 244.64941 246.92020 248.94198 250.72677 252.16356 253.30635 254.14814 254.48392
 254.54071 254.33450 253.71429 252.68207 251.30786 249.48865 247.41744 245.27022
 243.08101 240.90480 238.74459 236.60337 234.48316 232.36995 230.41574 228.59253
 226.89531 225.38710 224.03689 222.82868 221.73046 220.71025 219.83404 218.99483
 218.25661 217.45640 216.57419 215.95798 215.42776 213.93938 210.48097 209.65698
 210.71181 210.91968 211.82863 214.92596 218.99800 223.81049 229.59233 234.62619
 238.49745 242.66310 247.00415 251.27608 255.12859 258.51141 261.39023 263.90482
 266.34958 268.71210 271.02472 273.21658 275.06668 276.67853 278.38086 280.33008
 282.29648 284.06476 285.60049 286.94113 288.08691 289.10352 290.03607 290.80002
 291.14056 291.49188 291.79880 292.18991
 366.78100 356.35280 345.80259 334.68639 323.10719 311.31899 299.20678 287.02758
 274.75738 262.67218 250.69897 240.01777 230.15757 221.27936 213.47916 206.49896
 200.35076 195.30655 191.90635 189.96615 189.02095 189.10274 189.95554 191.28134
 193.02414 195.13693 197.41773 199.79453 202.25732 204.75512 206.86092 208.72072
 210.36451 211.52731 211.77411 212.01991 211.97470 211.69750 211.34830 210.99609
 210.63089 210.35869 210.18449 210.06628 210.01208 210.36088 210.76468 211.17147
 211.98227 213.17807 214.44586 216.24666 218.19246 220.25326 222.36605 224.46685
 226.54465 228.64645 230.76124 232.88504 235.03184 237.22163 239.49543 241.88323
 244.52203 246.79082 248.81062 250.59342 252.02822 253.16901 254.00881 254.34261
 254.39741 254.18920 253.56700 252.53280 251.15659 249.33539 247.26219 245.11299
 242.92178 240.74358 238.58138 236.43818 234.31597 232.20077 230.24457 228.41936
 226.72016 225.20996 223.85776 222.64755 221.54735 220.52515 219.64695 218.80574
 218.06554 217.26334 216.37913 215.76093 215.22873 213.84976 210.65527 209.75356
 210.62491 210.87149 211.86273 214.88271 218.90715 223.72891 229.52390 234.56314
 238.43982 242.62279 246.96794 251.22977 255.10997 258.54373 261.46512 264.00900
 266.42090 268.66168 270.97269 273.22128 275.07422 276.66397 278.32733 280.24329
 282.19962 283.94238 285.44977 286.74243 287.85785 288.85623 289.68976 290.29587
 290.94968 291.53192 292.04053 292.68869
 366.78100 356.34975 345.79651 334.67726 323.09501 311.30377 299.18852 287.00627
 274.73303 262.64478 250.66853 239.98428 230.12104 221.23979 213.43654 206.45330
 200.30205 195.25480 191.85156 189.90831 188.96006 189.03882 189.88857 191.21132
 192.95108 195.06083 197.33858 199.71234 202.17209 204.66684 206.76959 208.62635
 210.26710 211.42685 211.67061 211.91336 211.86511 211.58487 211.23262 210.87737
 210.50913 210.23388 210.05663 209.93539 209.87814 210.22389 210.62465 211.02840
 211.83615 213.02891 214.29366 216.09141 218.03416 220.09192 222.20167 224.29942
 226.37418 228.47293 230.58468 232.70544 234.84919 237.03594 239.30670 241.69145
 244.32720 246.59296 248.60971 250.38946 251.82122 252.95897 253.79572 254.12647
 254.17823 253.96698 253.34173 252.30449 250.92524 249.10099 247.02475 244.87250
 242.67825 240.49701 238.33176 236.18551 234.06027 231.94202 229.98277 228.15453
 226.45228 224.93903 223.58378 222.37054 221.26729 220.24204 219.36080 218.51655
 217.77330 216.96806 216.08081 215.45956 214.92432 213.69873 210.86981 209.92407
 210.52551 210.71983 211.82750 214.79492 218.79298 223.62469 229.45967 234.50195
 238.38445 242.57980 246.93607 251.19423 255.10753 258.59991 261.56351 264.12106
 266.53540 268.75720 270.91214 273.12479 275.02963 276.64047 278.30737 280.17953
 282.09732 283.83884 285.32037 286.60687 287.70673 288.60150 289.40512 290.20450
 290.92343 291.56366 292.12296 292.83569
 366.78100 356.34761 345.79221 334.67082 323.08642 311.29303 299.17563 286.99124
 274.71584 262.62545 250.64705 239.96066 230.09526 221.21187 213.40647 206.42108
 200.26769 195.21829 191.81290 189.86750 188.91711 188.99371 189.84132 191.16192
 192.89953 195.00713 197.28274 199.65434 202.11195 204.60455 206.70516 208.55977
 210.19837 211.35598 211.59758 211.83819 211.78779 211.50540 211.15100 210.79361
 210.42321 210.14582 209.96642 209.84303 209.78363 210.12724 210.52585 210.92745
 211.73306 212.92366 214.18627 215.98187 217.92248 219.97808 222.08569 224.18129
 226.25390 228.35050 230.46011 232.57871 234.72032 236.90493 239.17353 241.55614
 244.18974 246.45335 248.46795 250.24556 251.67516 252.81077 253.64537 253.97398
 254.02358 253.81019 253.18279 252.14340 250.76201 248.93561 246.85722 244.70282
 242.50643 240.32303 238.15564 236.00724 233.87985 231.75945 229.79806 227.96766
 226.26327 224.74787 223.39048 222.17509 221.06969 220.04230 219.15890 218.31251
 217.56711 216.75972 215.87032 215.24693 214.70953 213.59599 211.03670 210.08298
 210.54897 210.75554 211.96986 214.80916 218.75262 223.55177 229.45540 234.47690
 238.36763 242.55692 246.93646 251.21071 255.15443 258.70206 261.67117 264.20773
 266.53210 268.81802 271.09567 273.26843 275.10657 276.64212 278.18695 279.98819
 281.93777 283.55826 284.94971 286.24744 287.44357 288.57181 289.60117 290.53369
 291.37238 292.11923 292.77167 293.60315
 366.78100 356.34979 345.79658 334.67737 323.09516 311.30395 299.18875 287.00654
 274.73333 262.64512 250.66891 239.98470 230.12149 221.24028 213.43707 206.45386
 200.30265 195.25544 191.85224 189.90903 188.96082 189.03961 189.88940 191.21219
 192.95198 195.06177 197.33956 199.71335 202.17314 204.66793 206.77073 208.62752
 210.26831 211.42810 211.67189 211.91468 211.86647 211.58626 211.23405 210.87884
 210.51063 210.23542 210.05822 209.93701 209.87980 210.22559 210.62638 211.03017
 211.83796 213.03075 214.29554 216.09333 218.03612 220.09392 222.20371 224.30150
 226.37629 228.47508 230.58687 232.70766 234.85145 237.03824 239.30903 241.69382
 244.32961 246.59541 248.61220 250.39199 251.82378 252.96157 253.79836 254.12915
 254.18094 253.96973 253.34452 252.30731 250.92810 249.10390 247.02769 244.87548
 242.68127 240.50006 238.33485 236.18864 234.06343 231.94522 229.98601 228.15780
 226.45560 224.94239 223.58718 222.37397 221.27076 220.24555 219.36434 218.52013
 217.77692 216.97171 216.08450 215.46329 214.92809 213.73705 211.00984 210.03825
 210.63544 210.98843 212.23457 214.92145 218.73772 223.52017 229.43678 234.43407
 238.33075 242.53040 246.90526 251.17430 255.11894 258.65668 261.67239 264.25171
 266.60388 268.92996 271.25772 273.50052 275.31543 276.78705 278.21964 279.95660
 281.70123 283.20828 284.78171 286.40091 287.85822 289.14758 290.32391 291.38959
 292.34805 293.20157 293.94717 294.89737
 366.78100 356.35412 345.80524 334.69037 323.11249 311.32561 299.21473 287.03685
 274.76797 262.68410 250.71222 240.03234 230.17346 221.29658 213.49770 206.51883
 200.37195 195.32907 191.93019 189.99131 189.04744 189.13056 189.98468 191.31180
 193.05592 195.17004 197.45217 199.83029 202.29441 204.79353 206.90065 208.76177
 210.40690 211.57102 211.81914 212.06626 212.02238 211.74650 211.39863 211.04775
 210.68387 210.41299 210.24011 210.12324 210.07036 210.42048 210.82560 211.23372
 212.04584 213.24297 214.51209 216.31421 218.26133 220.32345 222.43757 224.53970
 226.61882 228.72194 230.83806 232.96318 235.11131 237.30243 239.57755 241.96667
 244.60679 246.87691 248.89804 250.68216 252.11828 253.26040 254.10152 254.43664
 254.49277 254.28589 253.66501 252.63213 251.25725 249.43738 247.36550 245.21762
 243.02774 240.85086 238.68998 236.54811 234.42723 232.31335 230.35847 228.53459
 226.83671 225.32784 223.97696 222.76808 221.66920 220.64832 219.77145 218.93157
 218.19269 217.39181 216.50893 215.89205 215.36118 213.99265 210.89111 209.97089
 210.76163 211.24983 212.43782 215.00789 218.70883 223.45586 229.27145 234.29562
 238.19260 242.39993 246.71446 250.90466 254.78317 258.28992 261.37448 264.11887
 266.67999 269.17563 271.60107 273.82050 275.69678 277.32474 278.83444 280.38925
 281.89185 283.46240 285.06073 286.72052 288.21811 289.54309 290.75195 291.84708
 292.83200 293.70911 294.47534 295.45178
 366.78100 356.35906 345.81512 334.70518 323.13224 311.35030 299.24436 287.07142
 274.80747 262.72853 250.76159 240.08665 230.23271 221.36077 213.56683 206.59289
 200.45095 195.41301 192.01907 190.08513 189.14619 189.23425 190.09331 191.42536
 193.17442 195.29348 197.58054 199.96360 202.43266 204.93672 207.04878 208.91484
 210.56490 211.73396 211.98702 212.23908 212.20014 211.92920 211.58626 211.24031
 210.88137 210.61543 210.44749 210.33555 210.28761 210.64267 211.05273 211.46579
 212.28285 213.48491 214.75897 216.56603 218.51809 220.58515 222.70420 224.81126
 226.89532 229.00338 231.12444 233.25450 235.40756 237.60362 239.88368 242.27774
 244.92280 247.19786 249.22392 251.01298 252.45404 253.60109 254.44715 254.78721
 254.84827 254.64633 254.03039 253.00245 251.63251 249.81757 247.75063 245.60769
 243.42275 241.25081 239.09487 236.95793 234.84199 232.73304 230.78310 228.96416
 227.27122 225.76728 224.42134 223.21740 222.12346 221.10752 220.23558 219.40064
 218.66670 217.87076 216.99282 216.38088 215.85493 214.28688 210.72458 209.78473
 210.85597 211.60497 212.74557 215.13899 218.73531 223.41397 229.11708 234.13080
 238.00325 242.17439 246.40413 250.48256 254.23825 257.64548 260.70532 263.52264
 266.24826 268.90994 271.43921 273.76450 275.84158 277.68851 279.35358 280.90628
 282.36588 283.77515 285.25092 286.65121 287.94034 289.16489 290.28210 291.29425
 292.20453 293.01517 293.72330 294.62576
 366.78100 356.35965 345.81629 334.70694 323.13458 311.35323 299.24788 287.07552
 274.81217 262.73382 250.76746 240.09311 230.23975 221.36840 213.57505 206.60169
 200.46034 195.42299 192.02963 190.09628 189.15792 189.24657 190.10622 191.43886
 193.18851 195.30815 197.59580 199.97945 202.44909 204.95374 207.06639 208.93303
 210.58368 211.75332 212.00697 212.25962 212.22126 211.95091 211.60856 211.26320
 210.90485 210.63949 210.47214 210.36079 210.31343 210.66908 211.07973 211.49337
 212.31102 213.51366 214.78831 216.59596 218.54860 220.61625 222.73589 224.84354
 226.92819 229.03683 231.15848 233.28913 235.44277 237.63942 239.92006 242.31471
 244.96036 247.23600 249.26265 251.05230 252.49394 253.64159 254.48823 254.82888
 254.89053 254.68917 254.07382 253.04646 251.67711 249.86276 247.79640 245.65405
 243.46970 241.29834 239.14299 237.00663 234.89128 232.78293 230.83357 229.01522
 227.32287 225.81951 224.47416 223.27080 222.17745 221.16210 220.29074 219.45639
 218.72304 217.92768 217.05033 216.43897 215.91362 214.36014 210.78639 209.68857
 210.74756 211.60632 212.80428 215.16626 218.71222 223.36124 229.07036 234.06223
 237.96556 242.13829 246.38081 250.47202 254.22969 257.59247 260.54102 263.24677
 265.90582 268.45996 270.88089 273.20593 275.33673 277.27112 279.04935 280.71198
 282.28839 283.77344 285.22501 286.58905 287.79123 288.87366 289.89655 290.82596
 291.66183 292.40619 293.05646 293.88513
 366.78100 356.35480 345.80660 334.69239 323.11519 311.32899 299.21879 287.04159
 274.77339 262.69018 250.71898 240.03978 230.18158 221.30538 213.50718 206.52897
 200.38277 195.34057 191.94237 190.00417 189.06097 189.14476 189.99956 191.32736
 193.07216 195.18696 197.46976 199.84855 202.31335 204.81315 206.92095 208.78275
 210.42855 211.59334 211.84214 212.08994 212.04674 211.77154 211.42434 211.07413
 210.71093 210.44073 210.26853 210.15233 210.10013 210.45092 210.85672 211.26552
 212.07832 213.27612 214.54592 216.34871 218.29651 220.35931 222.47411 224.57691
 226.65671 228.76050 230.87730 233.00310 235.15190 237.34370 239.61950 242.00929
 244.65009 246.92089 248.94269 250.72749 252.16429 253.30708 254.14888 254.48468
 254.54148 254.33528 253.71508 252.68287 251.30867 249.48947 247.41827 245.27107
 243.08187 240.90566 238.74546 236.60426 234.48406 232.37086 230.41666 228.59345
 226.89625 225.38805 224.03785 222.82965 221.73145 220.71124 219.83504 218.99584
 218.25764 217.45744 216.57524 215.95903 215.42883 214.13048 211.13242 209.93120
 210.58878 211.35555 212.69455 215.14169 218.66539 223.30266 229.06812 234.07971
 238.00040 242.21344 246.50142 250.66689 254.52197 257.96988 260.93283 263.50986
 266.02087 268.42926 270.74698 272.97641 274.99692 276.79706 278.46872 280.11420
 281.78998 283.55328 285.12183 286.50269 287.70648 288.80533 289.80786 290.71609
 291.53296 292.26038 292.89581 293.70563
 366.78100 356.35037 345.79774 334.67911 323.09748 311.30686 299.19223 287.01060
 274.73797 262.65034 250.67471 239.99108 230.12845 221.24782 213.44520 206.46257
 200.31194 195.26531 191.86268 189.92005 188.97242 189.05179 189.90217 191.22554
 192.96591 195.07628 197.35465 199.72902 202.18939 204.68476 206.78813 208.64551
 210.28688 211.44725 211.69162 211.93499 211.88736 211.60773 211.25610 210.90147
 210.53385 210.25922 210.08259 209.96196 209.90533 210.25170 210.65307 211.05744
 211.86581 213.05919 214.32456 216.12293 218.06630 220.12467 222.23504 224.33341
 226.40878 228.50816 230.62053 232.74190 234.88627 237.07364 239.34501 241.73038
 244.36675 246.63312 248.65050 250.43087 251.86324 253.00161 253.83898 254.17035
 254.22272 254.01209 253.38746 252.35084 250.97221 249.14858 247.07295 244.92132
 242.72769 240.54706 238.38243 236.23681 234.11218 231.99455 230.03592 228.20829
 226.50666 224.99403 223.63940 222.42677 221.32415 220.29952 219.41889 218.57526
 217.83263 217.02800 216.14137 215.52074 214.98611 213.92197 211.43629 210.19034
 210.47659 211.19141 212.59830 215.08221 218.59549 223.25671 229.09720 234.09804
 238.05008 242.29161 246.60828 250.81944 254.75009 258.27307 261.28989 263.85004
 266.08804 268.52261 270.92426 273.05594 274.96933 276.69058 278.25253 279.79401
 281.54407 283.30524 284.96753 286.61630 288.04318 289.30560 290.45737 291.50079
 292.43924 293.27493 294.00497 294.93533
 366.78100 356.34670 345.79040 334.66809 323.08279 311.28849 299.17019 286.98489
 274.70859 262.61728 250.63798 239.95068 230.08438 221.20008 213.39377 206.40747
 200.25317 195.20287 191.79657 189.85027 188.89896 188.97466 189.82136 191.14106
 192.87776 194.98446 197.25915 199.62985 202.08655 204.57825 206.67795 208.53164
 210.16934 211.32604 211.56674 211.80644 211.75514 211.47183 211.11653 210.75823
 210.38693 210.10863 209.92832 209.80402 209.74372 210.08642 210.48412 210.88482
 211.68951 212.87921 214.14091 215.93561 217.87531 219.93000 222.03670 224.13140
 226.20310 228.29880 230.40750 232.52519 234.66589 236.84959 239.11729 241.49899
 244.13168 246.39438 248.40808 250.18478 251.61348 252.74818 253.58187 253.90957
 253.95827 253.74397 253.11567 252.07537 250.69306 248.86576 246.78646 244.63116
 242.43386 240.24955 238.08125 235.93195 233.80365 231.68235 229.72005 227.88874
 226.18344 224.66714 223.30884 222.09254 220.98623 219.95793 219.07363 218.22633
 217.48003 216.67173 215.78142 215.15712 214.61882 213.75435 211.67630 210.39697
 210.41714 211.03941 212.41113 214.98608 218.52487 223.12560 229.05942 234.07773
 238.03412 242.29698 246.63960 250.89435 254.90154 258.52155 261.64020 264.16498
 266.47437 268.81561 271.01920 273.06857 275.01700 276.67410 278.11621 279.67114
 281.56418 283.59341 285.52786 287.22647 288.69644 289.99701 291.18356 292.25851
 293.22528 294.08624 294.83832 295.79678
 366.78100 356.34416 345.78532 334.66048 323.07265 311.27581 299.15497 286.96713
 274.68829 262.59445 250.61261 239.92277 230.05394 221.16710 213.35826 206.36942
 200.21258 195.15974 191.75090 189.80206 188.84823 188.92139 189.76555 191.08271
 192.81687 194.92103 197.19319 199.56135 202.01552 204.50468 206.60184 208.45300
 210.08816 211.24232 211.48048 211.71764 211.66381 211.37797 211.02013 210.65929
 210.28545 210.00461 209.82177 209.69493 209.63210 209.97226 210.36742 210.76558
 211.56774 212.75490 214.01406 215.80623 217.74339 219.79555 221.89971 223.99187
 226.06103 228.15419 230.26035 232.37552 234.51368 236.69484 238.96000 241.33916
 243.96932 246.22948 248.24064 250.01481 251.44097 252.57313 253.40429 253.72945
 253.77561 253.55877 252.92793 251.88510 250.50026 248.67042 246.58858 244.43074
 242.23090 240.04406 237.87322 235.72139 233.59055 231.46671 229.50187 227.66803
 225.96019 224.44135 223.08051 221.86168 220.75284 219.72200 218.83516 217.98532
 217.23648 216.42564 215.53281 214.90597 214.36513 213.61606 211.80502 210.60747
 210.51520 211.02382 212.33328 214.82841 218.35548 222.99042 228.92195 233.93483
 237.88696 242.15289 246.50563 250.78545 254.83780 258.51184 261.65704 264.18271
 266.62244 268.99670 271.18881 273.26233 275.21201 276.90189 278.36261 279.80493
 281.83261 283.83209 285.79794 287.52408 289.01788 290.33954 291.54535 292.63773
 293.62021 294.49509 295.25940 296.23340
 366.78100 356.34533 345.78767 334.66400 323.07733 311.28167 299.16200 286.97533
 274.69767 262.60500 250.62433 239.93566 230.06800 221.18233 213.37466 206.38700
 200.23133 195.17966 191.77200 189.82433 188.87166 188.94600 189.79133 191.10966
 192.84500 194.95033 197.22366 199.59300 202.04833 204.53866 206.63699 208.48933
 210.12566 211.28099 211.52033 211.75866 211.70599 211.42133 211.06466 210.70499
 210.33233 210.05266 209.87099 209.74533 209.68366 210.02499 210.42132 210.82066
 211.62399 212.81232 214.07266 215.86599 217.80432 219.85766 221.96299 224.05632
 226.12666 228.22099 230.32832 232.44466 234.58399 236.76632 239.03266 241.41299
 244.04432 246.30565 248.31799 250.09332 251.52065 252.65399 253.48632 253.81265
 253.85999 253.64432 253.01465 251.97299 250.58932 248.76065 246.67999 244.52332
 242.32465 240.13899 237.96932 235.81865 233.68898 231.56632 229.60265 227.76998
 226.06332 224.54565 223.18598 221.96832 220.86065 219.83098 218.94532 218.09665
 217.34898 216.53932 215.64765 215.02198 214.48232 213.65309 211.72392 210.71524
 210.68449 211.20792 212.53195 214.78279 218.19485 222.93015 228.77106 233.78714
 237.73605 241.99722 246.34190 250.61284 254.65373 258.28165 261.34781 263.94370
 266.42511 268.82132 271.13791 273.27722 275.23993 276.98727 278.56284 280.06512
 281.78687 283.60037 285.23508 286.82965 288.21701 289.44446 290.56430 291.57883
 292.49127 293.30380 294.01361 294.91818
 366.78100 356.34971 345.79641 334.67712 323.09482 311.30353 299.18824 287.00594
 274.73265 262.64435 250.66806 239.98376 230.12047 221.23918 213.43588 206.45259
 200.30129 195.25400 191.85071 189.90741 188.95912 189.03782 189.88753 191.21023
 192.94994 195.05965 197.33735 199.71106 202.17076 204.66547 206.76818 208.62488
 210.26559 211.42529 211.66900 211.91171 211.86341 211.58312 211.23082 210.87553
 210.50723 210.23194 210.05465 209.93335 209.87606 210.22176 210.62247 211.02618
 211.83388 213.02659 214.29129 216.08900 218.03170 220.08941 222.19912 224.29682
 226.37153 228.47023 230.58194 232.70265 234.84635 237.03306 239.30376 241.68847
 244.32418 246.58988 248.60659 250.38629 251.81800 252.95570 253.79241 254.12312
 254.17482 253.96353 253.33823 252.30094 250.92165 249.09735 247.02106 244.86876
 242.67447 240.49317 238.32788 236.18159 234.05629 231.93800 229.97870 228.15041
 226.44812 224.93482 223.57953 222.36623 221.26294 220.23765 219.35635 218.51206
 217.76876 216.96347 216.07617 215.45488 214.91959 213.88878 211.54761 210.68297
 210.89661 211.49261 212.72221 214.76672 218.03493 222.78313 228.68773 233.70604
 237.64819 241.91068 246.24849 250.51756 254.57964 258.22040 261.24719 263.79651
 266.25360 268.72867 271.02960 273.20541 275.18826 276.89462 278.43344 279.92719
 281.65839 283.45831 285.07190 286.62061 287.98618 289.19437 290.29666 291.29526
 292.19339 292.99319 293.69186 294.58224
 366.78100 356.35224 345.80149 334.68473 323.10498 311.31622 299.20347 287.02371
 274.75296 262.66720 250.69344 240.01169 230.15093 221.27218 213.47142 206.49067
 200.34191 195.29716 191.89640 189.95564 189.00989 189.09113 189.94338 191.26862
 193.01087 195.12311 197.40336 199.77960 202.24185 204.73909 206.84433 208.70358
 210.34682 211.50907 211.75531 212.00056 211.95480 211.67705 211.32729 210.97453
 210.60878 210.33602 210.16127 210.04251 209.98776 210.33600 210.73925 211.14549
 211.95573 213.15098 214.41822 216.21847 218.16371 220.22396 222.33620 224.43645
 226.51369 228.61493 230.72918 232.85242 234.99867 237.18791 239.46116 241.84840
 244.48665 246.75489 248.77413 250.55638 251.99062 253.13087 253.97011 254.30336
 254.35760 254.14885 253.52609 252.49133 251.11458 249.29282 247.21907 245.06931
 242.87756 240.69880 238.53605 236.39229 234.26954 232.15378 230.19702 228.37127
 226.67151 225.16076 223.80800 222.59725 221.49649 220.47374 219.59498 218.75322
 218.01247 217.20971 216.32496 215.70620 215.17345 214.05800 211.52139 210.56833
 210.96423 211.76408 212.94096 214.78093 217.92056 222.67809 228.61957 233.63199
 237.56366 241.82219 246.15245 250.42406 254.51334 258.19101 261.22409 263.79669
 266.23816 268.83090 271.08374 273.27142 275.27045 276.94110 278.40967 279.87814
 281.64896 283.46759 285.17798 286.77008 288.14792 289.36694 290.47910 291.48666
 292.39285 293.19980 293.90475 294.80313
 366.78100 356.35130 345.79960 334.68190 323.10120 311.31150 299.19780 287.01710
 274.74540 262.65870 250.68400 240.00130 230.13960 221.25990 213.45820 206.47650
 200.32680 195.28110 191.87940 189.93770 188.99101 189.07131 189.92261 191.24691
 192.98821 195.09951 197.37881 199.75411 202.21541 204.71171 206.81601 208.67431
 210.31661 211.47791 211.72321 211.96751 211.92081 211.64211 211.29141 210.93771
 210.57101 210.29731 210.12161 210.00191 209.94621 210.29351 210.69581 211.10111
 211.91041 213.10471 214.37101 216.17031 218.11461 220.17391 222.28521 224.38451
 226.46081 228.56111 230.67441 232.79671 234.94202 237.13032 239.40262 241.78892
 244.42622 246.69352 248.71182 250.49312 251.92642 253.06572 253.90402 254.23632
 254.28962 254.07992 253.45622 252.42052 251.04282 249.22012 247.14542 244.99472
 242.80202 240.62232 238.45862 236.31392 234.19022 232.07352 230.11582 228.28912
 226.58842 225.07672 223.72302 222.51132 221.40962 220.38592 219.50622 218.66352
 217.92182 217.11812 216.23242 215.61273 215.07903 214.04033 211.63515 210.50529
 210.86829 211.84801 213.08302 214.88416 217.99568 222.69177 228.56618 233.59578
 237.50339 241.74985 246.07069 250.34770 254.45355 258.12061 261.14462 263.73416
 266.25299 268.78732 271.12143 273.36353 275.36826 277.04785 278.53903 280.00940
 281.76233 283.58136 285.26657 286.85822 288.23563 289.45425 290.56610 291.57336
 292.47928 293.28598 293.99072 294.88882
 366.78100 356.34925 345.79550 334.67575 323.09300 311.30125 299.18550 287.00275
 274.72901 262.64026 250.66351 239.97876 230.11501 221.23326 213.42951 206.44576
 200.29401 195.24626 191.84251 189.89876 188.95001 189.02826 189.87752 191.19977
 192.93902 195.04827 197.32552 199.69877 202.15802 204.65227 206.75452 208.61077
 210.25102 211.41027 211.65352 211.89577 211.84702 211.56628 211.21353 210.85778
 210.48903 210.21328 210.03553 209.91378 209.85603 210.20128 210.60153 211.00478
 211.81203 213.00428 214.26853 216.06579 218.00804 220.06529 222.17454 224.27179
 226.34604 228.44429 230.55554 232.67579 234.81904 237.00529 239.27554 241.65979
 244.29504 246.56029 248.57655 250.35580 251.78705 252.92430 253.76055 254.09080
 254.14205 253.93030 253.30455 252.26680 250.88705 249.06230 246.98555 244.83280
 242.63806 240.45631 238.29056 236.14381 234.01806 231.89931 229.93956 228.11081
 226.40806 224.89431 223.53856 222.32481 221.22106 220.19531 219.31357 218.46882
 217.72507 216.91932 216.03157 215.40982 214.87407 213.94983 211.78749 210.59787
 210.72977 211.67746 213.03918 214.97844 218.12154 222.74796 228.56145 233.60506
 237.49580 241.73697 246.04822 250.31735 254.42075 258.05038 261.03522 263.61792
 266.13788 268.62381 271.03647 273.27649 275.26907 276.99393 278.56165 280.12036
 281.90277 283.70718 285.30927 286.82935 288.17401 289.36371 290.44910 291.43240
 292.31677 293.10431 293.79227 294.66901
 366.78100 356.34807 345.79314 334.67221 323.08828 311.29535 299.17842 286.99450
 274.71957 262.62964 250.65171 239.96578 230.10085 221.21792 213.41299 206.42806
 200.27513 195.22620 191.82127 189.87634 188.92641 189.00349 189.85156 191.17263
 192.91070 195.01877 197.29484 199.66691 202.12498 204.61805 206.71912 208.57419
 210.21326 211.37133 211.61340 211.85448 211.80455 211.52262 211.16869 210.81176
 210.44183 210.16490 209.98597 209.86304 209.80411 210.14818 210.54725 210.94932
 211.75540 212.94647 214.20954 216.00561 217.94668 220.00275 222.11082 224.20689
 226.27996 228.37703 230.48710 232.60617 234.74824 236.93331 239.20239 241.58546
 244.21953 246.48360 248.49867 250.27674 251.70681 252.84288 253.67795 254.00702
 254.05709 253.84416 253.21723 252.17830 250.79738 248.97145 246.89352 244.73959
 242.54366 240.36073 238.19380 236.04587 233.91894 231.79901 229.83808 228.00815
 226.30422 224.78929 223.43237 222.21744 221.11251 220.08558 219.20265 218.35672
 217.61179 216.80486 215.91593 215.29300 214.75607 213.89638 211.88921 210.78288
 210.74243 211.46863 212.87215 214.91425 218.10585 222.73106 228.53854 233.59390
 237.49976 241.75702 246.07185 250.34309 254.48109 258.13577 261.08844 263.56711
 266.01999 268.59344 270.98462 273.13953 275.10281 276.81488 278.40192 280.02399
 281.90665 283.71255 285.31116 286.80832 288.16660 289.36835 290.46475 291.45801
 292.35135 293.14685 293.84180 294.72745
 366.78100 356.35216 345.80132 334.68448 323.10463 311.31579 299.20295 287.02311
 274.75227 262.66643 250.69258 240.01074 230.14990 221.27106 213.47022 206.48938
 200.34053 195.29569 191.89485 189.95401 189.00817 189.08933 189.94148 191.26664
 193.00880 195.12096 197.40112 199.77728 202.23944 204.73659 206.84175 208.70091
 210.34407 211.50623 211.75239 211.99754 211.95170 211.67386 211.32402 210.97118
 210.60534 210.33249 210.15765 210.03881 209.98397 210.33213 210.73529 211.14145
 211.95160 213.14676 214.41392 216.21408 218.15924 220.21940 222.33155 224.43171
 226.50887 228.61003 230.72419 232.84735 234.99350 237.18266 239.45582 241.84298
 244.48114 246.74930 248.76845 250.55061 251.98477 253.12493 253.96409 254.29725
 254.35141 254.14256 253.51972 252.48488 251.10804 249.28620 247.21236 245.06251
 242.87067 240.69183 238.52899 236.38515 234.26231 232.14646 230.18962 228.36378
 226.66394 225.15310 223.80026 222.58942 221.48857 220.46573 219.58689 218.74505
 218.00421 217.20137 216.31652 215.69768 215.16484 214.12633 211.76035 210.87033
 211.12854 211.64404 212.79166 214.68964 217.89192 222.58517 228.39787 233.44766
 237.37979 241.65981 246.00684 250.30969 254.46037 258.14877 261.17523 263.70810
 266.13715 268.71271 271.05554 273.19827 275.10248 276.75351 278.28821 279.96225
 281.89902 283.72208 285.43887 287.04443 288.43390 289.66324 290.78482 291.80087
 292.71472 293.52850 294.23938 295.14536
 366.78100 356.35789 345.81278 334.70167 323.12756 311.34445 299.23733 287.06322
 274.79811 262.71800 250.74989 240.07378 230.21867 221.34556 213.55045 206.57534
 200.43223 195.39312 191.99800 190.06289 189.12278 189.20967 190.06756 191.39845
 193.14634 195.26423 197.55012 199.93201 202.39990 204.90279 207.01367 208.87856
 210.52745 211.69534 211.94723 212.19812 212.15801 211.88590 211.54179 211.19468
 210.83457 210.56746 210.39834 210.28523 210.23612 210.59001 210.99890 211.41079
 212.22668 213.42757 214.70046 216.50635 218.45724 220.52312 222.64101 224.74690
 226.82979 228.93668 231.05657 233.18546 235.33735 237.53224 239.81113 242.20402
 244.84791 247.12179 249.14668 250.93457 252.37446 253.52035 254.36524 254.70413
 254.76402 254.56091 253.94380 252.91469 251.54358 249.72746 247.65935 245.51524
 243.32913 241.15602 238.99891 236.86080 234.74369 232.63358 230.68247 228.86236
 227.16825 225.66313 224.31602 223.11091 222.01580 220.99869 220.12558 219.28947
 218.55436 217.75725 216.87814 216.26503 215.73792 214.46143 211.58044 210.74031
 211.44725 212.08591 213.04095 214.63443 217.72357 222.41660 228.14983 233.19453
 237.11545 241.39246 245.75653 250.11481 254.30286 257.97919 261.00101 263.61252
 266.20532 268.84933 271.28055 273.54965 275.53888 277.14984 278.54758 280.04288
 282.08914 283.94690 285.72931 287.37231 288.79419 290.05222 291.19995 292.23972
 293.17490 294.00766 294.73514 295.66223
 366.78100 356.35154 345.80009 334.68263 323.10218 311.31272 299.19926 287.01881
 274.74735 262.66090 250.68644 240.00398 230.14253 221.26307 213.46162 206.48016
 200.33070 195.28525 191.88379 189.94233 188.99588 189.07642 189.92797 191.25251
 192.99405 195.10560 197.38514 199.76069 202.22223 204.71877 206.82332 208.68186
 210.32441 211.48595 211.73149 211.97604 211.92958 211.65113 211.30067 210.94721
 210.58076 210.30730 210.13185 210.01239 209.95693 210.30448 210.70702 211.11256
 211.92211 213.11665 214.38320 216.18274 218.12728 220.18683 222.29837 224.39792
 226.47446 228.57500 230.68855 232.81109 234.95664 237.14518 239.41772 241.80427
 244.44181 246.70936 248.72790 250.50944 251.94299 253.08253 253.92108 254.25362
 254.30716 254.09771 253.47425 252.43880 251.06134 249.23888 247.16443 245.01397
 242.82151 240.64206 238.47860 236.33415 234.21069 232.09423 230.13678 228.31032
 226.60987 225.09841 223.74495 222.53350 221.43204 220.40859 219.52913 218.68667
 217.94522 217.14176 216.25631 215.63685 215.10339 214.15701 211.92778 210.60574
 210.92133 211.98625 213.21307 214.96977 217.97910 222.47090 228.13274 233.13316
 237.04140 241.29716 245.64366 249.96194 254.08337 257.71518 260.74951 263.43533
 266.08826 268.72229 271.19009 273.43240 275.41507 277.17126 278.83017 280.54239
 282.28470 284.02170 285.58661 286.98792 288.23587 289.39966 290.46884 291.43741
 292.30853 293.08429 293.76196 294.62558
 366.78100 356.34637 345.78975 334.66712 323.08150 311.28687 299.16825 286.98262
 274.70600 262.61437 250.63475 239.94712 230.08049 221.19587 213.38924 206.40262
 200.24799 195.19737 191.79074 189.84412 188.89249 188.96787 189.81424 191.13361
 192.86999 194.97636 197.25074 199.62111 202.07749 204.56886 206.66824 208.52161
 210.15899 211.31536 211.55574 211.79511 211.74348 211.45986 211.10423 210.74561
 210.37398 210.09536 209.91473 209.79011 209.72948 210.07186 210.46923 210.86960
 211.67398 212.86335 214.12473 215.91910 217.85848 219.91285 222.01923 224.11360
 226.18498 228.28035 230.38872 232.50610 234.64647 236.82985 239.09722 241.47860
 244.11097 246.37335 248.38672 250.16310 251.59147 252.72584 253.55922 253.88659
 253.93497 253.72034 253.09172 252.05109 250.66847 248.84084 246.76122 244.60559
 242.40797 240.22334 238.05471 235.90509 233.77646 231.65484 229.69221 227.86059
 226.15496 224.63834 223.27971 222.06309 220.95646 219.92783 219.04321 218.19558
 217.44896 216.64033 215.74971 215.12508 214.58646 213.84486 212.09879 211.15169
 210.58311 211.45993 213.04907 214.96402 217.98842 222.47638 228.28818 233.13493
 237.13997 241.36192 245.71486 249.99762 254.08635 257.71994 260.76813 263.43869
 266.03885 268.62228 271.06393 273.26984 275.21921 276.97229 278.65735 280.35175
 282.03165 283.61584 285.05588 286.34756 287.45157 288.36835 289.12311 289.78094
 290.33328 290.75940 291.11002 291.55679
 366.78100 356.34692 345.79084 334.66876 323.08369 311.28961 299.17153 286.98645
 274.71037 262.61929 250.64021 239.95313 230.08706 221.20298 213.39690 206.41082
 200.25674 195.20666 191.80058 189.85450 188.90343 188.97935 189.82627 191.14619
 192.88311 194.99003 197.26495 199.63587 202.09280 204.58472 206.68464 208.53856
 210.17648 211.33340 211.57432 211.81424 211.76317 211.48009 211.12501 210.76693
 210.39585 210.11777 209.93769 209.81362 209.75354 210.09646 210.49438 210.89530
 211.70022 212.89014 214.15206 215.94699 217.88691 219.94183 222.04875 224.14367
 226.21559 228.31151 230.42043 232.53836 234.67928 236.86320 239.13112 241.51304
 244.14596 246.40888 248.42280 250.19973 251.62865 252.76357 253.59749 253.92541
 253.97433 253.76025 253.13218 252.09210 250.71002 248.88294 246.80386 244.64878
 242.45170 240.26762 238.09955 235.95047 233.82239 231.70131 229.73923 227.90815
 226.20307 224.68699 223.32892 222.11284 221.00676 219.97868 219.09460 218.24752
 217.50144 216.69336 215.80329 215.17921 214.64113 213.87054 212.04996 211.31987
 210.77408 211.38252 212.90681 214.77690 217.83832 222.40373 228.29814 233.08975
 237.12807 241.36174 245.71906 250.00574 254.15059 257.81479 260.82742 263.40802
 265.96970 268.52893 270.95096 273.19440 275.16425 276.89539 278.55399 280.21390
 281.89078 283.46704 284.87238 286.09869 287.16077 288.08600 288.84827 289.44092
 289.94678 290.37070 290.71066 291.14075
 366.78100 356.34699 345.79098 334.66896 323.08395 311.28994 299.17193 286.98692
 274.71090 262.61989 250.64088 239.95387 230.08786 221.20384 213.39783 206.41182
 200.25781 195.20780 191.80178 189.85577 188.90476 188.98075 189.82774 191.14772
 192.88471 194.99170 197.26669 199.63768 202.09466 204.58665 206.68664 208.54063
 210.17861 211.33560 211.57659 211.81658 211.76557 211.48255 211.12754 210.76953
 210.39852 210.12051 209.94049 209.81648 209.75647 210.09946 210.49745 210.89843
 211.70342 212.89341 214.15540 215.95039 217.89037 219.94536 222.05235 224.14734
 226.21933 228.31531 230.42430 232.54229 234.68328 236.86727 239.13525 241.51724
 244.15023 246.41322 248.42721 250.20419 251.63318 252.76817 253.60216 253.93015
 253.97913 253.76512 253.13711 252.09710 250.71509 248.88807 246.80906 244.65405
 242.45704 240.27303 238.10501 235.95600 233.82799 231.70698 229.74497 227.91395
 226.20894 224.69293 223.33492 222.11890 221.01289 219.98488 219.10087 218.25386
 217.50784 216.69983 215.80982 215.18581 214.64780 213.90051 212.13499 211.23483
 210.87170 211.46690 212.91101 214.76031 217.79225 222.34523 228.24722 233.05151
 237.07629 241.32265 245.68192 249.97455 254.13927 257.81308 260.83502 263.41620
 265.96545 268.46802 270.84680 273.09555 275.06726 276.81778 278.51306 280.20187
 281.90143 283.43817 284.77252 285.93170 286.92685 287.81253 288.57867 289.16699
 289.65939 290.11588 290.51978 291.05701
 366.78100 356.34428 345.78556 334.66084 323.07312 311.27641 299.15569 286.96797
 274.68925 262.59553 250.61381 239.92409 230.05537 221.16865 213.35993 206.37122
 200.21450 195.16178 191.75306 189.80434 188.85062 188.92390 189.76818 191.08546
 192.81975 194.92403 197.19631 199.56459 202.01887 204.50815 206.60543 208.45671
 210.09199 211.24627 211.48456 211.72184 211.66812 211.38240 211.02468 210.66396
 210.29024 210.00952 209.82680 209.70009 209.63737 209.97765 210.37293 210.77121
 211.57349 212.76077 214.02005 215.81233 217.74961 219.80190 221.90618 223.99846
 226.06774 228.16102 230.26730 232.38258 234.52086 236.70214 238.96743 241.34671
 243.97699 246.23727 248.24855 250.02283 251.44911 252.58139 253.41267 253.73796
 253.78424 253.56752 252.93680 251.89408 250.50936 248.67964 246.59792 244.44020
 242.24048 240.05377 237.88305 235.73133 233.60061 231.47689 229.51217 227.67845
 225.97073 224.45201 223.09130 221.87258 220.76386 219.73314 218.84642 217.99670
 217.24798 216.43726 215.54454 214.91782 214.37711 213.79401 212.41139 211.17403
 210.87071 211.49904 212.79790 214.71317 217.80322 222.36356 228.20789 233.06850
 236.99576 241.29308 245.65715 249.96556 254.13382 257.81519 260.84628 263.43945
 265.97363 268.47131 270.84317 273.06537 275.01532 276.71771 278.33954 280.00552
 281.69446 283.25790 284.59595 285.73337 286.72693 287.53903 288.23047 288.87018
 289.41263 289.89676 290.32825 290.87811
 366.78100 356.34108 345.77915 334.65123 323.06031 311.26038 299.13646 286.94554
 274.66361 262.56669 250.58177 239.88884 230.01692 221.12700 213.31507 206.32315
 200.16323 195.10730 191.69538 189.74346 188.78653 188.85661 189.69769 191.01176
 192.74284 194.84392 197.11299 199.47807 201.92915 204.41522 206.50930 208.35738
 209.98945 211.14053 211.37561 211.60968 211.55276 211.26384 210.90292 210.53899
 210.16207 209.87815 209.69222 209.56230 209.49638 209.83345 210.22553 210.62061
 211.41968 212.60376 213.85984 215.64891 217.58299 219.63207 221.73314 223.82222
 225.88830 227.97837 230.08145 232.19353 234.32860 236.50668 238.76876 241.14483
 243.77191 246.02899 248.03706 249.80814 251.23122 252.36029 253.18837 253.51045
 253.55352 253.33360 252.69968 251.65375 250.26583 248.43291 246.34798 244.18706
 241.98414 239.79421 237.62029 235.46537 233.33144 231.20452 229.23660 227.39967
 225.68875 224.16683 222.80290 221.58098 220.46906 219.43513 218.54521 217.69229
 216.94036 216.12644 215.23052 214.60059 214.05667 213.67224 212.68105 211.25954
 210.75746 211.15331 212.66058 214.90686 218.08324 222.49539 228.20810 233.10884
 237.02197 241.30446 245.65685 249.99886 254.16650 257.85654 260.90802 263.51682
 266.00922 268.43640 270.77835 272.96176 274.89957 276.62064 278.24936 279.88998
 281.47128 282.93777 284.22757 285.41925 286.62790 287.81631 288.90353 289.88849
 290.77435 291.56320 292.25232 293.13055
 366.78100 356.34753 345.79206 334.67059 323.08611 311.29264 299.17517 286.99070
 274.71523 262.62476 250.64628 239.95981 230.09434 221.21087 213.40540 206.41993
 200.26645 195.21698 191.81151 189.86604 188.91557 188.99210 189.83963 191.16015
 192.89768 195.00521 197.28074 199.65227 202.10980 204.60232 206.70285 208.55738
 210.19591 211.35344 211.59497 211.83550 211.78502 211.50255 211.14808 210.79061
 210.42014 210.14267 209.96319 209.83972 209.78025 210.12378 210.52231 210.92384
 211.72936 212.91989 214.18242 215.97795 217.91848 219.97401 222.08154 224.17706
 226.24959 228.34612 230.45565 232.57418 234.71571 236.90023 239.16876 241.55129
 244.18482 246.44835 248.46288 250.24040 251.66993 252.80546 253.63999 253.96852
 254.01805 253.80458 253.17710 252.13763 250.75616 248.92969 246.85122 244.69675
 242.50027 240.31680 238.14933 236.00086 233.87339 231.75292 229.79145 227.96097
 226.25650 224.74103 223.38356 222.16809 221.06262 220.03514 219.15167 218.30520
 217.55973 216.75226 215.86279 215.23931 214.70184 214.04686 212.44955 211.41264
 211.08183 211.29179 212.66158 214.86803 218.05432 222.36295 228.14371 233.00069
 236.94724 241.24706 245.63536 250.00829 254.18303 257.90036 261.03867 263.75510
 266.29584 268.72369 271.00989 273.09897 274.95804 276.61459 278.19366 279.80826
 281.55658 283.63272 285.50812 287.15488 288.57999 289.84085 290.99121 292.03336
 292.97064 293.80530 294.53442 295.46362
 366.78100 356.35841 345.81382 334.70324 323.12965 311.34706 299.24047 287.06689
 274.80230 262.72271 250.75512 240.07953 230.22495 221.35236 213.55777 206.58318
 200.44060 195.40201 192.00742 190.07283 189.13324 189.22066 190.07907 191.41048
 193.15889 195.27731 197.56372 199.94613 202.41454 204.91795 207.02937 208.89478
 210.54419 211.71260 211.96502 212.21643 212.17684 211.90525 211.56166 211.21508
 210.85549 210.58890 210.42031 210.30773 210.25914 210.61355 211.02296 211.43537
 212.25179 213.45320 214.72661 216.53302 218.48444 220.55085 222.66926 224.77567
 226.85908 228.96650 231.08691 233.21632 235.36873 237.56415 239.84356 242.23697
 244.88138 247.15579 249.18121 250.96962 252.41003 253.55644 254.40186 254.74127
 254.80168 254.59909 253.98250 252.95392 251.58333 249.76774 247.70015 245.55657
 243.37098 241.19839 239.04180 236.90421 234.78763 232.67804 230.72745 228.90786
 227.21428 225.70969 224.36310 223.15851 222.06392 221.04734 220.17475 219.33916
 218.60457 217.80799 216.92940 216.31681 215.79022 214.63571 212.05437 211.37485
 211.63896 211.81256 212.75391 214.60768 217.72000 222.13843 227.80930 232.71751
 236.66714 240.99268 245.44501 249.87645 254.04622 257.72568 260.90500 263.80139
 266.54147 269.11859 271.54581 273.76559 275.66281 277.25842 278.67398 280.24408
 282.37259 284.60483 286.56354 288.28345 289.77185 291.08871 292.29016 293.37860
 294.35751 295.22925 295.99075 296.96124
 366.78100 356.35882 345.81464 334.70446 323.13128 311.34910 299.24292 287.06974
 274.80556 262.72638 250.75920 240.08402 230.22984 221.35766 213.56348 206.58930
 200.44712 195.40894 192.01476 190.08058 189.14140 189.22922 190.08804 191.41986
 193.16868 195.28750 197.57432 199.95714 202.42596 204.92978 207.04160 208.90742
 210.55724 211.72606 211.97888 212.23070 212.19152 211.92034 211.57716 211.23098
 210.87180 210.60562 210.43744 210.32526 210.27708 210.63190 211.04172 211.45454
 212.27136 213.47318 214.74700 216.55382 218.50564 220.57246 222.69128 224.79810
 226.88192 228.98975 231.11057 233.24039 235.39321 237.58903 239.86885 242.26267
 244.90749 247.18231 249.20813 250.99695 252.43777 253.58459 254.43041 254.77023
 254.83105 254.62887 254.01269 252.98451 251.61433 249.79915 247.73197 245.58879
 243.40361 241.23143 239.07525 236.93807 234.82189 232.71271 230.76253 228.94335
 227.25017 225.74599 224.39981 223.19563 222.10145 221.08527 220.21309 219.37791
 218.64373 217.84755 216.96937 216.35719 215.83101 214.68907 212.05182 211.01231
 211.70688 212.22131 213.13725 214.81438 217.74745 222.10893 227.61162 232.53564
 236.43092 240.71809 245.10091 249.42194 253.48566 257.10361 260.31824 263.29938
 266.14194 268.85309 271.40793 273.76321 275.85526 277.70587 279.41754 281.04245
 282.60934 284.22107 285.77994 287.22766 288.59009 289.80664 290.91660 291.92212
 292.82648 293.63184 294.33536 295.23193
 366.78100 356.35186 345.80073 334.68359 323.10346 311.31432 299.20119 287.02105
 274.74992 262.66378 250.68965 240.00751 230.14638 221.26724 213.46611 206.48497
 200.33583 195.29070 191.88956 189.94843 189.00229 189.08316 189.93502 191.25989
 193.00175 195.11362 197.39348 199.76935 202.23121 204.72808 206.83294 208.69180
 210.33467 211.49653 211.74240 211.98726 211.94113 211.66299 211.31286 210.95972
 210.59359 210.32045 210.14532 210.02618 209.97105 210.31891 210.72178 211.12764
 211.93750 213.13237 214.39923 216.19910 218.14396 220.20383 222.31569 224.41556
 226.49242 228.59329 230.70715 232.83002 234.97588 237.16475 239.43761 241.82447
 244.46234 246.73020 248.74907 250.53093 251.96480 253.10466 253.94353 254.27639
 254.33026 254.12112 253.49799 252.46285 251.08572 249.26358 247.18944 245.03931
 242.84717 240.66804 238.50490 236.36077 234.23763 232.12150 230.16436 228.33823
 226.63809 225.12696 223.77382 222.56269 221.46155 220.43841 219.55928 218.71714
 217.97601 217.17287 216.28774 215.66860 215.13547 214.35229 212.46960 210.91850
 211.16660 212.08752 213.22897 214.96185 217.82890 222.10265 227.62781 232.51976
 236.44150 240.72664 245.12129 249.44795 253.51776 257.12463 260.27524 263.16800
 265.96088 268.63611 271.14230 273.49448 275.58276 277.43390 279.15677 280.79657
 282.41159 283.93280 285.38977 286.71848 287.90372 288.99683 290.03729 290.97992
 291.82770 292.58264 293.24216 294.08261
 366.78100 356.34733 345.79166 334.66999 323.08532 311.29165 299.17397 286.98930
 274.71363 262.62296 250.64429 239.95762 230.09195 221.20828 213.40261 206.41694
 200.26327 195.21360 191.80792 189.86225 188.91158 188.98791 189.83524 191.15557
 192.89290 195.00023 197.27556 199.64689 202.10422 204.59655 206.69687 208.55120
 210.18953 211.34686 211.58819 211.82852 211.77785 211.49518 211.14051 210.78284
 210.41217 210.13450 209.95482 209.83115 209.77148 210.11481 210.51314 210.91447
 211.71980 212.91013 214.17246 215.96779 217.90812 219.96345 222.07077 224.16610
 226.23843 228.33476 230.44409 232.56242 234.70375 236.88808 239.15641 241.53874
 244.17207 246.43539 248.44972 250.22705 251.65638 252.79171 253.62604 253.95437
 254.00370 253.79003 253.16236 252.12269 250.74102 248.91434 246.83567 244.68100
 242.48433 240.30066 238.13299 235.98432 233.85665 231.73598 229.77431 227.94364
 226.23897 224.72329 223.36562 222.14995 221.04428 220.01661 219.13294 218.28627
 217.54060 216.73293 215.84326 215.21959 214.68192 214.11684 212.74606 211.09639
 210.64600 211.73880 213.32709 215.15829 217.94742 222.13133 227.68723 232.51990
 236.46645 240.74828 245.16016 249.50623 253.61165 257.25876 260.41071 263.27545
 266.04752 268.70349 271.19315 273.53650 275.60229 277.37143 278.97314 280.57822
 282.20209 283.75079 285.17624 286.48715 287.66254 288.72714 289.72012 290.63248
 291.45932 292.19562 292.83884 293.65854
 366.78100 356.34836 345.79372 334.67308 323.08944 311.29681 299.18017 286.99653
 274.72189 262.63225 250.65461 239.96897 230.10433 221.22169 213.41706 206.43242
 200.27978 195.23114 191.82650 189.88186 188.93222 189.00958 189.85794 191.17931
 192.91767 195.02603 197.30239 199.67475 202.13311 204.62647 206.72783 208.58319
 210.22256 211.38092 211.62328 211.86464 211.81500 211.53336 211.17972 210.82308
 210.45344 210.17681 209.99817 209.87553 209.81689 210.16125 210.56061 210.96297
 211.76933 212.96069 214.22406 216.02042 217.96178 220.01814 222.12650 224.22286
 226.29622 228.39358 230.50394 232.62331 234.76567 236.95103 239.22039 241.60375
 244.23811 246.50247 248.51783 250.29619 251.72656 252.86292 253.69828 254.02764
 254.07800 253.86536 253.23872 252.20008 250.81944 248.99381 246.91617 244.76253
 242.56689 240.38425 238.21761 236.06997 233.94333 231.82369 229.86306 228.03342
 226.32978 224.81514 223.45850 222.24386 221.13922 220.11258 219.22994 218.38430
 217.63967 216.83303 215.94439 215.32175 214.78511 214.15601 212.66966 211.32335
 210.67680 211.70795 213.25311 215.07970 217.85638 222.08514 227.74628 232.40677
 236.46582 240.70674 245.12723 249.45247 253.55507 257.18225 260.30380 263.16159
 265.96619 268.64828 271.13571 273.47513 275.55685 277.33188 278.93701 280.49680
 282.08145 283.59509 284.96005 286.14517 287.19028 288.18900 289.05719 289.71725
 290.34677 290.91547 291.36929 291.91125
 366.78100 356.35098 345.79896 334.68093 323.09991 311.30989 299.19587 287.01485
 274.74283 262.65580 250.68078 239.99776 230.13574 221.25572 213.45369 206.47167
 200.32165 195.27563 191.87361 189.93158 188.98456 189.06454 189.91552 191.23950
 192.98048 195.09145 197.37043 199.74541 202.20639 204.70237 206.80634 208.66432
 210.30630 211.46728 211.71226 211.95623 211.90921 211.63019 211.27917 210.92515
 210.55813 210.28410 210.10808 209.98806 209.93204 210.27902 210.68099 211.08597
 211.89495 213.08893 214.35491 216.15389 218.09786 220.15684 222.26782 224.36680
 226.44278 228.54275 230.65573 232.77771 234.92269 237.11067 239.38264 241.76862
 244.40560 246.67258 248.69056 250.47154 251.90451 253.04349 253.88147 254.21345
 254.26643 254.05640 253.43238 252.39636 251.01834 249.19532 247.12029 244.96927
 242.77625 240.59623 238.43221 236.28719 234.16316 232.04614 230.08812 228.26110
 226.56008 225.04805 223.69403 222.48201 221.37999 220.35597 219.47595 218.63292
 217.89090 217.08688 216.20086 215.58084 215.04681 214.32291 212.61424 211.42938
 210.79080 211.37367 212.95105 215.08475 218.02200 222.18114 227.70767 232.54941
 236.45345 240.73906 245.13765 249.46011 253.51567 257.11609 260.24652 263.09570
 265.83350 268.45255 270.93161 273.23834 275.30154 277.12415 278.79474 280.39291
 281.91840 283.33038 284.62518 285.81354 286.82065 287.82544 288.81052 289.73224
 290.56122 291.29941 291.94431 292.76614
 366.78100 356.35683 345.81066 334.69849 323.12332 311.33915 299.23098 287.05582
 274.78965 262.70848 250.73931 240.06214 230.20597 221.33180 213.53563 206.55946
 200.41529 195.37512 191.97895 190.04279 189.10162 189.18745 190.04428 191.37411
 193.12094 195.23777 197.52260 199.90343 202.37026 204.87209 206.98192 208.84575
 210.49359 211.66042 211.91125 212.16108 212.11991 211.84674 211.50157 211.15340
 210.79223 210.52406 210.35389 210.23972 210.18956 210.54239 210.95022 211.36105
 212.17588 213.37571 214.64754 216.45237 218.40220 220.46703 222.58386 224.68869
 226.77052 228.87636 230.99519 233.12302 235.27385 237.46768 239.74551 242.13734
 244.78017 247.05300 249.07683 250.86366 252.30249 253.44733 254.29116 254.62899
 254.68782 254.48365 253.86548 252.83531 251.46314 249.64597 247.57680 245.43163
 243.24446 241.07029 238.91213 236.77296 234.65479 232.54362 230.59145 228.77028
 227.07511 225.56894 224.22077 223.01460 221.91843 220.90026 220.02610 219.18893
 218.45276 217.65459 216.77442 216.16025 215.63208 214.68858 212.50789 211.38570
 211.13281 211.67963 213.06760 215.06290 217.95567 222.13306 227.70496 232.50668
 236.42284 240.72643 245.13849 249.46213 253.49762 257.11417 260.33118 263.27148
 266.02802 268.64011 271.08401 273.31805 275.31418 277.09387 278.73190 280.29398
 281.81662 283.47275 285.26447 286.85504 288.23157 289.44943 290.56055 291.56714
 292.47244 293.27863 293.98291 294.88043
 366.78100 356.35871 345.81442 334.70413 323.13083 311.34854 299.24225 287.06896
 274.80467 262.72538 250.75809 240.08280 230.22850 221.35621 213.56192 206.58763
 200.44534 195.40705 192.01276 190.07847 189.13917 189.22688 190.08559 191.41730
 193.16601 195.28472 197.57143 199.95413 202.42284 204.92655 207.03826 208.90397
 210.55368 211.72239 211.97510 212.22680 212.18751 211.91622 211.57293 211.22664
 210.86735 210.60106 210.43277 210.32047 210.27218 210.62689 211.03660 211.44931
 212.26602 213.46773 214.74143 216.54814 218.49985 220.56656 222.68527 224.79198
 226.87569 228.98340 231.10410 233.23381 235.38652 237.58223 239.86194 242.25565
 244.90036 247.17507 249.20077 250.98948 252.43019 253.57690 254.42261 254.76232
 254.82303 254.62074 254.00444 252.97615 251.60586 249.79057 247.72328 245.57999
 243.39470 241.22240 239.06611 236.92882 234.81253 232.70324 230.75295 228.93366
 227.24037 225.73607 224.38978 223.18549 222.09120 221.07491 220.20262 219.36733
 218.63304 217.83674 216.95845 216.34616 215.81987 214.83583 212.48820 211.15034
 211.40811 212.15643 213.25685 214.88316 217.65834 221.98187 227.47438 232.31827
 236.23695 240.56149 245.00389 249.34543 253.36725 256.96176 260.21198 263.25983
 266.16330 268.86465 271.42242 273.84528 275.99042 277.82480 279.33353 280.62036
 282.21393 284.08185 285.93875 287.56921 288.98026 290.22867 291.36765 292.39948
 293.32748 294.15390 294.87585 295.79587
 366.78100 356.35556 345.80813 334.69469 323.11826 311.33282 299.22339 287.04695
 274.77952 262.69708 250.72665 240.04821 230.19078 221.31534 213.51791 206.54047
 200.39504 195.35360 191.95617 190.01873 189.07630 189.16086 190.01643 191.34499
 193.09056 195.20612 197.48969 199.86925 202.33482 204.83538 206.94395 208.80651
 210.45308 211.61864 211.86821 212.11677 212.07434 211.79990 211.45347 211.10403
 210.74160 210.47216 210.30073 210.18529 210.13386 210.48542 210.89199 211.30155
 212.11512 213.31368 214.58425 216.38781 218.33638 220.39994 222.51551 224.61907
 226.69964 228.80420 230.92177 233.04833 235.19790 237.39046 239.66703 242.05759
 244.69916 246.97072 248.99329 250.77885 252.21642 253.35998 254.20255 254.53911
 254.59668 254.39124 253.77180 252.74037 251.36693 249.54850 247.47806 245.33163
 243.14319 240.96776 238.80832 236.66789 234.54845 232.43602 230.48258 228.66015
 226.96371 225.45628 224.10684 222.89941 221.80197 220.78254 219.90710 219.06867
 218.33123 217.53180 216.65036 216.03493 215.50549 214.65363 212.62285 211.05933
 210.99274 211.97685 213.38487 215.15910 217.92702 222.06166 227.46065 232.25624
 236.14867 240.41646 244.80020 249.07202 253.03612 256.59445 259.80411 262.81577
 265.71036 268.47754 271.10693 273.60092 275.87442 277.90747 279.73114 281.36334
 282.83026 284.16080 285.47946 286.78714 287.98322 289.08319 290.15802 291.13174
 292.00751 292.78735 293.46863 294.33682
 366.78100 356.35495 345.80690 334.69285 323.11580 311.32976 299.21971 287.04266
 274.77461 262.69156 250.72051 240.04146 230.18341 221.30736 213.50931 206.53127
 200.38522 195.34317 191.94512 190.00707 189.06402 189.14797 190.00292 191.33087
 193.07583 195.19078 197.47373 199.85268 202.31763 204.81758 206.92553 208.78748
 210.43343 211.59839 211.84734 212.09529 212.05224 211.77719 211.43014 211.08009
 210.71704 210.44699 210.27494 210.15890 210.10685 210.45780 210.86375 211.27270
 212.08565 213.28360 214.55355 216.35650 218.30446 220.36741 222.48236 224.58531
 226.66526 228.76921 230.88616 233.01211 235.16106 237.35302 239.62897 242.01892
 244.65987 246.93082 248.95277 250.73772 252.17467 253.31762 254.15957 254.49553
 254.55248 254.34643 253.72638 252.69433 251.32028 249.50123 247.43018 245.28313
 243.09409 240.91804 238.75799 236.61694 234.49689 232.38384 230.42979 228.60674
 226.90969 225.40165 224.05160 222.84355 221.74550 220.72545 219.84940 219.01035
 218.27230 217.47225 216.59020 215.97416 215.44411 214.59055 212.57594 211.29903
 210.98892 211.79518 213.32843 215.13556 217.85608 222.01955 227.58614 232.25122
 236.18925 240.44102 244.83629 249.11673 253.09764 256.65540 259.83133 262.78708
 265.62952 268.32834 270.86966 273.28247 275.50311 277.49103 279.29752 280.96204
 282.47830 283.83731 285.05673 286.18942 287.27917 288.31641 289.26010 290.06961
 290.82031 291.55289 292.20142 293.02792
 366.78100 356.35573 345.80845 334.69518 323.11890 311.33363 299.22436 287.04808
 274.78081 262.69853 250.72826 240.04999 230.19271 221.31744 213.52016 206.54289
 200.39761 195.35634 191.95907 190.02179 189.07952 189.16424 190.01997 191.34870
 193.09442 195.21015 197.49387 199.87360 202.33933 204.84005 206.94878 208.81150
 210.45823 211.62396 211.87368 212.12241 212.08013 211.80586 211.45958 211.11031
 210.74804 210.47876 210.30749 210.19221 210.14094 210.49267 210.89939 211.30912
 212.12284 213.32157 214.59230 216.39602 218.34475 220.40847 222.52420 224.62793
 226.70865 228.81338 230.93110 233.05783 235.20755 237.40028 239.67701 242.06773
 244.70946 246.98118 249.00391 250.78964 252.22736 253.37109 254.21381 254.55054
 254.60827 254.40299 253.78372 252.75244 251.37917 249.56090 247.49062 245.34435
 243.15607 240.98080 238.82152 236.68125 234.56198 232.44970 230.49643 228.67415
 226.97788 225.47061 224.12133 222.91406 221.81678 220.79751 219.92224 219.08396
 218.34669 217.54741 216.66614 216.05087 215.52159 214.64322 212.57310 211.31445
 211.01433 211.69421 213.24298 215.11690 217.87981 222.02933 227.56822 232.25793
 236.17529 240.44882 244.85863 249.15414 253.14029 256.69778 259.88043 262.85684
 265.71854 268.41708 270.93277 273.31009 275.48889 277.42990 279.17676 280.77612
 282.23709 283.56131 284.75494 285.84027 286.87799 287.89590 288.84555 289.70850
 290.52826 291.27969 291.93613 292.77271
 366.78100 356.35546 345.80792 334.69438 323.11784 311.33231 299.22277 287.04623
 274.77869 262.69615 250.72561 240.04707 230.18953 221.31399 213.51645 206.53892
 200.39338 195.35184 191.95430 190.01676 189.07422 189.15868 190.01414 191.34260
 193.08806 195.20353 197.48699 199.86645 202.33191 204.83237 206.94083 208.80329
 210.44975 211.61521 211.86467 212.11314 212.07060 211.79606 211.44952 211.09998
 210.73744 210.46790 210.29636 210.18082 210.12928 210.48075 210.88721 211.29667
 212.11013 213.30859 214.57905 216.38251 218.33097 220.39443 222.50990 224.61336
 226.69382 228.79828 230.91574 233.04220 235.19166 237.38412 239.66058 242.05104
 244.69251 246.96397 248.98643 250.77189 252.20935 253.35281 254.19527 254.53173
 254.58919 254.38365 253.76412 252.73258 251.35904 249.54050 247.46996 245.32342
 243.13488 240.95934 238.79980 236.65926 234.53973 232.42719 230.47365 228.65111
 226.95457 225.44703 224.09749 222.88995 221.79241 220.77287 219.89734 219.05880
 218.32126 217.52172 216.64018 216.02464 215.49510 214.63963 212.62334 211.34865
 210.97910 211.61932 213.22672 215.16042 217.91797 222.03354 227.53297 232.22069
 236.11668 240.40376 244.82529 249.12816 253.10062 256.62662 259.79440 262.79944
 265.71368 268.44183 270.96356 273.35751 275.55981 277.51544 279.24228 280.79874
 282.24106 283.52716 284.67096 285.68567 286.65234 287.67578 288.64105 289.54297
 290.38202 291.12921 291.78192 292.61377
 366.78100 356.35588 345.80877 334.69565 323.11953 311.33442 299.22530 287.04919
 274.78207 262.69995 250.72984 240.05172 230.19460 221.31949 213.52237 206.54526
 200.40014 195.35902 191.96191 190.02479 189.08267 189.16756 190.02344 191.35232
 193.09821 195.21409 197.49798 199.87786 202.34374 204.84463 206.95351 208.81639
 210.46328 211.62916 211.87905 212.12793 212.08581 211.81170 211.46558 211.11646
 210.75435 210.48523 210.31411 210.19900 210.14788 210.49977 210.90665 211.31653
 212.13042 213.32930 214.60018 216.40407 218.35295 220.41684 222.53272 224.63660
 226.71749 228.82237 230.94025 233.06714 235.21702 237.40990 239.68679 242.07767
 244.71956 246.99144 249.01432 250.80021 252.23809 253.38197 254.22486 254.56174
 254.61963 254.41451 253.79539 252.76428 251.39116 249.57304 247.50293 245.35681
 243.16870 240.99358 238.83446 236.69435 234.57523 232.46311 230.51000 228.68788
 226.99176 225.48465 224.13553 222.92842 221.83130 220.81218 219.93707 219.09895
 218.36183 217.56272 216.68160 216.06649 215.53737 214.65399 212.57082 211.42856
 211.07330 211.63823 213.24649 215.22571 217.94826 221.99869 227.50732 232.11922
 236.04692 240.32692 244.75885 249.05682 253.01060 256.50757 259.65973 262.67795
 265.61301 268.37564 270.92322 273.33405 275.55176 277.51654 279.27060 280.86023
 282.30533 283.58389 284.70950 285.72049 286.64221 287.59598 288.55127 289.42676
 290.21182 290.92575 291.55286 292.35205
 366.78100 356.35627 345.80953 334.69680 323.12106 311.33633 299.22759 287.05186
 274.78512 262.70339 250.73365 240.05592 230.19918 221.32445 213.52771 206.55098
 200.40624 195.36551 191.96877 190.03204 189.09030 189.17557 190.03183 191.36110
 193.10736 195.22363 197.50789 199.88816 202.35442 204.85569 206.96495 208.82822
 210.47549 211.64175 211.89202 212.14128 212.09955 211.82581 211.48008 211.13134
 210.76961 210.50087 210.33014 210.21540 210.16467 210.51693 210.92420 211.33446
 212.14873 213.34799 214.61926 216.42352 218.37279 220.43705 222.55332 224.65758
 226.73885 228.84411 230.96238 233.08964 235.23991 237.43317 239.71044 242.10170
 244.74397 247.01624 249.03950 250.82577 252.26403 253.40830 254.25156 254.58883
 254.64709 254.44236 253.82362 252.79289 251.42015 249.60242 247.53268 245.38695
 243.19921 241.02448 238.86574 236.72601 234.60727 232.49554 230.54280 228.72107
 227.02533 225.51860 224.16986 222.96313 221.86639 220.84766 219.97292 219.13519
 218.39846 217.59972 216.71899 216.10425 215.57552 214.68648 212.59019 211.35263
 211.18526 211.70842 213.20737 215.25125 218.00198 222.00438 227.44849 232.07141
 235.95673 240.25339 244.68951 248.98889 252.92398 256.39526 259.53549 262.56149
 265.51147 268.27997 270.83264 273.25003 275.49414 277.50891 279.29242 280.86853
 282.27213 283.51013 284.59897 285.58350 286.51089 287.49921 288.45660 289.33130
 290.11865 290.81931 291.43137 292.21140
 366.78100 356.35510 345.80719 334.69329 323.11639 311.33049 299.22058 287.04368
 274.77578 262.69287 250.72197 240.04307 230.18517 221.30926 213.51136 206.53346
 200.38755 195.34565 191.94775 190.00984 189.06694 189.15104 190.00614 191.33423
 193.07933 195.19443 197.47752 199.85662 202.32172 204.82182 206.92991 208.79201
 210.43811 211.60320 211.85230 212.10040 212.05750 211.78259 211.43569 211.08579
 210.72288 210.45298 210.28108 210.16518 210.11327 210.46437 210.87047 211.27956
 212.09266 213.29076 214.56085 216.36395 218.31205 220.37515 222.49024 224.59334
 226.67344 228.77753 230.89463 233.02073 235.16983 237.36192 239.63802 242.02812
 244.66921 246.94031 248.96241 250.74751 252.18460 253.32770 254.16980 254.50589
 254.56299 254.35709 253.73719 252.70528 251.33138 249.51248 247.44157 245.29467
 243.10577 240.92986 238.76996 236.62906 234.50916 232.39625 230.44235 228.61945
 226.92254 225.41464 224.06474 222.85684 221.75893 220.73903 219.86313 219.02422
 218.28632 217.48642 216.60452 215.98861 215.45871 214.66492 212.76772 211.18179
 211.07475 211.66727 213.16318 215.26849 218.10312 222.10895 227.41504 232.08073
 235.93398 240.24069 244.66969 248.95778 252.87395 256.34698 259.51913 262.55835
 265.48358 268.19351 270.73257 273.15723 275.41611 277.45840 279.27682 280.87131
 282.24548 283.44385 284.48236 285.45959 286.55716 287.63824 288.72797 289.73795
 290.64630 291.45520 292.16183 293.06235
 366.78100 356.35354 345.80408 334.68861 323.11015 311.32269 299.21123 287.03276
 274.76330 262.67884 250.70638 240.02591 230.16645 221.28899 213.48953 206.51006
 200.36260 195.31914 191.91968 189.98022 189.03575 189.11829 189.97183 191.29837
 193.04190 195.15544 197.43698 199.81452 202.27805 204.77659 206.88313 208.74367
 210.38820 211.55174 211.79928 212.04582 212.00136 211.72489 211.37643 211.02497
 210.66051 210.38904 210.21558 210.09812 210.04466 210.39419 210.79873 211.20627
 212.01781 213.21434 214.48288 216.28442 218.23096 220.29250 222.40603 224.50757
 226.58611 228.68865 230.80418 232.92872 235.07626 237.26680 239.54133 241.92987
 244.56941 246.83895 248.85948 250.64302 252.07856 253.22010 254.06064 254.39517
 254.45071 254.24325 253.62179 252.58832 251.21286 249.39240 247.31994 245.17147
 242.98101 240.80355 238.64209 236.49962 234.37816 232.26370 230.30824 228.48378
 226.78531 225.27585 223.92439 222.71493 221.61546 220.59400 219.71654 218.87608
 218.13661 217.33515 216.45169 215.83423 215.30276 214.60002 212.89142 211.09241
 211.01161 211.58755 213.13567 215.36198 218.21872 222.20387 227.50916 232.14116
 235.95345 240.25723 244.70180 249.01009 252.93970 256.39865 259.53046 262.52875
 265.43832 268.11911 270.60031 272.99756 275.26648 277.31882 279.12741 280.70523
 282.07224 283.25320 284.34311 285.55725 286.74789 287.84348 288.97968 290.01535
 290.94681 291.77631 292.50092 293.42435
 366.78100 356.35303 345.80306 334.68709 323.10812 311.32015 299.20818 287.02921
 274.75924 262.67427 250.70130 240.02033 230.16036 221.28239 213.48242 206.50245
 200.35448 195.31051 191.91054 189.97057 189.02560 189.10763 189.96066 191.28669
 193.02972 195.14275 197.42378 199.80081 202.26384 204.76187 206.86790 208.72793
 210.37196 211.53499 211.78202 212.02805 211.98308 211.70611 211.35714 211.00517
 210.64020 210.36823 210.19426 210.07629 210.02232 210.37135 210.77538 211.18241
 211.99344 213.18947 214.45750 216.25853 218.20456 220.26559 222.37862 224.47965
 226.55768 228.65971 230.77474 232.89877 235.04580 237.23583 239.50986 241.89789
 244.53692 246.80595 248.82598 250.60901 252.04404 253.18507 254.02510 254.35913
 254.41416 254.20619 253.58422 252.55025 251.17428 249.35331 247.28034 245.13137
 242.94040 240.76243 238.60046 236.45749 234.33552 232.22055 230.26458 228.43961
 226.74064 225.23067 223.87870 222.66873 221.56876 220.54679 219.66882 218.82785
 218.08788 217.28591 216.40194 215.78397 215.25200 214.57092 212.92380 211.14796
 210.95168 211.50145 213.10332 215.35971 218.24954 222.24368 227.52760 232.15620
 235.95602 240.24217 244.68253 248.99294 252.92424 256.39169 259.54135 262.55936
 265.46890 268.16168 270.64664 272.99667 275.18509 277.14905 278.86865 280.37149
 281.69196 282.88147 284.07288 285.34259 286.53006 287.60291 288.65427 289.64935
 290.54434 291.34134 292.03757 292.92484
 366.78100 356.35037 345.79774 334.67911 323.09747 311.30684 299.19221 287.01058
 274.73795 262.65032 250.67468 239.99105 230.12842 221.24779 213.44516 206.46253
 200.31189 195.26526 191.86263 189.92000 188.97237 189.05174 189.90210 191.22547
 192.96584 195.07621 197.35458 199.72895 202.18932 204.68468 206.78805 208.64542
 210.28679 211.44716 211.69153 211.93489 211.88726 211.60763 211.25600 210.90137
 210.53374 210.25910 210.08247 209.96184 209.90521 210.25158 210.65295 211.05731
 211.86568 213.05905 214.32442 216.12279 218.06616 220.12453 222.23489 224.33326
 226.40863 228.50800 230.62037 232.74174 234.88610 237.07347 239.34484 241.73021
 244.36658 246.63295 248.65031 250.43068 251.86305 253.00142 253.83879 254.17016
 254.22252 254.01189 253.38726 252.35063 250.97200 249.14837 247.07274 244.92110
 242.72747 240.54684 238.38221 236.23658 234.11195 231.99431 230.03568 228.20805
 226.50642 224.99379 223.63916 222.42652 221.32389 220.29926 219.41863 218.57500
 217.83237 217.02773 216.14110 215.52047 214.98584 214.42343 213.05840 211.27150
 210.80505 211.60812 213.16756 215.30899 218.20511 222.21585 227.48500 232.06238
 235.89163 240.17821 244.61784 248.89597 252.76634 256.20044 259.38510 262.48019
 265.45612 268.22342 270.77661 273.15460 275.34641 277.32574 279.06741 280.55582
 281.81049 282.86896 283.84747 284.93924 286.06625 287.11108 288.09219 289.03787
 289.89899 290.66580 291.33569 292.18939
 366.78100 356.35149 345.79997 334.68246 323.10195 311.31244 299.19892 287.01841
 274.74690 262.66038 250.68587 240.00336 230.14184 221.26233 213.46082 206.47931
 200.32979 195.28428 191.88277 189.94125 188.99474 189.07523 189.92671 191.25120
 192.99269 195.10418 197.38366 199.75915 202.22064 204.71712 206.82161 208.68010
 210.32258 211.48407 211.72956 211.97405 211.92753 211.64902 211.29851 210.94499
 210.57848 210.30497 210.12945 210.00994 209.95443 210.30192 210.70440 211.10989
 211.91938 213.11386 214.38035 216.17984 218.12433 220.18381 222.29530 224.39479
 226.47127 228.57176 230.68525 232.80773 234.95322 237.14171 239.41420 241.80068
 244.43817 246.70566 248.72414 250.50563 251.93912 253.07860 253.91709 254.24958
 254.30307 254.09355 253.47004 252.43453 251.05701 249.23450 247.15999 245.00947
 242.81696 240.63745 238.47394 236.32942 234.20591 232.08940 230.13188 228.30537
 226.60486 225.09334 223.73983 222.52832 221.42681 220.40329 219.52378 218.68127
 217.93975 217.13624 216.25073 215.63122 215.09770 214.44711 212.91002 211.53969
 210.88803 211.53131 213.20700 215.32887 218.17719 222.16702 227.50992 231.96428
 235.85127 240.11630 244.54773 248.80260 252.64087 256.03906 259.18756 262.25995
 265.23538 268.03879 270.65454 273.10419 275.39041 277.48959 279.36978 280.97589
 282.29315 283.36047 284.24493 285.07281 285.90894 286.77536 287.68771 288.55350
 289.35309 290.07220 290.70294 291.50677
 366.78100 356.35329 345.80358 334.68788 323.10917 311.32146 299.20975 287.03104
 274.76134 262.67663 250.70392 240.02321 230.16350 221.28580 213.48609 206.50638
 200.35867 195.31496 191.91526 189.97555 189.03084 189.11313 189.96642 191.29272
 193.03601 195.14930 197.43059 199.80788 202.27118 204.76947 206.87576 208.73605
 210.38034 211.54364 211.79093 212.03722 211.99251 211.71580 211.36710 211.01539
 210.65068 210.37897 210.20526 210.08756 210.03385 210.38314 210.78743 211.19472
 212.00602 213.20231 214.47060 216.27189 218.21818 220.27948 222.39277 224.49406
 226.57235 228.67464 230.78993 232.91423 235.06152 237.25181 239.52610 241.91439
 244.55369 246.82298 248.84327 250.62656 252.06185 253.20315 254.04344 254.37773
 254.43302 254.22531 253.60361 252.56990 251.19419 249.37348 247.30077 245.15207
 242.96136 240.78365 238.62194 236.47923 234.35753 232.24282 230.28711 228.46240
 226.76369 225.25399 223.90228 222.69257 221.59286 220.57115 219.69345 218.85274
 218.11303 217.31132 216.42761 215.80991 215.27820 214.53722 212.78656 211.51596
 211.14162 211.46439 213.18507 215.38892 218.14572 222.13252 227.51672 231.91577
 235.82918 240.09999 244.55664 248.84061 252.69868 256.08530 259.19760 262.22916
 265.16602 267.90356 270.43988 272.85406 275.16907 277.33701 279.29526 280.94980
 282.28204 283.35458 284.21786 285.00137 285.86591 286.70221 287.60529 288.46625
 289.25577 289.96332 290.57077 291.32901
 366.78100 356.35212 345.80124 334.68436 323.10449 311.31561 299.20273 287.02285
 274.75197 262.66609 250.69222 240.01034 230.14946 221.27058 213.46970 206.48882
 200.33995 195.29507 191.89419 189.95331 189.00743 189.08855 189.94068 191.26580
 193.00792 195.12004 197.40016 199.77628 202.23841 204.73553 206.84065 208.69977
 210.34289 211.50501 211.75114 211.99626 211.95038 211.67250 211.32262 210.96974
 210.60387 210.33099 210.15611 210.03723 209.98235 210.33047 210.73360 211.13972
 211.94984 213.14496 214.41208 216.21220 218.15732 220.21745 222.32957 224.42969
 226.50681 228.60793 230.72205 232.84518 234.99130 237.18042 239.45354 241.84066
 244.47878 246.74691 248.76603 250.54815 251.98227 253.12239 253.96151 254.29464
 254.34876 254.13988 253.51700 252.48212 251.10524 249.28337 247.20949 245.05961
 242.86773 240.68885 238.52597 236.38210 234.25922 232.14334 230.18646 228.36058
 226.66070 225.14983 223.79695 222.58607 221.48519 220.46231 219.58343 218.74156
 218.00068 217.19780 216.31292 215.69404 215.16116 214.48218 212.87799 211.46663
 211.17775 211.46715 213.13295 215.37204 218.08925 222.09154 227.48434 231.91403
 235.79633 240.08868 244.56731 248.88255 252.76465 256.15958 259.26825 262.29724
 265.23499 267.95230 270.42792 272.76538 275.02713 277.17896 279.14484 280.79303
 282.10464 283.15909 283.98389 284.77509 285.69760 286.60806 287.54657 288.40976
 289.19586 289.90353 290.51895 291.30270
 366.78100 356.34994 345.79687 334.67781 323.09575 311.30469 299.18962 287.00756
 274.73450 262.64644 250.67037 239.98631 230.12325 221.24219 213.43912 206.45606
 200.30500 195.25794 191.85487 189.91181 188.96375 189.04269 189.89262 191.21556
 192.95550 195.06544 197.34337 199.71731 202.17725 204.67219 206.77512 208.63206
 210.27300 211.43294 211.67687 211.91981 211.87175 211.59169 211.23962 210.88456
 210.51650 210.24144 210.06437 209.94331 209.88625 210.23219 210.63312 211.03706
 211.84500 213.03794 214.30287 216.10081 218.04375 220.10169 222.21162 224.30956
 226.38450 228.48344 230.59537 232.71631 234.86025 237.04719 239.31812 241.70306
 244.33900 246.60494 248.62187 250.40181 251.83375 252.97169 253.80862 254.13956
 254.19150 253.98044 253.35537 252.31831 250.93925 249.11519 247.03912 244.88706
 242.69300 240.51194 238.34687 236.20081 234.07575 231.95769 229.99862 228.17056
 226.46850 224.95544 223.60037 222.38731 221.28425 220.25919 219.37812 218.53406
 217.79100 216.98594 216.09887 215.47781 214.94275 214.36494 212.99982 211.55742
 211.10402 211.48851 213.11392 215.32384 218.04756 222.05511 227.44385 231.87697
 235.73723 240.04724 244.54033 248.86662 252.73535 256.10748 259.21484 262.27151
 265.24191 267.97968 270.45111 272.75311 274.96448 277.08612 279.03870 280.67258
 281.96939 283.00446 283.80209 284.60776 285.55698 286.53235 287.46982 288.33371
 289.12469 289.83575 290.45364 291.24768
 366.78100 356.34892 345.79484 334.67476 323.09169 311.29961 299.18353 287.00045
 274.72637 262.63729 250.66021 239.97513 230.11106 221.22898 213.42490 206.44082
 200.28874 195.24066 191.83658 189.89250 188.94343 189.02135 189.87027 191.19219
 192.93111 195.04003 197.31695 199.68987 202.14880 204.64272 206.74464 208.60056
 210.24048 211.39940 211.64232 211.88424 211.83517 211.55409 211.20101 210.84493
 210.47585 210.19977 210.02169 209.89961 209.84154 210.18646 210.58638 210.98930
 211.79622 212.98814 214.25206 216.04898 217.99091 220.04783 222.15675 224.25367
 226.32759 228.42551 230.53643 232.65635 234.79928 236.98520 239.25512 241.63904
 244.27396 246.53888 248.55480 250.33372 251.76465 252.90157 253.73749 254.06741
 254.11833 253.90625 253.28017 252.24209 250.86202 249.03694 246.95986 244.80678
 242.61170 240.42962 238.26354 236.11646 233.99039 231.87131 229.91123 228.08215
 226.37907 224.86499 223.50891 222.29483 221.19076 220.16468 219.28260 218.43752
 217.69344 216.88736 215.99928 215.37720 214.84113 214.30728 213.04604 211.68214
 211.06030 211.47067 213.07092 215.29721 218.09814 222.07875 227.43065 231.85048
 235.69624 240.00731 244.50587 248.83229 252.67920 256.02914 259.13922 262.22198
 265.21375 267.96582 270.44839 272.74692 274.93127 277.01917 278.94382 280.55447
 281.83218 282.84372 283.63095 284.46790 285.45502 286.43234 287.37088 288.23505
 289.02399 289.72931 290.33176 291.09323
 366.78100 356.34878 345.79457 334.67435 323.09114 311.29892 299.18271 286.99949
 274.72528 262.63606 250.65885 239.97363 230.10942 221.22720 213.42299 206.43877
 200.28656 195.23834 191.83413 189.88991 188.94070 189.01848 189.86727 191.18905
 192.92784 195.03662 197.31341 199.68619 202.14498 204.63876 206.74055 208.59633
 210.23612 211.39490 211.63769 211.87947 211.83026 211.54904 211.19583 210.83961
 210.47040 210.19418 210.01597 209.89375 209.83554 210.18032 210.58011 210.98289
 211.78968 212.98146 214.24525 216.04203 217.98382 220.04060 222.14939 224.24617
 226.31996 228.41774 230.52853 232.64831 234.79110 236.97688 239.24667 241.63045
 244.26524 246.53002 248.54581 250.32459 251.75538 252.89216 253.72795 254.05773
 254.10852 253.89630 253.27009 252.23187 250.85166 249.02644 246.94923 244.79601
 242.60080 240.41858 238.25237 236.10515 233.97894 231.85972 229.89951 228.07029
 226.36708 224.85286 223.49665 222.28243 221.17822 220.15200 219.26979 218.42457
 217.68036 216.87414 215.98593 215.36371 214.82750 214.29692 213.04340 211.80975
 211.08733 211.42203 212.96469 215.20209 218.10289 222.12202 227.45236 231.87306
 235.69885 240.00127 244.49565 248.81789 252.65002 255.98889 259.10400 262.20401
 265.19775 267.94595 270.42676 272.72116 274.88477 276.93524 278.81662 280.39328
 281.65079 282.64767 283.46170 284.34494 285.35114 286.34579 287.28909 288.15369
 288.94559 289.64822 290.24304 291.00928
 366.78100 356.34812 345.79323 334.67235 323.08846 311.29558 299.17870 286.99481
 274.71993 262.63005 250.65216 239.96628 230.10139 221.21851 213.41363 206.42874
 200.27586 195.22698 191.82209 189.87721 188.92732 189.00444 189.85256 191.17367
 192.91179 195.01991 197.29602 199.66814 202.12625 204.61937 206.72049 208.57560
 210.21472 211.37283 211.61495 211.85607 211.80618 211.52430 211.17042 210.81353
 210.44365 210.16676 209.98788 209.86500 209.80611 210.15023 210.54935 210.95146
 211.75758 212.94869 214.21181 216.00793 217.94904 220.00516 222.11327 224.20939
 226.28251 228.37962 230.48974 232.60886 234.75097 236.93609 239.20520 241.58832
 244.22244 246.48655 248.50167 250.27979 251.70990 252.84602 253.68113 254.01025
 254.06037 253.84748 253.22060 252.18172 250.80083 248.97495 246.89706 244.74318
 242.54730 240.36441 238.19753 236.04964 233.92276 231.80288 229.84199 228.01211
 226.30823 224.79334 223.43646 222.22157 221.11669 220.08981 219.20692 218.36104
 217.61616 216.80927 215.92039 215.29750 214.76062 214.25952 213.07564 211.89445
 211.18639 211.43303 212.79224 215.03583 218.06116 222.13297 227.45529 231.88715
 235.72173 240.01657 244.50746 248.82721 252.64754 255.97534 259.08911 262.19678
 265.18546 267.92578 270.40155 272.68735 274.82858 276.83594 278.67310 280.22330
 281.47293 282.47705 283.32071 284.23367 285.25214 286.25253 287.19550 288.06119
 288.85208 289.55533 290.14642 290.91476
 366.78100 356.34738 345.79176 334.67013 323.08551 311.29189 299.17427 286.98964
 274.71402 262.62340 250.64478 239.95816 230.09253 221.20891 213.40329 206.41767
 200.26405 195.21442 191.80880 189.86318 188.91256 188.98893 189.83631 191.15669
 192.89407 195.00145 197.27682 199.64820 202.10558 204.59796 206.69833 208.55271
 210.19109 211.34847 211.58985 211.83022 211.77960 211.49698 211.14236 210.78474
 210.41411 210.13649 209.95687 209.83325 209.77362 210.11700 210.51538 210.91676
 211.72214 212.91251 214.17489 215.97027 217.91065 219.96602 222.07340 224.16878
 226.24116 228.33754 230.44691 232.56529 234.70667 236.89105 239.15943 241.54180
 244.17518 246.43856 248.45294 250.23031 251.65969 252.79507 253.62945 253.95783
 254.00720 253.79358 253.16596 252.12634 250.74471 248.91809 246.83947 244.68485
 242.48823 240.30460 238.13698 235.98836 233.86074 231.74012 229.77849 227.94787
 226.24325 224.72763 223.37000 222.15438 221.04876 220.02114 219.13752 218.29089
 217.54527 216.73765 215.84803 215.22441 214.68678 214.22003 213.11728 211.97690
 211.27013 211.44154 212.73474 214.90198 217.92168 222.06749 227.40709 231.87141
 235.73141 240.03053 244.51909 248.83867 252.65486 255.97838 259.08972 262.19034
 265.16510 267.90085 270.37842 272.66208 274.78391 276.75076 278.54587 280.07782
 281.32733 282.36145 283.25635 284.18082 285.19138 286.22745 287.17422 288.04202
 288.83395 289.53836 290.14566 290.92349
 366.78100 356.34806 345.79312 334.67218 323.08823 311.29529 299.17835 286.99441
 274.71947 262.62953 250.65158 239.96564 230.10070 221.21776 213.41282 206.42788
 200.27493 195.22599 191.82105 189.87611 188.92617 189.00323 189.85128 191.17234
 192.91040 195.01846 197.29452 199.66658 202.12463 204.61769 206.71875 208.57381
 210.21287 211.37093 211.61298 211.85404 211.80410 211.52216 211.16822 210.81128
 210.44133 210.16439 209.98545 209.86251 209.80357 210.14763 210.54669 210.94874
 211.75480 212.94586 214.20892 216.00498 217.94604 220.00209 222.11015 224.20621
 226.27927 228.37633 230.48639 232.60544 234.74750 236.93256 239.20162 241.58468
 244.21874 246.48279 248.49785 250.27591 251.70597 252.84203 253.67709 254.00614
 254.05620 253.84326 253.21632 252.17738 250.79644 248.97049 246.89255 244.73861
 242.54267 240.35973 238.19279 236.04484 233.91790 231.79796 229.83702 228.00708
 226.30314 224.78819 223.43125 222.21631 221.11137 220.08443 219.20149 218.35555
 217.61060 216.80366 215.91472 215.29178 214.75484 214.25380 213.07002 212.09993
 211.43602 211.40768 212.53648 214.79137 217.89951 222.05385 227.36787 231.84741
 235.72166 240.02397 244.51314 248.83443 252.64815 255.97165 259.08249 262.18219
 265.14911 267.88205 270.36292 272.64835 274.75500 276.68277 278.43024 279.93692
 281.18521 282.22119 283.13562 284.11923 285.23456 286.28378 287.24481 288.12686
 288.93689 289.66702 290.34445 291.22870
 366.78100 356.34861 345.79423 334.67384 323.09046 311.29807 299.18169 286.99830
 274.72392 262.63453 250.65714 239.97176 230.10737 221.22499 213.42060 206.43622
 200.28383 195.23544 191.83106 189.88667 188.93729 189.01490 189.86352 191.18513
 192.92375 195.03236 197.30897 199.68159 202.14020 204.63382 206.73543 208.59105
 210.23066 211.38928 211.63189 211.87350 211.82412 211.54273 211.18935 210.83296
 210.46358 210.18719 210.00880 209.88642 209.82803 210.17265 210.57226 210.97488
 211.78149 212.97311 214.23672 216.03333 217.97495 220.03156 222.14018 224.23679
 226.31041 228.40802 230.51864 232.63825 234.78086 236.96648 239.23609 241.61971
 244.25432 246.51894 248.53455 250.31316 251.74378 252.88039 253.71601 254.04562
 254.09624 253.88385 253.25747 252.21908 250.83869 249.01331 246.93592 244.78254
 242.58715 240.40477 238.23838 236.09100 233.96461 231.84522 229.88484 228.05545
 226.35207 224.83768 223.48130 222.26691 221.16252 220.13614 219.25375 218.40837
 217.66398 216.85760 215.96921 215.34683 214.81044 214.28123 213.03094 212.21931
 211.59952 211.34146 212.41016 214.73808 217.87866 222.04314 227.35367 231.80936
 235.70723 240.00018 244.49411 248.81622 252.61920 255.93431 259.05060 262.16486
 265.12515 267.84897 270.32370 272.60184 274.68564 276.57660 278.30176 279.81949
 281.10684 282.20270 283.18414 284.14862 285.18738 286.22864 287.18286 288.05588
 288.85367 289.56345 290.17563 290.97348
 366.78100 356.34772 345.79244 334.67116 323.08688 311.29360 299.17632 286.99204
 274.71676 262.62648 250.64820 239.96192 230.09664 221.21336 213.40808 206.42280
 200.26952 195.22024 191.81496 189.86968 188.91940 188.99612 189.84384 191.16456
 192.90228 195.01000 197.28572 199.65744 202.11516 204.60788 206.70860 208.56332
 210.20204 211.35976 211.60148 211.84220 211.79192 211.50964 211.15536 210.79808
 210.42780 210.15052 209.97124 209.84796 209.78868 210.13240 210.53112 210.93284
 211.73856 212.92928 214.19200 215.98772 217.92844 219.98416 222.09188 224.18760
 226.26032 228.35704 230.46676 232.58548 234.72720 236.91193 239.18065 241.56337
 244.19709 246.46081 248.47553 250.25325 251.68297 252.81869 253.65341 253.98213
 254.03185 253.81857 253.19129 252.15201 250.77073 248.94445 246.86617 244.71189
 242.51561 240.33233 238.16505 236.01677 233.88949 231.76921 229.80793 227.97765
 226.27337 224.75809 223.40081 222.18553 221.08025 220.05297 219.16969 218.32341
 217.57813 216.77085 215.88157 215.25829 214.72101 214.24228 213.11119 212.23323
 211.68347 211.33237 212.34705 214.65121 217.81659 222.00858 227.33081 231.84752
 235.70068 240.00369 244.48654 248.79819 252.59068 255.90855 259.03995 262.16022
 265.11029 267.81021 270.25790 272.50027 274.52902 276.36911 278.06683 279.60440
 280.96286 282.14001 283.18259 284.20502 285.27158 286.29852 287.24643 288.11737
 288.91599 289.61551 290.23746 291.03006
 366.78100 356.34624 345.78948 334.66672 323.08096 311.28621 299.16745 286.98169
 274.70493 262.61317 250.63341 239.94565 230.07889 221.19414 213.38738 206.40062
 200.24586 195.19510 191.78834 189.84158 188.88982 188.96507 189.81131 191.13055
 192.86679 194.97303 197.24727 199.61751 202.07375 204.56499 206.66424 208.51748
 210.15472 211.31096 211.55120 211.79044 211.73868 211.45492 211.09917 210.74041
 210.36865 210.08989 209.90913 209.78437 209.72361 210.06585 210.46310 210.86334
 211.66758 212.85682 214.11806 215.91230 217.85154 219.90578 222.01202 224.10627
 226.17751 228.27275 230.38099 232.49823 234.63847 236.82171 239.08895 241.47020
 244.10244 246.36468 248.37792 250.15416 251.58240 252.71664 253.54988 253.87713
 253.92537 253.71061 253.08185 252.04109 250.65833 248.83057 246.75081 244.59505
 242.39730 240.21254 238.04378 235.89402 233.76526 231.64350 229.68074 227.84898
 226.14323 224.62647 223.26771 222.05095 220.94419 219.91543 219.03067 218.18291
 217.43616 216.62740 215.73664 215.11188 214.57312 214.17812 213.24060 212.20522
 211.72440 211.31831 212.27325 214.54512 217.74745 221.96391 227.30000 231.90585
 235.73157 240.04584 244.51958 248.81505 252.60728 255.94537 259.10272 262.22437
 265.16815 267.85184 270.27679 272.46356 274.39920 276.12457 277.71408 279.18484
 280.50937 281.73685 282.96115 284.21851 285.39062 286.44031 287.41513 288.31760
 289.16925 289.96289 290.65619 291.53973
 366.78100 356.34548 345.78796 334.66444 323.07792 311.28240 299.16289 286.97637
 274.69885 262.60633 250.62581 239.93729 230.06977 221.18425 213.37673 206.38921
 200.23369 195.18217 191.77466 189.82714 188.87462 188.94910 189.79458 191.11306
 192.84854 194.95402 197.22750 199.59698 202.05246 204.54294 206.64143 208.49391
 210.13039 211.28587 211.52535 211.76383 211.71131 211.42679 211.07027 210.71075
 210.33823 210.05872 209.87720 209.75168 209.69016 210.03164 210.42812 210.82760
 211.63108 212.81956 214.08004 215.87352 217.81200 219.86549 221.97097 224.06445
 226.13493 228.22941 230.33689 232.45337 234.59285 236.77533 239.04181 241.42229
 244.05377 246.31526 248.32774 250.10322 251.53070 252.66418 253.49666 253.82314
 253.87062 253.65510 253.02558 251.98406 250.60055 248.77203 246.69151 244.53499
 242.33647 240.15095 237.98143 235.83091 233.70139 231.57887 229.61535 227.78283
 226.07632 224.55880 223.19928 221.98176 220.87424 219.84472 218.95920 218.11068
 217.36316 216.55364 215.66212 215.03660 214.49709 214.14339 213.30046 212.27254
 211.78853 211.28979 212.21358 214.46875 217.68013 221.90347 227.26204 231.89622
 235.73724 240.06245 244.53789 248.82719 252.60628 255.93629 259.10706 262.25937
 265.23050 267.93741 270.37851 272.55640 274.43250 276.05850 277.56625 278.98666
 280.27338 281.49811 282.70377 283.96420 285.14557 286.19861 287.17899 288.08746
 288.96677 289.77435 290.47983 291.37885
 366.78100 356.34537 345.78775 334.66412 323.07749 311.28186 299.16224 286.97561
 274.69798 262.60535 250.62473 239.93610 230.06847 221.18284 213.37522 206.38759
 200.23196 195.18034 191.77271 189.82508 188.87245 188.94683 189.79220 191.11057
 192.84594 194.95132 197.22469 199.59406 202.04943 204.53981 206.63818 208.49055
 210.12693 211.28230 211.52167 211.76004 211.70742 211.42279 211.06616 210.70653
 210.33391 210.05428 209.87265 209.74702 209.68540 210.02677 210.42314 210.82252
 211.62589 212.81426 214.07463 215.86801 217.80638 219.85975 221.96512 224.05850
 226.12887 228.22324 230.33061 232.44699 234.58636 236.76873 239.03511 241.41548
 244.04685 246.30822 248.32060 250.09597 251.52334 252.65671 253.48909 253.81546
 253.86283 253.64720 253.01758 251.97595 250.59232 248.76370 246.68307 244.52644
 242.32781 240.14219 237.97256 235.82193 233.69230 231.56968 229.60605 227.77342
 226.06680 224.54917 223.18954 221.97191 220.86429 219.83466 218.94903 218.10040
 217.35278 216.54315 215.65152 215.02589 214.48627 214.14246 213.32222 212.37465
 211.87143 211.27649 212.15254 214.42387 217.63432 221.85385 227.20885 231.84694
 235.70483 240.03624 244.50824 248.77737 252.52396 255.83044 259.00906 262.18701
 265.17877 267.91180 270.39471 272.61530 274.50720 276.11844 277.62201 279.06387
 280.38708 281.60574 282.76828 283.90128 285.01947 286.07104 287.05008 287.97119
 288.88486 289.70245 290.41669 291.32690
 366.78100 356.34458 345.78616 334.66174 323.07432 311.27790 299.15748 286.97006
 274.69164 262.59822 250.61680 239.92738 230.05896 221.17254 213.36412 206.37570
 200.21928 195.16686 191.75844 189.81002 188.85660 188.93018 189.77476 191.09234
 192.82692 194.93150 197.20408 199.57266 202.02724 204.51682 206.61440 208.46598
 210.10156 211.25614 211.49472 211.73230 211.67888 211.39346 211.03604 210.67563
 210.30221 210.02179 209.83937 209.71295 209.65053 209.99111 210.38669 210.78527
 211.58785 212.77543 214.03501 215.82759 217.76517 219.81775 221.92233 224.01491
 226.08449 228.17807 230.28465 232.40023 234.53881 236.72039 238.98597 241.36555
 243.99613 246.25671 248.26829 250.04287 251.46945 252.60203 253.43361 253.75919
 253.80577 253.58935 252.95893 251.91651 250.53209 248.70267 246.62125 244.46383
 242.26441 240.07799 237.90757 235.75615 233.62573 231.50231 229.53789 227.70447
 225.99705 224.47863 223.11821 221.89979 220.79137 219.76095 218.87453 218.02511
 217.27669 216.46627 215.57385 214.94743 214.40701 214.11275 213.39848 212.43343
 211.85826 211.18309 212.02972 214.39850 217.65625 221.87497 227.20688 231.86349
 235.70235 240.02933 244.49512 248.74185 252.47664 255.78328 258.97610 262.14325
 265.12073 267.83975 270.32703 272.56732 274.45816 276.06573 277.59213 279.07272
 280.45319 281.70035 282.86307 284.09290 285.27304 286.34464 287.36301 288.39151
 289.31653 290.14029 290.85986 291.77692
 366.78100 356.34340 345.78379 334.65819 323.06959 311.27198 299.15038 286.96178
 274.68217 262.58757 250.60497 239.91436 230.04476 221.15716 213.34756 206.35795
 200.20035 195.14675 191.73714 189.78754 188.83294 188.90533 189.74873 191.06513
 192.79852 194.90192 197.17332 199.54071 201.99411 204.48251 206.57890 208.42930
 210.06370 211.21709 211.45449 211.69089 211.63629 211.34968 210.99108 210.62948
 210.25487 209.97327 209.78967 209.66206 209.59846 209.93786 210.33225 210.72965
 211.53105 212.71744 213.97584 215.76724 217.70363 219.75503 221.85843 223.94982
 226.01822 228.11062 230.21601 232.33041 234.46781 236.64821 238.91260 241.29100
 243.92040 246.17979 248.19019 249.96359 251.38898 252.52038 253.35078 253.67517
 253.72057 253.50297 252.87136 251.82776 250.44216 248.61155 246.52895 244.37035
 242.16974 239.98214 237.81054 235.65794 233.52633 231.40173 229.43613 227.60152
 225.89292 224.37332 223.01171 221.79211 220.68251 219.65090 218.76330 217.91270
 217.16309 216.35149 215.45789 214.83028 214.28868 214.06033 213.48811 212.49672
 211.83670 211.06508 211.87222 214.34508 217.67851 221.92358 227.26044 231.92101
 235.74054 240.05205 244.51125 248.75093 252.49034 255.80513 259.00748 262.17136
 265.13287 267.82095 270.27203 272.48468 274.33914 275.91275 277.44382 278.93884
 280.33041 281.58749 282.91537 284.26431 285.45874 286.55490 287.65106 288.67264
 289.59143 290.40964 291.12442 292.03531
 366.78100 356.34376 345.78451 334.65927 323.07103 311.27379 299.15254 286.96430
 274.68506 262.59082 250.60857 239.91833 230.04909 221.16185 213.35260 206.36336
 200.20612 195.15288 191.74363 189.79439 188.84015 188.91290 189.75666 191.07342
 192.80718 194.91093 197.18269 199.55045 202.00421 204.49296 206.58972 208.44048
 210.07524 211.22899 211.46675 211.70351 211.64927 211.36302 211.00478 210.64354
 210.26930 209.98805 209.80481 209.67757 209.61432 209.95408 210.34884 210.74660
 211.54835 212.73511 213.99387 215.78563 217.72238 219.77414 221.87790 223.96966
 226.03841 228.13117 230.23693 232.35169 234.48944 236.67020 238.93496 241.31371
 243.94347 246.20323 248.21399 249.98774 251.41350 252.54526 253.37602 253.70077
 253.74653 253.52929 252.89805 251.85480 250.46956 248.63932 246.55708 244.39883
 242.19859 240.01135 237.84010 235.68786 233.55662 231.43238 229.46713 227.63289
 225.92465 224.40541 223.04416 221.82492 220.71568 219.68444 218.79719 217.94695
 217.19771 216.38647 215.49322 214.86598 214.32474 214.08607 213.48779 212.57776
 211.95598 211.09024 211.79590 214.27594 217.64870 221.91512 227.26782 231.92908
 235.74731 240.04697 244.49675 248.71854 252.44891 255.77292 259.00308 262.18924
 265.15924 267.84537 270.26822 272.43430 274.25092 275.84750 277.37024 278.81586
 280.01743 281.38129 282.80563 284.14755 285.35059 286.49417 287.62637 288.65207
 289.57455 290.39606 291.11368 292.02823
 366.78100 356.34502 345.78704 334.66306 323.07608 311.28010 299.16012 286.97314
 274.69516 262.60218 250.62120 239.93223 230.06425 221.17827 213.37029 206.38231
 200.22633 195.17435 191.76637 189.81839 188.86541 188.93943 189.78445 191.10247
 192.83749 194.94251 197.21553 199.58455 202.03957 204.52959 206.62761 208.47964
 210.11566 211.27068 211.50970 211.74772 211.69474 211.40976 211.05278 210.69280
 210.31982 210.03984 209.85786 209.73188 209.66990 210.01092 210.40694 210.80596
 211.60898 212.79700 214.05702 215.85005 217.78807 219.84109 221.94611 224.03913
 226.10915 228.20317 230.31019 232.42621 234.56523 236.74725 239.01327 241.39329
 244.02431 246.28533 248.29735 250.07237 251.49939 252.63241 253.46443 253.79046
 253.83748 253.62150 252.99152 251.94954 250.56556 248.73658 246.65560 244.49862
 242.29964 240.11366 237.94368 235.79270 233.66272 231.53974 229.57576 227.74278
 226.03580 224.51782 223.15784 221.93987 220.83189 219.80191 218.91593 218.06695
 217.31897 216.50899 215.61701 214.99103 214.45105 214.15820 213.44133 212.61537
 212.06488 211.18236 211.79390 214.20995 217.57982 221.85822 227.22261 231.89162
 235.72105 240.02057 244.46626 248.67299 252.38943 255.71779 258.97461 262.19345
 265.17654 267.86688 270.27481 272.40698 274.18356 275.74866 277.25531 278.58310
 279.75455 281.18216 282.62094 283.98898 285.21002 286.40628 287.55872 288.60272
 289.54169 290.37787 291.10831 292.03918
 366.78100 356.34529 345.78759 334.66388 323.07718 311.28147 299.16177 286.97506
 274.69736 262.60465 250.62395 239.93524 230.06754 221.18183 213.37413 206.38642
 200.23072 195.17901 191.77131 189.82360 188.87090 188.94519 189.79049 191.10878
 192.84408 194.94937 197.22267 199.59196 202.04726 204.53755 206.63585 208.48814
 210.12444 211.27973 211.51902 211.75732 211.70461 211.41991 211.06320 210.70350
 210.33079 210.05109 209.86938 209.74368 209.68197 210.02327 210.41956 210.81886
 211.62215 212.81045 214.07074 215.86404 217.80233 219.85563 221.96092 224.05422
 226.12451 228.21881 230.32610 232.44240 234.58169 236.76399 239.03028 241.41058
 244.04187 246.30317 248.31546 250.09076 251.51805 252.65134 253.48364 253.80993
 253.85723 253.64152 253.01182 251.97011 250.58641 248.75770 246.67700 244.52029
 242.32159 240.13588 237.96618 235.81547 233.68577 231.56306 229.59936 227.76665
 226.05995 224.54224 223.18254 221.96483 220.85713 219.82742 218.94172 218.09301
 217.34531 216.53560 215.64390 215.01819 214.47849 214.16707 213.42355 212.71805
 212.12608 211.13675 211.69649 214.12761 217.48828 221.79306 227.17992 231.87079
 235.71213 240.01396 244.43826 248.63393 252.34691 255.69391 258.95984 262.18433
 265.17633 267.86478 270.24948 272.31836 274.00192 275.52960 277.03897 278.46594
 279.75186 280.99225 282.26764 283.52814 284.71875 285.80145 286.87634 287.95728
 288.92944 289.79517 290.55142 291.51523
 366.78100 356.34261 345.78221 334.65582 323.06642 311.26803 299.14563 286.95624
 274.67584 262.58045 250.59705 239.90566 230.03526 221.14687 213.33647 206.34608
 200.18768 195.13329 191.72289 189.77250 188.81710 188.88871 189.73131 191.04692
 192.77952 194.88213 197.15273 199.51934 201.97195 204.45955 206.55516 208.40476
 210.03837 211.19097 211.42758 211.66318 211.60779 211.32039 210.96100 210.59860
 210.22321 209.94081 209.75642 209.62802 209.56363 209.90223 210.29584 210.69244
 211.49305 212.67865 213.93626 215.72686 217.66247 219.71307 221.81568 223.90629
 225.97389 228.06550 230.17010 232.28371 234.42031 236.59992 238.86352 241.24113
 243.86973 246.12834 248.13794 249.91055 251.33515 252.46576 253.29536 253.61897
 253.66357 253.44518 252.81278 251.76839 250.38199 248.55060 246.46720 244.30781
 242.10641 239.91802 237.74563 235.59223 233.45984 231.33444 229.36805 227.53265
 225.82326 224.30286 222.94047 221.72007 220.60968 219.57728 218.68889 217.83749
 217.08710 216.27470 215.38031 214.75191 214.20952 214.05035 213.62103 212.67549
 212.23087 211.28323 211.73244 214.07022 217.44835 221.74466 227.12213 231.81308
 235.66335 239.96590 244.39311 248.56516 252.25868 255.60448 258.90146 262.16104
 265.17978 267.88373 270.26074 272.28491 273.93921 275.42419 276.88657 278.33060
 279.72012 281.06708 282.31833 283.56985 284.79025 285.99002 287.12076 288.14514
 289.06647 289.88690 290.60361 291.51700
 366.78100 356.34261 345.78221 334.65582 323.06643 311.26803 299.14564 286.95624
 274.67585 262.58046 250.59706 239.90567 230.03528 221.14688 213.33649 206.34610
 200.18770 195.13331 191.72292 189.77252 188.81713 188.88873 189.73134 191.04695
 192.77955 194.88216 197.15277 199.51937 201.97198 204.45959 206.55519 208.40480
 210.03840 211.19101 211.42762 211.66322 211.60783 211.32044 210.96104 210.59865
 210.22326 209.94086 209.75647 209.62808 209.56368 209.90229 210.29589 210.69250
 211.49311 212.67871 213.93632 215.72693 217.66253 219.71314 221.81575 223.90635
 225.97396 228.06557 230.17017 232.28378 234.42038 236.59999 238.86360 241.24120
 243.86981 246.12842 248.13802 249.91063 251.33524 252.46584 253.29545 253.61905
 253.66366 253.44527 252.81287 251.76848 250.38209 248.55069 246.46730 244.30791
 242.10651 239.91812 237.74573 235.59233 233.45994 231.33454 229.36815 227.53276
 225.82336 224.30297 222.94058 221.72018 220.60979 219.57740 218.68900 217.83761
 217.08721 216.27482 215.38043 214.75203 214.20964 214.07686 213.65930 212.67372
 212.20938 211.53447 211.97728 214.11496 217.43613 221.70114 227.09938 231.74507
 235.61932 239.92487 244.36853 248.52348 252.20117 255.57744 258.91315 262.17453
 265.18735 267.89285 270.27997 272.29547 273.93665 275.42645 276.88727 278.36520
 279.80267 281.34076 282.93323 284.56714 286.09824 287.45288 288.68875 289.80838
 290.81537 291.71210 292.49545 293.49374
 366.78100 356.34535 345.78769 334.66404 323.07739 311.28173 299.16208 286.97542
 274.69777 262.60512 250.62446 239.93581 230.06816 221.18250 213.37485 206.38720
 200.23154 195.17989 191.77224 189.82458 188.87193 188.94627 189.79162 191.10997
 192.84531 194.95066 197.22401 199.59335 202.04870 204.53905 206.63739 208.48974
 210.12609 211.28143 211.52078 211.75912 211.70647 211.42182 211.06516 210.70551
 210.33286 210.05320 209.87155 209.74590 209.68424 210.02559 210.42194 210.82128
 211.62463 212.81297 214.07332 215.86667 217.80501 219.85836 221.96371 224.05705
 226.12740 228.22175 230.32909 232.44544 234.58479 236.76713 239.03348 241.41382
 244.04517 246.30652 248.31886 250.09421 251.52156 252.65490 253.48725 253.81360
 253.86094 253.64529 253.01564 251.97398 250.59033 248.76167 246.68102 244.52437
 242.32571 240.14006 237.97041 235.81975 233.69010 231.56745 229.60379 227.77114
 226.06449 224.54683 223.18718 221.96952 220.86187 219.83222 218.94656 218.09791
 217.35026 216.54060 215.64895 215.02330 214.48364 214.21703 213.54993 212.78212
 212.12546 211.56128 212.09303 214.15767 217.43042 221.68980 227.08218 231.74080
 235.61636 239.91905 244.35535 248.51436 252.17178 255.53712 258.87735 262.16666
 265.18744 267.84650 270.13498 272.04242 273.58698 275.07263 276.63303 278.22272
 279.93112 281.66190 283.25589 284.81870 286.27832 287.56970 288.74789 289.81528
 290.77524 291.63013 292.37692 293.32861
 366.78100 356.34678 345.79057 334.66835 323.08314 311.28892 299.17071 286.98549
 274.70927 262.61806 250.63884 239.95163 230.08541 221.20120 213.39498 206.40876
 200.25455 195.20433 191.79812 189.85190 188.90069 188.97647 189.82325 191.14304
 192.87982 194.98661 197.26139 199.63218 202.08896 204.58074 206.68053 208.53431
 210.17210 211.32888 211.56966 211.80945 211.75823 211.47502 211.11980 210.76159
 210.39037 210.11215 209.93194 209.80772 209.74751 210.09029 210.48808 210.88886
 211.69364 212.88343 214.14521 215.94000 217.87978 219.93457 222.04135 224.13613
 226.20792 228.30370 230.41249 232.53027 234.67106 236.85484 239.12262 241.50441
 244.13719 246.39998 248.41376 250.19055 251.61933 252.75411 253.58790 253.91568
 253.96447 253.75025 253.12204 252.08182 250.69960 248.87239 246.79317 244.63796
 242.44074 240.25653 238.08831 235.93909 233.81088 231.68966 229.72745 227.89623
 226.19102 224.67480 223.31658 222.10037 220.99415 219.96594 219.08172 218.23450
 217.48829 216.68007 215.78986 215.16564 214.62743 214.30513 213.53285 212.91040
 212.24438 211.56500 211.97171 214.06526 217.37396 221.62038 227.07610 231.73219
 235.60321 239.89862 244.30122 248.43327 252.11198 255.52299 258.89624 262.19482
 265.23569 267.88943 270.08203 271.82364 273.23099 274.64398 276.31244 278.11356
 279.96005 281.78162 283.55353 285.21573 286.65421 287.92691 289.08804 290.13995
 291.08603 291.92853 292.66449 293.60242
 366.78100 356.34689 345.79078 334.66866 323.08355 311.28944 299.17133 286.98622
 274.71011 262.61899 250.63988 239.95277 230.08666 221.20255 213.39644 206.41032
 200.25621 195.20610 191.79999 189.85388 188.90277 188.97865 189.82554 191.14543
 192.88232 194.98921 197.26410 199.63498 202.09187 204.58376 206.68365 208.53754
 210.17543 211.33231 211.57320 211.81309 211.76198 211.47887 211.12376 210.76564
 210.39453 210.11642 209.93631 209.81220 209.75209 210.09497 210.49286 210.89375
 211.69864 212.88853 214.15042 215.94530 217.88519 219.94008 222.04697 224.14186
 226.21375 228.30963 230.41852 232.53641 234.67730 236.86119 239.12908 241.51096
 244.14385 246.40674 248.42063 250.19752 251.62641 252.76129 253.59518 253.92307
 253.97196 253.75785 253.12974 252.08962 250.70751 248.88040 246.80129 244.64618
 242.44907 240.26495 238.09684 235.94773 233.81962 231.69851 229.73640 227.90528
 226.20017 224.68406 223.32595 222.10984 221.00373 219.97561 219.09150 218.24439
 217.49828 216.69017 215.80006 215.17594 214.63783 214.32533 213.55849 212.92381
 212.38249 211.53053 211.82898 214.00240 217.33015 221.60645 227.00903 231.71379
 235.59933 239.90765 244.30656 248.43855 252.13023 255.55893 258.94556 262.27002
 265.36557 268.06244 270.27328 271.97858 273.27124 274.59290 276.25702 278.06494
 280.02063 281.85516 283.62888 285.23239 286.62009 287.84784 288.96799 289.98276
 290.89545 291.70819 292.41818 293.32300
 366.78100 356.34602 345.78903 334.66605 323.08007 311.28508 299.16610 286.98012
 274.70314 262.61115 250.63117 239.94319 230.07620 221.19122 213.38424 206.39725
 200.24227 195.19129 191.78430 189.83732 188.88534 188.96035 189.80637 191.12539
 192.86141 194.96742 197.24144 199.61146 202.06747 204.55849 206.65751 208.51052
 210.14754 211.30356 211.54357 211.78259 211.73061 211.44663 211.09064 210.73166
 210.35968 210.08069 209.89971 209.77473 209.71374 210.05576 210.45278 210.85279
 211.65681 212.84583 214.10684 215.90086 217.83988 219.89390 221.99991 224.09393
 226.16495 228.25996 230.36798 232.48500 234.62501 236.80803 239.07505 241.45606
 244.08808 246.35010 248.36312 250.13913 251.56715 252.70117 253.53418 253.86120
 253.90922 253.69423 253.06525 252.02427 250.64128 248.81330 246.73332 244.57733
 242.37935 240.19437 238.02539 235.87540 233.74642 231.62444 229.66145 227.82947
 226.12349 224.60650 223.24752 222.03054 220.92355 219.89457 219.00959 218.16161
 217.41462 216.60564 215.71466 215.08967 214.55069 214.28664 213.61884 212.92079
 212.46539 211.55403 211.76283 213.94817 217.30663 221.59875 226.88602 231.65187
 235.55054 239.87245 244.27551 248.42691 252.14722 255.59972 258.98138 262.30032
 265.39868 268.10770 270.32706 271.97339 273.20441 274.49316 276.26471 278.13730
 279.99988 281.82385 283.45053 285.05521 286.45761 287.69836 288.83038 289.85593
 290.77826 291.59961 292.31714 293.23154
 366.78100 356.34421 345.78542 334.66063 323.07284 311.27605 299.15527 286.96748
 274.68869 262.59490 250.61311 239.92332 230.05453 221.16774 213.35895 206.37016
 200.21337 195.16058 191.75180 189.80301 188.84922 188.92243 189.76664 191.08385
 192.81806 194.92227 197.19448 199.56269 202.01690 204.50612 206.60333 208.45454
 210.08975 211.24396 211.48217 211.71938 211.66559 211.37980 211.02201 210.66122
 210.28743 210.00665 209.82386 209.69707 209.63428 209.97449 210.36970 210.76791
 211.57012 212.75733 214.01654 215.80875 217.74597 219.79818 221.90239 223.99460
 226.06381 228.15702 230.26323 232.37844 234.51665 236.69786 238.96307 241.34228
 243.97250 246.23271 248.24392 250.01813 251.44434 252.57655 253.40776 253.73297
 253.77918 253.56239 252.93160 251.88882 250.50403 248.67424 246.59245 244.43466
 242.23487 240.04808 237.87729 235.72550 233.59471 231.47092 229.50613 227.67235
 225.96456 224.44577 223.08498 221.86619 220.75740 219.72661 218.83982 217.99003
 217.24124 216.43045 215.53766 214.91088 214.37009 214.21635 213.75481 212.90714
 212.51913 211.72845 211.74179 213.83176 217.19879 221.49959 226.75258 231.55870
 235.45154 239.76845 244.14923 248.30176 252.07869 255.62085 259.07614 262.43350
 265.56662 268.31534 270.52631 272.14066 273.33121 274.50885 276.14523 278.07727
 280.01874 281.87607 283.61304 285.35519 286.86288 288.19681 289.41382 290.51633
 291.50793 292.39093 293.16232 294.14536
 366.78100 356.34168 345.78037 334.65305 323.06273 311.26342 299.14010 286.94978
 274.66846 262.57215 250.58783 239.89551 230.02420 221.13488 213.32356 206.33225
 200.17293 195.11761 191.70630 189.75498 188.79866 188.86935 189.71103 191.02571
 192.75739 194.85908 197.12876 199.49444 201.94613 204.43281 206.52749 208.37618
 210.00886 211.16054 211.39623 211.63091 211.57459 211.28627 210.92596 210.56264
 210.18632 209.90301 209.71769 209.58837 209.52306 209.86074 210.25342 210.64911
 211.44879 212.63347 213.89015 215.67984 217.61452 219.66420 221.76589 223.85557
 225.92225 228.01294 230.11662 232.22930 234.36499 236.54367 238.80635 241.18304
 243.81072 246.06840 248.07708 249.84877 251.27245 252.40213 253.23082 253.55350
 253.59718 253.37787 252.74455 251.69923 250.31192 248.47960 246.39528 244.23496
 242.03265 239.84333 237.67001 235.51570 233.38238 231.25606 229.28875 227.45243
 225.74211 224.22080 222.85748 221.63616 220.52484 219.49153 218.60221 217.74989
 216.99858 216.18526 215.28994 214.66063 214.11731 214.10744 213.93059 212.84132
 212.40613 211.95227 211.88074 213.80768 217.15674 221.46280 226.66574 231.47203
 235.34572 239.63803 243.97485 248.08534 251.86510 255.47369 259.02502 262.48221
 265.73074 268.61758 271.00250 272.75189 274.03659 275.14783 276.55878 278.33578
 280.22922 282.03671 283.69916 285.46100 286.99039 288.34354 289.57806 290.69644
 291.70233 292.59805 293.38055 294.37775
 366.78100 356.33984 345.77668 334.64753 323.05537 311.25421 299.12905 286.93689
 274.65373 262.55558 250.56942 239.87526 230.00210 221.11094 213.29779 206.30463
 200.14347 195.08631 191.67315 189.71999 188.76184 188.83068 189.67052 190.98336
 192.71320 194.81305 197.08089 199.44473 201.89457 204.37941 206.47225 208.31910
 209.94994 211.09978 211.33362 211.56646 211.50831 211.21815 210.85599 210.49083
 210.11267 209.82751 209.64036 209.50920 209.44204 209.77788 210.16872 210.56257
 211.36041 212.54325 213.79809 215.58593 217.51877 219.56662 221.66646 223.75430
 225.81914 227.90798 230.00983 232.12067 234.25451 236.43135 238.69219 241.06703
 243.69288 245.94872 247.95556 249.72540 251.14724 252.27509 253.10193 253.42277
 253.46461 253.24345 252.60829 251.56114 250.17198 248.33782 246.25166 244.08950
 241.88535 239.69419 237.51903 235.36287 233.22771 231.09955 229.13040 227.29224
 225.58008 224.05692 222.69176 221.46861 220.35545 219.32029 218.42913 217.57497
 216.82181 216.00666 215.10950 214.47834 213.93318 214.01236 214.07298 212.93010
 212.06708 211.89365 212.06567 213.86569 217.18831 221.51265 226.71126 231.48915
 235.34377 239.59816 243.88217 247.92569 251.62926 255.19328 258.74051 262.21335
 265.48663 268.41623 270.88934 272.87601 274.43280 275.78854 277.28302 278.97412
 280.70767 282.32843 283.88013 285.30630 286.77911 288.09943 289.30402 290.39526
 291.37674 292.25073 293.01425 293.98724
 366.78100 356.33998 345.77695 334.64793 323.05591 311.25488 299.12986 286.93784
 274.65481 262.55679 250.57077 239.87674 230.00372 221.11270 213.29967 206.30665
 200.14563 195.08860 191.67558 189.72256 188.76453 188.83351 189.67349 190.98646
 192.71644 194.81642 197.08439 199.44837 201.89835 204.38332 206.47630 208.32328
 209.95425 211.10423 211.33821 211.57118 211.51316 211.22314 210.86111 210.49609
 210.11807 209.83304 209.64602 209.51500 209.44798 209.78395 210.17493 210.56891
 211.36688 212.54986 213.80484 215.59281 217.52579 219.57377 221.67374 223.76172
 225.82670 227.91567 230.01765 232.12863 234.26260 236.43958 238.70056 241.07553
 243.70151 245.95749 247.96446 249.73444 251.15642 252.28439 253.11137 253.43235
 253.47432 253.25330 252.61828 251.57125 250.18223 248.34821 246.26218 244.10016
 241.89614 239.70511 237.53009 235.37407 233.23904 231.11102 229.14200 227.30397
 225.59195 224.06893 222.70390 221.48088 220.36786 219.33283 218.44181 217.58779
 216.83476 216.01974 215.12272 214.49169 213.94667 214.00763 214.07777 213.22227
 211.83911 211.47569 212.07072 213.95413 217.22466 221.56508 226.82372 231.55658
 235.42786 239.67252 243.95531 248.00093 251.69237 255.20784 258.67377 262.06042
 265.25998 268.09967 270.50034 272.48218 274.11603 275.66092 277.42685 279.31030
 281.16418 282.77710 284.25891 285.62738 286.95825 288.20407 289.34067 290.37033
 291.29642 292.12112 292.84152 293.75964
 366.78100 356.34270 345.78241 334.65611 323.06681 311.26852 299.14622 286.95692
 274.67663 262.58133 250.59803 239.90674 230.03644 221.14814 213.33785 206.34755
 200.18925 195.13496 191.72466 189.77436 188.81907 188.89077 189.73347 191.04918
 192.78188 194.88458 197.15529 199.52199 201.97469 204.46240 206.55810 208.40780
 210.04151 211.19421 211.43091 211.66662 211.61132 211.32402 210.96473 210.60243
 210.22713 209.94484 209.76054 209.63224 209.56795 209.90665 210.30035 210.69706
 211.49776 212.68346 213.94116 215.73187 217.66757 219.71827 221.82098 223.91168
 225.97938 228.07109 230.17579 232.28949 234.42620 236.60590 238.86960 241.24731
 243.87601 246.13471 248.14442 249.91712 251.34182 252.47253 253.30223 253.62593
 253.67064 253.45234 252.82004 251.77575 250.38945 248.55815 246.47486 244.31556
 242.11426 239.92597 237.75367 235.60037 233.46808 231.34278 229.37648 227.54119
 225.83189 224.31159 222.94930 221.72900 220.61870 219.58641 218.69811 217.84681
 217.09652 216.28422 215.38992 214.76163 214.21933 214.14073 213.94684 213.49677
 211.96938 211.10571 211.87495 214.01128 217.27332 221.58644 226.88441 231.57700
 235.46021 239.71367 244.00923 248.07932 251.79517 255.33380 258.79950 262.13943
 265.28638 268.07449 270.41199 272.33167 273.86307 275.38165 277.29959 279.47034
 281.43234 283.14697 284.68323 286.09860 287.44168 288.62997 289.71411 290.69626
 291.57959 292.36621 293.05338 293.92911
 366.78100 356.34385 345.78470 334.65955 323.07140 311.27425 299.15310 286.96495
 274.68580 262.59165 250.60950 239.91935 230.05020 221.16305 213.35390 206.36475
 200.20760 195.15445 191.74530 189.79615 188.84200 188.91485 189.75870 191.07555
 192.80940 194.91325 197.18510 199.55295 202.00680 204.49565 206.59250 208.44335
 210.07819 211.23204 211.46989 211.70674 211.65259 211.36644 211.00829 210.64714
 210.27299 209.99184 209.80869 209.68154 209.61839 209.95824 210.35309 210.75094
 211.55279 212.73964 213.99849 215.79034 217.72719 219.77904 221.88289 223.97474
 226.04359 228.13644 230.24229 232.35714 234.49499 236.67584 238.94069 241.31954
 243.94939 246.20924 248.22009 249.99394 251.41979 252.55164 253.38249 253.70734
 253.75319 253.53604 252.90489 251.86174 250.47659 248.64644 246.56429 244.40614
 242.20599 240.01884 237.84769 235.69554 233.56439 231.44024 229.47509 227.64094
 225.93279 224.41364 223.05249 221.83334 220.72419 219.69304 218.80589 217.95574
 217.20658 216.39543 215.50228 214.87513 214.33398 214.22745 213.95013 213.45264
 212.28445 211.16956 211.71078 213.94977 217.24489 221.53734 226.87831 231.53673
 235.39821 239.63698 243.90904 247.96074 251.71953 255.33238 258.85556 262.23630
 265.40775 268.21545 270.55637 272.43958 273.93036 275.37720 277.26016 279.52493
 281.67807 283.54727 285.30685 286.89368 288.26694 289.48190 290.59039 291.59460
 292.49780 293.30209 294.00470 294.90009
 366.78100 356.34176 345.78051 334.65327 323.06302 311.26378 299.14053 286.95029
 274.66905 262.57280 250.58856 239.89631 230.02507 221.13582 213.32458 206.33334
 200.17409 195.11885 191.70760 189.75636 188.80011 188.87087 189.71263 191.02738
 192.75914 194.86089 197.13065 199.49640 201.94816 204.43492 206.52967 208.37843
 210.01118 211.16294 211.39869 211.63345 211.57721 211.28896 210.92872 210.56547
 210.18923 209.90598 209.72074 209.59150 209.52625 209.86401 210.25676 210.65252
 211.45227 212.63703 213.89379 215.68354 217.61830 219.66805 221.76981 223.85957
 225.92632 228.01708 230.12083 232.23359 234.36934 236.54810 238.81086 241.18761
 243.81537 246.07312 248.08188 249.85363 251.27739 252.40715 253.23590 253.55866
 253.60241 253.38317 252.74992 251.70468 250.31744 248.48519 246.40095 244.24070
 242.03846 239.84921 237.67597 235.52173 233.38848 231.26224 229.29499 227.45875
 225.74850 224.22726 222.86402 221.64277 220.53153 219.49828 218.60904 217.75679
 217.00555 216.19231 215.29706 214.66782 214.12457 214.17552 214.08812 213.28543
 212.44618 211.40488 211.58701 213.84135 217.18689 221.40468 226.78133 231.45685
 235.31364 239.53784 243.78857 247.82927 251.61888 255.30048 258.89468 262.32733
 265.51968 268.37439 270.77405 272.70300 274.18372 275.63940 277.59778 280.00555
 282.36621 284.56766 286.47266 288.14536 289.59296 290.87372 292.04221 293.10077
 294.05283 294.90067 295.64130 296.58514
 366.78100 356.34081 345.77861 334.65042 323.05922 311.25903 299.13484 286.94364
 274.66145 262.56426 250.57906 239.88587 230.01367 221.12348 213.31129 206.31909
 200.15890 195.10270 191.69051 189.73832 188.78112 188.85093 189.69174 191.00554
 192.73635 194.83715 197.10596 199.47077 201.92157 204.40738 206.50119 208.34899
 209.98080 211.13160 211.36641 211.60022 211.54302 211.25383 210.89263 210.52844
 210.15125 209.86705 209.68086 209.55067 209.48447 209.82128 210.21308 210.60789
 211.40670 212.59050 213.84631 215.63511 217.56892 219.61773 221.71853 223.80734
 225.87315 227.96295 230.06576 232.17756 234.31237 236.49018 238.75198 241.12779
 243.75460 246.01140 248.01921 249.79001 251.21282 252.34163 253.16943 253.49124
 253.53404 253.31385 252.67966 251.63346 250.24527 248.41208 246.32688 244.16569
 241.96249 239.77230 237.59811 235.44291 233.30872 231.18152 229.21333 227.37614
 225.66494 224.14275 222.77856 221.55636 220.44417 219.40997 218.51978 217.66659
 216.91439 216.10020 215.20400 214.57381 214.02962 214.13858 214.16685 213.20457
 212.45451 211.71001 211.66870 213.59436 217.03809 221.34955 226.70868 231.41724
 235.28482 239.51141 243.75497 247.78766 251.57748 255.26982 258.87805 262.32413
 265.54330 268.39655 270.79269 272.63577 274.14600 275.81976 277.93387 280.25742
 282.41006 284.48254 286.30322 287.90189 289.28543 290.50949 291.62628 292.63800
 293.54791 294.35822 295.06607 295.96817
 366.78100 356.34283 345.78265 334.65648 323.06730 311.26913 299.14696 286.95778
 274.67761 262.58243 250.59926 239.90809 230.03791 221.14974 213.33956 206.34939
 200.19122 195.13704 191.72687 189.77669 188.82152 188.89335 189.73617 191.05200
 192.78482 194.88765 197.15848 199.52530 201.97813 204.46595 206.56178 208.41161
 210.04543 211.19826 211.43508 211.67091 211.61574 211.32856 210.96939 210.60721
 210.23204 209.94987 209.76569 209.63752 209.57334 209.91217 210.30600 210.70282
 211.50365 212.68947 213.94730 215.73812 217.67395 219.72478 221.82760 223.91843
 225.98625 228.07808 230.18291 232.29673 234.43356 236.61338 238.87721 241.25504
 243.88386 246.14269 248.15251 249.92534 251.35017 252.48099 253.31082 253.63464
 253.67947 253.46130 252.82912 251.78495 250.39877 248.56760 246.48443 244.32525
 242.12408 239.93590 237.76373 235.61056 233.47838 231.35321 229.38703 227.55186
 225.84269 224.32251 222.96034 221.74016 220.62999 219.59782 218.70964 217.85847
 217.10829 216.29612 215.40195 214.77377 214.23160 214.21808 214.10735 213.37538
 212.31473 211.68355 211.90961 213.68616 217.00308 221.35182 226.57941 231.35684
 235.23036 239.47183 243.72346 247.76305 251.54996 255.23260 258.83344 262.27542
 265.49899 268.33939 270.66440 272.52835 274.11752 275.75299 277.70108 279.73383
 281.66492 283.43265 285.04926 286.52734 287.80652 288.93826 289.97079 290.90619
 291.74750 292.49667 293.15115 293.98520
 366.78100 356.34568 345.78837 334.66505 323.07874 311.28342 299.16411 286.97779
 274.70048 262.60816 250.62785 239.93953 230.07222 221.18690 213.37959 206.39227
 200.23696 195.18564 191.77833 189.83101 188.87870 188.95338 189.79907 191.11775
 192.85344 194.95912 197.23281 199.60249 202.05818 204.54886 206.64755 208.50023
 210.13692 211.29260 211.53229 211.77097 211.71866 211.43434 211.07802 210.71871
 210.34639 210.06708 209.88576 209.76045 209.69913 210.04082 210.43750 210.83719
 211.64087 212.82956 214.09024 215.88393 217.82261 219.87630 221.98198 224.07567
 226.14635 228.24104 230.34872 232.46541 234.60509 236.78778 239.05446 241.43515
 244.06683 246.32852 248.34120 250.11689 251.54457 252.67826 253.51094 253.83763
 253.88531 253.67000 253.04068 251.99936 250.61605 248.78773 246.70742 244.55110
 242.35279 240.16747 237.99816 235.84784 233.71853 231.59621 229.63290 227.80058
 226.09427 224.57695 223.21764 222.00032 220.89301 219.86369 218.97838 218.13006
 217.38275 216.57343 215.68212 215.05680 214.51749 214.36469 214.00984 213.56657
 212.35300 211.54514 211.99728 213.82483 216.97739 221.25447 226.49396 231.23959
 235.12845 239.36948 243.62325 247.67386 251.48495 255.20345 258.82452 262.27158
 265.51978 268.40448 270.71707 272.55829 274.09607 275.64731 277.49948 279.54572
 281.38971 283.16748 284.86227 286.40454 287.73926 288.92014 289.99750 290.97354
 291.85135 292.63306 293.31595 294.18619
 366.78100 356.34613 345.78927 334.66640 323.08054 311.28567 299.16680 286.98094
 274.70407 262.61221 250.63234 239.94447 230.07761 221.19274 213.38588 206.39901
 200.24415 195.19328 191.78641 189.83955 188.88768 188.96282 189.80895 191.12808
 192.86422 194.97035 197.24449 199.61462 202.07075 204.56189 206.66102 208.51416
 210.15129 211.30742 211.54756 211.78669 211.73483 211.45096 211.09510 210.73623
 210.36436 210.08550 209.90463 209.77977 209.71890 210.06103 210.45817 210.85830
 211.66244 212.85157 214.11270 215.90684 217.84597 219.90011 222.00624 224.10037
 226.17151 228.26664 230.37478 232.49191 234.63205 236.81518 239.08231 241.46345
 244.09558 246.35772 248.37085 250.14698 251.57512 252.70925 253.54239 253.86952
 253.91765 253.70279 253.07392 252.03306 250.65019 248.82232 246.74246 244.58659
 242.38873 240.20386 238.03499 235.88513 233.75626 231.63440 229.67153 227.83967
 226.13380 224.61693 223.25807 222.04120 220.93434 219.90547 219.02060 218.17274
 217.42587 216.61701 215.72614 215.10127 214.56241 214.41965 214.05901 213.54813
 212.44376 211.50725 211.98575 213.89368 216.97922 221.15489 226.48549 231.17477
 235.04950 239.27516 243.51944 247.57466 251.42438 255.19733 258.84409 262.28616
 265.51886 268.39487 270.78009 272.65686 274.22266 275.73163 277.52274 279.49765
 281.57416 283.62741 285.43604 287.02414 288.39850 289.61447 290.72385 291.72885
 292.63275 293.43768 294.14087 295.03699
 366.78100 356.34506 345.78712 334.66318 323.07624 311.28030 299.16037 286.97343
 274.69549 262.60255 250.62161 239.93267 230.06473 221.17879 213.37085 206.38291
 200.22697 195.17504 191.76710 189.81916 188.86622 188.94028 189.78534 191.10340
 192.83846 194.94352 197.21658 199.58565 202.04071 204.53077 206.62883 208.48089
 210.11695 211.27201 211.51107 211.74913 211.69619 211.41125 211.05432 210.69438
 210.32144 210.04150 209.85956 209.73362 209.67168 210.01274 210.40880 210.80786
 211.61092 212.79899 214.05905 215.85211 217.79017 219.84323 221.94829 224.04135
 226.11141 228.20547 230.31253 232.42860 234.56766 236.74972 239.01578 241.39584
 244.02690 246.28796 248.30002 250.07508 251.50214 252.63520 253.46727 253.79333
 253.84039 253.62445 252.99451 251.95257 250.56863 248.73969 246.65875 244.50181
 242.30287 240.11694 237.94700 235.79606 233.66612 231.54318 229.57924 227.74630
 226.03936 224.52142 223.16148 221.94354 220.83561 219.80567 218.91973 218.07079
 217.32285 216.51291 215.62097 214.99503 214.45509 214.41023 214.15341 213.48730
 212.54092 211.45325 211.79131 213.97151 217.08553 221.16774 226.46750 231.13922
 234.99866 239.20850 243.44855 247.51961 251.39734 255.21243 258.88434 262.32748
 265.54846 268.40250 270.78342 272.72745 274.33105 275.79120 277.51282 279.75085
 282.22452 284.38208 286.24908 287.88849 289.30722 290.56244 291.70764 292.74512
 293.67822 294.50912 295.23502 296.16006
 366.78100 356.34443 345.78586 334.66129 323.07372 311.27715 299.15658 286.96901
 274.69044 262.59687 250.61530 239.92573 230.05716 221.17059 213.36202 206.37345
 200.21688 195.16431 191.75574 189.80717 188.85360 188.92703 189.77146 191.08889
 192.82332 194.92775 197.20018 199.56861 202.02304 204.51247 206.60989 208.46132
 210.09675 211.25118 211.48961 211.72704 211.67347 211.38790 211.03033 210.66976
 210.29619 210.01562 209.83305 209.70648 209.64391 209.98434 210.37977 210.77820
 211.58063 212.76806 214.02749 215.81992 217.75735 219.80978 221.91421 224.00664
 226.07607 228.16950 230.27593 232.39136 234.52979 236.71122 238.97665 241.35608
 243.98651 246.24694 248.25837 250.03280 251.45923 252.59166 253.42309 253.74852
 253.79495 253.57838 252.94781 251.90524 250.52067 248.69110 246.60953 244.45196
 242.25239 240.06582 237.89525 235.74368 233.61311 231.48954 229.52497 227.69140
 225.98383 224.46525 223.10468 221.88611 220.77754 219.74697 218.86040 218.01083
 217.26226 216.45169 215.55912 214.93255 214.39198 214.39609 214.21960 213.41043
 212.60623 211.60931 211.73671 213.79778 217.03961 221.20612 226.47293 231.14938
 234.99420 239.18489 243.39952 247.45866 251.35739 255.20276 258.89551 262.34616
 265.56851 268.46469 270.85736 272.73203 274.16327 275.62881 277.66342 280.04596
 282.37427 284.54819 286.42938 288.08118 289.51068 290.77542 291.92932 292.97464
 293.91483 294.75204 295.48343 296.41547
 366.78100 356.34373 345.78446 334.65920 323.07093 311.27366 299.15239 286.96412
 274.68485 262.59059 250.60832 239.91805 230.04878 221.16151 213.35224 206.36298
 200.20571 195.15244 191.74317 189.79390 188.83963 188.91237 189.75610 191.07283
 192.80656 194.91029 197.18203 199.54976 202.00349 204.49222 206.58895 208.43968
 210.07442 211.22815 211.46588 211.70261 211.64834 211.36207 211.00381 210.64254
 210.26827 209.98700 209.80373 209.67646 209.61320 209.95293 210.34766 210.74539
 211.54712 212.73386 213.99259 215.78432 217.72105 219.77278 221.87651 223.96825
 226.03698 228.12971 230.23544 232.35017 234.48790 236.66864 238.93337 241.31210
 243.94183 246.20156 248.21229 249.98603 251.41176 252.54349 253.37422 253.69895
 253.74469 253.52742 252.89615 251.85288 250.46761 248.63734 246.55508 244.39681
 242.19654 240.00927 237.83800 235.68573 233.55447 231.43020 229.46493 227.63066
 225.92239 224.40312 223.04186 221.82259 220.71332 219.68205 218.79478 217.94452
 217.19525 216.38398 215.49071 214.86344 214.32217 214.34871 214.30666 213.43912
 212.48192 211.68398 211.84096 213.72206 217.00107 221.28510 226.42439 231.14584
 234.97504 239.15939 243.35852 247.41643 251.31395 255.13698 258.82962 262.27698
 265.46658 268.34940 270.83029 272.83932 274.45001 275.93307 277.62698 279.48907
 281.37778 283.17706 284.76834 286.27759 287.60666 288.78253 289.85535 290.82727
 291.70139 292.47980 293.15979 294.02637
 366.78100 356.34326 345.78352 334.65779 323.06905 311.27131 299.14957 286.96084
 274.68110 262.58636 250.60362 239.91288 230.04315 221.15541 213.34567 206.35593
 200.19820 195.14446 191.73472 189.78498 188.83024 188.90251 189.74577 191.06203
 192.79529 194.89856 197.16982 199.53708 201.99034 204.47860 206.57487 208.42513
 210.05939 211.21265 211.44992 211.68618 211.63144 211.34470 210.98596 210.62423
 210.24949 209.96775 209.78401 209.65628 209.59254 209.93180 210.32606 210.72332
 211.52459 212.71085 213.96911 215.76037 217.69664 219.74790 221.85116 223.94242
 226.01068 228.10295 230.20821 232.32247 234.45973 236.64000 238.90426 241.28252
 243.91178 246.17104 248.18131 249.95457 251.37983 252.51109 253.34136 253.66562
 253.71088 253.49314 252.86140 251.81767 250.43193 248.60119 246.51845 244.35972
 242.15898 239.97124 237.79950 235.64676 233.51503 231.39029 229.42455 227.58981
 225.88108 224.36134 222.99960 221.77986 220.67012 219.63839 218.75065 217.89991
 217.15017 216.33844 215.44470 214.81696 214.27522 214.32243 214.37369 213.59766
 212.41504 211.53589 211.74127 213.56281 216.83778 221.16971 226.38544 231.09050
 234.94368 239.11305 243.30824 247.36728 251.26758 255.10783 258.82053 262.26627
 265.45712 268.33994 270.81198 272.84427 274.46033 275.90106 277.58591 279.46155
 281.25052 282.80487 284.13004 285.38498 286.59039 287.74176 288.79224 289.74387
 290.59976 291.36194 292.02777 292.87628
 366.78100 356.34376 345.78452 334.65929 323.07105 311.27381 299.15257 286.96433
 274.68510 262.59086 250.60862 239.91838 230.04914 221.16191 213.35267 206.36343
 200.20619 195.15295 191.74372 189.79448 188.84024 188.91300 189.75676 191.07352
 192.80729 194.91105 197.18281 199.55057 202.00433 204.49310 206.58986 208.44062
 210.07538 211.22914 211.46691 211.70367 211.64943 211.36319 211.00495 210.64372
 210.26948 209.98824 209.80500 209.67776 209.61453 209.95429 210.34905 210.74681
 211.54857 212.73534 213.99410 215.78586 217.72262 219.77438 221.87815 223.96991
 226.03867 228.13143 230.23719 232.35196 234.48972 236.67048 238.93524 241.31400
 243.94377 246.20353 248.21429 249.98805 251.41381 252.54557 253.37634 253.70110
 253.74686 253.52962 252.89838 251.85515 250.46991 248.63967 246.55743 244.39919
 242.19896 240.01172 237.84048 235.68824 233.55700 231.43277 229.46753 227.63329
 225.92505 224.40581 223.04458 221.82534 220.71610 219.68486 218.79762 217.94739
 217.19815 216.38691 215.49367 214.86643 214.32520 214.36896 214.39890 213.63510
 212.44371 211.54477 211.83344 213.62709 216.81477 221.11540 226.35710 231.06122
 234.91190 239.09140 243.29358 247.36165 251.26239 255.11803 258.84332 262.28488
 265.45499 268.31351 270.78885 272.84991 274.47400 275.93951 277.58405 279.37518
 281.10312 282.58884 284.04773 285.44150 286.75513 287.91965 288.98209 289.94458
 290.81024 291.58112 292.25455 293.11276
 366.78100 356.34426 345.78553 334.66079 323.07305 311.27631 299.15558 286.96784
 274.68910 262.59536 250.61363 239.92389 230.05515 221.16841 213.35968 206.37094
 200.21420 195.16146 191.75273 189.80399 188.85025 188.92351 189.76778 191.08504
 192.81930 194.92356 197.19583 199.56409 202.01835 204.50762 206.60488 208.45614
 210.09140 211.24567 211.48393 211.72119 211.66745 211.38172 211.02398 210.66324
 210.28950 210.00877 209.82603 209.69929 209.63655 209.97682 210.37208 210.77034
 211.57260 212.75987 214.01913 215.81139 217.74865 219.80092 221.90518 223.99744
 226.06671 228.15997 230.26623 232.38149 234.51976 236.70102 238.96628 241.34554
 243.97581 246.23607 248.24733 250.02159 251.44786 252.58012 253.41138 253.73664
 253.78291 253.56617 252.93543 251.89269 250.50796 248.67822 246.59648 244.43874
 242.23901 240.05227 237.88153 235.72980 233.59906 231.47532 229.51058 227.67685
 225.96911 224.45037 223.08963 221.87090 220.76216 219.73142 218.84468 217.99495
 217.24621 216.43547 215.54273 214.91600 214.37526 214.42229 214.43484 213.63655
 212.45709 211.57211 211.90863 213.69276 216.82921 221.09547 226.36630 231.05267
 234.90373 239.07942 243.27965 247.34814 251.26010 255.11424 258.82990 262.27292
 265.44089 268.30130 270.80106 272.87027 274.50223 275.93259 277.54489 279.26120
 280.90347 282.63187 284.29324 285.84598 287.18970 288.37857 289.46323 290.44586
 291.32962 292.11664 292.80414 293.68027
 366.78100 356.34491 345.78682 334.66273 323.07564 311.27955 299.15946 286.97237
 274.69429 262.60120 250.62011 239.93102 230.06293 221.17684 213.36875 206.38066
 200.22457 195.17248 191.76439 189.81630 188.86321 188.93712 189.78203 191.09994
 192.83486 194.93977 197.21268 199.58159 202.03650 204.52641 206.62432 208.47623
 210.11214 211.26705 211.50596 211.74387 211.69078 211.40569 211.04860 210.68851
 210.31543 210.03534 209.85325 209.72716 209.66507 210.00598 210.40189 210.80080
 211.60371 212.79162 214.05153 215.84444 217.78235 219.83526 221.94017 224.03308
 226.10300 228.19691 230.30382 232.41973 234.55864 236.74055 239.00646 241.38637
 244.01728 246.27819 248.29010 250.06501 251.49192 252.62483 253.45674 253.78266
 253.82957 253.61348 252.98339 251.94130 250.55721 248.72812 246.64703 244.48994
 242.29085 240.10476 237.93467 235.78358 233.65349 231.53040 229.56631 227.73323
 226.02614 224.50805 223.14796 221.92987 220.82178 219.79169 218.90560 218.05651
 217.30842 216.49833 215.60624 214.98015 214.44006 214.48022 214.46411 213.67168
 212.52167 211.53336 211.85587 213.69275 216.80771 221.07561 226.36943 231.03494
 234.87849 239.04892 243.24754 247.31401 251.22673 255.08232 258.79532 262.23157
 265.39993 268.27365 270.78815 272.92139 274.55920 275.90942 277.43051 279.15347
 280.80884 282.64389 284.35123 285.88879 287.21945 288.39673 289.47079 290.44385
 291.31900 292.09833 292.77914 293.64673
 366.78100 356.34536 345.78773 334.66409 323.07745 311.28182 299.16218 286.97554
 274.69791 262.60527 250.62463 239.93600 230.06836 221.18272 213.37509 206.38745
 200.23181 195.18018 191.77254 189.82490 188.87227 188.94663 189.79199 191.11036
 192.84572 194.95108 197.22445 199.59381 202.04917 204.53954 206.63790 208.49026
 210.12663 211.28199 211.52135 211.75972 211.70708 211.42244 211.06581 210.70617
 210.33353 210.05390 209.87226 209.74662 209.68499 210.02635 210.42271 210.82208
 211.62544 212.81380 214.07417 215.86753 217.80589 219.85926 221.96462 224.05798
 226.12835 228.22271 230.33008 232.44644 234.58580 236.76817 239.03453 241.41489
 244.04626 246.30762 248.31998 250.09535 251.52271 252.65607 253.48844 253.81480
 253.86216 253.64653 253.01689 251.97525 250.59162 248.76298 246.68234 244.52571
 242.32707 240.14143 237.97180 235.82116 233.69152 231.56889 229.60525 227.77261
 226.06598 224.54834 223.18870 221.97107 220.86343 219.83379 218.94816 218.09952
 217.35188 216.54225 215.65061 215.02497 214.48534 214.53725 214.50641 213.67084
 212.58142 211.53929 211.77084 213.67258 216.76297 220.99588 226.35335 230.99973
 234.82101 238.97696 243.17514 247.25572 251.19417 255.07713 258.80826 262.25076
 265.40948 268.27353 270.81570 272.97501 274.62155 275.95358 277.36899 278.98709
 280.94107 282.88727 284.63724 286.17383 287.50363 288.68015 289.75354 290.72598
 291.60056 292.37939 293.05975 293.92682
 366.78100 356.34415 345.78531 334.66046 323.07262 311.27577 299.15493 286.96708
 274.68824 262.59439 250.61255 239.92270 230.05385 221.16701 213.35816 206.36932
 200.21247 195.15963 191.75078 189.80194 188.84809 188.92125 189.76540 191.08255
 192.81671 194.92086 197.19302 199.56117 202.01533 204.50448 206.60164 208.45279
 210.08795 211.24210 211.48026 211.71741 211.66356 211.37772 211.01987 210.65903
 210.28518 210.00434 209.82149 209.69465 209.63180 209.97196 210.36711 210.76526
 211.56742 212.75457 214.01373 215.80588 217.74304 219.79519 221.89935 223.99150
 226.06066 228.15381 230.25996 232.37512 234.51327 236.69443 238.95958 241.33874
 243.96889 246.22905 248.24020 250.01436 251.44051 252.57266 253.40382 253.72897
 253.77513 253.55828 252.92744 251.88459 250.49975 248.66990 246.58806 244.43021
 242.23036 240.04352 237.87267 235.72083 233.58998 231.46614 229.50129 227.66745
 225.95960 224.44076 223.07991 221.86107 220.75222 219.72137 218.83453 217.98468
 217.23584 216.42499 215.53215 214.90530 214.36446 214.50032 214.63005 213.62421
 212.49045 211.60205 211.77953 213.68675 216.79951 221.05811 226.31921 230.98201
 234.79872 238.95139 243.14040 247.21144 251.15298 255.04558 258.78574 262.23679
 265.40494 268.28952 270.89917 273.16782 274.84195 276.13181 277.48187 278.98370
 281.00247 282.90955 284.70596 286.28336 287.64844 288.85620 289.95810 290.95633
 291.85413 292.65366 293.35208 294.24213
 366.78100 356.34437 345.78573 334.66110 323.07347 311.27683 299.15620 286.96856
 274.68993 262.59630 250.61466 239.92503 230.05640 221.16976 213.36113 206.37250
 200.21586 195.16323 191.75459 189.80596 188.85233 188.92569 189.77006 191.08743
 192.82179 194.92616 197.19853 199.56689 202.02126 204.51062 206.60799 208.45936
 210.09472 211.24909 211.48746 211.72482 211.67119 211.38556 211.02792 210.66729
 210.29365 210.01302 209.83039 209.70375 209.64112 209.98149 210.37685 210.77522
 211.57758 212.76495 214.02432 215.81668 217.75405 219.80642 221.91078 224.00315
 226.07252 228.16588 230.27225 232.38761 234.52598 236.70735 238.97271 241.35208
 243.98245 246.24281 248.25418 250.02855 251.45491 252.58728 253.41864 253.74401
 253.79038 253.57374 252.94311 251.90048 250.51584 248.68621 246.60458 244.44694
 242.24731 240.06067 237.89004 235.73841 233.60777 231.48414 229.51951 227.68587
 225.97824 224.45961 223.09897 221.88034 220.77170 219.74107 218.85444 218.00480
 217.25617 216.44554 215.55290 214.92627 214.38564 214.50151 214.68188 213.75696
 212.31622 211.40942 211.69682 213.64546 216.88403 221.12621 226.31235 230.99239
 234.80374 238.94205 243.11221 247.17720 251.11661 254.99246 258.72458 262.15717
 265.30536 268.19510 270.80582 273.06897 274.88855 276.35892 277.79837 279.30966
 280.82520 282.33984 283.80377 285.15576 286.41599 287.54611 288.57718 289.51126
 290.35135 291.09949 291.75302 292.58588
 366.78100 356.34637 345.78974 334.66711 323.08148 311.28685 299.16822 286.98259
 274.70596 262.61433 250.63470 239.94706 230.08043 221.19580 213.38917 206.40254
 200.24791 195.19728 191.79065 189.84402 188.89239 188.96776 189.81413 191.13350
 192.86987 194.97624 197.25061 199.62098 202.07735 204.56872 206.66809 208.52146
 210.15882 211.31519 211.55556 211.79493 211.74330 211.45967 211.10404 210.74541
 210.37378 210.09515 209.91452 209.78989 209.72926 210.07163 210.46900 210.86937
 211.67374 212.86311 214.12448 215.91885 217.85822 219.91258 222.01895 224.11332
 226.18469 228.28006 230.38843 232.50580 234.64617 236.82954 239.09691 241.47828
 244.11065 246.37302 248.38639 250.16276 251.59113 252.72550 253.55887 253.88624
 253.93461 253.71998 253.09135 252.05071 250.66808 248.84045 246.76082 244.60519
 242.40756 240.22293 238.05430 235.90467 233.77604 231.65441 229.69178 227.86015
 226.15452 224.63789 223.27926 222.06263 220.95600 219.92737 219.04274 218.19511
 217.44847 216.63984 215.74921 215.12458 214.58595 214.59921 214.60725 213.91501
 212.38814 211.11278 211.40709 213.42714 216.76457 221.05550 226.34790 230.93596
 234.79857 238.92253 243.09627 247.17148 251.13245 255.00818 258.72327 262.14606
 265.27310 268.14563 270.74527 273.00687 274.83157 276.32639 277.79272 279.34793
 280.85699 282.15753 283.19601 284.15213 285.12051 285.85452 286.73257 287.61407
 288.40686 289.11285 289.72958 290.51556
 366.78100 356.34688 345.79076 334.66864 323.08352 311.28941 299.17129 286.98617
 274.71005 262.61893 250.63981 239.95269 230.08657 221.20246 213.39634 206.41022
 200.25610 195.20598 191.79986 189.85374 188.90262 188.97850 189.82539 191.14527
 192.88215 194.98903 197.26391 199.63479 202.09167 204.58355 206.68343 208.53732
 210.17520 211.33208 211.57296 211.81284 211.76172 211.47860 211.12348 210.76537
 210.39425 210.11613 209.93601 209.81189 209.75177 210.09465 210.49253 210.89341
 211.69830 212.88818 214.15006 215.94494 217.88482 219.93970 222.04658 224.14146
 226.21334 228.30923 230.41811 232.53599 234.67687 236.86075 239.12863 241.51051
 244.14339 246.40628 248.42016 250.19704 251.62592 252.76080 253.59468 253.92256
 253.97144 253.75732 253.12921 252.08909 250.70697 248.87985 246.80073 244.64561
 242.44849 240.26437 238.09625 235.94714 233.81902 231.69790 229.73578 227.90466
 226.19954 224.68342 223.32530 222.10919 221.00307 219.97495 219.09083 218.24371
 217.49759 216.68947 215.79935 215.17523 214.63712 214.63606 214.62363 213.95300
 212.54031 211.04808 211.24512 213.34572 216.72414 221.04219 226.38051 230.92142
 234.81128 238.93423 243.11653 247.19617 251.15909 255.03171 258.74295 262.15320
 265.26242 268.12296 270.72845 273.01001 274.84442 276.32755 277.74197 279.21973
 280.69424 281.93433 282.86111 283.69022 284.68094 285.45129 286.00003 286.77905
 287.58163 288.29630 288.92065 289.71628
 366.78100 356.34590 345.78879 334.66569 323.07959 311.28448 299.16538 286.97928
 274.70217 262.61007 250.62997 239.94186 230.07476 221.18966 213.38255 206.39545
 200.24035 195.18924 191.78214 189.83504 188.88293 188.95783 189.80373 191.12262
 192.85852 194.96442 197.23831 199.60821 202.06411 204.55500 206.65390 208.50680
 210.14369 211.29959 211.53949 211.77838 211.72628 211.44218 211.08607 210.72697
 210.35487 210.07576 209.89466 209.76956 209.70845 210.05035 210.44725 210.84714
 211.65104 212.83994 214.10083 215.89473 217.83363 219.88752 221.99342 224.08732
 226.15821 228.25311 230.36101 232.47790 234.61780 236.80070 239.06759 241.44849
 244.08039 246.34228 248.35518 250.13108 251.55897 252.69287 253.52577 253.85266
 253.90056 253.68546 253.05635 252.01525 250.63215 248.80404 246.72394 244.56784
 242.36973 240.18463 238.01553 235.86542 233.73632 231.61422 229.65111 227.81901
 226.11291 224.59580 223.23670 222.01960 220.91249 219.88339 218.99829 218.15018
 217.40308 216.59398 215.70287 215.07777 214.53867 214.59998 214.73691 213.92096
 212.59776 211.00893 211.10071 213.28336 216.71788 221.05069 226.40163 230.93613
 234.82526 238.94829 243.13130 247.20747 251.16425 255.02803 258.72815 262.12247
 265.22089 268.07996 270.70261 273.02582 274.90738 276.40970 277.80316 279.20743
 280.57712 281.68033 282.45468 283.29175 284.26038 285.09930 285.70264 286.42453
 287.23996 287.98080 288.62799 289.45279
 366.78100 356.34578 345.78856 334.66533 323.07911 311.28389 299.16467 286.97845
 274.70123 262.60900 250.62878 239.94056 230.07334 221.18812 213.38090 206.39367
 200.23845 195.18723 191.78001 189.83279 188.88056 188.95534 189.80112 191.11990
 192.85568 194.96146 197.23523 199.60501 202.06079 204.55157 206.65035 208.50313
 210.13990 211.29568 211.53546 211.77424 211.72202 211.43780 211.08157 210.72235
 210.35013 210.07091 209.88969 209.76446 209.70324 210.04502 210.44180 210.84158
 211.64536 212.83413 214.09491 215.88869 217.82747 219.88125 221.98703 224.08080
 226.15158 228.24636 230.35414 232.47092 234.61069 236.79347 239.06025 241.44103
 244.07281 246.33459 248.34736 250.12314 251.55092 252.68470 253.51748 253.84426
 253.89203 253.67681 253.04759 252.00637 250.62315 248.79493 246.71470 244.55848
 242.36026 240.17504 238.00582 235.85559 233.72637 231.60415 229.64093 227.80871
 226.10249 224.58526 223.22604 222.00882 220.90160 219.87238 218.98716 218.13893
 217.39171 216.58249 215.69127 215.06605 214.52682 214.60634 214.79102 213.92830
 212.65186 210.98273 210.98312 213.20663 216.68726 221.04642 226.39845 230.93538
 234.82979 238.95609 243.14090 247.21317 251.16428 255.01918 258.70700 262.08578
 265.17413 268.03067 270.66486 273.01834 274.94116 276.47037 277.86026 279.22598
 280.52478 281.57996 282.28864 282.81726 283.44766 284.42197 285.39774 286.02182
 286.81122 287.54590 288.18765 289.00552
 366.78100 356.34691 345.79083 334.66874 323.08366 311.28957 299.17149 286.98640
 274.71032 262.61923 250.64015 239.95306 230.08698 221.20289 213.39681 206.41072
 200.25664 195.20655 191.80047 189.85438 188.90329 188.97921 189.82612 191.14604
 192.88295 194.98987 197.26478 199.63570 202.09261 204.58453 206.68444 208.53836
 210.17627 211.33319 211.57410 211.81402 211.76293 211.47984 211.12476 210.76667
 210.39559 210.11750 209.93742 209.81333 209.75325 210.09616 210.49408 210.89499
 211.69991 212.88982 214.15174 215.94665 217.88657 219.94148 222.04840 224.14331
 226.21522 228.31114 230.42005 232.53797 234.67888 236.86280 239.13071 241.51263
 244.14554 246.40846 248.42237 250.19929 251.62820 252.76312 253.59703 253.92495
 253.97386 253.75977 253.13169 252.09160 250.70952 248.88243 246.80335 244.64826
 242.45118 240.26709 238.09901 235.94992 233.82184 231.70075 229.73867 227.90758
 226.20250 224.68641 223.32833 222.11224 221.00615 219.97807 219.09398 218.24690
 217.50081 216.69273 215.80264 215.17856 214.64047 214.67488 214.75616 214.00739
 212.68550 210.92886 210.90562 213.18835 216.65079 220.95634 226.38536 230.93266
 234.83157 238.96512 243.15401 247.22519 251.17262 255.01929 258.69595 262.06183
 265.14035 267.99261 270.63123 273.00092 274.94977 276.49588 277.87576 279.20456
 280.43314 281.39484 281.97083 282.38187 283.06836 284.14310 285.13992 285.76923
 286.50809 287.24930 287.89682 288.72198
 366.78100 356.34815 345.79329 334.67244 323.08859 311.29573 299.17888 286.99503
 274.72017 262.63032 250.65247 239.96661 230.10176 221.21891 213.41405 206.42920
 200.27635 195.22749 191.82264 189.87779 188.92793 189.00508 189.85323 191.17437
 192.91252 195.02067 197.29681 199.66896 202.12711 204.62025 206.72140 208.57655
 210.21569 211.37384 211.61599 211.85714 211.80728 211.52543 211.17158 210.81472
 210.44487 210.16802 209.98916 209.86631 209.80746 210.15160 210.55075 210.95290
 211.75904 212.95019 214.21334 216.00948 217.95063 220.00678 222.11492 224.21107
 226.28422 228.38136 230.49151 232.61066 234.75280 236.93795 239.20710 241.59024
 244.22439 246.48854 248.50368 250.28183 251.71198 252.84812 253.68327 254.01242
 254.06256 253.84971 253.22286 252.18400 250.80315 248.97730 246.89944 244.74559
 242.54974 240.36688 238.20003 236.05218 233.92532 231.80547 229.84462 228.01476
 226.31091 224.79606 223.43920 222.22435 221.11950 220.09264 219.20979 218.36394
 217.61908 216.81223 215.92338 215.30053 214.76367 214.74786 214.71048 214.08093
 212.71591 210.86824 210.82779 213.17267 216.62558 220.86368 226.37030 230.93040
 234.83267 238.97446 243.16855 247.23889 251.18358 255.02179 258.68555 262.04053
 265.11264 267.96082 270.60107 272.98267 274.95361 276.52069 277.89536 279.18893
 280.35327 281.21078 281.63211 281.97604 282.81247 283.87918 284.89407 285.79724
 286.58792 287.31055 287.94479 288.75305
 366.78100 356.34871 345.79442 334.67414 323.09085 311.29856 299.18227 286.99899
 274.72470 262.63541 250.65812 239.97284 230.10855 221.22626 213.42197 206.43769
 200.28540 195.23711 191.83282 189.88853 188.93925 189.01696 189.86567 191.18738
 192.92610 195.03481 197.31152 199.68423 202.14295 204.63666 206.73837 208.59408
 210.23380 211.39251 211.63522 211.87693 211.82765 211.54636 211.19307 210.83678
 210.46749 210.19121 210.01292 209.89063 209.83234 210.17706 210.57677 210.97948
 211.78619 212.97791 214.24162 216.03833 217.98004 220.03676 222.14547 224.24218
 226.31589 228.41360 230.52432 232.64403 234.78674 236.97245 239.24217 241.62588
 244.26059 246.52530 248.54102 250.31973 251.75044 252.88715 253.72287 254.05258
 254.10329 253.89100 253.26471 252.22643 250.84614 249.02085 246.94356 244.79028
 242.59499 240.41270 238.24641 236.09913 233.97284 231.85355 229.89326 228.06398
 226.36069 224.84640 223.49011 222.27582 221.17154 220.14525 219.26296 218.41767
 217.67339 216.86710 215.97881 215.35652 214.82024 214.78676 214.70767 214.09079
 212.76581 210.84592 210.73955 213.13187 216.59048 220.78032 226.35999 230.93463
 234.83849 238.98987 243.18837 247.25639 251.19534 255.02167 258.67084 262.01575
 265.08237 267.92715 270.56711 272.95322 274.94006 276.53455 277.91544 279.18323
 280.30573 281.09314 281.43683 281.74646 282.45880 283.49176 284.48987 285.39651
 286.19669 286.92050 287.56100 288.37729
 366.78100 356.34889 345.79477 334.67466 323.09155 311.29943 299.18332 287.00021
 274.72609 262.63698 250.65987 239.97475 230.11064 221.22853 213.42441 206.44030
 200.28819 195.24007 191.83596 189.89185 188.94273 189.02062 189.86951 191.19139
 192.93028 195.03917 197.31605 199.68894 202.14783 204.64171 206.74360 208.59949
 210.23937 211.39826 211.64114 211.88303 211.83392 211.55280 211.19969 210.84358
 210.47446 210.19835 210.02024 209.89812 209.84001 210.18490 210.58478 210.98767
 211.79456 212.98644 214.25033 216.04722 217.98910 220.04599 222.15488 224.25176
 226.32565 228.42354 230.53442 232.65431 234.79720 236.98308 239.25297 241.63686
 244.27174 246.53663 248.55252 250.33140 251.76229 252.89918 253.73506 254.06495
 254.11584 253.90372 253.27761 252.23950 250.85938 249.03427 246.95716 244.80404
 242.60893 240.42682 238.26070 236.11359 233.98748 231.86836 229.90825 228.07914
 226.37602 224.86191 223.50580 222.29168 221.18757 220.16146 219.27934 218.43423
 217.69012 216.88400 215.99589 215.37378 214.83766 214.80312 214.72151 214.07547
 212.82129 210.86566 210.63882 213.06342 216.54121 220.70352 226.36218 230.93976
 234.84891 239.00938 243.21199 247.27386 251.20432 255.01726 258.65280 261.99072
 265.05420 267.89505 270.52991 272.91190 274.90936 276.53271 277.92499 279.17001
 280.25974 280.97379 281.30283 281.63202 282.22809 282.92923 283.82083 284.74365
 285.63303 286.36789 287.02744 287.86798
 366.78100 356.34911 345.79522 334.67533 323.09244 311.30055 299.18466 287.00178
 274.72789 262.63900 250.66211 239.97722 230.11333 221.23144 213.42755 206.44366
 200.29177 195.24388 191.83999 189.89610 188.94722 189.02533 189.87444 191.19655
 192.93566 195.04477 197.32188 199.69499 202.15410 204.64821 206.75032 208.60643
 210.24654 211.40566 211.64877 211.89088 211.84199 211.56110 211.20821 210.85232
 210.48343 210.20754 210.02965 209.90776 209.84987 210.19498 210.59510 210.99821
 211.80532 212.99743 214.26154 216.05865 218.00076 220.05787 222.16698 224.26409
 226.33820 228.43631 230.54742 232.66754 234.81065 236.99676 239.26687 241.65098
 244.28609 246.55120 248.56731 250.34642 251.77753 252.91464 253.75075 254.08086
 254.13198 253.92009 253.29420 252.25631 250.87642 249.05153 246.97464 244.82175
 242.62686 240.44497 238.27908 236.13219 234.00630 231.88742 229.92753 228.09864
 226.39575 224.88186 223.52597 222.31208 221.20819 220.18230 219.30041 218.45552
 217.71163 216.90574 216.01786 215.39597 214.86008 214.81953 214.72374 214.06505
 212.88800 210.91542 210.62349 212.99615 216.47546 220.62535 226.36920 230.93420
 234.85286 239.02101 243.22459 247.27753 251.20212 255.00639 258.63553 261.97321
 265.03534 267.87000 270.49332 272.86740 274.87164 276.52197 277.92111 279.14096
 280.22189 280.85995 281.10620 281.36240 281.97244 282.75281 283.70486 284.60172
 285.44547 286.18237 286.81619 287.63623
 366.78100 356.34929 345.79558 334.67586 323.09315 311.30144 299.18573 287.00302
 274.72931 262.64059 250.66388 239.97917 230.11546 221.23375 213.43004 206.44632
 200.29461 195.24690 191.84319 189.89948 188.95076 189.02905 189.87834 191.20063
 192.93992 195.04921 197.32649 199.69978 202.15907 204.65336 206.75565 208.61194
 210.25222 211.41151 211.65480 211.89709 211.84838 211.56766 211.21495 210.85924
 210.49053 210.21482 210.03711 209.91539 209.85768 210.20297 210.60326 211.00655
 211.81383 213.00612 214.27041 216.06770 218.00999 220.06728 222.17656 224.27385
 226.34814 228.44643 230.55772 232.67801 234.82129 237.00758 239.27787 241.66216
 244.29745 246.56273 248.57902 250.35831 251.78960 252.92689 253.76318 254.09346
 254.14475 253.93304 253.30733 252.26962 250.88991 249.06519 246.98848 244.83577
 242.64106 240.45935 238.29363 236.14692 234.02121 231.90250 229.94279 228.11408
 226.41136 224.89765 223.54194 222.32823 221.22452 220.19881 219.31709 218.47238
 217.72867 216.92296 216.03525 215.41353 214.87782 214.83481 214.73317 214.04248
 212.95654 210.95508 210.57028 212.94443 216.43469 220.57121 226.35614 230.92244
 234.84181 239.01549 243.21893 247.26984 251.19579 254.99596 258.62201 261.96320
 265.02408 267.85101 270.46008 272.81360 274.81345 276.47897 277.88025 279.08527
 280.15747 280.75067 280.94498 281.21286 281.86542 282.63452 283.57706 284.45984
 285.28479 286.02304 286.65903 287.48615
 366.78100 356.34937 345.79574 334.67611 323.09348 311.30185 299.18622 287.00359
 274.72996 262.64132 250.66469 239.98006 230.11643 221.23480 213.43117 206.44754
 200.29591 195.24828 191.84465 189.90102 188.95239 189.03076 189.88013 191.20250
 192.94187 195.05124 197.32860 199.70197 202.16134 204.65571 206.75808 208.61445
 210.25482 211.41419 211.65756 211.89993 211.85130 211.57067 211.21804 210.86241
 210.49378 210.21815 210.04052 209.91888 209.86125 210.20662 210.60699 211.01036
 211.81773 213.01010 214.27447 216.07184 218.01421 220.07158 222.18095 224.27832
 226.35269 228.45106 230.56243 232.68279 234.82616 237.01253 239.28290 241.66727
 244.30264 246.56801 248.58438 250.36375 251.79512 252.93249 253.76886 254.09923
 254.15060 253.93897 253.31334 252.27571 250.89607 249.07144 246.99481 244.84218
 242.64755 240.46592 238.30029 236.15366 234.02803 231.90940 229.94977 228.12114
 226.41851 224.90488 223.54925 222.33562 221.23199 220.20635 219.32472 218.48009
 217.73646 216.93083 216.04320 215.42157 214.88594 214.84708 214.75522 214.01450
 213.00049 210.96706 210.49101 212.87561 216.39250 220.52437 226.32489 230.92299
 234.81969 239.00401 243.21039 247.26787 251.19899 254.99663 258.61734 261.96304
 265.02133 267.83701 270.42502 272.74738 274.73062 276.40094 277.80554 279.00400
 280.02802 280.59573 280.84225 281.16953 281.81094 282.60791 283.53122 284.41473
 285.23514 285.98145 286.65332 287.52066
 366.78100 356.34943 345.79585 334.67628 323.09371 311.30213 299.18656 287.00399
 274.73041 262.64184 250.66526 239.98069 230.11712 221.23554 213.43197 206.44840
 200.29682 195.24925 191.84568 189.90210 188.95353 189.03196 189.88138 191.20381
 192.94324 195.05266 197.33009 199.70351 202.16294 204.65737 206.75979 208.61622
 210.25665 211.41607 211.65950 211.90193 211.85335 211.57278 211.22021 210.86463
 210.49606 210.22049 210.04291 209.92134 209.86376 210.20919 210.60962 211.01304
 211.82047 213.01290 214.27732 216.07475 218.01718 220.07460 222.18403 224.28146
 226.35588 228.45431 230.56574 232.68616 234.82959 237.01601 239.28644 241.67087
 244.30629 246.57172 248.58815 250.36757 251.79900 252.93643 253.77285 254.10328
 254.15471 253.94313 253.31756 252.27999 250.90041 249.07584 246.99926 244.84669
 242.65212 240.47054 238.30497 236.15840 234.03282 231.91425 229.95468 228.12610
 226.42353 224.90996 223.55438 222.34081 221.23724 220.21166 219.33009 218.48551
 217.74194 216.93637 216.04879 215.42722 214.89165 214.85791 214.77818 213.99767
 213.03096 210.96526 210.40962 212.81754 216.35062 220.49109 226.28592 230.92400
 234.79604 238.99115 243.20200 247.26877 251.20535 255.00191 258.61829 261.96786
 265.02188 267.82300 270.38470 272.66788 274.62866 276.29733 277.70731 278.90973
 279.89542 280.46213 280.74600 281.11279 281.76315 282.63037 283.57248 284.46463
 285.30392 286.06570 286.74695 287.61514
 366.78100 356.34944 345.79589 334.67633 323.09378 311.30222 299.18666 287.00411
 274.73055 262.64199 250.66544 239.98088 230.11733 221.23577 213.43221 206.44866
 200.29710 195.24955 191.84599 189.90243 188.95388 189.03232 189.88177 191.20421
 192.94365 195.05310 197.33054 199.70398 202.16343 204.65787 206.76032 208.61676
 210.25720 211.41665 211.66009 211.90254 211.85398 211.57342 211.22087 210.86531
 210.49675 210.22120 210.04364 209.92209 209.86453 210.20997 210.61042 211.01386
 211.82131 213.01375 214.27819 216.07564 218.01808 220.07553 222.18497 224.28241
 226.35686 228.45530 230.56674 232.68719 234.83063 237.01708 239.28752 241.67196
 244.30741 246.57285 248.58930 250.36874 251.80018 252.93763 253.77407 254.10451
 254.15596 253.94440 253.31885 252.28129 250.90173 249.07718 247.00062 244.84807
 242.65351 240.47195 238.30640 236.15984 234.03428 231.91573 229.95617 228.12762
 226.42506 224.91150 223.55595 222.34239 221.23884 220.21328 219.33172 218.48717
 217.74361 216.93806 216.05050 215.42894 214.89339 214.86586 214.80081 213.98647
 213.05798 210.97072 210.35701 212.77695 216.30363 220.46437 226.24228 230.91066
 234.76823 238.97385 243.19164 247.26848 251.21048 255.00761 258.62326 261.97726
 265.02808 267.81348 270.34546 272.58627 274.51807 276.17618 277.58649 278.79660
 279.76324 280.36502 280.67007 281.06082 281.74432 282.67722 283.64255 284.54999
 285.40121 286.18665 286.88016 287.76395
 366.78100 356.34928 345.79555 334.67583 323.09311 311.30138 299.18566 287.00294
 274.72921 262.64049 250.66377 239.97904 230.11532 221.23360 213.42987 206.44615
 200.29443 195.24671 191.84298 189.89926 188.95054 189.02881 189.87809 191.20037
 192.93964 195.04892 197.32620 199.69947 202.15875 204.65303 206.75530 208.61158
 210.25186 211.41113 211.65441 211.89669 211.84796 211.56724 211.21452 210.85879
 210.49007 210.21435 210.03662 209.91490 209.85718 210.20246 210.60273 211.00601
 211.81329 213.00556 214.26984 216.06712 218.00939 220.06667 222.17595 224.27322
 226.34750 228.44578 230.55705 232.67733 234.82061 237.00688 239.27716 241.66144
 244.29671 246.56199 248.57827 250.35754 251.78882 252.92610 253.76237 254.09265
 254.14393 253.93221 253.30648 252.26876 250.88904 249.06431 246.98759 244.83487
 242.64014 240.45842 238.29270 236.14597 234.02025 231.90153 229.94180 228.11308
 226.41036 224.89663 223.54091 222.32719 221.22346 220.19774 219.31602 218.47129
 217.72757 216.92185 216.03412 215.41240 214.87668 214.86264 214.82948 213.97839
 213.06154 210.98857 210.37581 212.73347 216.22914 220.42191 226.20293 230.89410
 234.74298 238.95747 243.18288 247.26915 251.21556 255.01407 258.63235 261.99243
 265.04065 267.80911 270.30832 272.50327 274.39886 276.04239 277.45255 278.67358
 279.65161 280.29941 280.61218 281.02405 281.79416 282.73868 283.71021 284.61993
 285.48938 286.28659 286.98303 287.87054
 366.78100 356.34901 345.79503 334.67504 323.09206 311.30007 299.18409 287.00110
 274.72712 262.63813 250.66115 239.97616 230.11218 221.23019 213.42620 206.44222
 200.29023 195.24225 191.83826 189.89428 188.94529 189.02331 189.87232 191.19434
 192.93335 195.04237 197.31938 199.69240 202.15141 204.64542 206.74744 208.60345
 210.24347 211.40248 211.64550 211.88751 211.83853 211.55754 211.20456 210.84857
 210.47959 210.20360 210.02561 209.90363 209.84564 210.19066 210.59067 210.99369
 211.80070 212.99272 214.25673 216.05375 217.99576 220.05278 222.16179 224.25881
 226.33282 228.43083 230.54185 232.66186 234.80488 236.99089 239.26091 241.64492
 244.27994 246.54495 248.56097 250.33998 251.77100 252.90801 253.74402 254.07404
 254.12505 253.91307 253.28708 252.24910 250.86911 249.04413 246.96714 244.81416
 242.61917 240.43719 238.27120 236.12422 233.99823 231.87924 229.91926 228.09027
 226.38729 224.87330 223.51732 222.30333 221.19935 220.17336 219.29138 218.44639
 217.70241 216.89642 216.00843 215.38645 214.85046 214.85202 214.85571 213.98404
 213.06499 210.97887 210.33931 212.71371 216.20284 220.42323 226.16962 230.86488
 234.71355 238.93454 243.16721 247.26128 251.21269 255.01581 258.64081 262.01187
 265.05991 267.81039 270.27200 272.41672 274.27521 275.90353 277.32004 278.55551
 279.54092 280.20978 280.55679 281.06915 281.86472 282.80865 283.78308 284.69305
 285.57968 286.37082 287.06195 287.94275
 366.78100 356.34874 345.79448 334.67423 323.09097 311.29871 299.18245 286.99919
 274.72494 262.63568 250.65842 239.97316 230.10890 221.22665 213.42239 206.43813
 200.28587 195.23761 191.83336 189.88910 188.93984 189.01758 189.86632 191.18807
 192.92681 195.03555 197.31229 199.68503 202.14377 204.63752 206.73926 208.59500
 210.23474 211.39348 211.63623 211.87797 211.82871 211.54745 211.19419 210.83794
 210.46868 210.19242 210.01416 209.89190 209.83365 210.17839 210.57813 210.98087
 211.78761 212.97936 214.24310 216.03984 217.98158 220.03832 222.14707 224.24381
 226.31755 228.41529 230.52603 232.64578 234.78852 236.97426 239.24400 241.62774
 244.26249 246.52723 248.54297 250.32171 251.75245 252.88920 253.72494 254.05468
 254.10542 253.89316 253.26691 252.22865 250.84839 249.02313 246.94587 244.79262
 242.59736 240.41510 238.24884 236.10158 233.97532 231.85607 229.89581 228.06655
 226.36329 224.84903 223.49278 222.27852 221.17426 220.14800 219.26574 218.42049
 217.67623 216.86997 215.98171 215.35945 214.82320 214.83783 214.87238 213.99579
 213.07932 210.99159 210.30493 212.66862 216.18706 220.42064 226.12323 230.80823
 234.66962 238.90034 243.14290 247.24522 251.20280 255.01427 258.65182 262.03937
 265.08795 267.81937 270.24203 272.33728 274.15610 275.76782 277.18488 278.41275
 279.38449 280.07855 280.53741 281.14151 281.97736 282.92761 283.90356 284.82065
 285.70212 286.46921 287.13931 287.99332
 366.78100 356.34876 345.79451 334.67427 323.09103 311.29879 299.18254 286.99930
 274.72506 262.63582 250.65857 239.97333 230.10909 221.22685 213.42260 206.43836
 200.28612 195.23788 191.83363 189.88939 188.94015 189.01790 189.86666 191.18842
 192.92718 195.03593 197.31269 199.68545 202.14421 204.63796 206.73972 208.59548
 210.23524 211.39399 211.63675 211.87851 211.82927 211.54802 211.19478 210.83854
 210.46930 210.19305 210.01481 209.89257 209.83432 210.17908 210.57884 210.98160
 211.78835 212.98011 214.24387 216.04063 217.98238 220.03914 222.14790 224.24466
 226.31841 228.41617 230.52693 232.64669 234.78944 236.97520 239.24496 241.62871
 244.26347 246.52823 248.54399 250.32274 251.75350 252.89026 253.72602 254.05577
 254.10653 253.89429 253.26805 252.22980 250.84956 249.02432 246.94708 244.79383
 242.59859 240.41635 238.25010 236.10286 233.97662 231.85738 229.89713 228.06789
 226.36465 224.85041 223.49416 222.27992 221.17568 220.14944 219.26719 218.42195
 217.67771 216.87147 215.98322 215.36098 214.82474 214.83752 214.86772 214.01929
 213.12184 211.01385 210.27625 212.63361 216.13214 220.36981 226.06660 230.74538
 234.62227 238.86478 243.11784 247.22906 251.19333 255.01469 258.66833 262.07318
 265.12332 267.83554 270.21851 272.25912 274.03275 275.62408 277.03745 278.25171
 279.23184 279.98654 280.56219 281.22247 282.19702 283.26956 284.27234 285.18137
 285.98801 286.72745 287.37338 288.19659
 366.78100 356.34915 345.79530 334.67544 323.09259 311.30074 299.18489 287.00204
 274.72818 262.63933 250.66248 239.97763 230.11378 221.23192 213.42807 206.44422
 200.29237 195.24452 191.84066 189.89681 188.94796 189.02611 189.87526 191.19740
 192.93655 195.04570 197.32285 199.69600 202.15514 204.64929 206.75144 208.60759
 210.24774 211.40688 211.65003 211.89218 211.84333 211.56248 211.20962 210.85377
 210.48492 210.20907 210.03122 209.90936 209.85151 210.19666 210.59681 210.99996
 211.80710 212.99925 214.26340 216.06055 218.00270 220.05984 222.16899 224.26614
 226.34029 228.43844 230.54958 232.66973 234.81288 236.99903 239.26918 241.65332
 244.28847 246.55362 248.56977 250.34892 251.78006 252.91721 253.75336 254.08351
 254.13466 253.92280 253.29695 252.25910 250.87925 249.05440 246.97754 244.82469
 242.62984 240.44799 238.28214 236.13528 234.00943 231.89058 229.93073 228.10188
 226.39902 224.88517 223.52932 222.31547 221.21162 220.18576 219.30391 218.45906
 217.71521 216.90936 216.02150 215.39965 214.86380 214.85735 214.84212 214.04066
 213.18758 211.08147 210.28981 212.47090 216.02332 220.34433 226.01318 230.69698
 234.58588 238.84082 243.10912 247.23175 251.19659 255.02205 258.68976 262.11093
 265.15640 267.83862 270.17511 272.16547 273.90143 275.47406 276.88364 278.10999
 279.15182 280.02826 280.75888 281.49768 282.36673 283.38062 284.37534 285.27902
 286.07907 286.81464 287.45721 288.27609
 366.78100 356.34926 345.79552 334.67578 323.09304 311.30130 299.18556 287.00281
 274.72907 262.64033 250.66359 239.97885 230.11511 221.23337 213.42963 206.44589
 200.29415 195.24641 191.84267 189.89893 188.95018 189.02844 189.87770 191.19996
 192.93922 195.04848 197.32574 199.69900 202.15826 204.65252 206.75478 208.61104
 210.25130 211.41055 211.65381 211.89607 211.84733 211.56659 211.21385 210.85811
 210.48937 210.21363 210.03589 209.91415 209.85641 210.20167 210.60192 211.00518
 211.81244 213.00470 214.26896 216.06622 218.00848 220.06574 222.17500 224.27226
 226.34652 228.44478 230.55604 232.67629 234.81955 237.00581 239.27607 241.66033
 244.29559 246.56085 248.57711 250.35637 251.78763 252.92489 253.76115 254.09141
 254.14267 253.93092 253.30518 252.26744 250.88770 249.06296 246.98622 244.83348
 242.63874 240.45700 238.29126 236.14452 234.01878 231.90004 229.94029 228.11155
 226.40881 224.89507 223.53933 222.32559 221.22185 220.19611 219.31437 218.46963
 217.72589 216.92015 216.03241 215.41066 214.87492 214.86536 214.84274 214.03319
 213.25789 211.12384 210.30803 212.36488 215.92482 220.31116 225.96873 230.67700
 234.56035 238.82385 243.10213 247.23746 251.20789 255.03705 258.70963 262.13074
 265.17270 267.84000 270.14389 272.08597 273.77338 275.31326 276.71802 277.97986
 279.08823 280.04401 280.86331 281.68231 282.57336 283.57501 284.57034 285.47342
 286.28430 287.02011 287.66293 288.48209
 366.78100 356.34860 345.79420 334.67380 323.09040 311.29799 299.18159 286.99819
 274.72379 262.63439 250.65699 239.97159 230.10719 221.22478 213.42038 206.43598
 200.28358 195.23518 191.83078 189.88638 188.93698 189.01458 189.86317 191.18477
 192.92337 195.03197 197.30857 199.68117 202.13977 204.63337 206.73497 208.59056
 210.23016 211.38876 211.63136 211.87296 211.82356 211.54216 211.18876 210.83235
 210.46295 210.18655 210.00815 209.88575 209.82735 210.17195 210.57155 210.97415
 211.78074 212.97234 214.23594 216.03254 217.97414 220.03074 222.13934 224.23594
 226.30953 228.40713 230.51773 232.63733 234.77993 236.96553 239.23513 241.61873
 244.25333 246.51792 248.53352 250.31212 251.74272 252.87932 253.71492 254.04452
 254.09512 253.88272 253.25631 252.21791 250.83751 249.01211 246.93471 244.78131
 242.58591 240.40351 238.23710 236.08970 233.96330 231.84390 229.88350 228.05410
 226.35070 224.83630 223.47990 222.26549 221.16109 220.13469 219.25229 218.40689
 217.66249 216.85609 215.96769 215.34528 214.80888 214.83473 214.89061 213.99702
 213.24536 211.19324 210.31700 212.22182 215.91061 220.38313 225.92842 230.64072
 234.51350 238.78528 243.07620 247.21368 251.17226 255.01016 258.72559 262.18961
 265.23468 267.85873 270.09454 271.98068 273.63345 275.15945 276.59421 277.90491
 279.03433 280.03387 280.93802 281.82108 282.74121 283.82114 284.89917 285.82016
 286.60153 287.29733 287.90518 288.67981
 366.78100 356.34774 345.79249 334.67123 323.08697 311.29371 299.17646 286.99220
 274.71694 262.62668 250.64843 239.96217 230.09691 221.21365 213.40840 206.42314
 200.26988 195.22062 191.81537 189.87011 188.91985 188.99659 189.84434 191.16508
 192.90282 195.01056 197.28631 199.65805 202.11579 204.60853 206.70928 208.56402
 210.20276 211.36050 211.60225 211.84299 211.79273 211.51047 211.15622 210.79896
 210.42870 210.15144 209.97219 209.84893 209.78967 210.13341 210.53216 210.93390
 211.73964 212.93038 214.19313 215.98887 217.92961 219.98535 222.09310 224.18884
 226.26158 228.35832 230.46807 232.58681 234.72855 236.91329 239.18204 241.56478
 244.19852 246.46226 248.47701 250.25475 251.68449 252.82023 253.65498 253.98372
 254.03346 253.82020 253.19295 252.15369 250.77243 248.94617 246.86792 244.71366
 242.51740 240.33414 238.16689 236.01863 233.89137 231.77111 229.80986 227.97960
 226.27534 224.76008 223.40283 222.18757 221.08231 220.05505 219.17180 218.32554
 217.58028 216.77302 215.88377 215.26051 214.72325 214.76474 214.85071 214.00192
 213.23756 211.25987 210.34407 212.09019 215.91666 220.47089 225.88631 230.58615
 234.45821 238.74606 243.05577 247.19136 251.13368 254.97948 258.74271 262.24905
 265.28922 267.86050 270.03079 271.86963 273.48611 274.98593 276.43466 277.77393
 278.90567 279.95016 280.95401 281.96213 282.96405 284.04904 285.09537 285.78207
 286.22147 286.61276 286.95459 287.39020
 366.78100 356.34686 345.79071 334.66857 323.08343 311.28929 299.17114 286.98600
 274.70986 262.61872 250.63957 239.95243 230.08629 221.20215 213.39600 206.40986
 200.25572 195.20557 191.79943 189.85329 188.90215 188.97800 189.82486 191.14472
 192.88158 194.98843 197.26329 199.63415 202.09101 204.58286 206.68272 208.53658
 210.17444 211.33129 211.57215 211.81201 211.76086 211.47772 211.12258 210.76444
 210.39329 210.11515 209.93501 209.81087 209.75072 210.09358 210.49144 210.89230
 211.69715 212.88701 214.14887 215.94372 217.88358 219.93844 222.04530 224.14015
 226.21201 228.30787 230.41673 232.53458 234.67544 236.85930 239.12716 241.50901
 244.14187 246.40473 248.41859 250.19544 251.62430 252.75916 253.59301 253.92087
 253.96973 253.75559 253.12744 252.08730 250.70516 248.87802 246.79887 244.64373
 242.44659 240.26245 238.09430 235.94516 233.81702 231.69587 229.73373 227.90259
 226.19745 224.68130 223.32316 222.10702 221.00088 219.97273 219.08859 218.24145
 217.49531 216.68716 215.79702 215.17288 214.63474 214.67966 214.76976 214.02568
 213.25368 211.31157 210.36922 212.01077 215.90527 220.50801 225.84280 230.53386
 234.41495 238.71980 243.04837 247.18382 251.11302 254.96217 258.75711 262.28726
 265.31720 267.84921 269.97455 271.77737 273.35800 274.82983 276.28772 277.63483
 278.78418 279.86938 280.98166 282.09149 283.14548 284.25449 285.34412 285.95306
 286.44641 286.88574 287.26950 287.75861
 354.97500 345.04800 334.58700 324.11500 313.32600 302.53700 291.65000 280.76700
 269.93100 259.19300 248.62200 238.61700 229.08700 220.35500 212.54000 205.53500
 199.46400 194.49300 191.14300 189.19000 188.08900 188.01400 188.72400 189.90600
 191.46900 193.38200 195.40300 197.55600 199.80700 202.06000 204.28800 206.47900
 208.55200 210.37800 212.02500 213.65900 214.99800 216.11800 217.17200 218.25900
 219.49400 220.64500 221.67900 222.61400 223.54500 224.98200 226.57100 228.19000
 229.79700 231.81100 233.86500 235.97200 238.24200 240.55300 242.89900 245.25300
 247.48800 249.53500 251.36600 252.84800 254.09800 255.16700 256.02700 256.25300
 256.09500 255.54300 253.93500 252.56600 251.38400 250.24500 249.05200 247.70100
 246.01600 243.99600 241.78400 239.39300 236.81300 234.22300 231.65800 229.14400
 226.74000 224.47300 222.33500 220.32500 218.44000 216.67700 214.96200 213.47200
 212.20000 211.10800 210.26000 209.63900 209.24400 209.03100 209.05800 209.33300
 209.78400 210.62600 211.33100 212.39100 213.62500 214.84668 217.72949 219.47640
 220.32566 220.86828 220.88710 220.27371 219.43733 218.84250 219.04934 220.86203
 222.60583 225.72206 229.03064 232.61777 236.12270 239.51333 242.70767 245.68587
 248.41061 250.90679 253.19353 254.91714 256.48655 257.94920 259.39966 260.69384
 261.81714 262.77997 263.71679 264.54570 265.26305 265.89772 266.47676 267.00133
 267.47312 267.89325 268.26027 268.72800
