|-------------------------------------------------------------------------|
|   File Name : in_temp.dat
|   Subject   : temperature profiles used for initial guess atmosphere
|   File Type : input of gmtr
|   Data Type : atmospherical data
|   Author/s  : WRF-Chem
|   Date      : Fri Jul 26 15:39:24 2024
|-------------------------------------------------------------------------|

 WRF-Chem temperature
#
 values of T (K)    (8f10.5)
#
 354.97500 345.04800 334.58700 324.11500 313.32600 302.53700 291.65000 280.76700
 269.93100 259.19300 248.62200 238.61700 229.08700 220.35500 212.54000 205.53500
 199.46400 194.49300 191.14300 189.19000 188.08900 188.01400 188.72400 189.90600
 191.46900 193.38200 195.40300 197.55600 199.80700 202.06000 204.28800 206.47900
 208.55200 210.37800 212.02500 213.65900 214.99800 216.11800 217.17200 218.25900
 219.49400 220.64500 221.67900 222.61400 223.54500 224.98200 226.57100 228.19000
 229.79700 231.81100 233.86500 235.97200 238.24200 240.55300 242.89900 245.25300
 247.48800 249.53500 251.36600 252.84800 254.09800 255.16700 256.02700 256.25300
 256.09500 255.54300 253.93500 252.56600 251.38400 250.24500 249.05200 247.70100
 246.01600 243.99600 241.78400 239.39300 236.81300 234.22300 231.65800 229.14400
 226.74000 224.47300 222.33500 220.32500 218.44000 216.67700 214.96200 213.47200
 212.20000 211.10800 210.26000 209.63900 209.24400 209.03100 209.05800 209.33300
 209.78400 210.62600 211.33100 212.39100 213.62500 214.84668 217.72949 219.47640
 220.32566 220.86828 220.88710 220.27371 219.43733 218.84250 219.04934 220.86203
 222.60583 225.72206 229.03064 232.61777 236.12270 239.51333 242.70767 245.68587
 248.41061 250.90679 253.19353 254.91714 256.48655 257.94920 259.39966 260.69384
 261.81714 262.77997 263.71679 264.54570 265.26305 265.89772 266.47676 267.00133
 267.47312 267.89325 268.26027 268.72800
 366.78100 356.33500 345.76700 334.63300 323.03600 311.23000 299.10000 286.90300
 274.61500 262.51200 250.52100 239.82200 229.94400 221.04800 213.23000 206.23200
 200.06600 195.00400 191.58600 189.62800 188.66500 188.72900 189.56400 190.87200
 192.59700 194.69200 196.95500 199.31400 201.75900 204.23900 206.32700 208.16900
 209.79500 210.94000 211.16900 211.39700 211.33400 211.03900 210.67200 210.30200
 209.91900 209.62900 209.43700 209.30100 209.22900 209.56000 209.94600 210.33500
 211.12800 212.30600 213.55600 215.33900 217.26700 219.31000 221.40500 223.48800
 225.54800 227.63200 229.72900 231.83500 233.96400 236.13600 238.39200 240.76200
 243.38300 245.63400 247.63600 249.40100 250.81800 251.94100 252.76300 253.07900
 253.11600 252.89000 252.25000 251.19800 249.80400 247.96500 245.87400 243.70700
 241.49800 239.30200 237.12200 234.96100 232.82100 230.68800 228.71400 226.87100
 225.15400 223.62600 222.25600 221.02800 219.91000 218.87000 217.97400 217.11500
 216.35700 215.53700 214.63500 213.99900 213.44900 212.85855 212.01316 212.61654
 214.26826 216.08686 218.14273 220.53346 223.40855 226.78828 231.49734 235.90155
 239.42278 243.28576 247.23140 251.11907 254.80144 258.23331 261.38913 264.27520
 266.89312 269.26852 271.44504 273.08845 274.58484 275.98591 277.39845 278.65879
 279.75272 280.69038 281.56708 282.34086 283.01050 283.60295 284.14348 284.63317
 285.07358 285.46577 285.80838 286.24500
 381.81900 372.39900 361.20600 349.77600 337.62200 324.85300 311.81000 298.35300
 284.86000 271.32400 258.56100 246.30400 236.08700 226.79600 218.44800 211.29000
 205.52200 200.89400 197.38100 194.84800 193.01500 192.31500 192.25000 192.43100
 192.91200 193.53700 194.13600 194.71200 195.26200 195.83100 196.39300 196.97600
 197.60400 198.14900 198.58400 199.05700 199.69500 200.37800 201.05400 201.70800
 202.31300 202.85700 203.35500 203.86200 204.56900 205.29700 206.02600 206.98700
 208.19300 209.44100 210.96900 212.57600 214.46200 216.51300 218.63000 220.85300
 223.34100 225.96200 228.73900 231.69700 234.70600 237.70600 240.69200 243.65700
 246.73700 249.69900 252.52100 255.06300 257.29000 259.23300 260.63300 261.68000
 262.46100 262.79800 262.69100 262.22400 261.06900 259.52500 257.70700 255.50700
 253.00100 250.30200 247.39800 244.45200 241.65400 239.05400 236.73300 234.59000
 232.59500 230.72500 228.83400 226.82600 224.66600 222.38700 220.10400 217.71500
 215.45900 213.06600 210.54600 208.09300 205.35400 202.08130 196.05959 200.71215
 209.01611 216.90438 223.84126 229.78593 235.00632 240.20838 245.98943 250.68668
 254.32982 257.93487 261.55666 264.96801 268.15192 271.06452 273.76717 276.25691
 278.57680 280.74479 282.77456 284.60533 286.27232 287.81705 289.31715 290.65561
 291.81734 292.81312 293.70701 294.49387 295.17482 295.77730 296.32696 296.82492
 297.27278 297.67160 298.02000 298.46400
 399.33000 389.90700 379.81300 368.66800 357.52200 345.30100 333.07400 320.22700
 307.21600 293.84800 280.37600 267.29600 254.61000 242.98700 232.15100 221.97700
 212.67200 204.28600 197.66900 192.82100 189.48600 187.45200 186.81400 187.08900
 187.78100 189.05400 190.64800 192.54200 194.63000 196.75200 198.67100 200.15800
 201.53500 202.48700 202.97500 203.34000 203.53900 203.49700 203.38500 203.24700
 203.00500 202.78600 202.60300 202.43700 202.42600 202.88800 203.42000 203.95100
 204.89500 205.99200 207.30100 208.95800 210.73800 213.10000 215.56400 218.18000
 220.96600 223.91800 226.96100 230.09200 233.29300 236.55700 239.95500 243.53700
 246.84500 249.39000 251.54200 253.47400 255.19500 256.48400 257.43100 258.05900
 258.21200 258.04000 257.58200 256.64300 255.23900 253.50700 251.40800 249.05600
 246.57600 243.99400 241.38900 238.83000 236.34400 233.98600 231.96900 230.11800
 228.42300 226.89900 225.54800 224.29700 223.10500 221.96500 220.95800 220.11300
 219.49000 218.92000 218.32500 217.88100 217.42300 216.96366 216.35568 216.80261
 217.73415 218.28582 218.64258 219.10077 220.44626 222.53987 226.38451 230.35736
 233.59734 237.39164 241.29814 245.22796 248.98002 252.51130 255.78595 258.80109
 261.54781 264.05210 266.34239 268.04198 269.58951 271.01303 272.35754 273.55718
 274.59842 275.49092 276.28989 276.99307 277.60161 278.14001 278.63122 279.07623
 279.47646 279.83287 280.14422 280.54100
 399.73800 389.78500 379.66200 368.15100 356.64100 344.35000 331.79200 318.88800
 305.72600 292.49300 279.20900 266.73800 254.69600 244.21100 234.45700 225.43300
 217.56900 210.45100 204.30000 199.30600 195.45800 192.57600 191.02700 190.38600
 190.23900 190.53400 191.16600 191.92500 192.79500 193.76600 194.73200 195.31200
 195.80000 196.05200 196.11500 196.11500 196.03900 195.72300 195.34000 194.98900
 194.75100 194.79200 195.13300 195.59800 196.50600 198.13600 199.85800 201.56600
 204.17900 206.82300 209.89300 213.28400 216.82800 220.60500 224.38700 228.20900
 232.03200 235.82500 239.56000 243.25800 246.84500 250.20100 253.70900 257.46800
 261.53000 264.22100 266.60100 268.68100 270.32900 271.74100 272.83600 273.47400
 273.89800 274.00200 273.75700 273.28800 272.37100 271.10000 269.58900 267.77900
 265.81600 263.72100 261.39300 258.91600 256.29800 253.42300 250.33100 247.11400
 243.83700 240.52900 237.24900 233.99900 230.72800 227.51500 224.25400 220.95200
 217.62700 213.65600 210.12100 206.78900 204.01000 201.99491 199.07309 198.76551
 199.40006 200.48994 201.46112 202.31912 203.45100 204.96110 207.47502 210.85391
 213.70530 217.29629 220.99574 224.72316 228.28753 231.64854 234.68024 237.40893
 239.70644 241.60899 243.46854 245.67368 247.68154 249.52395 251.24767 252.78566
 254.12057 255.26479 256.23740 257.09036 257.82852 258.48160 259.07744 259.61723
 260.10271 260.53504 260.91270 261.39400
 399.73800 389.78500 379.66200 368.15100 356.64100 344.35000 331.79200 318.88800
 305.72600 292.49300 279.20900 266.73800 254.69600 244.21100 234.45700 225.43300
 217.56900 210.45100 204.30000 199.30600 195.45800 192.57600 191.02700 190.38600
 190.23900 190.53400 191.16600 191.92500 192.79500 193.76600 194.73200 195.31200
 195.80000 196.05200 196.11500 196.11500 196.03900 195.72300 195.34000 194.98900
 194.75100 194.79200 195.13300 195.59800 196.50600 198.13600 199.85800 201.56600
 204.17900 206.82300 209.89300 213.28400 216.82800 220.60500 224.38700 228.20900
 232.03200 235.82500 239.56000 243.25800 246.84500 250.20100 253.70900 257.46800
 261.53000 264.22100 266.60100 268.68100 270.32900 271.74100 272.83600 273.47400
 273.89800 274.00200 273.75700 273.28800 272.37100 271.10000 269.58900 267.77900
 265.81600 263.72100 261.39300 258.91600 256.29800 253.42300 250.33100 247.11400
 243.83700 240.52900 237.24900 233.99900 230.72800 227.51500 224.25400 220.95200
 217.62700 213.65600 210.12100 206.78900 204.01000 201.99491 199.07309 198.76551
 199.40006 200.48994 201.46112 202.31912 203.45100 204.96110 207.47502 210.85391
 213.70530 217.29629 220.99574 224.72316 228.28753 231.64854 234.68024 237.40893
 239.70644 241.60899 243.46854 245.67368 247.68154 249.52395 251.24767 252.78566
 254.12057 255.26479 256.23740 257.09036 257.82852 258.48160 259.07744 259.61723
 260.10271 260.53504 260.91270 261.39400
 399.33000 389.90700 379.81300 368.66800 357.52200 345.30100 333.07400 320.22700
 307.21600 293.84800 280.37600 267.29600 254.61000 242.98700 232.15100 221.97700
 212.67200 204.28600 197.66900 192.82100 189.48600 187.45200 186.81400 187.08900
 187.78100 189.05400 190.64800 192.54200 194.63000 196.75200 198.67100 200.15800
 201.53500 202.48700 202.97500 203.34000 203.53900 203.49700 203.38500 203.24700
 203.00500 202.78600 202.60300 202.43700 202.42600 202.88800 203.42000 203.95100
 204.89500 205.99200 207.30100 208.95800 210.73800 213.10000 215.56400 218.18000
 220.96600 223.91800 226.96100 230.09200 233.29300 236.55700 239.95500 243.53700
 246.84500 249.39000 251.54200 253.47400 255.19500 256.48400 257.43100 258.05900
 258.21200 258.04000 257.58200 256.64300 255.23900 253.50700 251.40800 249.05600
 246.57600 243.99400 241.38900 238.83000 236.34400 233.98600 231.96900 230.11800
 228.42300 226.89900 225.54800 224.29700 223.10500 221.96500 220.95800 220.11300
 219.49000 218.92000 218.32500 217.88100 217.42300 216.96366 216.35568 216.80261
 217.73415 218.28582 218.64258 219.10077 220.44626 222.53987 226.38451 230.35736
 233.59734 237.39164 241.29814 245.22796 248.98002 252.51130 255.78595 258.80109
 261.54781 264.05210 266.34239 268.04198 269.58951 271.01303 272.35754 273.55718
 274.59842 275.49092 276.28989 276.99307 277.60161 278.14001 278.63122 279.07623
 279.47646 279.83287 280.14422 280.54100
 381.81900 372.39900 361.20600 349.77600 337.62200 324.85300 311.81000 298.35300
 284.86000 271.32400 258.56100 246.30400 236.08700 226.79600 218.44800 211.29000
 205.52200 200.89400 197.38100 194.84800 193.01500 192.31500 192.25000 192.43100
 192.91200 193.53700 194.13600 194.71200 195.26200 195.83100 196.39300 196.97600
 197.60400 198.14900 198.58400 199.05700 199.69500 200.37800 201.05400 201.70800
 202.31300 202.85700 203.35500 203.86200 204.56900 205.29700 206.02600 206.98700
 208.19300 209.44100 210.96900 212.57600 214.46200 216.51300 218.63000 220.85300
 223.34100 225.96200 228.73900 231.69700 234.70600 237.70600 240.69200 243.65700
 246.73700 249.69900 252.52100 255.06300 257.29000 259.23300 260.63300 261.68000
 262.46100 262.79800 262.69100 262.22400 261.06900 259.52500 257.70700 255.50700
 253.00100 250.30200 247.39800 244.45200 241.65400 239.05400 236.73300 234.59000
 232.59500 230.72500 228.83400 226.82600 224.66600 222.38700 220.10400 217.71500
 215.45900 213.06600 210.54600 208.09300 205.35400 202.08130 196.05959 200.71215
 209.01611 216.90438 223.84126 229.78593 235.00632 240.20838 245.98943 250.68668
 254.32982 257.93487 261.55666 264.96801 268.15192 271.06452 273.76717 276.25691
 278.57680 280.74479 282.77456 284.60533 286.27232 287.81705 289.31715 290.65561
 291.81734 292.81312 293.70701 294.49387 295.17482 295.77730 296.32696 296.82492
 297.27278 297.67160 298.02000 298.46400
 366.78100 356.34525 345.78749 334.66374 323.07699 311.28123 299.16148 286.97473
 274.69697 262.60422 250.62347 239.93471 230.06696 221.18121 213.37345 206.38570
 200.22995 195.17819 191.77044 189.82269 188.86993 188.94418 189.78943 191.10767
 192.84292 194.94817 197.22141 199.59066 202.04591 204.53615 206.63440 208.48665
 210.12289 211.27814 211.51739 211.75563 211.70288 211.41813 211.06137 210.70162
 210.32887 210.04911 209.86736 209.74161 209.67985 210.02110 210.41735 210.81659
 211.61984 212.80809 214.06833 215.86158 217.79982 219.85307 221.95832 224.05156
 226.12181 228.21606 230.32330 232.43955 234.57880 236.76104 239.02729 241.40754
 244.03878 246.30003 248.31228 250.08752 251.51477 252.64802 253.48026 253.80651
 253.85376 253.63800 253.00825 251.96650 250.58274 248.75399 246.67324 244.51648
 242.31773 240.13198 237.96222 235.81147 233.68172 231.55896 229.59521 227.76246
 226.05570 224.53795 223.17820 221.96044 220.85269 219.82294 218.93718 218.08843
 217.34068 216.53092 215.63917 215.01342 214.47366 213.52609 211.28966 210.41052
 211.20995 212.96411 215.13335 216.88339 219.28117 223.40518 229.20720 234.31387
 238.16542 241.91855 245.64612 249.51593 253.60043 257.07227 259.72705 261.85199
 264.69797 267.50592 269.85330 271.79095 273.54807 275.25134 276.88208 278.55817
 280.29608 281.90674 283.38315 284.73697 285.91711 286.96536 287.92456 288.79688
 289.58771 290.29681 290.92181 291.75232
 366.78100 356.34463 345.78627 334.66190 323.07454 311.27817 299.15781 286.97044
 274.69208 262.59871 250.61735 239.92798 230.05962 221.17325 213.36489 206.37652
 200.22016 195.16779 191.75943 189.81106 188.85770 188.93133 189.77596 191.09360
 192.82823 194.93287 197.20550 199.57414 202.02877 204.51841 206.61604 208.46768
 210.10331 211.25795 211.49658 211.73422 211.68085 211.39549 211.03812 210.67776
 210.30439 210.02402 209.84166 209.71529 209.65293 209.99356 210.38920 210.78783
 211.59047 212.77810 214.03774 215.83037 217.76801 219.82064 221.92528 224.01791
 226.08755 228.18118 230.28782 232.40345 234.54209 236.72372 238.98935 241.36899
 243.99962 246.26026 248.27189 250.04653 251.47316 252.60580 253.43743 253.76307
 253.80970 253.59334 252.96297 251.92061 250.53624 248.70688 246.62551 244.46815
 242.26878 240.08242 237.91205 235.76068 233.63032 231.50695 229.54259 227.70922
 226.00186 224.48349 223.12313 221.90476 220.79640 219.76603 218.87967 218.03030
 217.28194 216.47157 215.57921 214.95284 214.41248 213.51268 211.38858 210.53044
 211.28114 213.07535 215.23590 216.90338 219.23262 223.33517 229.14655 234.22983
 238.06371 241.81001 245.54369 249.43764 253.56819 256.99405 259.59286 261.74051
 264.59738 267.42526 269.79410 271.72052 273.43726 275.11041 276.76001 278.45776
 280.19693 281.80566 283.28323 284.63895 285.81979 286.86862 287.82764 288.70111
 289.49222 290.20151 290.82822 291.65823
 366.78100 356.34408 345.78516 334.66023 323.07231 311.27539 299.15447 286.96655
 274.68762 262.59370 250.61178 239.92186 230.05294 221.16601 213.35709 206.36817
 200.21125 195.15833 191.74940 189.80048 188.84656 188.91964 189.76372 191.08079
 192.81487 194.91895 197.19103 199.55910 202.01318 204.50226 206.59934 208.45042
 210.08549 211.23957 211.47765 211.71473 211.66081 211.37488 211.01696 210.65604
 210.28212 210.00120 209.81827 209.69135 209.62843 209.96851 210.36359 210.76166
 211.56374 212.75082 214.00990 215.80198 217.73905 219.79113 221.89521 223.98729
 226.05637 228.14944 230.25552 232.37060 234.50868 236.68976 238.95483 241.33391
 243.96399 246.22407 248.23515 250.00922 251.43530 252.56738 253.39846 253.72354
 253.76961 253.55269 252.92177 251.87885 250.49393 248.66400 246.58208 244.42416
 242.22424 240.03731 237.86639 235.71447 233.58355 231.45963 229.49470 227.66078
 225.95286 224.43394 223.07302 221.85409 220.74517 219.71425 218.82733 217.97741
 217.22848 216.41756 215.52464 214.89772 214.35680 213.50096 211.48029 210.64670
 211.36095 213.19380 215.33580 216.94429 219.17802 223.26428 229.08492 234.14645
 237.96188 241.70021 245.44098 249.36076 253.53236 256.90921 259.45392 261.62628
 264.49167 267.33838 269.72934 271.64825 273.33163 274.97711 276.64395 278.36136
 280.10281 281.70892 283.18881 284.54483 285.72592 286.77542 287.73328 288.60837
 289.39969 290.10956 290.73566 291.56473
 366.78100 356.34351 345.78402 334.65852 323.07003 311.27254 299.15105 286.96256
 274.68306 262.58857 250.60608 239.91559 230.04609 221.15860 213.34911 206.35962
 200.20213 195.14863 191.73914 189.78965 188.83516 188.90767 189.75117 191.06768
 192.80119 194.90470 197.17621 199.54371 201.99722 204.48573 206.58224 208.43274
 210.06725 211.22076 211.45827 211.69478 211.64028 211.35379 210.99530 210.63381
 210.25932 209.97782 209.79433 209.66684 209.60335 209.94286 210.33736 210.73487
 211.53638 212.72289 213.98139 215.77290 217.70941 219.76092 221.86443 223.95593
 226.02444 228.11695 230.22246 232.33697 234.47447 236.65498 238.91949 241.29800
 243.92751 246.18701 248.19752 249.97103 251.39654 252.52804 253.35855 253.68306
 253.72857 253.51108 252.87958 251.83609 250.45060 248.62011 246.53762 244.37912
 242.17863 239.99114 237.81965 235.66716 233.53566 231.41117 229.44568 227.61119
 225.90269 224.38320 223.02171 221.80222 220.69273 219.66123 218.77374 217.92325
 217.17376 216.36227 215.46877 214.84128 214.29979 213.48740 211.56900 210.75748
 211.45003 213.31157 215.43202 217.00612 219.13004 223.19107 229.02335 234.06146
 237.85832 241.58849 245.33954 249.28702 253.49416 256.82108 259.31393 261.51089
 264.37958 267.24130 269.65436 271.56870 273.22684 274.85202 276.53610 278.27292
 280.01318 281.61844 283.09949 284.45621 285.63623 286.68576 287.64636 288.52057
 289.31226 290.02289 290.64841 291.48489
 366.78100 356.34290 345.78280 334.65670 323.06760 311.26950 299.14740 286.95830
 274.67820 262.58310 250.60000 239.90889 230.03879 221.15069 213.34059 206.35049
 200.19239 195.13829 191.72819 189.77809 188.82299 188.89489 189.73779 191.05369
 192.78659 194.88949 197.16039 199.52729 201.98019 204.46809 206.56399 208.41389
 210.04778 211.20068 211.43758 211.67348 211.61838 211.33128 210.97218 210.61008
 210.23498 209.95288 209.76878 209.64068 209.57658 209.91548 210.30938 210.70628
 211.50718 212.69308 213.95098 215.74188 217.67778 219.72867 221.83157 223.92247
 225.99037 228.08227 230.18717 232.30107 234.43797 236.61787 238.88177 241.25967
 243.88857 246.14747 248.15737 249.93027 251.35517 252.48607 253.31597 253.63987
 253.68477 253.46667 252.83456 251.79046 250.40436 248.57326 246.49016 244.33106
 242.12996 239.94186 237.76976 235.61666 233.48456 231.35946 229.39336 227.55826
 225.84916 224.32906 222.96696 221.74686 220.63676 219.60466 218.71656 217.86546
 217.11535 216.30325 215.40915 214.78105 214.23895 213.47105 211.65747 210.86420
 211.54362 213.42790 215.52493 217.07556 219.09879 223.12445 228.96535 233.97301
 237.75142 241.47528 245.24178 249.21831 253.45067 256.72961 259.17361 261.39352
 264.26047 267.13202 269.56561 271.47961 273.12436 274.73865 276.43961 278.19153
 279.92984 281.53436 283.01636 284.37268 285.55377 286.60306 287.56366 288.43738
 289.23126 289.94070 290.56738 291.40485
 366.78100 356.34230 345.78160 334.65489 323.06519 311.26649 299.14379 286.95409
 274.67339 262.57768 250.59398 239.90228 230.03158 221.14288 213.33217 206.34147
 200.18277 195.12807 191.71737 189.76667 188.81096 188.88226 189.72456 191.03986
 192.77216 194.87445 197.14475 199.51105 201.96335 204.45065 206.54595 208.39524
 210.02854 211.18084 211.41714 211.65244 211.59673 211.30903 210.94933 210.58663
 210.21093 209.92823 209.74352 209.61482 209.55012 209.88842 210.28172 210.67801
 211.47831 212.66361 213.92091 215.71121 217.64651 219.69680 221.79910 223.88940
 225.95670 228.04800 230.15229 232.26559 234.40189 236.58119 238.84449 241.22179
 243.85008 246.10838 248.11768 249.88998 251.31428 252.44457 253.27387 253.59717
 253.64147 253.42277 252.79007 251.74536 250.35866 248.52696 246.44326 244.28356
 242.08185 239.89315 237.72045 235.56675 233.43405 231.30835 229.34164 227.50594
 225.79624 224.27554 222.91284 221.69213 220.58143 219.54873 218.66003 217.80833
 217.05763 216.24492 215.35022 214.72152 214.17882 213.45422 211.74266 210.97067
 211.63583 213.54329 215.61975 217.14136 219.08699 223.06674 228.90781 233.88254
 237.64391 241.36400 245.14923 249.15317 253.39902 256.63269 259.03308 261.27573
 264.13531 267.01010 269.46057 271.37845 273.02255 274.63852 276.35443 278.11798
 279.85287 281.45444 282.93750 284.29376 285.47656 286.52609 287.48666 288.36240
 289.15591 289.86484 290.49341 291.32910
 366.78100 356.34169 345.78037 334.65306 323.06275 311.26343 299.14012 286.94981
 274.66849 262.57218 250.58787 239.89555 230.02424 221.13493 213.32361 206.33230
 200.17299 195.11767 191.70636 189.75505 188.79874 188.86942 189.71111 191.02580
 192.75748 194.85917 197.12886 199.49454 201.94623 204.43292 206.52760 208.37629
 210.00898 211.16066 211.39635 211.63104 211.57472 211.28641 210.92610 210.56278
 210.18647 209.90316 209.71784 209.58853 209.52322 209.86090 210.25359 210.64928
 211.44896 212.63365 213.89034 215.68002 217.61471 219.66440 221.76608 223.85577
 225.92246 228.01315 230.11683 232.22952 234.36521 236.54389 238.80658 241.18327
 243.81095 246.06864 248.07733 249.84901 251.27270 252.40239 253.23107 253.55376
 253.59745 253.37813 252.74482 251.69951 250.31219 248.47988 246.39557 244.23525
 242.03294 239.84363 237.67031 235.51600 233.38269 231.25637 229.28906 227.45275
 225.74243 224.22112 222.85781 221.63649 220.52518 219.49187 218.60256 217.75024
 216.99893 216.18562 215.29030 214.66099 214.11768 213.43687 211.82855 211.07300
 211.73161 213.65535 215.71796 217.20888 219.07823 223.02087 228.85202 233.78917
 237.53522 241.25490 245.06261 249.09277 253.34016 256.53183 258.89752 261.16190
 264.00616 266.87625 269.33820 271.26178 272.91843 274.54913 276.28043 278.04926
 279.78238 281.38034 282.86536 284.22214 285.40500 286.45465 287.41504 288.29214
 289.08447 289.79636 290.42459 291.26273
 366.78100 356.34112 345.77923 334.65135 323.06047 311.26059 299.13670 286.94582
 274.66394 262.56705 250.58217 239.88929 230.01741 221.12752 213.31564 206.32376
 200.16387 195.10799 191.69611 189.74423 188.78734 188.85746 189.69858 191.01269
 192.74381 194.84493 197.11405 199.47916 201.93028 204.41640 206.51051 208.35863
 209.99075 211.14187 211.37698 211.61110 211.55422 211.26533 210.90445 210.54057
 210.16369 209.87980 209.69392 209.56404 209.49815 209.83527 210.22739 210.62251
 211.42162 212.60574 213.86186 215.65097 217.58509 219.63421 221.73533 223.82444
 225.89056 227.98068 230.08379 232.19591 234.33103 236.50915 238.77126 241.14738
 243.77450 246.03161 248.03973 249.81085 251.23397 252.36308 253.19120 253.51332
 253.55643 253.33655 252.70267 251.65679 250.26890 248.43602 246.35114 244.19025
 241.98737 239.79749 237.62361 235.46872 233.33484 231.20796 229.24007 227.40319
 225.69231 224.17043 222.80654 221.58466 220.47278 219.43889 218.54901 217.69613
 216.94425 216.13036 215.23448 214.60460 214.06071 213.42136 211.91084 211.17697
 211.82549 213.76817 215.81863 217.26866 219.08899 222.97878 228.78976 233.69217
 237.42830 241.15161 244.98523 249.03835 253.27426 256.42435 258.76215 261.05057
 263.87335 266.73004 269.19983 271.13474 272.81653 274.47610 276.21967 277.98965
 279.71902 281.30914 282.79800 284.15689 285.33975 286.38943 287.35062 288.22672
 289.02054 289.73260 290.36142 291.20142
 366.78100 356.34077 345.77854 334.65031 323.05908 311.25885 299.13462 286.94340
 274.66117 262.56394 250.57871 239.88548 230.01325 221.12302 213.31079 206.31856
 200.15833 195.10210 191.68987 189.73764 188.78042 188.85019 189.69096 191.00473
 192.73550 194.83627 197.10504 199.46981 201.92058 204.40635 206.50012 208.34789
 209.97966 211.13044 211.36521 211.59898 211.54175 211.25252 210.89129 210.52706
 210.14983 209.86560 209.67937 209.54914 209.48291 209.81968 210.21146 210.60623
 211.40500 212.58877 213.84454 215.63331 217.56708 219.61585 221.71662 223.80539
 225.87116 227.96093 230.06370 232.17548 234.31025 236.48802 238.74979 241.12556
 243.75233 246.00910 248.01687 249.78764 251.21041 252.33918 253.16695 253.48872
 253.53150 253.31127 252.67704 251.63081 250.24258 248.40935 246.32412 244.16289
 241.95966 239.76943 237.59520 235.43997 233.30574 231.17852 229.21029 227.37306
 225.66183 224.13960 222.77537 221.55314 220.44091 219.40668 218.51645 217.66322
 216.91099 216.09676 215.20054 214.57031 214.02608 213.41725 211.97882 211.27975
 211.93623 213.87553 215.93182 217.32730 219.07358 222.94324 228.72971 233.59427
 237.31918 241.04834 244.91138 248.98650 253.20035 256.31100 258.63168 260.94766
 263.74112 266.57529 269.05078 271.00034 272.71783 274.41461 276.16907 277.93411
 279.66129 281.24377 282.73657 284.09586 285.27863 286.32800 287.29193 288.16556
 288.96082 289.67383 290.30103 291.14587
 366.78100 356.34057 345.77814 334.64972 323.05829 311.25786 299.13343 286.94200
 274.65958 262.56215 250.57672 239.88329 230.01087 221.12044 213.30801 206.31558
 200.15515 195.09873 191.68630 189.73387 188.77644 188.84601 189.68659 191.00016
 192.73073 194.83130 197.09987 199.46445 201.91502 204.40059 206.49416 208.34174
 209.97331 211.12388 211.35845 211.59202 211.53460 211.24517 210.88374 210.51931
 210.14188 209.85746 209.67103 209.54060 209.47417 209.81074 210.20232 210.59689
 211.39546 212.57903 213.83461 215.62318 217.55675 219.60532 221.70589 223.79447
 225.86004 227.94961 230.05218 232.16375 234.29833 236.47590 238.73747 241.11304
 243.73961 245.99619 248.00376 249.77433 251.19690 252.32548 253.15305 253.47462
 253.51719 253.29676 252.66234 251.61591 250.22748 248.39405 246.30862 244.14720
 241.94377 239.75334 237.57891 235.42348 233.28906 231.16163 229.19320 227.35577
 225.64435 224.12192 222.75749 221.53506 220.42263 219.38821 218.49778 217.64435
 216.89192 216.07749 215.18107 214.55064 214.00621 213.42143 212.03986 211.37784
 212.05029 213.99487 216.01929 217.37137 219.10371 222.91180 228.66112 233.49170
 237.20824 240.95117 244.84900 248.94347 253.12733 256.20248 258.51382 260.85477
 263.60919 266.41113 268.88400 270.85028 272.61026 274.35367 276.11804 277.87524
 279.60233 281.17703 282.68002 284.03992 285.22351 286.27441 287.23666 288.11255
 288.90872 289.62076 290.24951 291.09503
 366.78100 356.33967 345.77633 334.64700 323.05467 311.25333 299.12800 286.93566
 274.65233 262.55400 250.56766 239.87333 230.00000 221.10866 213.29533 206.30200
 200.14066 195.08333 191.66999 189.71666 188.75833 188.82699 189.66666 190.97933
 192.70899 194.80866 197.07632 199.43999 201.88966 204.37432 206.46699 208.31366
 209.94432 211.09399 211.32766 211.56032 211.50199 211.21165 210.84932 210.48399
 210.10565 209.82032 209.63299 209.50165 209.43432 209.76999 210.16065 210.55432
 211.35198 212.53465 213.78932 215.57698 217.50965 219.55732 221.65698 223.74465
 225.80932 227.89798 229.99965 232.11031 234.24398 236.42065 238.68131 241.05598
 243.68165 245.93731 247.94398 249.71364 251.13531 252.26298 253.08964 253.41031
 253.45198 253.23064 252.59531 251.54798 250.15864 248.32431 246.23797 244.07564
 241.87131 239.67997 237.50464 235.34831 233.21297 231.08464 229.11531 227.27697
 225.56464 224.04130 222.67597 221.45264 220.33930 219.30397 218.41264 217.55830
 216.80497 215.98964 215.09230 214.46097 213.91563 213.38994 212.14795 211.45303
 212.12267 214.11133 216.15472 217.43509 219.11168 222.88585 228.60155 233.40114
 237.10748 240.86684 244.79874 248.90675 253.05026 256.08783 258.39261 260.75873
 263.47110 266.23291 268.69968 270.68585 272.49979 274.29880 276.07373 277.81979
 279.54178 281.11566 282.62653 283.98773 285.17123 286.22229 287.18472 288.06091
 288.85757 289.56815 290.20157 291.04620
 366.78100 356.33851 345.77401 334.64352 323.05003 311.24754 299.12104 286.92755
 274.64306 262.54356 250.55607 239.86058 229.98609 221.09359 213.27910 206.28461
 200.12211 195.06362 191.64913 189.69464 188.73514 188.80265 189.64116 190.95266
 192.68117 194.77968 197.04619 199.40869 201.85720 204.34071 206.43221 208.27772
 209.90723 211.05574 211.28824 211.51975 211.46026 211.16876 210.80527 210.43878
 210.05929 209.77279 209.58430 209.45181 209.38331 209.71782 210.10733 210.49984
 211.29634 212.47785 213.73136 215.51786 217.44937 219.49588 221.59439 223.68089
 225.74440 227.83191 229.93241 232.04192 234.17443 236.34994 238.60944 240.98295
 243.60746 245.86196 247.86747 249.63598 251.05648 252.18299 253.00850 253.32801
 253.36851 253.14602 252.50953 251.46103 250.07054 248.23505 246.14756 243.98406
 241.77857 239.58608 237.40958 235.25209 233.11560 230.98611 229.01561 227.17612
 225.46263 223.93813 222.57164 221.34715 220.23266 219.19616 218.30367 217.44818
 216.69368 215.87719 214.97870 214.34621 213.79971 213.34332 212.26505 211.53912
 212.18272 214.23022 216.27266 217.50409 219.13687 222.88101 228.53058 233.29225
 236.99539 240.77513 244.74754 248.86974 252.96327 255.96410 258.27145 260.66785
 263.33649 266.05432 268.51617 270.52567 272.39636 274.25327 276.03806 277.76932
 279.48175 281.05771 282.57626 283.93918 285.12271 286.17438 287.13672 288.01514
 288.80869 289.52206 290.15314 291.00552
 366.78100 356.33759 345.77218 334.64077 323.04636 311.24295 299.11554 286.92113
 274.63572 262.53531 250.54690 239.85049 229.97508 221.08167 213.26626 206.27085
 200.10744 195.04803 191.63262 189.67721 188.71680 188.78339 189.62098 190.93156
 192.65915 194.75674 197.02233 199.38392 201.83151 204.31410 206.40469 208.24928
 209.87787 211.02546 211.25705 211.48764 211.42723 211.13482 210.77041 210.40300
 210.02259 209.73518 209.54577 209.41236 209.34295 209.67654 210.06513 210.45672
 211.25231 212.43290 213.68549 215.47108 217.40167 219.44726 221.54485 223.63044
 225.69303 227.77962 229.87921 231.98780 234.11939 236.29398 238.55257 240.92516
 243.54875 245.80234 247.80693 249.57451 250.99410 252.11969 252.94428 253.26287
 253.30246 253.07905 252.44164 251.39223 250.00082 248.16441 246.07600 243.91159
 241.70518 239.51177 237.33436 235.17595 233.03854 230.90813 228.93672 227.09631
 225.38190 223.85649 222.48908 221.26367 220.14826 219.11085 218.21744 217.36103
 216.60562 215.78821 214.88880 214.25539 213.70798 213.30824 212.36383 211.62657
 212.25850 214.35815 216.40930 217.58044 219.14536 222.80882 228.46437 233.19102
 236.88438 240.69012 244.70459 248.83882 252.87590 255.84659 258.16510 260.59033
 263.21198 265.88153 268.33395 270.36740 272.29413 274.20868 276.00192 277.71515
 279.41815 281.00211 282.53033 283.89291 285.07809 286.12952 287.09448 287.97156
 288.76611 289.48050 290.11124 290.96426
 366.78100 356.33698 345.77095 334.63893 323.04391 311.23988 299.11186 286.91683
 274.63081 262.52979 250.54076 239.84374 229.96772 221.07369 213.25767 206.26165
 200.09762 195.03760 191.62157 189.66555 188.70453 188.77050 189.60748 190.91746
 192.64443 194.74141 197.00639 199.36736 201.81434 204.29631 206.38629 208.23027
 209.85824 211.00522 211.23620 211.46617 211.40515 211.11213 210.74710 210.37908
 209.99805 209.71003 209.52001 209.38598 209.31596 209.64894 210.03691 210.42789
 211.22287 212.40284 213.65482 215.43979 217.36977 219.41475 221.51172 223.59670
 225.65868 227.74465 229.84363 231.95161 234.08258 236.25656 238.51453 240.88651
 243.50949 245.76246 247.76644 249.53342 250.95239 252.07737 252.90135 253.21932
 253.25830 253.03427 252.39625 251.34623 249.95420 248.11718 246.02816 243.86313
 241.65611 239.46209 237.28406 235.12504 232.98702 230.85599 228.88397 227.04294
 225.32792 223.80190 222.43387 221.20785 220.09183 219.05380 218.15978 217.30276
 216.54673 215.72871 214.82868 214.19466 213.64664 213.28857 212.44258 211.72047
 212.34309 214.48558 216.51701 217.65128 219.17694 222.73886 228.40234 233.09682
 236.78223 240.61678 244.67377 248.81514 252.78969 255.73117 258.06354 260.51477
 263.08749 265.70584 268.14465 270.20227 272.18704 274.16458 275.96655 277.66238
 279.35461 280.94986 282.48367 283.84811 285.03360 286.08600 287.05045 287.92807
 288.72403 289.43872 290.06979 290.92780
 366.78100 356.33613 345.76926 334.63640 323.04053 311.23566 299.10679 286.91092
 274.62406 262.52219 250.53232 239.83445 229.95758 221.06272 213.24585 206.24898
 200.08411 195.02324 191.60638 189.64951 188.68764 188.75277 189.58890 190.89803
 192.62417 194.72030 196.98443 199.34456 201.79069 204.27183 206.36096 208.20409
 209.83122 210.97735 211.20749 211.43662 211.37475 211.08088 210.71501 210.34615
 209.96428 209.67541 209.48454 209.34967 209.27881 209.61094 209.99807 210.38820
 211.18233 212.36147 213.61260 215.39673 217.32586 219.36999 221.46613 223.55026
 225.61139 227.69652 229.79465 231.90178 234.03192 236.20505 238.46218 240.83331
 243.45544 245.70758 247.71071 249.47684 250.89497 252.01910 252.84224 253.15937
 253.19750 252.97263 252.33376 251.28290 249.89003 248.05216 245.96229 243.79642
 241.58856 239.39369 237.21482 235.05495 232.91608 230.78422 228.81135 226.96948
 225.25361 223.72674 222.35788 221.13101 220.01414 218.97527 218.08040 217.22254
 216.46567 215.64680 214.74593 214.11106 213.56219 213.25743 212.53737 211.80701
 212.42818 214.60701 216.60764 217.72072 219.22026 222.69495 228.34015 233.00517
 236.68790 240.55330 244.65005 248.79478 252.69879 255.60847 257.95483 260.43082
 262.95834 265.52585 267.95337 270.03885 272.08594 274.12723 275.93967 277.61636
 279.29773 280.89944 282.43570 283.80170 284.98801 286.04202 287.00650 287.88574
 288.68085 289.39621 290.02768 290.88513
 366.78100 356.33515 345.76730 334.63345 323.03660 311.23075 299.10090 286.90405
 274.61620 262.51335 250.52250 239.82365 229.94580 221.04994 213.23209 206.23424
 200.06839 195.00654 191.58869 189.63084 188.66799 188.73214 189.56729 190.87544
 192.60059 194.69574 196.95889 199.31804 201.76319 204.24334 206.33149 208.17364
 209.79979 210.94494 211.17409 211.40224 211.33939 211.04453 210.67768 210.30783
 209.92498 209.63513 209.44328 209.30743 209.23558 209.56673 209.95288 210.34203
 211.13518 212.31333 213.56348 215.34663 217.27478 219.31793 221.41308 223.49623
 225.55638 227.64053 229.73768 231.84383 233.97298 236.14512 238.40127 240.77142
 243.39257 245.64372 247.64587 249.41102 250.82817 251.95132 252.77347 253.08962
 253.12677 252.90092 252.26107 251.20922 249.81537 247.97652 245.88567 243.71882
 241.50997 239.31412 237.13427 234.97342 232.83357 230.70071 228.72686 226.88401
 225.16716 223.63931 222.26946 221.04161 219.92376 218.88391 217.98806 217.12921
 216.37136 215.55151 214.64966 214.01381 213.46396 213.21951 212.64200 211.88928
 212.51111 214.72508 216.69499 217.78529 219.25613 222.66797 228.28052 232.91695
 236.60083 240.49658 244.63037 248.77322 252.59885 255.47255 257.83405 260.33838
 262.82852 265.35120 267.77039 269.88828 271.99561 274.09576 275.91724 277.57507
 279.24075 280.84940 282.38928 283.75500 284.94354 285.99814 286.96155 287.84082
 288.63754 289.35379 289.98505 290.84500
 366.78100 356.33415 345.76530 334.63044 323.03259 311.22574 299.09489 286.89704
 274.60819 262.50433 250.51248 239.81263 229.93378 221.03693 213.21808 206.21922
 200.05237 194.98952 191.57067 189.61182 188.64797 188.71111 189.54526 190.85241
 192.57656 194.67071 196.93286 199.29100 201.73515 204.21430 206.30145 208.14260
 209.76775 210.91189 211.14004 211.36719 211.30334 211.00749 210.63964 210.26878
 209.88493 209.59408 209.40123 209.26438 209.19153 209.52167 209.90682 210.29497
 211.08712 212.26427 213.51342 215.29556 217.22271 219.26486 221.35901 223.44116
 225.50031 227.58345 229.67960 231.78475 233.91290 236.08405 238.33919 240.70834
 243.32849 245.57864 247.57979 249.34394 250.76008 251.88223 252.70338 253.01853
 253.05468 252.82783 252.18697 251.13412 249.73927 247.89942 245.80757 243.63972
 241.42986 239.23301 237.05216 234.89031 232.74946 230.61561 228.64075 226.79690
 225.07905 223.55020 222.17935 220.95050 219.83164 218.79079 217.89394 217.03409
 216.27524 215.45439 214.55153 213.91468 213.36383 213.18088 212.74863 211.97191
 212.59511 214.84227 216.77037 217.84351 219.30128 222.64810 228.22658 232.83356
 236.52014 240.44560 244.61127 248.74654 252.48691 255.32176 257.70242 260.23898
 262.70374 265.18826 267.60248 269.75546 271.91568 274.06674 275.89374 277.53690
 279.18652 280.80054 282.34265 283.70877 284.89767 285.95361 286.91830 287.79730
 288.59448 289.30908 289.94452 290.80389
 366.78100 356.33308 345.76315 334.62723 323.02830 311.22038 299.08845 286.88953
 274.59960 262.49468 250.50175 239.80083 229.92090 221.02298 213.20305 206.20313
 200.03520 194.97128 191.55136 189.59143 188.62651 188.68858 189.52166 190.82773
 192.55081 194.64388 196.90496 199.26203 201.70511 204.18318 206.26926 208.10933
 209.73341 210.87649 211.10356 211.32964 211.26471 210.96779 210.59886 210.22694
 209.84201 209.55009 209.35616 209.21824 209.14431 209.47339 209.85746 210.24454
 211.03561 212.21169 213.45977 215.24084 217.16692 219.20799 221.30107 223.38214
 225.44022 227.52229 229.61737 231.72144 233.84852 236.01859 238.27267 240.64074
 243.25982 245.50889 247.50897 249.27205 250.68712 251.80820 252.62827 252.94235
 252.97742 252.74950 252.10757 251.05365 249.65772 247.81680 245.72387 243.55495
 241.34402 239.14610 236.96418 234.80125 232.65933 230.52440 228.54848 226.70355
 224.98463 223.45470 222.08278 220.85285 219.73293 218.69100 217.79308 216.93215
 216.17223 215.35030 214.44638 213.80846 213.25653 213.13853 212.85976 212.05316
 212.68398 214.95786 216.82504 217.89941 219.36560 222.63235 228.17674 232.75439
 236.44525 240.39876 244.58980 248.71068 252.36104 255.15820 257.56284 260.13535
 262.58447 265.03891 267.45157 269.63989 271.84567 274.03952 275.86957 277.49844
 279.13553 280.75259 282.29562 283.66409 284.85263 285.90842 286.87433 287.75201
 288.54959 289.26657 289.89932 290.76373
 366.78100 356.33194 345.76088 334.62382 323.02376 311.21470 299.08164 286.88158
 274.59053 262.48447 250.49041 239.78835 229.90729 221.00823 213.18717 206.18611
 200.01705 194.95199 191.53093 189.56987 188.60381 188.66475 189.49669 190.80164
 192.52358 194.61552 196.87546 199.23140 201.67334 204.15028 206.23522 208.07416
 209.69710 210.83904 211.06498 211.28992 211.22386 210.92580 210.55575 210.18269
 209.79663 209.50357 209.30851 209.16945 209.09439 209.42233 209.80527 210.19121
 210.98115 212.15609 213.40303 215.18297 217.10791 219.14786 221.23980 223.31974
 225.37668 227.45762 229.55156 231.65450 233.78044 235.94938 238.20232 240.56926
 243.18720 245.43514 247.43408 249.19602 250.60997 251.72991 252.54885 252.86179
 252.89573 252.66667 252.02361 250.96855 249.57149 247.72943 245.63537 243.46531
 241.25325 239.05419 236.87113 234.70708 232.56402 230.42796 228.45090 226.60484
 224.88478 223.35372 221.98066 220.74960 219.62854 218.58548 217.68642 216.82436
 216.06330 215.24024 214.33519 213.69613 213.14307 213.09271 212.97374 212.13878
 212.77539 215.06500 216.86041 217.95554 219.44255 222.62233 228.13139 232.68324
 236.37788 240.35539 244.56470 248.66394 252.22464 254.98717 257.41751 260.02521
 262.46747 264.90015 267.31601 269.53867 271.78577 274.01508 275.84644 277.46155
 279.08380 280.70599 282.25043 283.61887 284.80835 285.86456 286.83051 287.71024
 288.50717 289.22464 289.85724 290.72589
 366.78100 356.33080 345.75860 334.62040 323.01919 311.20899 299.07479 286.87359
 274.58139 262.47419 250.47899 239.77579 229.89358 220.99338 213.17118 206.16898
 199.99878 194.93258 191.51038 189.54818 188.58097 188.64077 189.47157 190.77537
 192.49617 194.58697 196.84577 199.20056 201.64136 204.11716 206.20096 208.03876
 209.66056 210.80136 211.02616 211.24995 211.18275 210.88355 210.51235 210.13815
 209.75095 209.45675 209.26055 209.12034 209.04414 209.37094 209.75274 210.13754
 210.92634 212.10014 213.34593 215.12473 217.04853 219.08733 221.17813 223.25693
 225.31273 227.39253 229.48532 231.58712 233.71192 235.87972 238.13152 240.49732
 243.11412 245.36092 247.35871 249.11951 250.53231 251.65111 252.46891 252.78071
 252.81351 252.58330 251.93910 250.88290 249.48470 247.64150 245.54630 243.37510
 241.16190 238.96169 236.77749 234.61229 232.46809 230.33089 228.35269 226.50549
 224.78429 223.25208 221.87788 220.64568 219.52348 218.47928 217.57908 216.71588
 215.95367 215.12947 214.22327 213.58307 213.02887 213.04610 213.08681 212.23581
 212.87074 215.15692 216.87503 218.01210 219.52229 222.61931 228.09369 232.62404
 236.31940 240.31772 244.53751 248.60918 252.08109 254.81104 257.26553 259.90402
 262.34763 264.76981 267.19540 269.45468 271.73862 273.99460 275.82748 277.43063
 279.04276 280.65973 282.20444 283.57327 284.76349 285.82019 286.78519 287.66656
 288.46423 289.17935 289.81506 290.67789
 366.78100 356.32964 345.75628 334.61692 323.01457 311.20321 299.06785 286.86549
 274.57213 262.46377 250.46741 239.76306 229.87970 220.97834 213.15498 206.15162
 199.98026 194.91290 191.48955 189.52619 188.55783 188.61647 189.44611 190.74875
 192.46840 194.55804 196.81568 199.16932 201.60896 204.08360 206.16624 208.00289
 209.62353 210.76317 210.98681 211.20945 211.14109 210.84073 210.46838 210.09302
 209.70466 209.40930 209.21194 209.07058 208.99322 209.31887 209.69951 210.08315
 210.87079 212.04343 213.28807 215.06571 216.98836 219.02600 221.11564 223.19328
 225.24792 227.32656 229.41821 231.51885 233.64249 235.80913 238.05977 240.42441
 243.04005 245.28570 247.28234 249.04198 250.45362 251.57126 252.38790 252.69854
 252.73019 252.49883 251.85347 250.79611 249.39675 247.55239 245.45603 243.28368
 241.06932 238.86796 236.68260 234.51624 232.37088 230.23252 228.25317 226.40481
 224.68245 223.14909 221.77373 220.54037 219.41702 218.37166 217.47030 216.60594
 215.84258 215.01722 214.10986 213.46851 212.91315 212.99797 213.19835 212.34508
 212.96820 215.23216 216.87360 218.06026 219.59894 222.61697 228.06471 232.57809
 236.27238 240.28902 244.51344 248.55135 251.93478 254.63002 257.10257 259.76657
 262.22052 264.64502 267.08847 269.38901 271.70642 273.98062 275.81235 277.40433
 279.01422 280.61630 282.15970 283.52966 284.71951 285.77652 286.74429 287.62305
 288.42239 289.13727 289.76993 290.63922
 366.78100 356.32842 345.75384 334.61327 323.00969 311.19711 299.06053 286.85696
 274.56238 262.45280 250.45522 239.74965 229.86507 220.96249 213.13791 206.13333
 199.96076 194.89218 191.46760 189.50302 188.53345 188.59087 189.41929 190.72071
 192.43914 194.52756 196.78398 199.13640 201.57482 204.04825 206.12967 207.96509
 209.58451 210.72294 210.94536 211.16678 211.09720 210.79562 210.42205 210.04547
 209.65589 209.35931 209.16074 209.01816 208.93958 209.26400 209.64343 210.02585
 210.81227 211.98369 213.22711 215.00354 216.92496 218.96138 221.04980 223.12623
 225.17965 227.25707 229.34749 231.44692 233.56934 235.73476 237.98418 240.34760
 242.96203 245.20645 247.20187 248.96029 250.37072 251.48714 252.30256 252.61198
 252.64241 252.40983 251.76325 250.70467 249.30409 247.45852 245.36094 243.18736
 240.97178 238.76921 236.58263 234.41505 232.26847 230.12889 228.14832 226.29874
 224.57516 223.04058 221.66401 220.42943 219.30485 218.25827 217.35570 216.49012
 215.72554 214.89896 213.99038 213.34781 212.79123 212.94664 213.31384 212.46237
 213.07178 215.29408 216.84486 218.09497 219.67171 222.62303 228.04506 232.54301
 236.23763 240.27275 244.49496 248.49207 251.78360 254.43875 256.92490 259.61002
 262.08514 264.52692 266.99942 269.34503 271.69199 273.97687 275.80206 277.38159
 278.98904 280.57614 282.11890 283.48892 284.67966 285.73605 286.70325 287.58249
 288.38092 289.10013 289.73080 290.59988
 366.78100 356.32735 345.75169 334.61004 323.00539 311.19173 299.05408 286.84943
 274.55377 262.44312 250.44447 239.73781 229.85216 220.94851 213.12285 206.11720
 199.94355 194.87389 191.44824 189.48259 188.51193 188.56828 189.39563 190.69597
 192.41332 194.50067 196.75601 199.10736 201.54471 204.01705 206.09740 207.93175
 209.55009 210.68744 210.90879 211.12913 211.05848 210.75583 210.38117 210.00352
 209.61287 209.31521 209.11556 208.97191 208.89225 209.21560 209.59395 209.97529
 210.76064 211.93099 213.17334 214.94868 216.86903 218.90438 220.99172 223.06707
 225.11942 227.19576 229.28511 231.38346 233.50480 235.66915 237.91750 240.27984
 242.89319 245.13654 247.13088 248.88823 250.29758 251.41292 252.22727 252.53562
 252.56496 252.33131 251.68366 250.62400 249.22235 247.37570 245.27704 243.10239
 240.88574 238.68208 236.49443 234.32578 232.17812 230.03747 228.05582 226.20516
 224.48051 222.94486 221.56720 220.33155 219.20590 218.15824 217.25459 216.38794
 215.62228 214.79463 213.88498 213.24132 212.68367 212.90305 213.42139 212.60333
 213.17970 215.33630 216.79388 218.10886 219.74158 222.62170 228.03128 232.51608
 236.21436 240.26883 244.48326 248.43083 251.62929 254.24336 256.74078 259.44403
 261.94757 264.41946 266.92816 269.31924 271.69058 273.97687 275.79147 277.35474
 278.95602 280.54092 282.08377 283.45425 284.64526 285.70236 286.67029 287.54941
 288.34625 289.06677 289.69830 290.56760
 366.78100 356.32504 345.74708 334.60312 322.99616 311.18020 299.04024 286.83328
 274.53532 262.42236 250.42140 239.71244 229.82448 220.91852 213.09056 206.08260
 199.90664 194.83468 191.40672 189.43876 188.46580 188.51984 189.34488 190.64292
 192.35796 194.44300 196.69604 199.04508 201.48012 203.95016 206.02820 207.86024
 209.47628 210.61132 210.83036 211.04840 210.97544 210.67048 210.29352 209.91356
 209.52060 209.22064 209.01868 208.87272 208.79076 209.11180 209.48784 209.86688
 210.64992 211.81796 213.05800 214.83104 216.74908 218.78212 220.86716 222.94020
 224.99024 227.06428 229.15132 231.24736 233.36640 235.52844 237.77448 240.13452
 242.74556 244.98660 246.97864 248.73368 250.14072 251.25376 252.06580 252.37184
 252.39888 252.16292 251.51296 250.45100 249.04704 247.19808 245.09712 242.92016
 240.70120 238.49524 236.30528 234.13432 231.98436 229.84140 227.85744 226.00448
 224.27752 222.73956 221.35960 220.12164 218.99368 217.94372 217.03776 216.16880
 215.40084 214.57088 213.65892 213.01296 212.45300 212.79846 213.61462 212.71895
 213.27119 215.36942 216.70671 218.08577 219.78691 222.63710 228.02405 232.49933
 236.20882 240.28395 244.48529 248.37724 251.48531 254.05814 256.56027 259.27228
 261.80594 264.31418 266.86279 269.29742 271.68958 273.97263 275.77078 277.31995
 278.91501 280.50952 282.05365 283.42419 284.61633 285.67163 286.63998 287.51917
 288.31729 289.03467 289.66635 290.53659
 366.78100 356.32342 345.74384 334.59825 322.98967 311.17209 299.03051 286.82193
 274.52235 262.40776 250.40518 239.69460 229.80502 220.89744 213.06785 206.05827
 199.88069 194.80711 191.37753 189.40795 188.43336 188.48578 189.30920 190.60562
 192.31904 194.40245 196.65387 199.00129 201.43471 203.90313 205.97955 207.80996
 209.42438 210.55780 210.77522 210.99164 210.91705 210.61047 210.23189 209.85031
 209.45573 209.15415 208.95056 208.80298 208.71940 209.03882 209.41324 209.79065
 210.57207 211.73849 212.97691 214.74833 216.66474 218.69616 220.77958 222.85100
 224.89942 226.97184 229.05725 231.15167 233.26909 235.42951 237.67393 240.03234
 242.64176 244.88118 246.87160 248.62502 250.03044 251.14185 251.95227 252.25669
 252.28211 252.04453 251.39294 250.32936 248.92378 247.07320 244.97062 242.79204
 240.57145 238.36387 236.17229 233.99971 231.84813 229.70354 227.71796 225.86338
 224.13480 222.59522 221.21364 219.97405 218.84447 217.79289 216.88531 216.01473
 215.24514 214.41356 213.49998 212.85240 212.29082 212.72551 213.75250 212.93925
 213.29518 215.32430 216.60742 218.09067 219.88007 222.65254 228.03473 232.51186
 236.22600 240.32063 244.49966 248.32639 251.34134 253.86658 256.36523 259.07950
 261.64481 264.19809 266.79410 269.27502 271.68912 273.96667 275.74902 277.28586
 278.87378 280.48276 282.02756 283.39795 284.58884 285.64563 286.61166 287.49075
 288.28992 289.00671 289.63940 290.50204
 366.78100 356.32776 345.75252 334.61128 323.00704 311.19379 299.05655 286.85231
 274.55707 262.44683 250.44859 239.74235 229.85711 220.95387 213.12863 206.12338
 199.95014 194.88090 191.45566 189.49042 188.52018 188.57694 189.40470 190.70546
 192.42322 194.51097 196.76673 199.11849 201.55625 204.02901 206.10977 207.94453
 209.56329 210.70105 210.92281 211.14356 211.07332 210.77108 210.39684 210.01960
 209.62936 209.33212 209.13288 208.98964 208.91040 209.23415 209.61291 209.99467
 210.78043 211.95119 213.19395 214.96971 216.89047 218.92623 221.01399 223.08974
 225.14250 227.21926 229.30902 231.40778 233.52954 235.69430 237.94306 240.30582
 242.91958 245.16333 247.15809 248.91585 250.32561 251.44137 252.25613 252.56489
 252.59465 252.36141 251.71417 250.65492 249.25368 247.40744 245.30920 243.13496
 240.91872 238.71548 236.52824 234.36000 232.21276 230.07251 228.09127 226.24103
 224.51679 222.98155 221.60431 220.36907 219.24383 218.19659 217.29335 216.42710
 215.66186 214.83462 213.92538 213.28214 212.72490 212.95119 213.48582 213.36150
 213.54288 215.13481 216.38370 218.07278 220.02472 222.77556 228.05418 232.52805
 236.25005 240.36185 244.50842 248.25624 251.17053 253.64592 256.14230 258.86292
 261.46896 264.08038 266.73242 269.26245 271.69742 273.96780 275.73392 277.25906
 278.82550 280.46783 282.00800 283.37518 284.56482 285.62064 286.58636 287.46579
 288.26468 288.97925 289.61340 290.47144
 366.78100 356.32870 345.75440 334.61410 323.01080 311.19850 299.06219 286.85889
 274.56459 262.45529 250.45799 239.75269 229.86839 220.96609 213.14179 206.13749
 199.96519 194.89688 191.47258 189.50828 188.53898 188.59668 189.42538 190.72708
 192.44578 194.53448 196.79118 199.14388 201.58257 204.05627 206.13797 207.97367
 209.59337 210.73207 210.95477 211.17647 211.10717 210.80587 210.43257 210.05626
 209.66696 209.37066 209.17236 209.03006 208.95176 209.27646 209.65616 210.03886
 210.82556 211.99726 213.24095 215.01765 216.93935 218.97605 221.06475 223.14145
 225.19515 227.27285 229.36355 231.46325 233.58595 235.75164 238.00134 240.36504
 242.97974 245.22444 247.22014 248.97884 250.38954 251.50624 252.32194 252.63164
 252.66233 252.43003 251.78373 250.72543 249.32513 247.47983 245.38253 243.20923
 240.99393 238.79163 236.60533 234.43802 232.29172 230.15242 228.17212 226.32282
 224.59952 223.06522 221.68892 220.45462 219.33032 218.28402 217.38171 216.51641
 215.75211 214.92581 214.01751 213.37521 212.81891 213.01350 213.47324 213.55893
 213.74251 215.02185 216.25131 218.08690 220.16066 222.90524 228.05919 232.53522
 236.26704 240.39546 244.50336 248.16429 250.97885 253.41107 255.91196 258.64447
 261.30029 263.97800 266.68893 269.26465 271.71466 273.97214 275.72006 277.23279
 278.78735 280.44724 281.98666 283.35205 284.54108 285.59506 286.56128 287.43994
 288.23648 288.95383 289.58789 290.44101
 366.78100 356.32815 345.75330 334.61246 323.00861 311.19576 299.05891 286.85506
 274.56022 262.45037 250.45252 239.74667 229.86182 220.95898 213.13413 206.12928
 199.95643 194.88759 191.46274 189.49789 188.52804 188.58519 189.41335 190.71450
 192.43265 194.52080 196.77695 199.12911 201.56726 204.04041 206.12156 207.95671
 209.57587 210.71402 210.93617 211.15732 211.08747 210.78563 210.41178 210.03493
 209.64508 209.34823 209.14939 209.00654 208.92769 209.25184 209.63099 210.01315
 210.79930 211.97045 213.21360 214.98976 216.91091 218.94706 221.03521 223.11136
 225.16452 227.24167 229.33182 231.43097 233.55312 235.71828 237.96743 240.33058
 242.94473 245.18888 247.18404 248.94219 250.35234 251.46849 252.28364 252.59280
 252.62295 252.39010 251.74325 250.68440 249.28356 247.43771 245.33986 243.16601
 240.95016 238.74732 236.56047 234.39262 232.24577 230.10593 228.12508 226.27523
 224.55138 223.01653 221.63969 220.40484 219.27999 218.23314 217.33029 216.46445
 215.69960 214.87275 213.96390 213.32105 212.76421 213.00110 213.56081 213.67265
 213.90100 215.00011 216.20213 218.07880 220.22923 223.00357 228.04852 232.53600
 236.28181 240.42625 244.49359 248.06485 250.78677 253.18304 255.69150 258.43658
 261.14594 263.89105 266.65628 269.27112 271.72974 273.96902 275.69400 277.19858
 278.74561 280.42416 281.96539 283.33121 284.51727 285.57181 286.53616 287.41479
 288.21170 288.92953 289.55960 290.41318
 366.78100 356.32802 345.75305 334.61207 323.00810 311.19512 299.05814 286.85417
 274.55919 262.44921 250.45124 239.74526 229.86029 220.95731 213.13233 206.12736
 199.95438 194.88541 191.46043 189.49545 188.52548 188.58250 189.41053 190.71155
 192.42957 194.51760 196.77362 199.12564 201.56367 204.03669 206.11772 207.95274
 209.57176 210.70979 210.93181 211.15284 211.08286 210.78088 210.40691 210.02993
 209.63996 209.34298 209.14400 209.00103 208.92205 209.24607 209.62510 210.00712
 210.79315 211.96417 213.20719 214.98322 216.90424 218.94027 221.02829 223.10431
 225.15734 227.23436 229.32439 231.42341 233.54543 235.71046 237.95948 240.32250
 242.93653 245.18055 247.17558 248.93360 250.34362 251.45965 252.27467 252.58370
 252.61372 252.38074 251.73377 250.67479 249.27382 247.42784 245.32986 243.15589
 240.93991 238.73693 236.54996 234.38198 232.23501 230.09503 228.11405 226.26408
 224.54010 223.00513 221.62815 220.39317 219.26820 218.22122 217.31825 216.45227
 215.68729 214.86032 213.95134 213.30836 212.75139 213.01025 213.62186 213.80991
 214.04385 215.00894 216.17690 218.04086 220.25195 223.08591 228.03754 232.54062
 236.30154 240.45929 244.48279 247.96165 250.59732 252.96159 255.47958 258.23633
 260.99893 263.80994 266.62518 269.27301 271.73773 273.95813 275.66269 277.15915
 278.69312 280.40683 281.94781 283.31131 284.49634 285.54767 286.51257 287.38931
 288.18570 288.89938 289.53281 290.38242
 366.78100 356.32832 345.75364 334.61296 323.00927 311.19659 299.05991 286.85623
 274.56155 262.45187 250.45419 239.74850 229.86382 220.96114 213.13646 206.13178
 199.95910 194.89042 191.46573 189.50105 188.53137 188.58869 189.41701 190.71833
 192.43664 194.52496 196.78128 199.13360 201.57192 204.04524 206.12656 207.96187
 209.58119 210.71951 210.94183 211.16315 211.09347 210.79179 210.41810 210.04142
 209.65174 209.35506 209.15638 209.01370 208.93502 209.25933 209.63865 210.02097
 210.80729 211.97861 213.22193 214.99825 216.91956 218.95588 221.04420 223.12052
 225.17384 227.25116 229.34147 231.44079 233.56311 235.72843 237.97775 240.34107
 242.95539 245.19970 247.19502 248.95334 250.36366 251.47998 252.29530 252.60462
 252.63493 252.40225 251.75557 250.69689 249.29621 247.45053 245.35285 243.17916
 240.96348 238.76080 236.57412 234.40644 232.25976 230.12008 228.13939 226.28971
 224.56603 223.03135 221.65467 220.41999 219.29531 218.24862 217.34594 216.48026
 215.71558 214.88890 213.98022 213.33753 212.78085 213.04211 213.65935 213.96765
 214.18202 215.02383 216.16420 217.99826 220.25339 223.15692 228.03008 232.54651
 236.32515 240.49068 244.46582 247.84874 250.40266 252.73964 255.26978 258.04010
 260.85550 263.72943 266.59073 269.26810 271.73956 273.94525 275.63284 277.12903
 278.67773 280.37650 281.91580 283.27957 284.46460 285.51941 286.48254 287.36084
 288.15729 288.87231 289.50092 290.35223
 366.78100 356.32875 345.75449 334.61424 323.01099 311.19874 299.06248 286.85923
 274.56498 262.45573 250.45847 239.75322 229.86897 220.96671 213.14246 206.13821
 199.96596 194.89770 191.47345 189.50920 188.53995 188.59769 189.42644 190.72819
 192.44694 194.53568 196.79243 199.14518 201.58392 204.05767 206.13942 207.97517
 209.59491 210.73366 210.95641 211.17816 211.10890 210.80765 210.43440 210.05814
 209.66889 209.37264 209.17439 209.03213 208.95388 209.27863 209.65838 210.04112
 210.82787 211.99962 213.24337 215.02011 216.94186 218.97861 221.06735 223.14410
 225.19785 227.27560 229.36634 231.46609 233.58884 235.75459 238.00433 240.36808
 242.98283 245.22757 247.22332 248.98207 250.39282 251.50956 252.32531 252.63506
 252.66581 252.43355 251.78730 250.72905 249.32880 247.48354 245.38629 243.21304
 240.99778 238.79553 236.60928 234.44203 232.29577 230.15652 228.17627 226.32702
 224.60376 223.06951 221.69326 220.45900 219.33475 218.28850 217.38625 216.52099
 215.75674 214.93049 214.02224 213.37998 212.82373 213.08223 213.69296 214.11932
 214.32837 215.04697 216.16382 217.96648 220.24541 223.21083 228.02263 232.54826
 236.34621 240.51556 244.43719 247.72240 250.19839 252.51311 255.06001 257.84833
 260.71716 263.65131 266.55478 269.25937 271.73898 273.93100 275.60495 277.09979
 278.67538 280.33237 281.87814 283.24695 284.43604 285.48843 286.45386 287.33157
 288.12744 288.84219 289.47247 290.31638
 366.78100 356.32918 345.75536 334.61554 323.01272 311.20090 299.06508 286.86226
 274.56844 262.45962 250.46280 239.75798 229.87416 220.97234 213.14852 206.14470
 199.97288 194.90506 191.48124 189.51742 188.54860 188.60678 189.43596 190.73814
 192.45732 194.54650 196.80368 199.15686 201.59604 204.07022 206.15240 207.98858
 209.60876 210.74794 210.97112 211.19330 211.12448 210.82366 210.45084 210.07502
 209.68620 209.39038 209.19256 209.05074 208.97292 209.29810 209.67828 210.06146
 210.84864 212.02082 213.26500 215.04218 216.96436 219.00154 221.09072 223.16790
 225.22208 227.30026 229.39144 231.49162 233.61480 235.78098 238.03116 240.39534
 243.01052 245.25570 247.25188 249.01106 250.42224 251.53942 252.35560 252.66578
 252.69696 252.46514 251.81932 250.76150 249.36168 247.51686 245.42004 243.24722
 241.03240 238.83058 236.64476 234.47794 232.33212 230.19330 228.21348 226.36466
 224.64184 223.10802 221.73220 220.49838 219.37456 218.32874 217.42692 216.56210
 215.79828 214.97246 214.06464 213.42282 212.86700 213.12454 213.73303 214.25549
 214.48495 215.08344 216.17125 217.94977 220.23853 223.25096 228.01448 232.54591
 236.36293 240.53001 244.39253 247.57674 249.97726 252.27782 254.85002 257.66394
 260.58826 263.57925 266.51959 269.24872 271.73581 273.91974 275.58530 277.08356
 278.66449 280.29291 281.83844 283.20663 284.39615 285.44977 286.41293 287.28998
 288.08508 288.79733 289.42886 290.26935
 366.78100 356.32956 345.75613 334.61669 323.01425 311.20282 299.06738 286.86494
 274.57150 262.46307 250.46663 239.76219 229.87876 220.97732 213.15388 206.15045
 199.97901 194.91157 191.48813 189.52470 188.55626 188.61482 189.44439 190.74695
 192.46651 194.55608 196.81364 199.16720 201.60677 204.08133 206.16389 208.00045
 209.62102 210.76058 210.98414 211.20671 211.13827 210.83783 210.46540 210.08996
 209.70152 209.40608 209.20865 209.06721 208.98977 209.31534 209.69590 210.07946
 210.86703 212.03959 213.28415 215.06172 216.98428 219.02184 221.11140 223.18897
 225.24353 227.32209 229.41366 231.51422 233.63778 235.80435 238.05491 240.41947
 243.03503 245.28060 247.27716 249.03672 250.44829 251.56585 252.38241 252.69298
 252.72454 252.49310 251.84766 250.79023 249.39079 247.54635 245.44992 243.27748
 241.06304 238.86161 236.67617 234.50973 232.36430 230.22586 228.24642 226.39798
 224.67555 223.14211 221.76667 220.53324 219.40980 218.36436 217.46293 216.59849
 215.83505 215.00961 214.10218 213.46074 212.90530 213.16603 213.78200 214.37839
 214.64299 215.13785 216.18379 217.94809 220.24092 223.28688 228.00587 232.53882
 236.37129 240.52840 244.32318 247.40341 249.73500 252.03386 254.64517 257.49506
 260.47519 263.51651 266.48444 269.23099 271.72327 273.89542 275.55389 277.06064
 278.64014 280.26459 281.80988 283.17957 284.36865 285.42297 286.38931 287.27060
 288.06964 288.79037 289.42438 290.26215
 366.78100 356.32992 345.75684 334.61777 323.01569 311.20461 299.06953 286.86746
 274.57438 262.46630 250.47022 239.76615 229.88307 220.98199 213.15891 206.15584
 199.98476 194.91768 191.49460 189.53153 188.56345 188.62237 189.45229 190.75521
 192.47514 194.56506 196.82298 199.17690 201.61683 204.09175 206.17467 208.01159
 209.63252 210.77244 210.99636 211.21928 211.15121 210.85113 210.47905 210.10397
 209.71590 209.42082 209.22374 209.08266 209.00558 209.33151 209.71243 210.09635
 210.88427 212.05720 213.30212 215.08004 217.00296 219.04089 221.13081 223.20873
 225.26365 227.34258 229.43450 231.53542 233.65934 235.82627 238.07719 240.44211
 243.05803 245.30395 247.30088 249.06080 250.47272 251.59064 252.40757 252.71849
 252.75041 252.51933 251.87426 250.81718 249.41810 247.57402 245.47795 243.30587
 241.09179 238.89071 236.70564 234.53956 232.39448 230.25640 228.27733 226.42925
 224.70717 223.17409 221.79901 220.56594 219.44286 218.39778 217.49670 216.63263
 215.86955 215.04447 214.13739 213.49632 212.94124 213.20720 213.83559 214.49854
 214.78955 215.20123 216.21236 217.96486 220.25430 223.32355 227.99841 232.52956
 236.36986 240.50665 244.22353 247.19774 249.47174 251.78613 254.45023 257.34650
 260.38162 263.46503 266.45129 269.20953 271.70447 273.86359 275.51572 277.03027
 278.60614 280.23383 281.77777 283.14783 284.33783 285.39359 286.35855 287.23981
 288.04123 288.76074 289.39578 290.22803
 366.78100 356.33016 345.75733 334.61849 323.01666 311.20582 299.07099 286.86915
 274.57632 262.46848 250.47264 239.76881 229.88597 220.98514 213.16230 206.15947
 199.98863 194.92179 191.49896 189.53612 188.56829 188.62745 189.45762 190.76078
 192.48095 194.57111 196.82927 199.18344 201.62360 204.09877 206.18193 208.01910
 209.64026 210.78042 211.00459 211.22775 211.15992 210.86008 210.48825 210.11341
 209.72558 209.43074 209.23390 209.09307 209.01623 209.34240 209.72356 210.10773
 210.89589 212.06906 213.31422 215.09238 217.01555 219.05371 221.14388 223.22204
 225.27721 227.35637 229.44853 231.54970 233.67386 235.84103 238.09219 240.45736
 243.07352 245.31969 247.31685 249.07701 250.48918 251.60734 252.42451 252.73567
 252.76784 252.53700 251.89216 250.83533 249.43649 247.59266 245.49682 243.32499
 241.11115 238.91032 236.72548 234.55964 232.41481 230.27697 228.29814 226.45030
 224.72847 223.19563 221.82079 220.58796 219.46512 218.42029 217.51945 216.65562
 215.89278 215.06795 214.16111 213.52027 212.96544 213.24297 213.89868 214.61728
 214.92918 215.27594 216.24915 217.99258 220.27190 223.35184 227.98889 232.51891
 236.36041 240.46440 244.09563 246.96735 249.19823 251.54106 254.26569 257.21448
 260.30350 263.41946 266.41565 269.18140 271.68390 273.83829 275.49115 277.00302
 278.57056 280.18762 281.73077 283.10059 284.28983 285.34525 286.31097 287.19174
 287.99295 288.71439 289.34436 290.17960
 366.78100 356.33044 345.75788 334.61932 323.01776 311.20720 299.07264 286.87108
 274.57852 262.47096 250.47540 239.77184 229.88928 220.98872 213.16616 206.16360
 199.99304 194.92648 191.50392 189.54137 188.57381 188.63325 189.46369 190.76713
 192.48757 194.57801 196.83645 199.19089 201.63133 204.10677 206.19021 208.02765
 209.64909 210.78953 211.01397 211.23741 211.16985 210.87029 210.49873 210.12417
 209.73661 209.44205 209.24549 209.10493 209.02837 209.35481 209.73625 210.12069
 210.90913 212.08257 213.32801 215.10645 217.02989 219.06833 221.15877 223.23721
 225.29265 227.37210 229.46454 231.56598 233.69042 235.85786 238.10930 240.47474
 243.09118 245.33762 247.33506 249.09550 250.50794 251.62638 252.44382 252.75526
 252.78770 252.55714 251.91258 250.85602 249.45746 247.61390 245.51834 243.34678
 241.13322 238.93266 236.74810 234.58254 232.43798 230.30042 228.32186 226.47430
 224.75274 223.22018 221.84562 220.61306 219.49050 218.44594 217.54539 216.68183
 215.91927 215.09471 214.18815 213.54759 212.99303 213.28084 213.96080 214.74232
 215.06847 215.30913 216.30843 218.05174 220.29437 223.38411 227.98544 232.51363
 236.34903 240.40952 243.94684 246.71759 248.91563 251.29382 254.08307 257.09036
 260.23166 263.37326 266.37323 269.14722 271.66278 273.82578 275.49008 276.99475
 278.53754 280.12628 281.66721 283.03574 284.22507 285.28049 286.24609 287.12775
 287.92807 288.64780 289.27997 290.11560
 366.78100 356.33070 345.75839 334.62009 323.01879 311.20848 299.07418 286.87287
 274.58057 262.47327 250.47796 239.77466 229.89236 220.99205 213.16975 206.16744
 199.99714 194.93084 191.50853 189.54623 188.57893 188.63862 189.46932 190.77302
 192.49371 194.58441 196.84310 199.19780 201.63850 204.11419 206.19789 208.03559
 209.65728 210.79798 211.02267 211.24637 211.17907 210.87976 210.50846 210.13416
 209.74685 209.45255 209.25625 209.11594 209.03964 209.36633 209.74803 210.13273
 210.92142 212.09512 213.34082 215.11951 217.04321 219.08190 221.17260 223.25130
 225.30699 227.38669 229.47939 231.58108 233.70578 235.87347 238.12517 240.49087
 243.10756 245.35426 247.35196 249.11265 250.52535 251.64405 252.46174 252.77344
 252.80613 252.57583 251.93153 250.87522 249.47692 247.63362 245.53831 243.36701
 241.15370 238.95340 236.76910 234.60379 232.45949 230.32219 228.34388 226.49658
 224.77528 223.24297 221.86867 220.63636 219.51406 218.46976 217.56945 216.70615
 215.94385 215.11954 214.21324 213.57293 213.01863 213.31953 214.03044 214.84183
 215.21857 215.37479 216.36359 218.13350 220.34694 223.37308 227.98695 232.52080
 236.33478 240.33508 243.76842 246.43777 248.61552 251.04077 253.90309 256.97733
 260.17035 263.33411 266.33279 269.11325 271.64133 273.81631 275.50247 277.01016
 278.52148 280.05420 281.58832 282.95657 284.14569 285.20099 286.16595 287.04843
 287.85031 288.56927 289.20209 290.03769
 366.78100 356.33196 345.76092 334.62389 323.02385 311.21481 299.08177 286.88173
 274.59070 262.48466 250.49062 239.78858 229.90754 221.00851 213.18747 206.18643
 200.01739 194.95235 191.53132 189.57028 188.60424 188.66520 189.49716 190.80213
 192.52409 194.61605 196.87601 199.23197 201.67394 204.15090 206.23586 208.07482
 209.69778 210.83975 211.06571 211.29067 211.22463 210.92659 210.55656 210.18352
 209.79748 209.50444 209.30941 209.17037 209.09533 209.42329 209.80625 210.19222
 210.98218 212.15714 213.40410 215.18406 217.10903 219.14899 221.24095 223.32091
 225.37787 227.45884 229.55280 231.65576 233.78172 235.95068 238.20365 240.57061
 243.18857 245.43653 247.43549 249.19746 250.61142 251.73138 252.55034 252.86330
 252.89727 252.66823 252.02519 250.97015 249.57311 247.73108 245.63704 243.46700
 241.25496 239.05592 236.87289 234.70885 232.56581 230.42977 228.45273 226.60670
 224.88666 223.35562 221.98258 220.75154 219.63051 218.58747 217.68843 216.82639
 216.06535 215.24232 214.33728 213.69824 213.14520 213.40984 214.03506 214.98981
 215.35936 215.45352 216.46507 218.20503 220.33231 223.35364 227.98302 232.52332
 236.31151 240.23918 243.56618 246.14230 248.31609 250.79836 253.73898 256.88562
 260.12949 263.30905 266.30188 269.08124 271.61591 273.79703 275.50412 277.02603
 278.51480 279.97949 281.50601 282.87427 284.06277 285.11792 286.08301 286.96454
 287.76364 288.48550 289.11896 289.95248
 366.78100 356.33348 345.76396 334.62844 323.02992 311.22240 299.09088 286.89236
 274.60284 262.49832 250.50580 239.80528 229.92576 221.02824 213.20872 206.20919
 200.04167 194.97815 191.55863 189.59911 188.63459 188.69707 189.53055 190.83703
 192.56051 194.65399 196.91547 199.27295 201.71643 204.19491 206.28139 208.12187
 209.74635 210.88983 211.11731 211.34379 211.27927 210.98275 210.61423 210.24271
 209.85819 209.56667 209.37315 209.23563 209.16211 209.49158 209.87606 210.26354
 211.05502 212.23150 213.47998 215.26146 217.18794 219.22942 221.32290 223.40438
 225.46286 227.54534 229.64082 231.74530 233.87278 236.04326 238.29774 240.66622
 243.28570 245.53518 247.53566 249.29914 250.71462 251.83610 252.65658 252.97106
 253.00654 252.77902 252.13750 251.08397 249.68845 247.84793 245.75541 243.58689
 241.37637 239.17885 236.99733 234.83481 232.69329 230.55877 228.58325 226.73873
 225.02021 223.49069 222.11917 220.88965 219.77013 218.72861 217.83109 216.97057
 216.21105 215.38953 214.48601 213.84849 213.29697 213.51422 214.02750 215.10204
 215.58260 215.55995 216.47780 218.19232 220.35298 223.39050 228.00359 232.53726
 236.28461 240.13028 243.34682 245.83423 248.01204 250.55695 253.57942 256.80429
 260.09839 263.28970 266.27283 269.04922 271.59009 273.77750 275.50137 277.03201
 278.49631 279.90714 281.42392 282.79092 283.97772 285.03122 285.99765 286.87778
 287.67941 288.39990 289.03452 289.86899
 366.78100 356.33391 345.76481 334.62972 323.03163 311.22454 299.09344 286.89535
 274.60626 262.50216 250.51007 239.80998 229.93089 221.03379 213.21470 206.21561
 200.04852 194.98542 191.56633 189.60724 188.64314 188.70605 189.53996 190.84687
 192.57077 194.66468 196.92659 199.28449 201.72840 204.20731 206.29422 208.13512
 209.76003 210.90394 211.13185 211.35875 211.29466 210.99857 210.63047 210.25938
 209.87529 209.58420 209.39110 209.25401 209.18092 209.51082 209.89573 210.28364
 211.07555 212.25245 213.50136 215.28327 217.21018 219.25208 221.34599 223.42790
 225.48680 227.56971 229.66562 231.77053 233.89843 236.06934 238.32425 240.69315
 243.31306 245.56297 247.56388 249.32778 250.74369 251.86560 252.68651 253.00141
 253.03732 252.81023 252.16913 251.11604 249.72095 247.88086 245.78876 243.62067
 241.41058 239.21348 237.03239 234.87030 232.72921 230.59511 228.62002 226.77593
 225.05784 223.52874 222.15765 220.92856 219.80946 218.76837 217.87128 217.01119
 216.25209 215.43100 214.52791 213.89081 213.33972 213.56694 214.10378 215.10901
 215.82100 215.60242 216.48026 218.31662 220.44484 223.47348 228.03200 232.53564
 236.24205 240.00127 243.10272 245.50652 247.69618 250.31027 253.42003 256.72699
 260.06894 263.26758 266.23923 269.01572 271.56778 273.77103 275.51453 277.04630
 278.47302 279.84369 281.33270 282.69650 283.88251 284.93555 285.90173 286.78146
 287.58484 288.30334 288.93930 289.77499
 366.78100 356.33472 345.76644 334.63216 323.03488 311.22860 299.09832 286.90104
 274.61276 262.50948 250.51820 239.81892 229.94064 221.04435 213.22607 206.22779
 200.06151 194.99923 191.58095 189.62267 188.65939 188.72311 189.55783 190.86555
 192.59027 194.68499 196.94771 199.30643 201.75115 204.23087 206.31859 208.16031
 209.78603 210.93075 211.15947 211.38719 211.32391 211.02863 210.66134 210.29106
 209.90778 209.61750 209.42522 209.28894 209.21666 209.54738 209.93310 210.32182
 211.11454 212.29226 213.54198 215.32470 217.25242 219.29514 221.38986 223.47258
 225.53230 227.61602 229.71274 231.81846 233.94718 236.11890 238.37461 240.74433
 243.36505 245.61577 247.61749 249.38221 250.79893 251.92165 252.74337 253.05909
 253.09581 252.86953 252.22925 251.17697 249.78269 247.94341 245.85213 243.68485
 241.47557 239.27929 237.09901 234.93773 232.79745 230.66417 228.68989 226.84660
 225.12932 223.60104 222.23076 221.00248 219.88420 218.84392 217.94764 217.08836
 216.33008 215.50980 214.60752 213.97124 213.42096 213.64023 214.15826 215.13721
 216.04303 215.61276 216.50192 218.52614 220.54761 223.49428 228.04413 232.51604
 236.19249 239.86426 242.85129 245.17838 247.38634 250.06932 253.26569 256.65436
 260.03995 263.24045 266.19986 268.97919 271.54837 273.77350 275.54242 277.07770
 278.47522 279.81769 281.22769 282.58502 283.77280 284.82867 285.79364 286.67615
 287.47885 288.20035 288.83563 289.67245
 366.78100 356.33654 345.77008 334.63763 323.04217 311.23771 299.10925 286.91379
 274.62733 262.52588 250.53642 239.83896 229.96250 221.06804 213.25159 206.25513
 200.09067 195.03021 191.61375 189.65729 188.69584 188.76138 189.59792 190.90746
 192.63400 194.73054 196.99509 199.35563 201.80217 204.28371 206.37325 208.21680
 209.84434 210.99088 211.22142 211.45096 211.38950 211.09605 210.73059 210.36213
 209.98067 209.69221 209.50176 209.36730 209.29684 209.62938 210.01692 210.40746
 211.20201 212.38155 213.63309 215.41763 217.34717 219.39172 221.48826 223.57280
 225.63434 227.71988 229.81842 231.92597 234.05651 236.23005 238.48759 240.85913
 243.48168 245.73422 247.73776 249.50430 250.92284 252.04738 252.87093 253.18847
 253.22701 253.00255 252.36409 251.31363 249.92118 248.08372 245.99426 243.82880
 241.62134 239.42689 237.24843 235.08897 232.95051 230.81905 228.84659 227.00514
 225.28968 223.76322 222.39476 221.16830 220.05185 219.01339 218.11893 217.26147
 216.50501 215.68655 214.78610 214.15164 213.60318 213.76559 214.14935 215.21378
 216.21944 215.68811 216.56206 218.70065 220.61221 223.50299 228.06136 232.49121
 236.14929 239.72464 242.59569 244.84438 247.07216 249.82466 253.10835 256.57986
 260.00659 263.20825 266.16006 268.94492 271.53217 273.78336 275.57715 277.11810
 278.49460 279.80753 281.13382 282.48492 283.67276 284.73001 285.69604 286.57968
 287.38263 288.10632 288.74219 289.58041
 366.78100 356.33894 345.77488 334.64483 323.05177 311.24971 299.12365 286.93059
 274.64654 262.54748 250.56042 239.86536 229.99130 221.09925 213.28519 206.29113
 200.12907 195.07101 191.65696 189.70290 188.74384 188.81178 189.65072 190.96267
 192.69161 194.79055 197.05749 199.42043 201.86938 204.35332 206.44526 208.29120
 209.92114 211.07009 211.30303 211.53497 211.47591 211.18485 210.82180 210.45574
 210.07668 209.79062 209.60256 209.47051 209.40245 209.73739 210.12733 210.52027
 211.31722 212.49916 213.75310 215.54004 217.47198 219.51893 221.61787 223.70481
 225.76875 227.85669 229.95764 232.06758 234.20052 236.37646 238.63640 241.01035
 243.63529 245.89023 247.89617 249.66511 251.08606 252.21300 253.03894 253.35888
 253.39982 253.17777 252.54171 251.49365 250.10359 248.26853 246.18148 244.01842
 241.81336 239.62130 237.44524 235.28819 233.15213 231.02307 229.05301 227.21395
 225.50090 223.97684 222.61078 221.38672 220.27266 219.23661 218.34455 217.48949
 216.73543 215.91937 215.02132 214.38926 213.84320 213.92120 214.10548 215.30202
 216.36595 215.83252 216.66438 218.80920 220.65355 223.54074 228.09717 232.46817
 236.09807 239.56509 242.31464 244.48430 246.74040 249.57141 252.94717 256.50500
 259.97070 263.17615 266.12512 268.91699 271.52469 273.80368 275.62204 277.16956
 278.52631 279.80386 281.05408 282.39948 283.58719 284.64508 285.61359 286.49704
 287.30219 288.02655 288.66321 289.50409
 366.78100 356.34078 345.77856 334.65034 323.05912 311.25890 299.13468 286.94346
 274.66125 262.56403 250.57881 239.88559 230.01337 221.12315 213.31093 206.31871
 200.15849 195.10227 191.69005 189.73783 188.78061 188.85039 189.69118 191.00496
 192.73574 194.83652 197.10530 199.47008 201.92086 204.40664 206.50042 208.34820
 209.97998 211.13076 211.36554 211.59932 211.54210 211.25289 210.89167 210.52745
 210.15023 209.86601 209.67979 209.54957 209.48335 209.82013 210.21191 210.60669
 211.40547 212.58925 213.84503 215.63382 217.56760 219.61638 221.71716 223.80594
 225.87172 227.96150 230.06428 232.17606 234.31084 236.48862 238.75040 241.12618
 243.75296 246.00974 248.01753 249.78831 251.21109 252.33987 253.16765 253.48943
 253.53221 253.31199 252.67777 251.63155 250.24333 248.41011 246.32489 244.16367
 241.96046 239.77024 237.59602 235.44080 233.30658 231.17936 229.21114 227.37392
 225.66270 224.14048 222.77626 221.55404 220.44182 219.40760 218.51738 217.66417
 216.91195 216.09773 215.20151 214.57129 214.02707 214.04884 214.10028 215.35265
 216.48785 216.00475 216.79691 218.88048 220.70831 223.60289 228.14180 232.44395
 236.02675 239.38568 242.02065 244.12410 246.41870 249.33141 252.79694 256.43564
 259.93451 263.14066 266.08780 268.88773 271.51450 273.82010 275.66541 277.22977
 278.57071 279.81305 280.99033 282.32742 283.51730 284.57483 285.54214 286.42596
 287.23141 287.95532 288.59366 289.43292
 366.78100 356.34153 345.78006 334.65258 323.06211 311.26264 299.13917 286.94870
 274.66722 262.57075 250.58628 239.89381 230.02233 221.13286 213.32139 206.32992
 200.17045 195.11497 191.70350 189.75203 188.79556 188.86609 189.70761 191.02214
 192.75367 194.85520 197.12473 199.49025 201.94178 204.42831 206.52284 208.37137
 210.00389 211.15542 211.39095 211.62548 211.56900 211.28053 210.92006 210.55659
 210.18012 209.89664 209.71117 209.58170 209.51623 209.85376 210.24628 210.64181
 211.44134 212.62587 213.88240 215.67192 217.60645 219.65598 221.75751 223.84704
 225.91356 228.00409 230.10762 232.22015 234.35567 236.53420 238.79673 241.17326
 243.80079 246.05831 248.06684 249.83837 251.26190 252.39143 253.21995 253.54248
 253.58601 253.36654 252.73307 251.68759 250.30012 248.46765 246.38318 244.22271
 242.02023 239.83076 237.65729 235.50282 233.36934 231.24287 229.27540 227.43893
 225.72846 224.20698 222.84351 221.62204 220.51057 219.47710 218.58762 217.73515
 216.98368 216.17021 215.27474 214.64526 214.10179 214.12051 214.16473 215.36621
 216.56776 216.17233 216.93394 218.93686 220.78789 223.67746 228.18832 232.42064
 235.94922 239.21257 241.74873 243.79744 246.12825 249.11398 252.65816 256.36688
 259.88995 263.09241 266.03925 268.84909 271.49536 273.82083 275.69629 277.28366
 278.61810 279.84317 280.96820 282.28549 283.46814 284.52121 285.48642 286.36951
 287.17383 287.89798 288.54053 289.37851
 366.78100 356.34217 345.78133 334.65450 323.06466 311.26583 299.14299 286.95316
 274.67232 262.57649 250.59265 239.90082 230.02998 221.14115 213.33031 206.33948
 200.18064 195.12581 191.71497 189.76414 188.80830 188.87947 189.72163 191.03680
 192.76896 194.87113 197.14129 199.50746 201.95962 204.44679 206.54195 208.39112
 210.02428 211.17645 211.41261 211.64778 211.59194 211.30411 210.94427 210.58144
 210.20560 209.92277 209.73794 209.60910 209.54427 209.88243 210.27560 210.67176
 211.47193 212.65709 213.91426 215.70442 217.63959 219.68975 221.79192 223.88208
 225.94925 228.04041 230.14458 232.25774 234.39391 236.57307 238.83624 241.21340
 243.84157 246.09973 248.10890 249.88106 251.30523 252.43539 253.26456 253.58772
 253.63189 253.41305 252.78022 251.73538 250.34855 248.51671 246.43288 244.27304
 242.07121 239.88237 237.70954 235.55571 233.42287 231.29704 229.33020 227.49437
 225.78453 224.26370 222.90086 221.68003 220.56919 219.53636 218.64752 217.79569
 217.04485 216.23202 215.33718 214.70835 214.16551 214.18538 214.23235 215.39772
 216.61736 216.32680 217.05576 218.98242 220.88350 223.76195 228.23640 232.40381
 235.87343 239.04762 241.49010 243.48434 245.84576 248.90143 252.52185 256.29367
 259.83560 263.03732 265.98999 268.81143 271.47202 273.81503 275.71973 277.32745
 278.65942 279.87082 280.97748 282.28073 283.45938 284.50684 285.47055 286.35400
 287.15820 287.88361 288.52414 289.36539
 366.78100 356.34317 345.78333 334.65750 323.06867 311.27083 299.14900 286.96017
 274.68033 262.58550 250.60267 239.91184 230.04200 221.15417 213.34434 206.35450
 200.19667 195.14284 191.73300 189.78317 188.82834 188.90050 189.74367 191.05984
 192.79300 194.89617 197.16734 199.53451 201.98767 204.47584 206.57201 208.42217
 210.05634 211.20951 211.44667 211.68284 211.62801 211.34117 210.98234 210.62051
 210.24567 209.96384 209.78001 209.65217 209.58834 209.92751 210.32168 210.71884
 211.52001 212.70618 213.96434 215.75551 217.69168 219.74284 221.84601 223.93718
 226.00534 228.09751 230.20268 232.31684 234.45401 236.63418 238.89835 241.27651
 243.90568 246.16485 248.17501 249.94818 251.37335 252.50451 253.33468 253.65885
 253.70401 253.48618 252.85435 251.81051 250.42468 248.59385 246.51102 244.35218
 242.15135 239.96352 237.79168 235.63885 233.50702 231.38218 229.41635 227.58152
 225.87268 224.35285 222.99102 221.77118 220.66135 219.62952 218.74168 217.89085
 217.14102 216.32919 215.43535 214.80752 214.26569 214.26718 214.27069 215.47073
 216.63940 216.46812 217.17221 219.03195 220.99319 223.85777 228.28450 232.38835
 235.78925 238.86485 241.20897 243.15797 245.56204 248.69666 252.39458 256.22266
 259.78281 262.99057 265.95264 268.78204 271.45236 273.81046 275.74368 277.36255
 278.68341 279.88181 280.99619 282.29324 283.46899 284.51752 285.48102 286.36288
 287.16824 287.89154 288.53195 289.37128
 366.78100 356.34350 345.78400 334.65850 323.07000 311.27250 299.15100 286.96250
 274.68300 262.58850 250.60600 239.91550 230.04600 221.15850 213.34900 206.35949
 200.20199 195.14849 191.73899 189.78949 188.83499 188.90749 189.75099 191.06749
 192.80099 194.90449 197.17599 199.54349 201.99699 204.48549 206.58199 208.43249
 210.06699 211.22049 211.45799 211.69449 211.63999 211.35349 210.99499 210.63349
 210.25899 209.97749 209.79399 209.66649 209.60298 209.94248 210.33698 210.73448
 211.53598 212.72248 213.98098 215.77248 217.70898 219.76048 221.86398 223.95548
 226.02398 228.11648 230.22198 232.33648 234.47398 236.65448 238.91898 241.29748
 243.92698 246.18648 248.19698 249.97048 251.39598 252.52748 253.35798 253.68248
 253.72798 253.51047 252.87897 251.83547 250.44997 248.61947 246.53697 244.37847
 242.17797 239.99047 237.81897 235.66647 233.53497 231.41047 229.44497 227.61047
 225.90197 224.38247 223.02097 221.80147 220.69197 219.66047 218.77297 217.92247
 217.17297 216.36147 215.46797 214.84047 214.29897 214.31381 214.34892 215.52530
 216.62555 216.59995 217.31149 219.10950 221.11331 223.95868 228.32326 232.36679
 235.69080 238.66042 240.91766 242.84863 245.30968 248.52043 252.28452 256.15707
 259.73096 262.94571 265.91580 268.75211 271.43179 273.80414 275.76068 277.38104
 278.67911 279.86136 280.98938 282.30554 283.48608 284.53644 285.50024 286.38153
 287.18408 287.90912 288.54587 289.38065
 366.78100 356.34272 345.78244 334.65617 323.06689 311.26861 299.14633 286.95705
 274.67677 262.58150 250.59822 239.90694 230.03666 221.14838 213.33810 206.34783
 200.18955 195.13527 191.72499 189.77471 188.81944 188.89116 189.73388 191.04960
 192.78232 194.88504 197.15577 199.52249 201.97521 204.46293 206.55865 208.40837
 210.04210 211.19482 211.43154 211.66726 211.61198 211.32471 210.96543 210.60315
 210.22787 209.94559 209.76131 209.63304 209.56876 209.90748 210.30120 210.69792
 211.49864 212.68437 213.94209 215.73281 217.66853 219.71925 221.82198 223.91270
 225.98042 228.07214 230.17686 232.29058 234.42731 236.60703 238.87075 241.24847
 243.87719 246.13591 248.14564 249.91836 251.34308 252.47380 253.30352 253.62725
 253.67197 253.45369 252.82141 251.77713 250.39085 248.55958 246.47630 244.31702
 242.11574 239.92746 237.75518 235.60191 233.46963 231.34435 229.37807 227.54279
 225.83352 224.31324 222.95096 221.73068 220.62040 219.58812 218.69985 217.84857
 217.09829 216.28601 215.39173 214.76345 214.22118 214.30428 214.50060 215.50528
 216.60526 216.75783 217.47446 219.19725 221.21635 224.04633 228.35715 232.35483
 235.58905 238.45053 240.63676 242.57077 245.09065 248.36583 252.18167 256.08533
 259.66690 262.88574 265.86633 268.71530 271.40616 273.79330 275.76944 277.38910
 278.65408 279.81534 280.97739 282.30777 283.49396 284.54767 285.51218 286.39383
 287.19534 287.91858 288.55161 289.38184
 366.78100 356.34225 345.78150 334.65475 323.06501 311.26626 299.14351 286.95376
 274.67301 262.57726 250.59351 239.90177 230.03102 221.14227 213.33152 206.34077
 200.18202 195.12728 191.71653 189.76578 188.81003 188.88128 189.72353 191.03878
 192.77104 194.87329 197.14354 199.50979 201.96204 204.44929 206.54454 208.39380
 210.02705 211.17930 211.41555 211.65080 211.59505 211.30730 210.94756 210.58481
 210.20906 209.92631 209.74156 209.61281 209.54807 209.88632 210.27957 210.67582
 211.47607 212.66132 213.91857 215.70883 217.64408 219.69433 221.79658 223.88683
 225.95408 228.04533 230.14959 232.26284 234.39909 236.57834 238.84159 241.21884
 243.84710 246.10535 248.11460 249.88685 251.31110 252.44135 253.27060 253.59386
 253.63811 253.41936 252.78661 251.74186 250.35511 248.52336 246.43962 244.27987
 242.07812 239.88937 237.71662 235.56287 233.43012 231.30438 229.33763 227.50188
 225.79213 224.27138 222.90863 221.68789 220.57714 219.54439 218.65564 217.80389
 217.05314 216.24039 215.34565 214.71690 214.17415 214.30928 214.62856 215.48831
 216.58286 216.93433 217.68245 219.26711 221.28722 224.13968 228.39140 232.34737
 235.47502 238.22316 240.34686 242.29651 244.87817 248.21477 252.07730 256.00415
 259.58969 262.81711 265.81546 268.67868 271.38043 273.77850 275.77127 277.39523
 278.64413 279.79440 280.97394 282.30746 283.49356 284.54727 285.51218 286.39212
 287.19363 287.91626 288.54767 289.37271
 366.78100 356.34233 345.78167 334.65500 323.06534 311.26667 299.14401 286.95434
 274.67368 262.57801 250.59435 239.90268 230.03202 221.14335 213.33269 206.34202
 200.18336 195.12869 191.71803 189.76736 188.81170 188.88303 189.72537 191.04070
 192.77304 194.87537 197.14570 199.51204 201.96437 204.45171 206.54704 208.39638
 210.02971 211.18205 211.41838 211.65372 211.59805 211.31039 210.95072 210.58806
 210.21239 209.92973 209.74506 209.61640 209.55173 209.89007 210.28340 210.67974
 211.48007 212.66541 213.92274 215.71307 217.64841 219.69874 221.80108 223.89141
 225.95875 228.05008 230.15442 232.26775 234.40409 236.58342 238.84676 241.22409
 243.85243 246.11076 248.12010 249.89243 251.31677 252.44710 253.27644 253.59977
 253.64411 253.42544 252.79278 251.74811 250.36144 248.52978 246.44611 244.28645
 242.08478 239.89612 237.72345 235.56979 233.43712 231.31146 229.34479 227.50913
 225.79946 224.27880 222.91613 221.69547 220.58480 219.55214 218.66347 217.81181
 217.06114 216.24848 215.35381 214.72515 214.18248 214.34108 214.71582 215.48189
 216.58835 217.12865 217.88112 219.34030 221.34831 224.20381 228.42738 232.33928
 235.35370 237.98874 240.05347 242.02031 244.66502 248.06516 251.97217 255.91571
 259.50455 262.74597 265.76804 268.64655 271.35526 273.76535 275.77917 277.41644
 278.64822 279.78104 280.97021 282.30392 283.48978 284.54257 285.50818 286.38818
 287.18799 287.90906 288.54129 289.36362
 366.78100 356.34278 345.78255 334.65633 323.06711 311.26888 299.14666 286.95744
 274.67721 262.58199 250.59877 239.90754 230.03732 221.14910 213.33887 206.34865
 200.19042 195.13620 191.72598 189.77575 188.82053 188.89231 189.73508 191.05086
 192.78364 194.88641 197.15719 199.52397 201.97674 204.46452 206.56030 208.41007
 210.04385 211.19663 211.43340 211.66918 211.61396 211.32673 210.96751 210.60529
 210.23006 209.94784 209.76361 209.63539 209.57117 209.90994 210.30372 210.70050
 211.50127 212.68705 213.94483 215.73560 217.67138 219.72216 221.82493 223.91571
 225.98349 228.07526 230.18004 232.29382 234.43059 236.61037 238.87415 241.25192
 243.88070 246.13948 248.14925 249.92203 251.34680 252.47758 253.30736 253.63113
 253.67591 253.45769 252.82546 251.78124 250.39502 248.56379 246.48057 244.32135
 242.12012 239.93190 237.75968 235.60645 233.47423 231.34901 229.38278 227.54756
 225.83834 224.31811 222.95589 221.73567 220.62544 219.59322 218.70499 217.85377
 217.10355 216.29132 215.39710 214.76888 214.22665 214.38818 214.76985 215.52518
 216.52266 217.33221 218.13528 219.37724 221.40102 224.32648 228.48605 232.31468
 235.22453 237.74493 239.74640 241.73174 244.44589 247.91714 251.86842 255.82506
 259.41907 262.67984 265.72629 268.61676 271.33142 273.75485 275.79709 277.44104
 278.63480 279.74014 280.95984 282.29886 283.48373 284.53839 285.50375 286.38245
 287.18402 287.90540 288.53598 289.35315
 366.78100 356.34369 345.78437 334.65906 323.07075 311.27343 299.15212 286.96380
 274.68449 262.59018 250.60786 239.91755 230.04824 221.16092 213.35161 206.36229
 200.20498 195.15167 191.74235 189.79304 188.83873 188.91141 189.75510 191.07178
 192.80547 194.90916 197.18084 199.54853 202.00222 204.49090 206.58759 208.43827
 210.07296 211.22665 211.46433 211.70102 211.64671 211.36039 211.00208 210.64076
 210.26645 209.98514 209.80182 209.67451 209.61120 209.95088 210.34557 210.74325
 211.54494 212.73163 213.99031 215.78200 217.71869 219.77037 221.87406 223.96574
 226.03443 228.12712 230.23280 232.34749 234.48518 236.66586 238.93055 241.30923
 243.93892 246.19861 248.20929 249.98298 251.40867 252.54035 253.37104 253.69573
 253.74141 253.52410 252.89278 251.84947 250.46416 248.63384 246.55153 244.39322
 242.19290 240.00559 237.83427 235.68196 233.55065 231.42633 229.46102 227.62671
 225.91839 224.39908 223.03776 221.81845 220.70914 219.67782 218.79051 217.94020
 217.19088 216.37957 215.48625 214.85894 214.31763 214.45486 214.77910 215.63193
 216.43622 217.42970 218.38913 219.59421 221.54153 224.38554 228.51132 232.23497
 235.06380 237.47531 239.42014 241.44162 244.23849 247.78593 251.77809 255.74622
 259.34900 262.63028 265.69742 268.59225 271.30859 273.74423 275.80798 277.44455
 278.59814 279.69061 280.94299 282.28473 283.47266 284.52475 285.49002 286.37030
 287.17133 287.89270 288.52267 289.34006
 366.78100 356.34440 345.78580 334.66120 323.07360 311.27700 299.15639 286.96879
 274.69019 262.59659 250.61499 239.92539 230.05679 221.17019 213.36159 206.37299
 200.21638 195.16378 191.75518 189.80658 188.85298 188.92638 189.77078 191.08818
 192.82258 194.92698 197.19937 199.56777 202.02217 204.51157 206.60897 208.46037
 210.09577 211.25017 211.48857 211.72597 211.67236 211.38676 211.02916 210.66856
 210.29496 210.01436 209.83176 209.70516 209.64256 209.98296 210.37835 210.77675
 211.57915 212.76655 214.02595 215.81835 217.75575 219.80815 221.91255 224.00495
 226.07434 228.16774 230.27414 232.38954 234.52794 236.70934 238.97474 241.35414
 243.98454 246.24494 248.25633 250.03073 251.45713 252.58953 253.42093 253.74633
 253.79273 253.57613 252.94553 251.90293 250.51832 248.68872 246.60712 244.44952
 242.24992 240.06332 237.89272 235.74112 233.61052 231.48692 229.52231 227.68871
 225.98111 224.46251 223.10191 221.88331 220.77471 219.74411 218.85751 218.00791
 217.25930 216.44870 215.55610 214.92950 214.38890 214.50874 214.79190 215.73474
 216.40338 217.47321 218.59122 219.87135 221.71313 224.37915 228.50449 232.12056
 234.89043 237.20647 239.11047 241.18350 244.06726 247.68355 251.70688 255.68228
 259.29477 262.59250 265.67371 268.56836 271.28418 273.72885 275.80524 277.43228
 278.56552 279.65973 280.91895 282.26202 283.44849 284.50174 285.46725 286.34628
 287.14752 287.86740 288.49777 289.31659
 366.78100 356.34436 345.78572 334.66108 323.07344 311.27680 299.15616 286.96852
 274.68988 262.59624 250.61460 239.92496 230.05632 221.16968 213.36104 206.37240
 200.21576 195.16312 191.75448 189.80584 188.85220 188.92556 189.76992 191.08728
 192.82164 194.92600 197.19836 199.56672 202.02108 204.51044 206.60780 208.45916
 210.09452 211.24888 211.48724 211.72460 211.67096 211.38532 211.02768 210.66704
 210.29340 210.01276 209.83012 209.70348 209.64084 209.98120 210.37656 210.77492
 211.57728 212.76464 214.02400 215.81636 217.75372 219.80608 221.91044 224.00280
 226.07216 228.16552 230.27188 232.38724 234.52560 236.70696 238.97232 241.35168
 243.98204 246.24240 248.25376 250.02812 251.45448 252.58684 253.41820 253.74356
 253.78992 253.57328 252.94264 251.90000 250.51536 248.68572 246.60408 244.44644
 242.24680 240.06016 237.88952 235.73788 233.60724 231.48360 229.51896 227.68532
 225.97768 224.45904 223.09840 221.87976 220.77111 219.74047 218.85383 218.00419
 217.25555 216.44491 215.55227 214.92563 214.38499 214.52283 214.84848 215.79213
 216.40646 217.52397 218.77403 220.13678 221.87088 224.36147 228.48462 231.99796
 234.71672 236.94888 238.82428 240.95673 243.92375 247.59871 251.64389 255.62119
 259.23877 262.54855 265.64127 268.54007 271.25989 273.71176 275.79968 277.42929
 278.55582 279.64645 280.89352 282.23447 283.42056 284.47293 285.43787 286.31699
 287.11798 287.83939 288.47229 289.28748
 366.78100 356.34375 345.78451 334.65926 323.07101 311.27376 299.15252 286.96427
 274.68502 262.59078 250.60853 239.91828 230.04903 221.16179 213.35254 206.36329
 200.20604 195.15280 191.74355 189.79430 188.84006 188.91281 189.75656 191.07331
 192.80707 194.91082 197.18257 199.55033 202.00408 204.49283 206.58958 208.44034
 210.07509 211.22884 211.46660 211.70335 211.64910 211.36285 211.00461 210.64336
 210.26911 209.98786 209.80462 209.67737 209.61412 209.95388 210.34863 210.74638
 211.54813 212.73489 213.99364 215.78539 217.72215 219.77390 221.87765 223.96940
 226.03816 228.13091 230.23666 232.35142 234.48917 236.66992 238.93467 241.31343
 243.94318 246.20293 248.21368 249.98744 251.41319 252.54494 253.37570 253.70045
 253.74620 253.52895 252.89771 251.85446 250.46921 248.63897 246.55672 244.39847
 242.19822 240.01098 237.83973 235.68748 233.55624 231.43199 229.46674 227.63249
 225.92425 224.40500 223.04375 221.82450 220.71526 219.68401 218.79676 217.94652
 217.19727 216.38602 215.49277 214.86553 214.32428 214.50644 214.93680 215.81459
 216.42552 217.59177 218.95108 220.38071 222.00815 224.35927 228.46471 231.88351
 234.54567 236.70000 238.55328 240.74556 243.79211 247.51941 251.58066 255.55441
 259.17148 262.49094 265.60007 268.50879 271.23651 273.69763 275.80353 277.44501
 278.56570 279.64499 280.87173 282.21024 283.39627 284.44949 285.41351 286.29340
 287.09442 287.81522 288.44641 289.26428
 366.78100 356.34283 345.78266 334.65649 323.06732 311.26915 299.14698 286.95781
 274.67764 262.58247 250.59930 239.90813 230.03796 221.14979 213.33962 206.34945
 200.19128 195.13711 191.72694 189.77677 188.82160 188.89343 189.73626 191.05209
 192.78492 194.88774 197.15857 199.52540 201.97823 204.46606 206.56189 208.41172
 210.04555 211.19838 211.43521 211.67104 211.61587 211.32870 210.96953 210.60736
 210.23219 209.95002 209.76585 209.63768 209.57351 209.91234 210.30617 210.70300
 211.50383 212.68966 213.94749 215.73832 217.67415 219.72498 221.82781 223.91864
 225.98647 228.07830 230.18313 232.29696 234.43379 236.61362 238.87745 241.25528
 243.88411 246.14294 248.15277 249.92560 251.35043 252.48126 253.31109 253.63492
 253.67975 253.46157 252.82940 251.78523 250.39906 248.56789 246.48472 244.32555
 242.12438 239.93621 237.76404 235.61087 233.47870 231.35353 229.38736 227.55219
 225.84302 224.32285 222.96068 221.74051 220.63034 219.59817 218.71000 217.85883
 217.10866 216.29649 215.40232 214.77415 214.23198 214.47194 215.03883 215.82042
 216.45157 217.67174 219.12923 220.58975 222.12668 224.39369 228.45061 231.77979
 234.37291 236.45235 238.28697 240.54120 243.66628 247.44302 251.51695 255.48265
 259.09604 262.42703 265.55557 268.47861 271.21497 273.68759 275.81659 277.47421
 278.58542 279.65097 280.85709 282.19400 283.37836 284.43213 285.39700 286.27573
 287.07736 287.79605 288.42966 289.24609
 366.78100 356.34217 345.78133 334.65450 323.06467 311.26583 299.14300 286.95316
 274.67233 262.57650 250.59266 239.90083 230.03000 221.14116 213.33033 206.33950
 200.18066 195.12583 191.71499 189.76416 188.80833 188.87949 189.72166 191.03683
 192.76899 194.87116 197.14132 199.50749 201.95966 204.44682 206.54199 208.39116
 210.02432 211.17649 211.41266 211.64782 211.59199 211.30415 210.94432 210.58149
 210.20565 209.92282 209.73799 209.60915 209.54432 209.88249 210.27565 210.67182
 211.47198 212.65715 213.91432 215.70448 217.63965 219.68982 221.79198 223.88215
 225.94932 228.04048 230.14465 232.25781 234.39398 236.57315 238.83631 241.21348
 243.84165 246.09981 248.10898 249.88114 251.30531 252.43548 253.26464 253.58781
 253.63198 253.41314 252.78031 251.73548 250.34864 248.51681 246.43297 244.27314
 242.07131 239.88247 237.70964 235.55581 233.42297 231.29714 229.33031 227.49447
 225.78464 224.26380 222.90097 221.68014 220.56930 219.53647 218.64764 217.79580
 217.04497 216.23214 215.33730 214.70847 214.16563 214.44875 215.11760 215.83356
 216.51111 217.74831 219.26117 220.78828 222.23924 224.41614 228.43723 231.68979
 234.20436 236.21184 238.03256 240.35100 243.55199 247.37358 251.45631 255.41118
 259.02036 262.36563 265.51389 268.44971 271.19330 273.67868 275.82944 277.50128
 278.60068 279.65164 280.85043 282.18661 283.37231 284.42477 285.38843 286.26630
 287.06772 287.78802 288.41702 289.23871
 366.78100 356.34196 345.78093 334.65389 323.06386 311.26482 299.14178 286.95175
 274.67071 262.57468 250.59064 239.89860 230.02757 221.13853 213.32750 206.33646
 200.17742 195.12239 191.71135 189.76032 188.80428 188.87524 189.71721 191.03217
 192.76414 194.86610 197.13606 199.50203 201.95399 204.44096 206.53592 208.38488
 210.01785 211.16981 211.40578 211.64074 211.58470 211.29667 210.93663 210.57360
 210.19756 209.91452 209.72949 209.60045 209.53542 209.87338 210.26634 210.66231
 211.46227 212.64724 213.90420 215.69416 217.62913 219.67909 221.78106 223.87102
 225.93798 228.02895 230.13291 232.24588 234.38184 236.56080 238.82377 241.20073
 243.82870 246.08666 248.09562 249.86759 251.29155 252.42152 253.25048 253.57344
 253.61741 253.39837 252.76534 251.72030 250.33326 248.50123 246.41719 244.25716
 242.05512 239.86608 237.69305 235.53901 233.40598 231.27994 229.31290 227.47687
 225.76683 224.24580 222.88276 221.66172 220.55069 219.51765 218.62862 217.77658
 217.02554 216.21251 215.31747 214.68844 214.14540 214.44766 215.16180 215.87056
 216.57280 217.84525 219.40366 220.88655 222.29031 224.47285 228.44160 231.62091
 234.05170 235.98688 237.79494 240.17784 243.45033 247.31206 251.39975 255.34244
 258.94885 262.31042 265.47464 268.41959 271.16907 273.66519 275.83405 277.51620
 278.60858 279.65268 280.84973 282.18506 283.37057 284.42316 285.38773 286.26596
 287.06708 287.78345 288.41696 289.22916
 366.78100 356.34205 345.78109 334.65414 323.06419 311.26524 299.14228 286.95233
 274.67138 262.57542 250.59147 239.89952 230.02857 221.13961 213.32866 206.33771
 200.17875 195.12380 191.71285 189.76190 188.80594 188.87699 189.71904 191.03408
 192.76613 194.86818 197.13823 199.50427 201.95632 204.44337 206.53842 208.38746
 210.02051 211.17256 211.40860 211.64365 211.58770 211.29975 210.93979 210.57684
 210.20089 209.91793 209.73298 209.60403 209.53908 209.87712 210.27017 210.66622
 211.46626 212.65131 213.90836 215.69841 217.63345 219.68350 221.78555 223.87559
 225.94264 228.03369 230.13774 232.25078 234.38683 236.56588 238.82892 241.20597
 243.83402 246.09207 248.10111 249.87316 251.29721 252.42725 253.25630 253.57935
 253.62340 253.40444 252.77149 251.72654 250.33958 248.50763 246.42368 244.26373
 242.06177 239.87282 237.69987 235.54592 233.41296 231.28701 229.32006 227.48410
 225.77415 224.25320 222.89025 221.66929 220.55834 219.52539 218.63643 217.78448
 217.03353 216.22058 215.32562 214.69667 214.15372 214.45967 215.18254 215.93887
 216.62735 217.92291 219.52605 220.94148 222.33543 224.56447 228.45625 231.55910
 233.90353 235.76665 237.56781 240.01872 243.35939 247.25603 251.34637 255.27713
 258.88382 262.26022 265.43579 268.38770 271.14224 273.64615 275.82816 277.52151
 278.61938 279.66391 280.85330 282.18857 283.37451 284.42661 285.38989 286.26855
 287.06705 287.78772 288.41724 289.23181
 366.78100 356.34202 345.78105 334.65407 323.06410 311.26512 299.14214 286.95217
 274.67119 262.57521 250.59124 239.89926 230.02829 221.13931 213.32833 206.33736
 200.17838 195.12341 191.71243 189.76145 188.80548 188.87650 189.71852 191.03355
 192.76557 194.86760 197.13762 199.50364 201.95567 204.44269 206.53771 208.38674
 210.01976 211.17179 211.40781 211.64283 211.58686 211.29888 210.93891 210.57593
 210.19995 209.91698 209.73200 209.60302 209.53805 209.87607 210.26910 210.66512
 211.46514 212.65017 213.90719 215.69722 217.63224 219.68226 221.78429 223.87431
 225.94133 228.03236 230.13638 232.24941 234.38543 236.56445 238.82748 241.20450
 243.83252 246.09055 248.09957 249.87160 251.29562 252.42564 253.25467 253.57769
 253.62172 253.40274 252.76976 251.72479 250.33781 248.50583 246.42186 244.26188
 242.05991 239.87093 237.69795 235.54398 233.41100 231.28503 229.31805 227.48207
 225.77210 224.25112 222.88814 221.66717 220.55619 219.52322 218.63424 217.78226
 217.03129 216.21831 215.32333 214.69436 214.15138 214.46523 215.20670 216.00995
 216.69511 217.99399 219.59938 220.98946 222.41664 224.66266 228.45332 231.48444
 233.75362 235.55244 237.35416 239.87605 243.28064 247.20663 251.29758 255.21648
 258.82504 262.21179 265.39502 268.35342 271.11252 273.62271 275.81473 277.51987
 278.63425 279.68716 280.86475 282.19647 283.38211 284.43469 285.39767 286.27573
 287.07635 287.79770 288.42715 289.24240
 366.78100 356.34163 345.78025 334.65288 323.06250 311.26313 299.13976 286.94938
 274.66801 262.57163 250.58726 239.89489 230.02351 221.13414 213.32276 206.33139
 200.17202 195.11664 191.70527 189.75389 188.79752 188.86815 189.70977 191.02440
 192.75602 194.85765 197.12728 199.49290 201.94453 204.43115 206.52578 208.37441
 210.00703 211.15866 211.39428 211.62891 211.57254 211.28416 210.92379 210.56042
 210.18404 209.90067 209.71529 209.58592 209.52055 209.85817 210.25080 210.64642
 211.44605 212.63068 213.88730 215.67693 217.61155 219.66118 221.76281 223.85243
 225.91906 228.00968 230.11331 232.22594 234.36156 236.54019 238.80281 241.17944
 243.80707 246.06469 248.07332 249.84494 251.26857 252.39820 253.22682 253.54945
 253.59307 253.37370 252.74033 251.69495 250.30758 248.47520 246.39083 244.23046
 242.02808 239.83871 237.66533 235.51096 233.37759 231.25121 229.28384 227.44746
 225.73709 224.21572 222.85234 221.63097 220.51959 219.48622 218.59685 217.74447
 216.99310 216.17972 215.28435 214.65498 214.11160 214.45055 215.25133 216.07288
 216.77086 218.05913 219.64827 221.04124 222.50046 224.74110 228.44305 231.40997
 233.60591 235.34810 237.16238 239.75702 243.21782 247.16566 251.25259 255.15947
 258.76901 262.16196 265.35068 268.31638 271.08136 273.59482 275.79141 277.50342
 278.63184 279.69943 280.88419 282.21762 283.40500 284.45767 285.42166 286.30023
 287.10068 287.82178 288.45358 289.26477
 366.78100 356.34094 345.77888 334.65082 323.05976 311.25969 299.13563 286.94457
 274.66251 262.56545 250.58039 239.88733 230.01527 221.12520 213.31314 206.32108
 200.16102 195.10496 191.69290 189.74084 188.78378 188.85371 189.69465 191.00859
 192.73953 194.84047 197.10941 199.47435 201.92529 204.41122 206.50516 208.35310
 209.98504 211.13598 211.37092 211.60486 211.54780 211.25873 210.89767 210.53361
 210.15655 209.87249 209.68643 209.55637 209.49031 209.82724 210.21918 210.61412
 211.41306 212.59700 213.85294 215.64188 217.57582 219.62475 221.72569 223.81463
 225.88057 227.97051 230.07345 232.18539 234.32033 236.49827 238.76020 241.13614
 243.76308 246.02002 248.02796 249.79890 251.22184 252.35078 253.17871 253.50065
 253.54359 253.32353 252.68947 251.64341 250.25535 248.42229 246.33722 244.17616
 241.97310 239.78304 237.60898 235.45392 233.31986 231.19280 229.22473 227.38767
 225.67661 224.15455 222.79049 221.56843 220.45637 219.42231 218.53224 217.67918
 216.92712 216.11306 215.21700 214.58694 214.04288 214.42015 215.31151 216.13542
 216.85773 218.11613 219.67328 221.07541 222.58420 224.80453 228.40849 231.32065
 233.45854 235.15985 236.99742 239.66281 243.16965 247.13190 251.21385 255.10919
 258.71902 262.11655 265.30975 268.28262 271.05301 273.56793 275.76450 277.48477
 278.62332 279.70694 280.89114 282.23181 283.41644 284.46918 285.43274 286.31073
 287.11142 287.83426 288.46436 289.28217
 366.78100 356.34016 345.77732 334.64848 323.05664 311.25580 299.13096 286.93912
 274.65628 262.55844 250.57260 239.87875 230.00591 221.11507 213.30223 206.30939
 200.14855 195.09171 191.67887 189.72603 188.76819 188.83735 189.67751 190.99067
 192.72083 194.82099 197.08915 199.45331 201.90347 204.38863 206.48179 208.32894
 209.96010 211.11026 211.34442 211.57758 211.51974 211.22990 210.86806 210.50322
 210.12538 209.84054 209.65370 209.52286 209.45602 209.79218 210.18334 210.57750
 211.37566 212.55882 213.81398 215.60213 217.53529 219.58345 221.68361 223.77177
 225.83693 227.92609 230.02825 232.13941 234.27357 236.45073 238.71189 241.08705
 243.71321 245.96937 247.97653 249.74669 251.16885 252.29701 253.12417 253.44532
 253.48748 253.26664 252.63180 251.58496 250.19612 248.36228 246.27644 244.11460
 241.91076 239.71992 237.54508 235.38924 233.25440 231.12656 229.15772 227.31988
 225.60804 224.08520 222.72036 221.49752 220.38467 219.34983 218.45899 217.60515
 216.85231 216.03747 215.14063 214.50979 213.96495 214.38550 215.37909 216.19978
 216.92126 218.16154 219.70107 221.08922 222.60414 224.81786 228.36479 231.25499
 233.32050 234.96819 236.83656 239.57599 243.12723 247.10245 251.18362 255.07336
 258.68610 262.08691 265.28033 268.25555 271.03394 273.54968 275.74182 277.45374
 278.60675 279.71320 280.92056 282.28119 283.46951 284.52481 285.49356 286.37918
 287.18777 287.91901 288.58398 289.44778
 366.78100 356.34011 345.77722 334.64833 323.05645 311.25556 299.13067 286.93878
 274.65589 262.55800 250.57211 239.87822 230.00534 221.11445 213.30156 206.30867
 200.14778 195.09089 191.67800 189.72511 188.76723 188.83634 189.67645 190.98956
 192.71967 194.81978 197.08789 199.45200 201.90212 204.38723 206.48034 208.32745
 209.95856 211.10867 211.34278 211.57590 211.51801 211.22812 210.86623 210.50134
 210.12345 209.83856 209.65167 209.52079 209.45390 209.79001 210.18112 210.57523
 211.37334 212.55645 213.81156 215.59968 217.53279 219.58090 221.68101 223.76912
 225.83423 227.92334 230.02545 232.13657 234.27068 236.44779 238.70890 241.08401
 243.71012 245.96623 247.97334 249.74346 251.16557 252.29368 253.12079 253.44190
 253.48401 253.26312 252.62824 251.58135 250.19246 248.35857 246.27268 244.11079
 241.90690 239.71601 237.54113 235.38524 233.25035 231.12246 229.15357 227.31568
 225.60379 224.08090 222.71602 221.49313 220.38024 219.34535 218.45446 217.60057
 216.84768 216.03279 215.13591 214.50502 213.96013 214.38657 215.39407 216.31943
 216.98387 218.18037 219.70088 221.07866 222.61775 224.85466 228.32497 231.19032
 233.18040 234.78255 236.68269 239.50073 243.09404 247.08005 251.15999 255.04730
 258.66309 262.06561 265.26025 268.24432 271.02502 273.54150 275.72736 277.43158
 278.64496 279.74496 280.97876 282.32443 283.51111 284.56628 285.53427 286.42102
 287.22775 287.97150 288.66110 289.53992
 366.78100 356.34064 345.77828 334.64992 323.05856 311.25820 299.13384 286.94248
 274.66012 262.56276 250.57740 239.88404 230.01168 221.12132 213.30896 206.31660
 200.15624 195.09987 191.68751 189.73515 188.77779 188.84743 189.68807 191.00171
 192.73235 194.83299 197.10163 199.46627 201.91691 204.40255 206.49619 208.34383
 209.97547 211.12611 211.36075 211.59439 211.53703 211.24767 210.88631 210.52195
 210.14459 209.86023 209.67387 209.54351 209.47715 209.81379 210.20543 210.60007
 211.39871 212.58235 213.83798 215.62662 217.56026 219.60890 221.70954 223.79818
 225.86382 227.95346 230.05610 232.16774 234.30238 236.48002 238.74166 241.11730
 243.74394 246.00058 248.00822 249.77886 251.20150 252.33014 253.15778 253.47942
 253.52206 253.30170 252.66734 251.62098 250.23262 248.39926 246.31390 244.15254
 241.94918 239.75882 237.58446 235.42910 233.29473 231.16737 229.19901 227.36165
 225.65029 224.12793 222.76357 221.54121 220.42885 219.39449 218.50413 217.65077
 216.89841 216.08405 215.18769 214.55733 214.01297 214.41478 215.36411 216.45929
 217.11537 218.25113 219.71312 221.04288 222.58321 224.83257 228.26349 231.09070
 233.01245 234.58566 236.52606 239.43436 243.07100 247.06598 251.14494 255.02760
 258.64844 262.05292 265.24982 268.24445 271.03168 273.55371 275.74234 277.46451
 278.71991 279.80670 281.02808 282.34741 283.53400 284.58728 285.55740 286.44125
 287.24774 288.00809 288.69244 289.56458
 366.78100 356.34107 345.77914 334.65121 323.06028 311.26035 299.13642 286.94549
 274.66356 262.56663 250.58170 239.88877 230.01684 221.12691 213.31498 206.32305
 200.16312 195.10719 191.69526 189.74333 188.78640 188.85647 189.69754 191.01161
 192.74268 194.84375 197.11282 199.47789 201.92896 204.41503 206.50910 208.35717
 209.98924 211.14031 211.37539 211.60946 211.55253 211.26360 210.90267 210.53874
 210.16181 209.87788 209.69195 209.56202 209.49609 209.83316 210.22523 210.62030
 211.41937 212.60344 213.85951 215.64858 217.58265 219.63172 221.73279 223.82186
 225.88793 227.97800 230.08107 232.19314 234.32821 236.50628 238.76835 241.14442
 243.77149 246.02856 248.03663 249.80770 251.23077 252.35984 253.18791 253.50998
 253.55305 253.33312 252.69919 251.65326 250.26533 248.43240 246.34747 244.18654
 241.98361 239.79368 237.61975 235.46482 233.33089 231.20396 229.23603 227.39910
 225.68817 224.16624 222.80231 221.58038 220.46845 219.43452 218.54459 217.69166
 216.93973 216.12580 215.22987 214.59994 214.05602 214.43942 215.34698 216.50806
 217.34607 218.43582 219.77568 220.91969 222.41585 224.79420 228.18974 230.94565
 232.79842 234.35770 236.36140 239.37646 243.05994 247.06712 251.14510 255.02773
 258.65747 262.06577 265.26361 268.26401 271.05539 273.58423 275.77844 277.51840
 278.79718 279.87433 281.04935 282.36142 283.54947 284.60550 285.57635 286.46463
 287.28156 288.04858 288.72260 289.58154
 366.78100 356.34175 345.78049 334.65324 323.06299 311.26373 299.14048 286.95023
 274.66897 262.57272 250.58847 239.89621 230.02496 221.13571 213.32445 206.33320
 200.17395 195.11869 191.70744 189.75618 188.79993 188.87068 189.71242 191.02717
 192.75892 194.86066 197.13041 199.49616 201.94790 204.43465 206.52940 208.37814
 210.01089 211.16264 211.39838 211.63313 211.57688 211.28862 210.92837 210.56512
 210.18886 209.90561 209.72036 209.59110 209.52585 209.86360 210.25634 210.65209
 211.45184 212.63658 213.89333 215.68308 217.61782 219.66757 221.76931 223.85906
 225.92581 228.01655 230.12030 232.23305 234.36879 236.54754 238.81029 241.18703
 243.81478 246.07253 248.08127 249.85302 251.27677 252.40651 253.23526 253.55801
 253.60175 253.38250 252.74925 251.70399 250.31674 248.48449 246.40023 244.23998
 242.03773 239.84847 237.67522 235.52097 233.38771 231.26146 229.29421 227.45795
 225.74770 224.22644 222.86319 221.64194 220.53068 219.49743 218.60818 217.75592
 217.00467 216.19142 215.29616 214.66691 214.12366 214.47737 215.31731 216.53455
 217.54698 218.62665 219.88174 220.85387 222.29199 224.79202 228.12546 230.77271
 232.55991 234.11414 236.19176 239.31723 243.04645 247.06624 251.13632 255.01685
 258.65109 262.06274 265.26297 268.27319 271.07327 273.61362 275.82278 277.59921
 278.90479 279.97781 281.07147 282.39240 283.57742 284.63440 285.60687 286.49762
 287.32037 288.09515 288.77194 289.63449
 366.78100 356.34235 345.78170 334.65505 323.06540 311.26675 299.14410 286.95445
 274.67380 262.57815 250.59450 239.90285 230.03220 221.14354 213.33289 206.34224
 200.18359 195.12894 191.71829 189.76764 188.81199 188.88334 189.72569 191.04104
 192.77339 194.87574 197.14609 199.51244 201.96479 204.45214 206.54749 208.39684
 210.03019 211.18254 211.41889 211.65424 211.59859 211.31094 210.95128 210.58863
 210.21298 209.93033 209.74568 209.61703 209.55238 209.89073 210.28408 210.68043
 211.48078 212.66613 213.92348 215.71383 217.64918 219.69953 221.80188 223.89223
 225.95958 228.05093 230.15528 232.26863 234.40498 236.58433 238.84768 241.22502
 243.85337 246.11172 248.12107 249.89342 251.31777 252.44812 253.27747 253.60082
 253.64517 253.42652 252.79387 251.74922 250.36257 248.53092 246.44727 244.28762
 242.08597 239.89732 237.72467 235.57102 233.43837 231.31272 229.34607 227.51042
 225.80076 224.28011 222.91746 221.69681 220.58616 219.55351 218.66486 217.81321
 217.06256 216.24991 215.35526 214.72661 214.18396 214.50702 215.27058 216.65103
 217.64575 218.73134 220.01779 220.91960 222.30409 224.84895 228.12740 230.61238
 232.35156 233.92987 236.08009 239.27567 243.02750 247.03128 251.08673 254.95110
 258.57617 261.98007 265.18353 268.21707 271.04370 273.60754 275.84344 277.66321
 279.02512 280.11273 281.17871 282.42715 283.61060 284.66513 285.63544 286.52283
 287.33661 288.09729 288.77280 289.63364
 366.78100 356.34206 345.78111 334.65417 323.06422 311.26528 299.14233 286.95239
 274.67144 262.57550 250.59155 239.89961 230.02866 221.13972 213.32877 206.33783
 200.17888 195.12394 191.71299 189.76205 188.80611 188.87716 189.71922 191.03427
 192.76633 194.86838 197.13844 199.50449 201.95655 204.44360 206.53866 208.38771
 210.02077 211.17282 211.40888 211.64393 211.58799 211.30004 210.94010 210.57716
 210.20121 209.91827 209.73332 209.60438 209.53943 209.87749 210.27054 210.66660
 211.46665 212.65171 213.90876 215.69882 217.63387 219.68393 221.78598 223.87604
 225.94309 228.03415 230.13820 232.25126 234.38732 236.56637 238.82943 241.20648
 243.83454 246.09259 248.10165 249.87370 251.29776 252.42781 253.25687 253.57992
 253.62398 253.40503 252.77209 251.72714 250.34020 248.50825 246.42431 244.26437
 242.06242 239.87348 237.70053 235.54659 233.41364 231.28770 229.32075 227.48481
 225.77486 224.25392 222.89097 221.67003 220.55908 219.52614 218.63719 217.78525
 217.03430 216.22136 215.32642 214.69747 214.15453 214.48634 215.27029 216.79448
 217.74075 218.82230 220.14101 221.01035 222.35301 224.87624 228.12119 230.45673
 232.15973 233.80934 236.03296 239.26236 243.02480 247.01028 251.03033 254.87050
 258.48056 261.87299 265.07657 268.13205 270.97845 273.54901 275.79654 277.64236
 279.05450 280.19257 281.27753 282.44791 283.63394 284.68707 285.65262 286.53476
 287.34009 288.06888 288.72565 289.57730
 366.78100 356.34150 345.78000 334.65249 323.06199 311.26249 299.13899 286.94848
 274.66698 262.57048 250.58598 239.89348 230.02197 221.13247 213.32097 206.32947
 200.16997 195.11446 191.70296 189.75146 188.79496 188.86545 189.70695 191.02145
 192.75295 194.85445 197.12394 199.48944 201.94094 204.42744 206.52194 208.37043
 210.00293 211.15443 211.38993 211.62442 211.56792 211.27942 210.91892 210.55542
 210.17891 209.89541 209.70991 209.58041 209.51491 209.85240 210.24490 210.64040
 211.43990 212.62439 213.88089 215.67039 217.60489 219.65439 221.75588 223.84538
 225.91188 228.00238 230.10588 232.21837 234.35387 236.53237 238.79487 241.17136
 243.79886 246.05636 248.06486 249.83636 251.25985 252.38935 253.21785 253.54035
 253.58385 253.36434 252.73084 251.68534 250.29784 248.46533 246.38083 244.22033
 242.01783 239.82833 237.65482 235.50032 233.36682 231.24032 229.27282 227.43631
 225.72581 224.20431 222.84081 221.61930 220.50780 219.47430 218.58480 217.73230
 216.98079 216.16729 215.27179 214.64229 214.09879 214.45500 215.29660 216.86826
 217.85397 218.93924 220.25966 221.03793 222.31934 224.84114 228.06122 230.29747
 231.96005 233.66119 235.95866 239.25243 243.03676 247.01202 251.01357 254.84044
 258.44394 261.82794 265.02710 268.08783 270.93161 273.48639 275.71823 277.56421
 278.98358 280.16846 281.28262 282.46817 283.63840 284.69080 285.65323 286.53339
 287.33456 288.05563 288.69049 289.50885
 366.78100 356.34177 345.78055 334.65332 323.06310 311.26387 299.14064 286.95042
 274.66919 262.57296 250.58874 239.89651 230.02529 221.13606 213.32483 206.33361
 200.17438 195.11916 191.70793 189.75670 188.80048 188.87125 189.71303 191.02780
 192.75957 194.86135 197.13112 199.49689 201.94867 204.43544 206.53022 208.37899
 210.01176 211.16354 211.39931 211.63409 211.57786 211.28963 210.92941 210.56618
 210.18996 209.90673 209.72150 209.59228 209.52705 209.86482 210.25760 210.65337
 211.45315 212.63792 213.89469 215.68447 217.61924 219.66902 221.77079 223.86056
 225.92734 228.01811 230.12189 232.23466 234.37043 236.54921 238.81198 241.18875
 243.81653 246.07430 248.08308 249.85485 251.27862 252.40840 253.23717 253.55995
 253.60372 253.38449 252.75127 251.70604 250.31882 248.48659 246.40236 244.24214
 242.03991 239.85068 237.67746 235.52323 233.39001 231.26378 229.29655 227.46033
 225.75010 224.22888 222.86565 221.64442 220.53320 219.49997 218.61075 217.75852
 217.00729 216.19407 215.29884 214.66961 214.12639 214.46931 215.27953 216.90915
 217.98552 219.08226 220.37662 221.03426 222.23700 224.78281 227.98985 230.14714
 231.77502 233.50581 235.88077 239.25409 243.06342 247.03256 251.02155 254.83965
 258.44006 261.81598 265.00204 268.06110 270.90088 273.44415 275.65869 277.49844
 278.91599 280.12494 281.26828 282.46674 283.63712 284.69162 285.65448 286.53442
 287.33649 288.05893 288.69330 289.51028
 366.78100 356.34278 345.78256 334.65633 323.06711 311.26889 299.14667 286.95745
 274.67722 262.58200 250.59878 239.90756 230.03733 221.14911 213.33889 206.34867
 200.19045 195.13622 191.72600 189.77578 188.82056 188.89234 189.73511 191.05089
 192.78367 194.88645 197.15723 199.52400 201.97678 204.46456 206.56034 208.41012
 210.04389 211.19667 211.43345 211.66923 211.61400 211.32678 210.96756 210.60534
 210.23012 209.94789 209.76367 209.63545 209.57123 209.91001 210.30378 210.70056
 211.50134 212.68712 213.94490 215.73567 217.67145 219.72223 221.82501 223.91579
 225.98356 228.07534 230.18012 232.29390 234.43067 236.61045 238.87423 241.25201
 243.88079 246.13956 248.14934 249.92212 251.34690 252.47768 253.30745 253.63123
 253.67601 253.45779 252.82557 251.78134 250.39512 248.56390 246.48068 244.32146
 242.12023 239.93201 237.75979 235.60657 233.47434 231.34912 229.38290 227.54768
 225.83846 224.31823 222.95601 221.73579 220.62557 219.59335 218.70512 217.85390
 217.10368 216.29146 215.39724 214.76901 214.22679 214.52094 215.21591 216.95804
 218.16367 219.25432 220.47934 221.01866 222.13840 224.70161 227.90189 229.98468
 231.58080 233.34421 235.80026 239.25401 243.08775 247.05115 251.02702 254.83401
 258.42880 261.79547 264.97034 268.02655 270.86368 273.39722 275.59680 277.43338
 278.85999 280.09250 281.25809 282.46121 283.63370 284.68649 285.65240 286.53406
 287.33823 288.06091 288.69757 289.51248
 366.78100 356.34383 345.78466 334.65950 323.07133 311.27416 299.15299 286.96482
 274.68566 262.59149 250.60932 239.91915 230.04998 221.16282 213.35365 206.36448
 200.20731 195.15414 191.74498 189.79581 188.84164 188.91447 189.75830 191.07514
 192.80897 194.91280 197.18463 199.55246 202.00630 204.49513 206.59196 208.44279
 210.07762 211.23146 211.46929 211.70612 211.65195 211.36578 211.00762 210.64645
 210.27228 209.99111 209.80794 209.68078 209.61761 209.95744 210.35227 210.75010
 211.55194 212.73877 213.99760 215.78943 217.72626 219.77810 221.88193 223.97376
 226.04259 228.13542 230.24126 232.35609 234.49392 236.67475 238.93958 241.31842
 243.94825 246.20808 248.21891 249.99274 251.41858 252.55041 253.38124 253.70607
 253.75190 253.53474 252.90357 251.86040 250.47523 248.64506 246.56290 244.40473
 242.20456 240.01739 237.84622 235.69406 233.56289 231.43872 229.47355 227.63938
 225.93122 224.41205 223.05088 221.83171 220.72254 219.69138 218.80421 217.95404
 217.20487 216.39370 215.50054 214.87337 214.33220 214.57521 215.14934 216.98534
 218.35748 219.44612 220.58339 221.01465 222.04953 224.60934 227.79782 229.81439
 231.38632 233.18646 235.72388 239.25626 243.11340 247.07033 251.03116 254.82462
 258.41141 261.76981 264.93469 267.98752 270.82095 273.34586 275.53198 277.36514
 278.80469 280.05942 281.24304 282.45227 283.62634 284.67911 285.64639 286.52704
 287.32944 288.05249 288.68726 289.50961
 366.78100 356.34447 345.78594 334.66140 323.07387 311.27734 299.15681 286.96927
 274.69074 262.59721 250.61568 239.92615 230.05761 221.17108 213.36255 206.37402
 200.21749 195.16495 191.75642 189.80789 188.85436 188.92782 189.77229 191.08976
 192.82423 194.92870 197.20116 199.56963 202.02410 204.51357 206.61103 208.46250
 210.09797 211.25244 211.49091 211.72837 211.67484 211.38931 211.03178 210.67125
 210.29771 210.01718 209.83465 209.70812 209.64558 209.98605 210.38152 210.77999
 211.58246 212.76992 214.02939 215.82186 217.75933 219.81179 221.91626 224.00873
 226.07820 228.17167 230.27813 232.39360 234.53207 236.71354 238.97901 241.35847
 243.98894 246.24941 248.26088 250.03534 251.46181 252.59428 253.42575 253.75122
 253.79768 253.58115 252.95062 251.90809 250.52355 248.69402 246.61249 244.45496
 242.25543 240.06889 237.89836 235.74683 233.61630 231.49277 229.52823 227.69470
 225.98717 224.46864 223.10810 221.88957 220.78104 219.75051 218.86398 218.01444
 217.26591 216.45538 215.56285 214.93631 214.39578 214.60753 215.10779 216.98897
 218.53152 219.63382 220.68820 221.02480 221.97568 224.51813 227.68687 229.65056
 231.20934 233.04759 235.66212 239.26802 243.14653 247.09486 251.03772 254.81480
 258.39249 261.74182 264.89795 267.94455 270.77106 273.28683 275.45908 277.28812
 278.74060 280.01959 281.22293 282.43680 283.61136 284.66553 285.63055 286.51285
 287.31479 288.03790 288.67163 289.48889
 366.78100 356.34493 345.78687 334.66280 323.07574 311.27967 299.15961 286.97254
 274.69448 262.60141 250.62034 239.93128 230.06321 221.17715 213.36908 206.38102
 200.22495 195.17289 191.76482 189.81675 188.86369 188.93762 189.78256 191.10049
 192.83543 194.94036 197.21330 199.58223 202.03716 204.52710 206.62503 208.47697
 210.11290 211.26784 211.50677 211.74471 211.69164 211.40657 211.04951 210.68944
 210.31638 210.03631 209.85425 209.72818 209.66612 210.00705 210.40298 210.80192
 211.60485 212.79279 214.05272 215.84566 217.78359 219.83653 221.94146 224.03439
 226.10433 228.19826 230.30520 232.42113 234.56007 236.74200 239.00794 241.38787
 244.01880 246.27974 248.29167 250.06661 251.49354 252.62648 253.45841 253.78435
 253.83128 253.61521 252.98515 251.94308 250.55902 248.72995 246.64889 244.49182
 242.29276 240.10669 237.93662 235.78556 233.65549 231.53243 229.56836 227.73530
 226.02823 224.51017 223.15010 221.93203 220.82397 219.79390 218.90784 218.05877
 217.31071 216.50064 215.60857 214.98251 214.44244 214.63004 215.07326 216.98492
 218.69498 219.81773 220.78571 221.04082 221.91801 224.42155 227.56877 229.49457
 231.04700 232.92259 235.61079 239.28705 243.18552 247.12360 251.04533 254.80353
 258.36969 261.71030 264.85800 267.89572 270.71274 273.21527 275.37396 277.19858
 278.66611 279.96982 281.20190 282.41931 283.59378 284.65015 285.61761 286.49973
 287.30359 288.02521 288.66135 289.47778
 366.78100 356.34541 345.78781 334.66422 323.07762 311.28203 299.16244 286.97584
 274.69825 262.60565 250.62506 239.93647 230.06887 221.18328 213.37568 206.38809
 200.23249 195.18090 191.77331 189.82571 188.87312 188.94752 189.79293 191.11134
 192.84674 194.95215 197.22555 199.59496 202.05037 204.54077 206.63918 208.49158
 210.12799 211.28340 211.52280 211.76121 211.70861 211.42402 211.06743 210.70783
 210.33524 210.05564 209.87405 209.74846 209.68686 210.02827 210.42467 210.82408
 211.62748 212.81589 214.07630 215.86970 217.80811 219.86151 221.96692 224.06033
 226.13073 228.22514 230.33254 232.44895 234.58836 236.77076 239.03717 241.41757
 244.04898 246.31039 248.32279 250.09820 251.52560 252.65901 253.49142 253.81782
 253.86523 253.64963 253.02004 251.97845 250.59485 248.76626 246.68566 244.52907
 242.33047 240.14488 237.97529 235.82469 233.69510 231.57250 229.60891 227.77632
 226.06972 224.55213 223.19253 221.97494 220.86735 219.83775 218.95216 218.10356
 217.35597 216.54638 215.65478 215.02919 214.48959 214.65225 215.03658 216.97195
 218.85291 220.00452 220.89018 221.06117 221.85788 224.32701 227.44322 229.33516
 230.88918 232.80536 235.56749 239.31218 243.23058 247.15773 251.05435 254.79179
 258.34470 261.67615 264.81696 267.84302 270.64722 273.13620 275.28113 277.10294
 278.58514 279.91196 281.10608 282.42517 283.60532 284.65689 285.61935 286.49820
 287.30023 288.02182 288.65115 289.47113
 366.78100 356.34592 345.78885 334.66577 323.07970 311.28462 299.16555 286.97947
 274.70240 262.61032 250.63025 239.94217 230.07509 221.19002 213.38294 206.39587
 200.24079 195.18972 191.78264 189.83557 188.88349 188.95842 189.80434 191.12327
 192.85919 194.96511 197.23904 199.60896 202.06489 204.55581 206.65474 208.50766
 210.14459 211.30051 211.54044 211.77936 211.72728 211.44321 211.08713 210.72806
 210.35598 210.07691 209.89583 209.77076 209.70968 210.05161 210.44853 210.84846
 211.65238 212.84130 214.10223 215.89615 217.83508 219.88900 221.99493 224.08885
 226.15978 228.25470 230.36263 232.47955 234.61947 236.80240 239.06932 241.45025
 244.08217 246.34410 248.35702 250.13295 251.56087 252.69480 253.52772 253.85465
 253.90257 253.68749 253.05842 252.01734 250.63427 248.80619 246.72612 244.57004
 242.37197 240.18689 238.01782 235.86774 233.73866 231.61659 229.65351 227.82144
 226.11536 224.59829 223.23921 222.02214 220.91506 219.88599 219.00091 218.15284
 217.40576 216.59668 215.70561 215.08053 214.54146 214.67760 214.99922 216.95012
 219.00891 220.19174 220.98375 221.09433 221.81618 224.20673 227.30598 229.18291
 230.73862 232.69557 235.53313 239.34514 243.28386 247.19855 251.06674 254.78082
 258.31845 261.64005 264.77515 267.78714 270.57608 273.05084 275.18253 277.00381
 278.50278 279.84692 281.06735 282.40414 283.59125 284.64548 285.61118 286.49338
 287.29507 288.01334 288.64557 289.46368
 366.78100 356.34640 345.78980 334.66719 323.08159 311.28699 299.16839 286.98279
 274.70619 262.61458 250.63498 239.94738 230.08078 221.19618 213.38957 206.40297
 200.24837 195.19777 191.79117 189.84457 188.89296 188.96836 189.81476 191.13416
 192.87056 194.97696 197.25135 199.62175 202.07815 204.56955 206.66895 208.52234
 210.15974 211.31614 211.55654 211.79594 211.74434 211.46073 211.10513 210.74653
 210.37493 210.09633 209.91572 209.79112 209.73052 210.07292 210.47032 210.87072
 211.67511 212.86451 214.12591 215.92031 217.85971 219.91411 222.02050 224.11490
 226.18630 228.28170 230.39010 232.50749 234.64789 236.83129 239.09869 241.48009
 244.11249 246.37488 248.38828 250.16468 251.59308 252.72748 253.56087 253.88827
 253.93667 253.72207 253.09347 252.05287 250.67026 248.84266 246.76306 244.60746
 242.40986 240.22526 238.05665 235.90705 233.77845 231.65685 229.69425 227.86264
 226.15704 224.64044 223.28184 222.06524 220.95864 219.93003 219.04543 218.19783
 217.45123 216.64263 215.75202 215.12742 214.58882 214.70132 214.96710 216.92084
 219.15137 220.37799 221.09521 221.10463 221.74171 224.11475 227.17389 229.01802
 230.58498 232.59216 235.50754 239.38589 243.34468 247.24580 251.08310 254.77184
 258.29187 261.60428 264.73315 267.72797 270.49960 272.95816 275.07770 276.89883
 278.41653 279.77533 281.03915 282.38214 283.57416 284.63312 285.60101 286.48535
 287.28687 288.00763 288.63608 289.45200
 366.78100 356.34680 345.79061 334.66841 323.08322 311.28902 299.17083 286.98563
 274.70944 262.61824 250.63905 239.95185 230.08566 221.20146 213.39527 206.40907
 200.25488 195.20468 191.79849 189.85229 188.90110 188.97690 189.82371 191.14351
 192.88032 194.98712 197.26193 199.63273 202.08954 204.58134 206.68115 208.53495
 210.17276 211.32956 211.57037 211.81017 211.75897 211.47578 211.12058 210.76239
 210.39119 210.11300 209.93280 209.80861 209.74841 210.09122 210.48902 210.88983
 211.69463 212.88444 214.14624 215.94105 217.88085 219.93566 222.04246 224.13727
 226.20907 228.30488 230.41368 232.53149 234.67229 236.85610 239.12390 241.50571
 244.13851 246.40132 248.41512 250.19193 251.62073 252.75554 253.58934 253.91715
 253.96595 253.75175 253.12356 252.08336 250.70117 248.87397 246.79478 244.63958
 242.44239 240.25819 238.09000 235.94080 233.81261 231.69141 229.72922 227.89802
 226.19283 224.67663 223.31844 222.10224 220.99605 219.96785 219.08366 218.23646
 217.49027 216.68207 215.79188 215.16768 214.62949 214.72192 214.94034 216.89153
 219.28403 220.53532 221.18512 221.20514 221.74806 223.93288 227.00114 228.86728
 230.43985 232.49521 235.49139 239.43530 243.41502 247.30188 251.10533 254.76570
 258.26663 261.56839 264.69229 267.66583 270.41757 272.85953 274.96777 276.78912
 278.32184 279.70154 281.01593 282.36642 283.56027 284.62003 285.59094 286.47467
 287.27512 287.99582 288.62595 289.44403
 366.78100 356.34717 345.79134 334.66951 323.08468 311.29086 299.17303 286.98820
 274.71237 262.62154 250.64271 239.95588 230.09005 221.20622 213.40040 206.41457
 200.26074 195.21091 191.80508 189.85925 188.90842 188.98459 189.83176 191.15193
 192.88911 194.99628 197.27145 199.64262 202.09979 204.59196 206.69213 208.54630
 210.18447 211.34165 211.58282 211.82299 211.77216 211.48933 211.13450 210.77667
 210.40584 210.12801 209.94819 209.82436 209.76453 210.10770 210.50587 210.90704
 211.71221 212.90238 214.16455 215.95972 217.89990 219.95507 222.06224 224.15741
 226.22958 228.32575 230.43492 232.55309 234.69426 236.87844 239.14661 241.52878
 244.16195 246.42512 248.43929 250.21646 251.64563 252.78080 253.61498 253.94315
 253.99232 253.77849 253.15066 252.11083 250.72900 248.90217 246.82334 244.66851
 242.47169 240.28786 238.12003 235.97120 233.84337 231.72254 229.76071 227.92988
 226.22505 224.70923 223.35140 222.13557 221.02974 220.00191 219.11808 218.27125
 217.52542 216.71759 215.82777 215.20394 214.66611 214.74046 214.91614 216.86284
 219.40402 220.68977 221.25133 221.30328 221.77773 223.74420 226.81752 228.72069
 230.30768 232.41565 235.49033 239.49539 243.49509 247.36650 251.13301 254.76151
 258.24121 261.53125 264.64874 267.60156 270.33133 272.75696 274.85385 276.67615
 278.22330 279.62512 280.99713 282.35330 283.54608 284.60730 285.57742 286.46292
 287.26437 287.98187 288.61304 289.42661
 366.78100 356.34745 345.79190 334.67035 323.08580 311.29225 299.17470 286.99015
 274.71460 262.62405 250.64550 239.95895 230.09340 221.20985 213.40430 206.41875
 200.26520 195.21565 191.81010 189.86455 188.91400 188.99045 189.83790 191.15835
 192.89580 195.00325 197.27870 199.65015 202.10760 204.60005 206.70050 208.55495
 210.19340 211.35085 211.59230 211.83275 211.78220 211.49965 211.14510 210.78755
 210.41700 210.13945 209.95990 209.83635 209.77680 210.12025 210.51870 210.92015
 211.72560 212.91605 214.17850 215.97395 217.91440 219.96985 222.07730 224.17275
 226.24520 228.34165 230.45110 232.56955 234.71100 236.89545 239.16390 241.54635
 244.17980 246.44325 248.45770 250.23515 251.66460 252.80005 253.63450 253.96295
 254.01240 253.79885 253.17130 252.13175 250.75020 248.92365 246.84510 244.69055
 242.49400 240.31045 238.14290 235.99435 233.86680 231.74625 229.78470 227.95415
 226.24960 224.73405 223.37650 222.16095 221.05540 220.02785 219.14430 218.29775
 217.55220 216.74465 215.85510 215.23155 214.69400 214.75464 214.89789 216.83736
 219.49747 220.83578 221.31725 221.37437 221.81062 223.58147 226.63666 228.57497
 230.18579 232.35048 235.50060 239.56302 243.58055 247.43449 251.16200 254.75740
 258.21457 261.49356 264.60416 267.53506 270.24283 272.65338 274.73975 276.55896
 278.12253 279.53564 280.98691 282.34564 283.53711 284.59647 285.56558 286.44894
 287.24991 287.96695 288.59766 289.41183
 366.78100 356.34760 345.79220 334.67080 323.08640 311.29300 299.17560 286.99120
 274.71580 262.62540 250.64700 239.96060 230.09520 221.21180 213.40640 206.42100
 200.26760 195.21820 191.81280 189.86740 188.91700 188.99360 189.84120 191.16180
 192.89940 195.00700 197.28260 199.65420 202.11180 204.60440 206.70500 208.55960
 210.19820 211.35580 211.59740 211.83800 211.78760 211.50520 211.15080 210.79340
 210.42300 210.14560 209.96620 209.84280 209.78340 210.12700 210.52560 210.92720
 211.73280 212.92340 214.18600 215.98160 217.92220 219.97780 222.08540 224.18100
 226.25360 228.35020 230.45980 232.57840 234.72000 236.90460 239.17320 241.55580
 244.18940 246.45300 248.46760 250.24520 251.67480 252.81040 253.64500 253.97360
 254.02320 253.80980 253.18240 252.14300 250.76160 248.93520 246.85680 244.70240
 242.50600 240.32260 238.15520 236.00680 233.87940 231.75900 229.79760 227.96720
 226.26280 224.74740 223.39000 222.17460 221.06920 220.04180 219.15840 218.31200
 217.56660 216.75920 215.86980 215.24640 214.70900 214.76172 214.88626 216.81531
 219.56552 220.95731 221.39449 221.42708 221.84007 223.44870 226.46008 228.42456
 230.06786 232.29419 235.51765 239.63432 243.66885 247.50500 251.19308 254.75522
 258.18915 261.45721 264.56067 267.46918 270.15451 272.55115 274.62650 276.44186
 278.01385 279.45117 280.96860 282.33698 283.52750 284.58627 285.55579 286.43677
 287.23688 287.95547 288.58096 289.39328
 366.78100 356.34761 345.79221 334.67082 323.08643 311.29303 299.17564 286.99125
 274.71585 262.62546 250.64707 239.96067 230.09528 221.21189 213.40649 206.42110
 200.26770 195.21831 191.81292 189.86752 188.91713 188.99374 189.84134 191.16195
 192.89956 195.00716 197.28277 199.65438 202.11198 204.60459 206.70520 208.55980
 210.19841 211.35602 211.59762 211.83823 211.78784 211.50544 211.15105 210.79366
 210.42326 210.14587 209.96648 209.84308 209.78369 210.12730 210.52590 210.92751
 211.73311 212.92372 214.18633 215.98193 217.92254 219.97815 222.08575 224.18136
 226.25397 228.35057 230.46018 232.57879 234.72039 236.90500 239.17361 241.55621
 244.18982 246.45343 248.46803 250.24564 251.67525 252.81085 253.64546 253.97407
 254.02367 253.81028 253.18289 252.14349 250.76210 248.93570 246.85731 244.70292
 242.50652 240.32313 238.15574 236.00734 233.87995 231.75956 229.79816 227.96777
 226.26338 224.74798 223.39059 222.17520 221.06980 220.04241 219.15902 218.31262
 217.56723 216.75984 215.87044 215.24705 214.70966 214.76106 214.88251 216.79785
 219.61653 221.05208 221.47752 221.47075 221.85951 223.33427 226.28783 228.27245
 229.95480 232.24742 235.54282 239.71036 243.76106 247.57945 251.22861 254.75618
 258.16568 261.42194 264.51740 267.40201 270.06610 272.44955 274.51266 276.32281
 277.91428 279.41110 280.94116 282.31274 283.50635 284.56528 285.53427 286.41574
 287.21454 287.92670 288.55377 289.36481
 366.78100 356.34751 345.79202 334.67053 323.08604 311.29255 299.17506 286.99056
 274.71507 262.62458 250.64609 239.95960 230.09411 221.21062 213.40513 206.41964
 200.26615 195.21666 191.81117 189.86567 188.91518 188.99169 189.83920 191.15971
 192.89722 195.00473 197.28024 199.65175 202.10926 204.60177 206.70228 208.55679
 210.19529 211.35280 211.59431 211.83482 211.78433 211.50184 211.14735 210.78986
 210.41937 210.14188 209.96239 209.83890 209.77941 210.12291 210.52142 210.92293
 211.72844 212.91895 214.18146 215.97697 217.91748 219.97299 222.08050 224.17601
 226.24852 228.34502 230.45453 232.57304 234.71455 236.89906 239.16757 241.55008
 244.18359 246.44710 248.46161 250.23912 251.66863 252.80414 253.63864 253.96715
 254.01666 253.80317 253.17568 252.13619 250.75470 248.92821 246.84972 244.69523
 242.49874 240.31525 238.14775 235.99926 233.87177 231.75128 229.78979 227.95930
 226.25481 224.73932 223.38183 222.16634 221.06085 220.03336 219.14987 218.30337
 217.55788 216.75039 215.86090 215.23741 214.69992 214.75752 214.89359 216.78864
 219.65067 221.12209 221.55219 221.50514 221.86029 223.22557 226.12100 228.12544
 229.85190 232.21249 235.57690 239.79182 243.85771 247.65817 251.26868 254.76067
 258.14407 261.38696 264.47299 267.33496 269.97928 272.34912 274.39951 276.20612
 277.82343 279.37906 280.91367 282.28506 283.47745 284.53702 285.50616 286.38568
 287.18176 287.89429 288.51886 289.32773
 366.78100 356.34731 345.79162 334.66993 323.08524 311.29155 299.17385 286.98916
 274.71347 262.62278 250.64409 239.95740 230.09171 221.20802 213.40233 206.41664
 200.26295 195.21326 191.80756 189.86187 188.91118 188.98749 189.83480 191.15511
 192.89242 194.99973 197.27504 199.64635 202.10366 204.59597 206.69627 208.55058
 210.18889 211.34620 211.58751 211.82782 211.77713 211.49444 211.13975 210.78206
 210.41137 210.13368 209.95398 209.83029 209.77060 210.11391 210.51222 210.91353
 211.71884 212.90915 214.17146 215.96677 217.90708 219.96239 222.06969 224.16500
 226.23731 228.33362 230.44293 232.56124 234.70255 236.88686 239.15517 241.53748
 244.17079 246.43410 248.44840 250.22571 251.65502 252.79033 253.62464 253.95295
 254.00226 253.78857 253.16088 252.12119 250.73950 248.91281 246.83411 244.67942
 242.48273 240.29904 238.13135 235.98266 233.85497 231.73428 229.77259 227.94190
 226.23721 224.72152 223.36382 222.14813 221.04244 220.01475 219.13106 218.28437
 217.53868 216.73099 215.84130 215.21761 214.67992 214.75227 214.92322 216.78778
 219.65939 221.16859 221.61337 221.53297 221.84683 223.12280 225.96631 227.98984
 229.76151 232.18956 235.61966 239.87759 243.95686 247.74005 251.31184 254.76785
 258.12369 261.35226 264.42908 267.26923 269.89505 272.25143 274.28839 276.09473
 277.74387 279.34412 280.88275 282.25262 283.44440 284.50174 285.46832 286.34753
 287.13959 287.85046 288.47287 289.27985
 366.78100 356.34695 345.79089 334.66884 323.08379 311.28974 299.17168 286.98663
 274.71058 262.61953 250.64047 239.95342 230.08737 221.20331 213.39726 206.41121
 200.25716 195.20710 191.80105 189.85500 188.90394 188.97989 189.82684 191.14679
 192.88373 194.99068 197.26563 199.63658 202.09352 204.58547 206.68542 208.53936
 210.17731 211.33426 211.57521 211.81515 211.76410 211.48105 211.12599 210.76794
 210.39689 210.11884 209.93878 209.81473 209.75468 210.09763 210.49557 210.89652
 211.70147 212.89141 214.15336 215.94831 217.88826 219.94320 222.05015 224.14510
 226.21704 228.31299 230.42194 232.53989 234.68083 236.86478 239.13273 241.51468
 244.14762 246.41057 248.42452 250.20146 251.63041 252.76536 253.59931 253.92725
 253.97620 253.76215 253.13409 252.09404 250.71199 248.88494 246.80588 244.65083
 242.45378 240.26973 238.10167 235.95262 233.82457 231.70351 229.74146 227.91041
 226.20536 224.68930 223.33125 222.11520 221.00914 219.98109 219.09704 218.24999
 217.50393 216.69588 215.80583 215.18178 214.64372 214.73790 214.96037 216.79730
 219.64084 221.18826 221.66179 221.56064 221.82877 223.03278 225.82993 227.87178
 229.68718 232.17932 235.67067 239.96620 244.05621 247.82124 251.35617 254.77608
 258.10400 261.31830 264.38489 267.20456 269.81409 272.15768 274.18442 275.99637
 277.67520 279.30618 280.84619 282.21603 283.40558 284.46127 285.42612 286.30341
 287.09723 287.80612 288.42615 289.23581
 366.78100 356.34645 345.78990 334.66735 323.08180 311.28724 299.16869 286.98314
 274.70659 262.61504 250.63549 239.94794 230.08139 221.19684 213.39028 206.40373
 200.24918 195.19863 191.79208 189.84553 188.89398 188.96943 189.81588 191.13532
 192.87177 194.97822 197.25267 199.62312 202.07957 204.57102 206.67047 208.52392
 210.16136 211.31781 211.55826 211.79771 211.74616 211.46261 211.10706 210.74851
 210.37695 210.09840 209.91785 209.79330 209.73275 210.07520 210.47265 210.87310
 211.67755 212.86699 214.12844 215.92289 217.86234 219.91679 222.02324 224.11769
 226.18914 228.28459 230.39303 232.51048 234.65093 236.83438 239.10183 241.48328
 244.11573 246.37818 248.39163 250.16807 251.59652 252.73097 253.56442 253.89187
 253.94032 253.72577 253.09722 252.05667 250.67411 248.84656 246.76701 244.61146
 242.41391 240.22936 238.06081 235.91126 233.78271 231.66115 229.69860 227.86705
 226.16150 224.64495 223.28640 222.06985 220.96330 219.93475 219.05019 218.20264
 217.45609 216.64754 215.75699 215.13244 214.59389 214.71471 215.00015 216.82176
 219.60202 221.18669 221.69785 221.58241 221.80550 222.95174 225.70879 227.76555
 229.62276 232.17902 235.72990 240.05884 244.15784 247.90593 251.40501 254.78783
 258.08643 261.28381 264.33682 267.13733 269.73041 272.06079 274.08063 275.90695
 277.61557 279.27036 280.81174 282.18036 283.36835 284.42368 285.38708 286.26596
 287.05981 287.77280 288.39560 289.20557
 366.78100 356.34587 345.78873 334.66560 323.07946 311.28433 299.16519 286.97906
 274.70192 262.60979 250.62965 239.94152 230.07438 221.18925 213.38212 206.39498
 200.23985 195.18871 191.78158 189.83444 188.88231 188.95717 189.80304 191.12190
 192.85777 194.96363 197.23750 199.60737 202.06323 204.55410 206.65296 208.50583
 210.14269 211.29856 211.53842 211.77729 211.72515 211.44102 211.08488 210.72575
 210.35362 210.07448 209.89335 209.76821 209.70708 210.04894 210.44581 210.84567
 211.64954 212.83840 214.09927 215.89313 217.83200 219.88586 221.99173 224.08560
 226.15646 228.25133 230.35919 232.47606 234.61592 236.79879 239.06565 241.44652
 244.07838 246.34025 248.35311 250.12898 251.55685 252.69071 253.52358 253.85044
 253.89831 253.68317 253.05404 252.01290 250.62977 248.80163 246.72150 244.56536
 242.36723 240.18210 238.01296 235.86283 233.73369 231.61156 229.64842 227.81629
 226.11015 224.59302 223.23388 222.01675 220.90961 219.88048 218.99535 218.14721
 217.40008 216.59094 215.69981 215.07467 214.53554 214.68874 215.05067 216.86240
 219.54343 221.16240 221.72676 221.59860 221.77243 222.87558 225.59377 227.66020
 229.56111 232.18449 235.79549 240.15306 244.25723 247.98972 251.45674 254.80435
 258.07343 261.25250 264.29227 267.07593 269.65216 271.96600 273.98108 275.81815
 277.55676 279.22842 280.76978 282.13724 283.32300 284.37491 285.33606 286.21271
 287.00668 287.72046 288.34512 289.13449
 366.78100 356.34537 345.78774 334.66411 323.07747 311.28184 299.16221 286.97558
 274.69795 262.60532 250.62469 239.93605 230.06842 221.18279 213.37516 206.38753
 200.23190 195.18027 191.77263 189.82500 188.87237 188.94674 189.79211 191.11048
 192.84585 194.95121 197.22458 199.59395 202.04932 204.53969 206.63806 208.49043
 210.12679 211.28216 211.52153 211.75990 211.70727 211.42264 211.06600 210.70637
 210.33374 210.05411 209.87248 209.74685 209.68522 210.02658 210.42295 210.82232
 211.62569 212.81406 214.07443 215.86780 217.80616 219.85953 221.96490 224.05827
 226.12864 228.22301 230.33038 232.44674 234.58611 236.76848 239.03485 241.41522
 244.04659 246.30796 248.32032 250.09569 251.52306 252.65643 253.48880 253.81517
 253.86254 253.64690 253.01727 251.97564 250.59201 248.76338 246.68275 244.52612
 242.32748 240.14185 237.97222 235.82159 233.69196 231.56933 229.60570 227.77306
 226.06643 224.54880 223.18917 221.97154 220.86391 219.83428 218.94864 218.10001
 217.35238 216.54275 215.65112 215.02549 214.48586 214.66766 215.09721 216.90628
 219.48697 221.13951 221.74826 221.60341 221.72815 222.79431 225.48012 227.55193
 229.49721 232.19441 235.86902 240.24886 244.35548 248.07301 251.50964 254.82011
 258.05789 261.21713 264.24301 267.01169 269.57373 271.87732 273.89066 275.75220
 277.51178 279.17487 280.71262 282.07730 283.26154 284.31055 285.26624 286.14264
 286.93784 287.65283 288.27032 289.06140
 366.78100 356.34498 345.78697 334.66295 323.07593 311.27992 299.15990 286.97289
 274.69487 262.60185 250.62084 239.93182 230.06380 221.17779 213.36977 206.38176
 200.22574 195.17372 191.76571 189.81769 188.86467 188.93866 189.78364 191.10163
 192.83661 194.94159 197.21458 199.58356 202.03854 204.52853 206.62651 208.47850
 210.11448 211.26946 211.50845 211.74643 211.69341 211.40840 211.05138 210.69137
 210.31835 210.03833 209.85632 209.73030 209.66828 210.00927 210.40525 210.80424
 211.60722 212.79520 214.05519 215.84817 217.78615 219.83914 221.94412 224.03710
 226.10709 228.20107 230.30806 232.42404 234.56302 236.74501 239.01099 241.39097
 244.02196 246.28294 248.29493 250.06991 251.49689 252.62988 253.46186 253.78784
 253.83483 253.61881 252.98880 251.94678 250.56276 248.73375 246.65273 244.49571
 242.29670 240.11068 237.94067 235.78965 233.65963 231.53662 229.57260 227.73958
 226.03257 224.51455 223.15454 221.93652 220.82850 219.79849 218.91247 218.06345
 217.31544 216.50542 215.61340 214.98739 214.44737 214.64987 215.12830 216.95992
 219.46619 221.13167 221.77528 221.58514 221.64490 222.69383 225.34375 227.41196
 229.41240 232.19899 235.94571 240.34889 244.45731 248.16464 251.57771 254.85349
 258.05939 261.19373 264.19757 266.94708 269.48901 271.77527 273.79611 275.67334
 277.45493 279.11652 280.64938 282.01022 283.19058 284.23776 285.19049 286.06564
 286.86368 287.58411 288.19409 288.98410
 366.78100 356.34400 345.78500 334.66000 323.07199 311.27499 299.15399 286.96599
 274.68699 262.59299 250.61099 239.92098 230.05198 221.16498 213.35598 206.36698
 200.20998 195.15698 191.74798 189.79897 188.84497 188.91797 189.76197 191.07897
 192.81297 194.91697 197.18896 199.55696 202.01096 204.49996 206.59696 208.44796
 210.08296 211.23695 211.47495 211.71195 211.65795 211.37195 211.01395 210.65295
 210.27894 209.99794 209.81494 209.68794 209.62494 209.96494 210.35994 210.75793
 211.55993 212.74693 214.00593 215.79793 217.73493 219.78693 221.89093 223.98292
 226.05192 228.14492 230.25092 232.36592 234.50392 236.68492 238.94991 241.32891
 243.95891 246.21891 248.22991 250.00391 251.42991 252.56190 253.39290 253.71790
 253.76390 253.54690 252.91590 251.87290 250.48789 248.65789 246.57589 244.41789
 242.21789 240.03089 237.85989 235.70789 233.57688 231.45288 229.48788 227.65388
 225.94588 224.42688 223.06588 221.84687 220.73787 219.70687 218.81987 217.96987
 217.22087 216.40987 215.51686 214.88986 214.34886 214.59708 215.18349 217.01538
 219.42667 221.12100 221.80336 221.58740 221.58162 222.58897 225.20958 227.27391
 229.32558 232.20454 236.02380 240.43875 244.54152 248.23840 251.63048 254.87402
 258.05054 261.16504 264.15616 266.89847 269.42819 271.69839 273.70752 275.60559
 277.40048 279.05307 280.55878 281.90912 283.08289 284.12515 285.07425 285.94647
 286.75070 287.46957 288.07767 288.86722
 366.78100 356.34302 345.78304 334.65707 323.06809 311.27011 299.14813 286.95916
 274.67918 262.58420 250.60122 239.91024 230.04027 221.15229 213.34231 206.35233
 200.19436 195.14038 191.73040 189.78042 188.82544 188.89747 189.74049 191.05651
 192.78953 194.89256 197.16358 199.53060 201.98362 204.47164 206.56767 208.41769
 210.05171 211.20473 211.44176 211.67778 211.62280 211.33582 210.97684 210.61487
 210.23989 209.95791 209.77393 209.64595 209.58198 209.92100 210.31502 210.71204
 211.51307 212.69909 213.95711 215.74813 217.68415 219.73518 221.83820 223.92922
 225.99724 228.08927 230.19429 232.30831 234.44533 236.62535 238.88938 241.26740
 243.89642 246.15544 248.16547 249.93849 251.36351 252.49453 253.32455 253.64858
 253.69360 253.47562 252.84364 251.79967 250.41369 248.58271 246.49973 244.34075
 242.13978 239.95180 237.77982 235.62684 233.49487 231.36989 229.40391 227.56893
 225.85995 224.33998 222.97800 221.75802 220.64804 219.61607 218.72809 217.87711
 217.12713 216.31515 215.42118 214.79320 214.25122 214.55217 215.26320 217.05692
 219.34895 221.08368 221.83621 221.57855 221.51289 222.52711 225.09514 227.14337
 229.25394 232.23395 236.12505 240.55106 244.65405 248.34003 251.70676 254.91119
 258.04663 261.12665 264.08817 266.80817 269.31277 271.55966 273.60043 275.53662
 277.35083 279.00751 280.49643 281.81189 282.95142 283.96817 284.90570 285.77908
 286.59222 287.30215 287.91052 288.70200
 366.78100 356.34384 345.78468 334.65952 323.07136 311.27421 299.15305 286.96489
 274.68573 262.59157 250.60941 239.91925 230.05009 221.16293 213.35378 206.36462
 200.20746 195.15430 191.74514 189.79598 188.84182 188.91466 189.75851 191.07535
 192.80919 194.91303 197.18487 199.55271 202.00655 204.49539 206.59223 208.44308
 210.07792 211.23176 211.46960 211.70644 211.65228 211.36612 211.00796 210.64680
 210.27265 209.99149 209.80833 209.68117 209.61801 209.95785 210.35269 210.75053
 211.55238 212.73922 213.99806 215.78990 217.72674 219.77858 221.88242 223.97426
 226.04310 228.13595 230.24179 232.35663 234.49447 236.67531 238.94015 241.31899
 243.94883 246.20867 248.21952 249.99336 251.41920 252.55104 253.38188 253.70672
 253.75256 253.53540 252.90424 251.86109 250.47593 248.64577 246.56361 244.40545
 242.20529 240.01813 237.84697 235.69482 233.56366 231.43950 229.47434 227.64018
 225.93202 224.41286 223.05170 221.83254 220.72339 219.69223 218.80507 217.95491
 217.20575 216.39459 215.50143 214.87427 214.33311 214.61267 215.27313 217.04128
 219.36346 221.08786 221.84508 221.56412 221.41370 222.34438 224.91965 226.98743
 229.16942 232.26176 236.23473 240.68629 244.79935 248.50131 251.87344 255.04643
 258.13708 261.16971 264.08292 266.75589 269.19168 271.36270 273.36746 275.29898
 277.22220 278.86777 280.30316 281.61237 282.76639 283.80630 284.76343 285.63211
 286.41122 287.09308 287.69495 288.48459
 366.78100 356.34562 345.78823 334.66485 323.07847 311.28309 299.16370 286.97732
 274.69994 262.60756 250.62717 239.93879 230.07141 221.18602 213.37864 206.39126
 200.23588 195.18449 191.77711 189.82973 188.87735 188.95196 189.79758 191.11620
 192.85181 194.95743 197.23105 199.60067 202.05628 204.54690 206.64552 208.49814
 210.13475 211.29037 211.52999 211.76860 211.71622 211.43184 211.07546 210.71607
 210.34369 210.06431 209.88293 209.75754 209.69616 210.03778 210.43439 210.83401
 211.63763 212.82625 214.08686 215.88048 217.81910 219.87272 221.97833 224.07195
 226.14257 228.23718 230.34480 232.46142 234.60104 236.78365 239.05027 241.43089
 244.06251 246.32412 248.33674 250.11236 251.53997 252.67359 253.50621 253.83283
 253.88044 253.66506 253.03568 251.99430 250.61091 248.78253 246.70215 244.54576
 242.34738 240.16200 237.99262 235.84223 233.71285 231.59047 229.62709 227.79470
 226.08832 224.57094 223.21155 221.99417 220.88679 219.85741 218.97202 218.12364
 217.37626 216.56688 215.67549 215.05011 214.51073 214.73488 215.26445 216.97095
 219.40938 221.15782 221.90146 221.57658 221.29492 222.09674 224.67899 226.77469
 229.01913 232.24001 236.30331 240.75977 244.88396 248.61356 252.01231 255.18866
 258.26410 261.27866 264.18420 266.85806 269.28650 271.41974 273.35349 275.34503
 277.17111 278.71725 280.06845 281.24509 282.25211 283.24533 284.19479 285.05655
 285.81772 286.49203 287.09467 287.89993
 366.78100 356.34664 345.79027 334.66791 323.08254 311.28818 299.16981 286.98445
 274.70808 262.61672 250.63735 239.94999 230.08362 221.19926 213.39289 206.40653
 200.25217 195.20180 191.79544 189.84907 188.89771 188.97334 189.81998 191.13961
 192.87625 194.98288 197.25752 199.62815 202.08479 204.57642 206.67606 208.52970
 210.16733 211.32397 211.56460 211.80424 211.75287 211.46951 211.11414 210.75578
 210.38441 210.10605 209.92568 209.80132 209.74095 210.08359 210.48123 210.88186
 211.68650 212.87613 214.13777 215.93240 217.87204 219.92667 222.03331 224.12794
 226.19958 228.29521 230.40385 232.52148 234.66212 236.84576 239.11339 241.49503
 244.12766 246.39030 248.40393 250.18057 251.60920 252.74384 253.57747 253.90511
 253.95374 253.73938 253.11101 252.07065 250.68829 248.86092 246.78156 244.62619
 242.42883 240.24446 238.07610 235.92673 233.79837 231.67700 229.71464 227.88327
 226.17791 224.66154 223.30318 222.08682 220.98045 219.95209 219.06772 218.22036
 217.47399 216.66563 215.77526 215.15090 214.61253 214.81964 215.30894 216.91245
 219.38417 221.22342 222.00763 221.69423 221.29459 221.93761 224.45386 226.50018
 228.81924 232.16153 236.31656 240.78259 244.89110 248.61899 252.02806 255.21825
 258.30002 261.32648 264.24734 266.94571 269.40292 271.56100 273.42349 275.49445
 277.24536 278.72729 280.03830 281.16605 282.07730 282.89807 283.82928 284.69287
 285.31793 286.00385 286.61722 287.45673
 366.78100 356.34689 345.79078 334.66867 323.08357 311.28946 299.17135 286.98624
 274.71013 262.61902 250.63991 239.95281 230.08670 221.20259 213.39648 206.41037
 200.25626 195.20615 191.80004 189.85394 188.90283 188.97872 189.82561 191.14550
 192.88239 194.98928 197.26418 199.63507 202.09196 204.58385 206.68374 208.53763
 210.17552 211.33242 211.57331 211.81320 211.76209 211.47898 211.12387 210.76576
 210.39466 210.11655 209.93644 209.81233 209.75222 210.09511 210.49300 210.89389
 211.69879 212.88868 214.15057 215.94546 217.88535 219.94024 222.04713 224.14203
 226.21392 228.30981 230.41870 232.53659 234.67748 236.86137 239.12927 241.51116
 244.14405 246.40694 248.42083 250.19772 251.62661 252.76151 253.59540 253.92329
 253.97218 253.75807 253.12996 252.08985 250.70774 248.88064 246.80153 244.64642
 242.44931 240.26520 238.09709 235.94798 233.81988 231.69877 229.73666 227.90555
 226.20044 224.68433 223.32622 222.11012 221.00401 219.97590 219.09179 218.24468
 217.49857 216.69046 215.80036 215.17625 214.63814 214.86981 215.41718 216.79843
 219.30898 221.33426 222.09993 221.70799 221.19859 221.73778 224.27808 226.32106
 228.67688 232.09071 236.33891 240.83321 244.94382 248.66159 252.07225 255.27141
 258.34937 261.36752 264.29254 267.00677 269.48141 271.66821 273.54974 275.55539
 277.32236 278.79895 280.07623 281.18106 282.09601 282.89240 283.72958 284.47018
 285.16901 285.87695 286.55054 287.42026
 366.78100 356.34494 345.78688 334.66282 323.07576 311.27970 299.15964 286.97258
 274.69452 262.60146 250.62040 239.93134 230.06328 221.17722 213.36916 206.38110
 200.22504 195.17298 191.76492 189.81686 188.86380 188.93774 189.78268 191.10062
 192.83556 194.94050 197.21344 199.58238 202.03732 204.52726 206.62520 208.47714
 210.11308 211.26802 211.50696 211.74490 211.69184 211.40678 211.04972 210.68966
 210.31660 210.03654 209.85448 209.72842 209.66636 210.00730 210.40324 210.80218
 211.60512 212.79306 214.05300 215.84594 217.78388 219.83682 221.94176 224.03470
 226.10464 228.19858 230.30552 232.42146 234.56041 236.74235 239.00829 241.38823
 244.01917 246.28011 248.29205 250.06699 251.49393 252.62687 253.45881 253.78475
 253.83169 253.61563 252.98557 251.94351 250.55945 248.73039 246.64933 244.49227
 242.29321 240.10715 237.93709 235.78603 233.65597 231.53291 229.56885 227.73579
 226.02873 224.51067 223.15061 221.93255 220.82449 219.79443 218.90837 218.05931
 217.31125 216.50119 215.60913 214.98307 214.44301 214.81371 215.69525 216.68652
 218.93039 221.21895 222.17320 221.75311 221.06270 221.41557 224.05640 226.24547
 228.55569 232.05675 236.36140 240.85773 244.99127 248.73872 252.21736 255.49048
 258.57797 261.55298 264.40329 267.07159 269.49664 271.61423 273.60370 275.55475
 277.22241 278.64029 279.87448 280.95032 281.77817 282.63687 283.58124 284.46457
 285.27213 285.99124 286.61945 287.42004
 366.78100 356.34252 345.78204 334.65555 323.06607 311.26759 299.14511 286.95563
 274.67514 262.57966 250.59618 239.90470 230.03421 221.14573 213.33525 206.34477
 200.18629 195.13180 191.72132 189.77084 188.81536 188.88688 189.72939 191.04491
 192.77743 194.87995 197.15047 199.51698 201.96950 204.45702 206.55254 208.40206
 210.03557 211.18809 211.42461 211.66013 211.60464 211.31716 210.95768 210.59520
 210.21972 209.93723 209.75275 209.62427 209.55979 209.89831 210.29182 210.68834
 211.48886 212.67438 213.93190 215.72241 217.65793 219.70845 221.81097 223.90148
 225.96900 228.06052 230.16504 232.27856 234.41507 236.59459 238.85811 241.23563
 243.86415 246.12266 248.13218 249.90470 251.32922 252.45974 253.28925 253.61277
 253.65729 253.43881 252.80632 251.76184 250.37536 248.54388 246.46040 244.30091
 242.09943 239.91095 237.73847 235.58499 233.45250 231.32702 229.36054 227.52506
 225.81558 224.29509 222.93261 221.71213 220.60165 219.56917 218.68068 217.82920
 217.07872 216.26624 215.37175 214.74327 214.20079 214.71594 215.93207 216.82944
 218.37144 220.66133 222.14975 222.08919 221.42079 221.51549 223.99477 226.31935
 228.56247 232.07675 236.36874 240.79370 244.89238 248.71068 252.26070 255.50897
 258.58920 261.56335 264.39450 267.05811 269.49066 271.61649 273.64114 275.54657
 277.14267 278.55371 279.78372 280.79504 281.68729 282.70343 283.69580 284.61591
 285.44348 286.18042 286.82419 287.64459
 366.78100 356.34301 345.78302 334.65703 323.06804 311.27005 299.14806 286.95907
 274.67908 262.58409 250.60110 239.91011 230.04012 221.15213 213.34214 206.35215
 200.19416 195.14017 191.73018 189.78019 188.82520 188.89721 189.74022 191.05623
 192.78924 194.89225 197.16326 199.53027 201.98328 204.47129 206.56730 208.41731
 210.05132 211.20432 211.44133 211.67734 211.62235 211.33536 210.97637 210.61438
 210.23939 209.95740 209.77341 209.64542 209.58143 209.92044 210.31445 210.71146
 211.51247 212.69848 213.95649 215.74750 217.68351 219.73452 221.83753 223.92854
 225.99655 228.08856 230.19357 232.30758 234.44459 236.62460 238.88861 241.26662
 243.89563 246.15464 248.16465 249.93766 251.36267 252.49368 253.32369 253.64770
 253.69271 253.47472 252.84273 251.79874 250.41275 248.58176 246.49877 244.33978
 242.13879 239.95080 237.77881 235.62582 233.49383 231.36884 229.40285 227.56786
 225.85887 224.33888 222.97689 221.75690 220.64691 219.61492 218.72693 217.87594
 217.12595 216.31396 215.41997 214.79197 214.24998 214.75157 215.94034 217.01129
 218.19258 220.29799 222.04749 222.28003 221.73181 221.72870 224.12567 226.25952
 228.50360 232.06604 236.40607 240.74408 244.78432 248.59325 252.10513 255.34435
 258.45676 261.46585 264.33591 267.02997 269.49817 271.70770 273.75323 275.67740
 277.26892 278.69479 279.92264 280.98166 281.90543 282.88498 283.84860 284.71692
 285.50986 286.21597 286.83282 287.61893
 366.78100 356.34418 345.78536 334.66053 323.07271 311.27589 299.15507 286.96725
 274.68843 262.59460 250.61278 239.92296 230.05414 221.16732 213.35849 206.36967
 200.21285 195.16003 191.75121 189.80239 188.84856 188.92174 189.76592 191.08310
 192.81728 194.92146 197.19363 199.56181 202.01599 204.50517 206.60235 208.45352
 210.08870 211.24288 211.48106 211.71824 211.66442 211.37859 211.02077 210.65995
 210.28613 210.00531 209.82248 209.69566 209.63284 209.97302 210.36820 210.76638
 211.56855 212.75573 214.01491 215.80709 217.74427 219.79645 221.90062 223.99280
 226.06198 228.15516 230.26134 232.37651 234.51469 236.69587 238.96105 241.34023
 243.97041 246.23058 248.24176 250.01594 251.44212 252.57430 253.40547 253.73065
 253.77683 253.56001 252.92919 251.88637 250.50154 248.67172 246.58990 244.43208
 242.23226 240.04544 237.87461 235.72279 233.59197 231.46815 229.50333 227.66950
 225.96168 224.44286 223.08204 221.86322 220.75440 219.72357 218.83675 217.98693
 217.23811 216.42729 215.53446 214.90764 214.36682 214.82883 215.92035 217.03525
 218.31978 220.27406 221.77094 222.01233 221.67715 221.87753 224.17960 226.23239
 228.58434 232.17300 236.52174 240.78500 244.78221 248.57990 252.06921 255.31532
 258.43118 261.44659 264.32086 267.00815 269.48383 271.71854 273.78293 275.68338
 277.32166 278.73935 279.99448 281.11099 282.10263 282.97202 283.77631 284.47552
 285.15680 285.84750 286.45599 287.23145
 366.78100 356.34342 345.78384 334.65826 323.06968 311.27211 299.15053 286.96195
 274.68237 262.58779 250.60521 239.91463 230.04505 221.15747 213.34790 206.35832
 200.20074 195.14716 191.73758 189.78800 188.83342 188.90584 189.74926 191.06568
 192.79911 194.90253 197.17395 199.54137 201.99479 204.48321 206.57963 208.43005
 210.06447 211.21790 211.45532 211.69174 211.63716 211.35058 210.99200 210.63042
 210.25584 209.97426 209.79069 209.66311 209.59953 209.93895 210.33337 210.73079
 211.53221 212.71863 213.97705 215.76847 217.70490 219.75632 221.85974 223.95116
 226.01958 228.11200 230.21742 232.33184 234.46926 236.64969 238.91411 241.29253
 243.92195 246.18137 248.19179 249.96521 251.39063 252.52205 253.35248 253.67690
 253.72232 253.50474 252.87316 251.82958 250.44400 248.61342 246.53084 244.37226
 242.17169 239.98411 237.81253 235.65995 233.52837 231.40379 229.43821 227.60363
 225.89505 224.37548 223.01390 221.79432 220.68474 219.65316 218.76558 217.91500
 217.16542 216.35384 215.46027 214.83269 214.29111 214.81696 216.05937 216.99663
 218.22356 220.17633 221.59601 221.76344 221.43326 221.71704 224.10481 226.21851
 228.59061 232.25780 236.65549 240.89001 244.87387 248.66904 252.18700 255.47089
 258.57825 261.56351 264.40271 267.05496 269.48889 271.69284 273.75034 275.63736
 277.26877 278.68924 279.95312 281.10638 282.12164 282.97195 283.67084 284.25604
 284.91763 285.61108 286.21689 286.98892
 366.78100 356.34286 345.78271 334.65657 323.06743 311.26929 299.14714 286.95800
 274.67786 262.58272 250.59957 239.90843 230.03829 221.15014 213.34000 206.34986
 200.19172 195.13757 191.72743 189.77729 188.82215 188.89400 189.73686 191.05272
 192.78557 194.88843 197.15929 199.52615 201.97900 204.46686 206.56272 208.41258
 210.04643 211.19929 211.43615 211.67200 211.61686 211.32972 210.97058 210.60843
 210.23329 209.95115 209.76700 209.63886 209.57472 209.91358 210.30743 210.70429
 211.50515 212.69101 213.94886 215.73972 217.67558 219.72643 221.82929 223.92015
 225.98801 228.07986 230.18472 232.29858 234.43544 236.61529 238.87915 241.25701
 243.88586 246.14472 248.15458 249.92744 251.35229 252.48315 253.31301 253.63687
 253.68172 253.46358 252.83144 251.78729 250.40115 248.57001 246.48687 244.32772
 242.12658 239.93844 237.76630 235.61315 233.48101 231.35587 229.38972 227.55458
 225.84544 224.32530 222.96315 221.74301 220.63287 219.60073 218.71258 217.86144
 217.11130 216.29915 215.40501 214.77687 214.23473 214.81609 216.18797 217.00107
 218.09917 219.97707 221.31168 221.46902 221.21904 221.62575 224.10316 226.31535
 228.63470 232.37492 236.80177 241.01363 244.99742 248.79257 252.34679 255.66634
 258.72409 261.66989 264.47552 267.09457 269.49069 271.67545 273.72922 275.61978
 277.25299 278.67526 279.95511 281.11963 282.12808 282.87561 283.50925 284.16550
 284.89816 285.55270 286.12451 286.85318
 366.78100 356.34334 345.78368 334.65803 323.06937 311.27171 299.15005 286.96140
 274.68174 262.58708 250.60442 239.91377 230.04411 221.15645 213.34679 206.35714
 200.19948 195.14582 191.73616 189.78650 188.83185 188.90419 189.74753 191.06387
 192.79722 194.90056 197.17190 199.53924 201.99259 204.48093 206.57727 208.42761
 210.06195 211.21530 211.45264 211.68898 211.63432 211.34767 210.98901 210.62735
 210.25269 209.97104 209.78738 209.65972 209.59606 209.93541 210.32975 210.72709
 211.52843 212.71477 213.97312 215.76446 217.70080 219.75214 221.85549 223.94683
 226.01517 228.10751 230.21286 232.32720 234.46454 236.64488 238.90922 241.28757
 243.91691 246.17625 248.18659 249.95994 251.38528 252.51662 253.34696 253.67131
 253.71665 253.49899 252.86733 251.82368 250.43802 248.60736 246.52470 244.36604
 242.16539 239.97773 237.80607 235.65341 233.52176 231.39710 229.43144 227.59678
 225.88813 224.36847 223.00681 221.78715 220.67749 219.64584 218.75818 217.90752
 217.15786 216.34621 215.45255 214.82489 214.28323 214.87071 216.25227 216.99028
 218.09099 219.75310 221.02257 221.22606 220.98717 221.42632 224.06055 226.44051
 228.76801 232.50308 236.89803 241.11801 245.11285 248.92883 252.52710 255.84799
 258.89862 261.79132 264.53787 267.10504 269.46661 271.64130 273.67520 275.53867
 277.19116 278.65021 279.95078 281.09921 282.02930 282.79800 283.54065 284.30658
 285.00934 285.63516 286.18185 286.87857
 366.78100 356.34400 345.78500 334.65999 323.07199 311.27499 299.15399 286.96599
 274.68699 262.59298 250.61098 239.92098 230.05198 221.16498 213.35598 206.36697
 200.20997 195.15697 191.74797 189.79897 188.84497 188.91796 189.76196 191.07896
 192.81296 194.91696 197.18896 199.55695 202.01095 204.49995 206.59695 208.44795
 210.08295 211.23694 211.47494 211.71194 211.65794 211.37194 211.01394 210.65293
 210.27893 209.99793 209.81493 209.68793 209.62493 209.96492 210.35992 210.75792
 211.55992 212.74692 214.00592 215.79791 217.73491 219.78691 221.89091 223.98291
 226.05191 228.14490 230.25090 232.36590 234.50390 236.68490 238.94990 241.32889
 243.95889 246.21889 248.22989 250.00389 251.42989 252.56188 253.39288 253.71788
 253.76388 253.54688 252.91588 251.87287 250.48787 248.65787 246.57587 244.41787
 242.21786 240.03086 237.85986 235.70786 233.57686 231.45286 229.48785 227.65385
 225.94585 224.42685 223.06585 221.84685 220.73784 219.70684 218.81984 217.96984
 217.22084 216.40984 215.51683 214.88983 214.34883 214.93594 216.30548 217.01790
 218.00696 219.48656 220.94305 221.31886 221.12840 221.50648 223.87999 226.34669
 228.80315 232.57544 236.90137 241.08752 245.08632 248.95279 252.69797 256.14297
 259.21353 262.03641 264.71112 267.17896 269.40244 271.50174 273.52936 275.36963
 276.96851 278.43756 279.75232 280.82425 281.68484 282.58398 283.46832 284.26950
 284.99005 285.63171 286.19226 286.90662
 366.78100 356.34464 345.78628 334.66192 323.07456 311.27820 299.15783 286.97047
 274.69211 262.59875 250.61739 239.92803 230.05967 221.17331 213.36495 206.37659
 200.22022 195.16786 191.75950 189.81114 188.85778 188.93142 189.77606 191.09370
 192.82834 194.93298 197.20561 199.57425 202.02889 204.51853 206.61617 208.46781
 210.10345 211.25809 211.49673 211.73437 211.68101 211.39564 211.03828 210.67792
 210.30456 210.02420 209.84184 209.71548 209.65312 209.99376 210.38940 210.78803
 211.59067 212.77831 214.03795 215.83059 217.76823 219.82087 221.92551 224.01815
 226.08779 228.18142 230.28806 232.40370 234.54234 236.72398 238.98962 241.36926
 243.99990 246.26054 248.27218 250.04681 251.47345 252.60609 253.43773 253.76337
 253.81001 253.59365 252.96329 251.92093 250.53657 248.70721 246.62584 244.46848
 242.26912 240.08276 237.91240 235.76104 233.63068 231.50732 229.54296 227.70960
 226.00223 224.48387 223.12351 221.90515 220.79679 219.76643 218.88007 218.03071
 217.28235 216.47199 215.57962 214.95326 214.41290 215.00426 216.36345 217.04314
 217.95811 219.46960 221.12807 221.58345 221.26920 221.60141 223.77426 226.14548
 228.69597 232.54254 236.88934 241.07915 245.05157 248.95409 252.74471 256.22012
 259.30838 262.18784 264.84692 267.25424 269.41516 271.37213 273.26593 275.06113
 276.62927 278.04114 279.23868 280.45697 281.64664 282.69919 283.65948 284.52945
 285.31189 286.00867 286.61734 287.39304
 366.78100 356.34459 345.78618 334.66177 323.07436 311.27796 299.15755 286.97014
 274.69173 262.59832 250.61691 239.92750 230.05909 221.17268 213.36428 206.37587
 200.21946 195.16705 191.75864 189.81023 188.85682 188.93041 189.77500 191.09260
 192.82719 194.93178 197.20437 199.57296 202.02755 204.51714 206.61473 208.46632
 210.10192 211.25651 211.49510 211.73269 211.67928 211.39387 211.03646 210.67605
 210.30264 210.02224 209.83983 209.71342 209.65101 209.99160 210.38719 210.78578
 211.58837 212.77596 214.03556 215.82815 217.76574 219.81833 221.92292 224.01551
 226.08510 228.17869 230.28528 232.40088 234.53947 236.72106 238.98665 241.36624
 243.99683 246.25742 248.26901 250.04360 251.47020 252.60279 253.43438 253.75997
 253.80656 253.59015 252.95974 251.91733 250.53292 248.70352 246.62211 244.46470
 242.26529 240.07888 237.90847 235.75706 233.62665 231.50324 229.53884 227.70543
 225.99802 224.47961 223.11920 221.90079 220.79238 219.76197 218.87556 218.02616
 217.27775 216.46734 215.57493 214.94852 214.40811 215.03760 216.44260 217.05573
 217.86320 219.49753 221.22777 221.74384 221.15572 221.44284 223.67302 225.94601
 228.62822 232.57140 236.95055 241.15582 245.18053 249.13490 252.91789 256.36731
 259.46548 262.30792 264.89578 267.25250 269.36679 271.32419 273.19113 274.95071
 276.46954 278.25958 279.99704 281.52264 282.84296 284.01105 285.07678 286.04227
 286.91061 287.68387 288.35938 289.22021
 366.78100 356.34574 345.78848 334.66522 323.07895 311.28369 299.16443 286.97817
 274.70091 262.60865 250.62838 239.94012 230.07286 221.18760 213.38034 206.39308
 200.23781 195.18655 191.77929 189.83203 188.87977 188.95451 189.80025 191.11898
 192.85472 194.96046 197.23420 199.60394 202.05968 204.55041 206.64915 208.50189
 210.13863 211.29437 211.53411 211.77284 211.72058 211.43632 211.08006 210.72080
 210.34854 210.06928 209.88801 209.76275 209.70149 210.04323 210.43997 210.83971
 211.64344 212.83218 214.09292 215.88666 217.82540 219.87914 221.98487 224.07861
 226.14935 228.24409 230.35183 232.46857 234.60831 236.79104 239.05778 241.43852
 244.07026 246.33200 248.34474 250.12047 251.54821 252.68195 253.51469 253.84143
 253.88917 253.67390 253.04464 252.00338 250.62012 248.79186 246.71160 244.55534
 242.35707 240.17181 238.00255 235.85229 233.72303 231.60077 229.63750 227.80524
 226.09898 224.58172 223.22246 222.00520 220.89794 219.86867 218.98341 218.13515
 217.38789 216.57863 215.68737 215.06210 214.52284 215.09476 216.42068 217.16042
 217.74327 219.20001 220.93384 221.51550 221.06567 221.52835 223.68027 225.98782
 228.70311 232.70464 237.15341 241.34215 245.33789 249.28896 253.05902 256.48962
 259.56918 262.37112 265.04608 267.45471 269.61124 271.63913 273.59842 275.38834
 277.06534 278.84113 280.54001 282.03177 283.32278 284.46497 285.50705 286.45111
 287.30017 288.05627 288.71680 289.55856
 366.78100 356.34688 345.79076 334.66863 323.08351 311.28939 299.17127 286.98615
 274.71002 262.61890 250.63978 239.95266 230.08654 221.20242 213.39629 206.41017
 200.25605 195.20593 191.79981 189.85368 188.90256 188.97844 189.82532 191.14520
 192.88207 194.98895 197.26383 199.63471 202.09159 204.58346 206.68334 208.53722
 210.17510 211.33198 211.57286 211.81273 211.76161 211.47849 211.12337 210.76525
 210.39412 210.11600 209.93588 209.81176 209.75164 210.09451 210.49239 210.89327
 211.69815 212.88803 214.14991 215.94478 217.88466 219.93954 222.04642 224.14130
 226.21317 228.30905 230.41793 232.53581 234.67669 236.86056 239.12844 241.51032
 244.14320 246.40608 248.41995 250.19683 251.62571 252.76059 253.59447 253.92235
 253.97122 253.75710 253.12898 252.08886 250.70674 248.87961 246.80049 244.64537
 242.44825 240.26413 238.09600 235.94688 233.81876 231.69764 229.73552 227.90439
 226.19927 224.68315 223.32503 222.10891 221.00279 219.97466 219.09054 218.24342
 217.49730 216.68918 215.79905 215.17493 214.63681 215.14258 216.35046 217.29811
 217.76274 218.81538 220.33516 221.00499 221.00697 221.63707 223.71101 226.19843
 229.02803 232.86964 237.21263 241.40147 245.40215 249.33536 253.05562 256.40015
 259.37534 262.17374 264.98801 267.42651 269.65396 271.74521 273.73920 275.56769
 277.18179 278.61600 279.94653 281.21579 282.34436 283.33871 284.24594 285.06781
 285.80701 286.46524 287.04028 287.77307
 366.78100 356.34549 345.78799 334.66448 323.07798 311.28247 299.16297 286.97646
 274.69896 262.60645 250.62595 239.93744 230.06994 221.18443 213.37692 206.38942
 200.23391 195.18241 191.77490 189.82740 188.87489 188.94939 189.79488 191.11338
 192.84887 194.95436 197.22786 199.59735 202.05285 204.54334 206.64184 208.49433
 210.13083 211.28632 211.52582 211.76431 211.71181 211.42730 211.07079 210.71129
 210.33878 210.05928 209.87777 209.75227 209.69076 210.03226 210.42875 210.82825
 211.63174 212.82023 214.08073 215.87422 217.81272 219.86621 221.97171 224.06520
 226.13570 228.23019 230.33769 232.45418 234.59368 236.77617 239.04266 241.42316
 244.05465 246.31615 248.32864 250.10414 251.53163 252.66513 253.49762 253.82412
 253.87161 253.65610 253.02660 251.98509 250.60159 248.77308 246.69258 244.53607
 242.33757 240.15206 237.98256 235.83205 233.70255 231.58004 229.61653 227.78403
 226.07752 224.56002 223.20051 221.98301 220.87550 219.84600 218.96049 218.11199
 217.36448 216.55498 215.66347 215.03796 214.49846 215.09479 216.47398 217.20612
 217.83542 218.93996 220.36772 220.93539 220.81693 221.42789 223.51593 226.02933
 228.89102 232.85822 237.27036 241.47618 245.46388 249.40233 253.16579 256.55551
 259.58990 262.36682 264.98364 267.37390 269.53366 271.53662 273.48572 275.33136
 276.89264 278.30176 279.55563 280.90665 282.12207 283.19742 284.17850 285.06732
 285.86670 286.57855 287.20041 287.99289
 366.78100 356.34397 345.78494 334.65992 323.07189 311.27486 299.15383 286.96580
 274.68678 262.59275 250.61072 239.92069 230.05166 221.16463 213.35561 206.36658
 200.20955 195.15652 191.74749 189.79847 188.84444 188.91741 189.76138 191.07835
 192.81233 194.91630 197.18827 199.55624 202.01021 204.49919 206.59616 208.44713
 210.08210 211.23607 211.47405 211.71102 211.65699 211.37096 211.01293 210.65190
 210.27788 209.99685 209.81382 209.68679 209.62376 209.96374 210.35871 210.75668
 211.55865 212.74562 214.00460 215.79657 217.73354 219.78551 221.88948 223.98146
 226.05043 228.14340 230.24937 232.36434 234.50231 236.68329 238.94826 241.32723
 243.95720 246.21717 248.22815 250.00212 251.42809 252.56006 253.39103 253.71601
 253.76198 253.54495 252.91392 251.87089 250.48587 248.65584 246.57381 244.41578
 242.21575 240.02873 237.85770 235.70567 233.57464 231.45061 229.48558 227.65156
 225.94353 224.42450 223.06347 221.84444 220.73542 219.70439 218.81736 217.96733
 217.21830 216.40728 215.51425 214.88722 214.34619 215.05420 216.58690 217.11943
 217.78433 219.11771 220.55646 220.93138 220.44794 221.09059 223.41635 225.99879
 228.99664 232.99406 237.36479 241.59999 245.67050 249.65570 253.44331 256.87619
 259.91382 262.64777 265.15381 267.40314 269.45163 271.42697 273.36383 275.10483
 277.06119 279.02936 280.73248 282.22797 283.52216 284.66721 285.71188 286.65826
 287.50946 288.26746 288.92960 289.77344
 366.78100 356.34642 345.78983 334.66725 323.08166 311.28708 299.16850 286.98291
 274.70633 262.61475 250.63516 239.94758 230.08099 221.19641 213.38983 206.40324
 200.24866 195.19808 191.79149 189.84491 188.89332 188.96874 189.81516 191.13457
 192.87099 194.97741 197.25182 199.62224 202.07865 204.57007 206.66949 208.52290
 210.16032 211.31674 211.55715 211.79657 211.74498 211.46140 211.10582 210.74723
 210.37565 210.09706 209.91648 209.79190 209.73131 210.07373 210.47115 210.87156
 211.67598 212.86539 214.12681 215.92123 217.86064 219.91506 222.02148 224.11589
 226.18731 228.28272 230.39114 232.50856 234.64897 236.83239 239.09981 241.48122
 244.11364 246.37605 248.38947 250.16589 251.59430 252.72872 253.56214 253.88955
 253.93797 253.72338 253.09480 252.05422 250.67163 248.84405 246.76447 244.60888
 242.41130 240.22671 238.05813 235.90855 233.77996 231.65838 229.69579 227.86421
 226.15863 224.64204 223.28346 222.06688 220.96029 219.93171 219.04712 218.19954
 217.45296 216.64437 215.75379 215.12921 214.59062 215.17863 216.50949 217.21068
 217.73277 218.92534 220.36472 220.73671 220.33249 220.80548 223.40863 226.00664
 229.06297 233.13306 237.54272 241.76692 245.81459 249.81679 253.65675 257.17050
 260.29871 263.08081 265.60419 267.83133 269.82242 271.71201 273.57587 275.72440
 278.26752 280.44736 282.33365 283.98996 285.42337 286.69156 287.84857 288.89676
 289.83948 290.67899 291.41235 292.34695
 366.78100 356.34782 345.79264 334.67145 323.08727 311.29409 299.17691 286.99273
 274.71755 262.62736 250.64918 239.96300 230.09782 221.21464 213.40945 206.42427
 200.27109 195.22191 191.81673 189.87155 188.92136 188.99818 189.84600 191.16682
 192.90464 195.01245 197.28827 199.66009 202.11791 204.61073 206.71155 208.56636
 210.20518 211.36300 211.60482 211.84564 211.79546 211.51327 211.15909 210.80191
 210.43173 210.15455 209.97536 209.85218 209.79300 210.13682 210.53564 210.93746
 211.74327 212.93409 214.19691 215.99273 217.93355 219.98936 222.09718 224.19300
 226.26582 228.36264 230.47246 232.59127 234.73309 236.91791 239.18673 241.56955
 244.20336 246.46718 248.48200 250.25982 251.68964 252.82546 253.66027 253.98909
 254.03891 253.82573 253.19855 252.15936 250.77818 248.95200 246.87382 244.71964
 242.52346 240.34027 238.17309 236.02491 233.89773 231.77755 229.81636 227.98618
 226.28200 224.76682 223.40964 222.19446 221.08927 220.06209 219.17891 218.33273
 217.58755 216.78037 215.89118 215.26800 214.73082 215.24315 216.44232 217.25598
 217.87808 218.89348 220.07581 220.31726 220.08220 220.90303 223.28757 226.01073
 229.08365 233.18747 237.60910 241.81310 245.85011 249.83777 253.67619 257.17761
 260.34976 263.24918 265.91019 268.26627 270.33334 272.21735 273.90152 276.00800
 278.28836 280.37277 282.17651 283.76028 285.13092 286.34360 287.44995 288.45227
 289.35373 290.15646 290.85773 291.75140
 366.78100 356.34610 345.78919 334.66629 323.08039 311.28548 299.16658 286.98067
 274.70377 262.61187 250.63196 239.94406 230.07716 221.19225 213.38535 206.39845
 200.24354 195.19264 191.78574 189.83883 188.88693 188.96202 189.80812 191.12722
 192.86331 194.96941 197.24351 199.61360 202.06970 204.56080 206.65989 208.51299
 210.15008 211.30618 211.54628 211.78537 211.73347 211.44957 211.09366 210.73476
 210.36286 210.08395 209.90305 209.77814 209.71724 210.05934 210.45643 210.85653
 211.66063 212.84972 214.11082 215.90492 217.84401 219.89811 222.00421 224.09830
 226.16940 228.26449 230.37259 232.48969 234.62978 236.81288 239.07998 241.46107
 244.09317 246.35527 248.36836 250.14446 251.57255 252.70665 253.53975 253.86684
 253.91494 253.70004 253.07113 252.03023 250.64733 248.81942 246.73952 244.58362
 242.38571 240.20081 238.03190 235.88200 233.75310 231.63119 229.66829 227.83639
 226.13048 224.61358 223.25468 222.03777 220.93087 219.90196 219.01706 218.16916
 217.42225 216.61335 215.72245 215.09754 214.55864 215.15619 216.50458 217.16490
 217.89166 218.96513 219.97871 220.03120 219.93483 220.94247 223.01382 225.87845
 228.96619 233.19675 237.69086 241.88895 245.92574 249.92963 253.76881 257.23511
 260.34207 263.18839 265.84717 268.24884 270.40543 272.41251 274.29395 276.10400
 277.98959 279.67929 281.25961 282.64725 283.84814 284.91061 285.87994 286.75812
 287.54794 288.25125 288.86566 289.64868
 366.78100 356.34462 345.78623 334.66185 323.07447 311.27808 299.15770 286.97032
 274.69194 262.59855 250.61717 239.92779 230.05940 221.17302 213.36464 206.37625
 200.21987 195.16749 191.75910 189.81072 188.85734 188.93095 189.77557 191.09319
 192.82781 194.93242 197.20504 199.57366 202.02827 204.51789 206.61551 208.46712
 210.10274 211.25736 211.49597 211.73359 211.68021 211.39483 211.03744 210.67706
 210.30368 210.02329 209.84091 209.71453 209.65214 209.99276 210.38838 210.78699
 211.58961 212.77723 214.03685 215.82946 217.76708 219.81970 221.92431 224.01693
 226.08655 228.18016 230.28678 232.40240 234.54101 236.72263 238.98825 241.36786
 243.99848 246.25910 248.27072 250.04533 251.47195 252.60457 253.43618 253.76180
 253.80842 253.59203 252.96165 251.91927 250.53488 248.70550 246.62412 244.46674
 242.26735 240.08097 237.91059 235.75920 233.62882 231.50544 229.54105 227.70767
 226.00029 224.48190 223.12152 221.90314 220.79476 219.76437 218.87799 218.02861
 217.28022 216.46984 215.57746 214.95107 214.41069 215.06657 216.56416 217.15964
 217.75513 218.84058 219.76228 219.83644 219.81676 220.83817 223.05447 225.87953
 229.10046 233.28307 237.78880 242.01294 246.04286 250.04462 253.90892 257.34760
 260.37686 263.15186 265.75620 268.15607 270.37045 272.46747 274.45605 276.28400
 277.89822 279.24063 280.26361 281.51529 282.74054 283.82455 284.81357 285.70953
 286.51538 287.23297 287.85983 288.65872
 366.78100 356.34557 345.78814 334.66470 323.07827 311.28284 299.16341 286.97698
 274.69955 262.60711 250.62668 239.93825 230.07082 221.18539 213.37796 206.39052
 200.23509 195.18366 191.77623 189.82880 188.87637 188.95093 189.79650 191.11507
 192.85064 194.95621 197.22978 199.59934 202.05491 204.54548 206.64405 208.49662
 210.13319 211.28875 211.52832 211.76689 211.71446 211.43003 211.07359 210.71416
 210.34173 210.06230 209.88087 209.75544 209.69400 210.03557 210.43214 210.83171
 211.63528 212.82385 214.08441 215.87798 217.81655 219.87012 221.97569 224.06926
 226.13982 228.23439 230.34196 232.45853 234.59810 236.78067 239.04723 241.42780
 244.05937 246.32094 248.33351 250.10908 251.53664 252.67021 253.50278 253.82935
 253.87692 253.66149 253.03205 251.99062 250.60719 248.77876 246.69833 244.54189
 242.34346 240.15803 237.98860 235.83817 233.70874 231.58630 229.62287 227.79044
 226.08401 224.56658 223.20715 221.98971 220.88228 219.85285 218.96742 218.11899
 217.37156 216.56212 215.67069 215.04526 214.50583 215.10054 216.48880 217.25891
 217.74303 218.70784 219.64021 219.69661 219.60490 220.60498 222.95966 225.79611
 229.13228 233.34636 237.88606 242.13423 246.18311 250.20403 254.09831 257.56403
 260.52859 263.21671 265.75140 268.08444 270.28015 272.40128 274.46042 276.33374
 277.94821 279.21222 279.98834 280.76462 281.95917 283.05661 284.05786 284.96490
 285.78070 286.50720 287.14182 287.95059
 366.78100 356.34747 345.79194 334.67041 323.08588 311.29234 299.17481 286.99028
 274.71475 262.62422 250.64569 239.95916 230.09363 221.21010 213.40456 206.41903
 200.26550 195.21597 191.81044 189.86491 188.91438 188.99085 189.83832 191.15879
 192.89625 195.00372 197.27919 199.65066 202.10813 204.60060 206.70107 208.55554
 210.19401 211.35147 211.59294 211.83341 211.78288 211.50035 211.14582 210.78829
 210.41776 210.14023 209.96069 209.83716 209.77763 210.12110 210.51957 210.92104
 211.72651 212.91698 214.17945 215.97492 217.91538 219.97085 222.07832 224.17379
 226.24626 228.34273 230.45220 232.57067 234.71214 236.89660 239.16507 241.54754
 244.18101 246.44448 248.45895 250.23642 251.66589 252.80136 253.63582 253.96429
 254.01376 253.80023 253.17270 252.13317 250.75164 248.92511 246.84658 244.69204
 242.49551 240.31198 238.14445 235.99592 233.86839 231.74786 229.78633 227.95580
 226.25127 224.73573 223.37820 222.16267 221.05714 220.02961 219.14608 218.29955
 217.55402 216.74649 215.85695 215.23342 214.69589 215.19591 216.38632 217.28404
 217.84531 218.73747 219.65564 219.65489 219.44861 220.37711 222.70403 225.72408
 229.10283 233.43242 237.99005 242.25224 246.32979 250.38312 254.34167 257.83426
 260.81961 263.48776 265.96005 268.20831 270.33694 272.45306 274.50677 276.37512
 277.93567 279.02097 279.62015 280.80664 282.08499 283.21603 284.24789 285.18274
 286.02350 286.77219 287.42627 288.25977
 366.78100 356.34717 345.79134 334.66951 323.08469 311.29086 299.17303 286.98820
 274.71237 262.62154 250.64271 239.95589 230.09006 221.20623 213.40040 206.41457
 200.26074 195.21091 191.80508 189.85926 188.90843 188.98460 189.83177 191.15194
 192.88911 194.99628 197.27146 199.64263 202.09980 204.59197 206.69214 208.54631
 210.18448 211.34166 211.58283 211.82300 211.77217 211.48934 211.13451 210.77668
 210.40586 210.12803 209.94820 209.82437 209.76454 210.10771 210.50588 210.90705
 211.71223 212.90240 214.16457 215.95974 217.89991 219.95508 222.06225 224.15743
 226.22960 228.32577 230.43494 232.55311 234.69428 236.87845 239.14663 241.52880
 244.16197 246.42514 248.43931 250.21648 251.64565 252.78083 253.61500 253.94317
 253.99234 253.77851 253.15068 252.11085 250.72902 248.90220 246.82337 244.66854
 242.47171 240.28788 238.12005 235.97122 233.84340 231.72257 229.76074 227.92991
 226.22508 224.70925 223.35142 222.13560 221.02977 220.00194 219.11811 218.27128
 217.52545 216.71762 215.82779 215.20397 214.66614 215.18779 216.40697 217.20013
 217.94960 218.82692 219.68503 219.53471 219.19916 220.10347 222.45612 225.60805
 229.08754 233.51085 238.09711 242.37085 246.45732 250.52446 254.51263 258.05063
 261.08862 263.79269 266.27786 268.50363 270.58432 272.63809 274.65579 276.49985
 278.00742 278.95108 279.66071 281.05688 282.30185 283.40332 284.40826 285.31863
 286.13745 286.86658 287.50354 288.31531
 366.78100 356.34560 345.78820 334.66480 323.07840 311.28300 299.16360 286.97720
 274.69980 262.60740 250.62700 239.93860 230.07119 221.18579 213.37839 206.39099
 200.23559 195.18419 191.77679 189.82939 188.87699 188.95159 189.79719 191.11579
 192.85139 194.95699 197.23059 199.60019 202.05579 204.54639 206.64499 208.49759
 210.13419 211.28979 211.52939 211.76798 211.71558 211.43118 211.07478 210.71538
 210.34298 210.06358 209.88218 209.75678 209.69538 210.03698 210.43358 210.83318
 211.63678 212.82538 214.08598 215.87958 217.81818 219.87178 221.97738 224.07098
 226.14158 228.23618 230.34378 232.46037 234.59997 236.78257 239.04917 241.42977
 244.06137 246.32297 248.33557 250.11117 251.53877 252.67237 253.50497 253.83157
 253.87917 253.66377 253.03437 251.99297 250.60957 248.78117 246.70077 244.54437
 242.34597 240.16057 237.99116 235.84076 233.71136 231.58896 229.62556 227.79316
 226.08676 224.56936 223.20996 221.99256 220.88516 219.85576 218.97036 218.12196
 217.37456 216.56516 215.67376 215.04836 214.50896 215.11487 216.48985 217.10562
 218.02132 218.96976 219.67923 219.32773 218.89211 219.80219 222.22763 225.52286
 229.11595 233.58174 238.17082 242.44844 246.55034 250.61420 254.58662 258.11377
 261.17950 263.94821 266.51169 268.79602 270.87439 272.89890 274.89267 276.73285
 278.24664 279.27805 279.90048 281.21906 282.41830 283.47931 284.44733 285.32428
 286.11301 286.81537 287.42896 288.21088
 366.78100 356.34479 345.78659 334.66238 323.07518 311.27897 299.15877 286.97156
 274.69335 262.60015 250.61894 239.92974 230.06153 221.17533 213.36712 206.37892
 200.22271 195.17050 191.76230 189.81409 188.86089 188.93468 189.77948 191.09727
 192.83206 194.93686 197.20965 199.57845 202.03324 204.52304 206.62083 208.47263
 210.10842 211.26321 211.50201 211.73980 211.68660 211.40139 211.04419 210.68398
 210.31077 210.03057 209.84836 209.72216 209.65995 210.00075 210.39654 210.79534
 211.59813 212.78592 214.04572 215.83851 217.77631 219.82910 221.93390 224.02669
 226.09648 228.19028 230.29707 232.41287 234.55166 236.73346 238.99925 241.37904
 244.00984 246.27063 248.28243 250.05722 251.48402 252.61681 253.44861 253.77440
 253.82119 253.60499 252.97478 251.93258 250.54837 248.71917 246.63796 244.48075
 242.28155 240.09534 237.92514 235.77393 233.64373 231.52052 229.55632 227.72311
 226.01590 224.49770 223.13749 221.91929 220.81108 219.78088 218.89467 218.04546
 217.29726 216.48705 215.59485 214.96864 214.42844 215.06715 216.52745 217.06476
 217.95502 219.06598 219.56685 219.05801 218.64322 219.58336 222.15945 225.47997
 229.20753 233.65652 238.24268 242.54877 246.67296 250.72499 254.62509 258.10193
 261.13968 263.93195 266.54755 268.90564 271.05646 273.12140 275.15750 277.05307
 278.64777 279.82211 280.45520 280.81754 281.87061 282.93460 283.90530 284.78473
 285.57565 286.28000 286.89526 287.67938
 366.78100 356.34587 345.78874 334.66562 323.07949 311.28436 299.16523 286.97910
 274.70198 262.60985 250.62972 239.94159 230.07446 221.18934 213.38221 206.39508
 200.23995 195.18882 191.78169 189.83457 188.88244 188.95731 189.80318 191.12205
 192.85793 194.96380 197.23767 199.60754 202.06341 204.55429 206.65316 208.50603
 210.14290 211.29877 211.53865 211.77752 211.72539 211.44126 211.08513 210.72601
 210.35388 210.07475 209.89362 209.76849 209.70737 210.04924 210.44611 210.84598
 211.64985 212.83872 214.09960 215.89347 217.83234 219.88621 221.99208 224.08596
 226.15683 228.25170 230.35957 232.47644 234.61632 236.79919 239.06606 241.44693
 244.07880 246.34068 248.35355 250.12942 251.55729 252.69116 253.52404 253.85091
 253.89878 253.68365 253.05452 252.01340 250.63027 248.80214 246.72201 244.56588
 242.36776 240.18263 238.01350 235.86337 233.73424 231.61211 229.64899 227.81686
 226.11073 224.59360 223.23447 222.01735 220.91022 219.88109 218.99596 218.14783
 217.40071 216.59158 215.70045 215.07532 214.53619 215.10361 216.43668 217.19641
 217.81541 218.94809 219.44382 218.83443 218.35849 219.25348 222.11391 225.36124
 229.27951 233.72797 238.34244 242.67262 246.80899 250.85048 254.67566 258.09177
 261.10620 263.88577 266.50024 268.89496 271.10825 273.25238 275.31955 277.21588
 278.80563 279.96045 280.67703 281.07645 281.40149 281.92075 282.83337 283.71274
 284.50363 285.20792 285.82318 286.60727
 366.78100 356.34692 345.79084 334.66875 323.08367 311.28959 299.17151 286.98643
 274.71034 262.61926 250.64018 239.95310 230.08702 221.20294 213.39685 206.41077
 200.25669 195.20661 191.80053 189.85444 188.90336 188.97928 189.82620 191.14612
 192.88303 194.98995 197.26487 199.63579 202.09271 204.58462 206.68454 208.53846
 210.17638 211.33330 211.57421 211.81413 211.76305 211.47997 211.12489 210.76681
 210.39572 210.11764 209.93756 209.81348 209.75340 210.09631 210.49423 210.89515
 211.70007 212.88999 214.15190 215.94682 217.88674 219.94166 222.04858 224.14349
 226.21541 228.31133 230.42025 232.53817 234.67908 236.86300 239.13092 241.51284
 244.14576 246.40868 248.42259 250.19951 251.62843 252.76335 253.59727 253.92518
 253.97410 253.76002 253.13194 252.09186 250.70977 248.88269 246.80361 244.64853
 242.45145 240.26736 238.09928 235.95020 233.82212 231.70104 229.73895 227.90787
 226.20279 224.68671 223.32863 222.11255 221.00646 219.97838 219.09430 218.24722
 217.50114 216.69305 215.80297 215.17889 214.64081 215.14578 216.34065 217.32274
 217.89180 218.99107 219.49373 218.74533 218.10312 218.87146 221.94000 225.23579
 229.31351 233.80324 238.44208 242.77867 246.93462 250.97824 254.78691 258.18240
 261.17426 263.93622 266.53796 268.93936 271.18884 273.36795 275.46799 277.38419
 278.95880 280.07318 280.70804 280.97168 281.13098 281.49014 282.17584 282.95264
 283.74008 284.44131 285.05389 285.83456
 366.78100 356.34658 345.79015 334.66773 323.08230 311.28788 299.16946 286.98403
 274.70761 262.61618 250.63676 239.94934 230.08291 221.19849 213.39206 206.40564
 200.25122 195.20079 191.79437 189.84794 188.89652 188.97210 189.81867 191.13825
 192.87482 194.98140 197.25598 199.62655 202.08313 204.57470 206.67428 208.52786
 210.16543 211.32201 211.56258 211.80216 211.75074 211.46731 211.11189 210.75346
 210.38204 210.10362 209.92319 209.79877 209.73834 210.08092 210.47850 210.87907
 211.68365 212.87322 214.13480 215.92937 217.86895 219.92353 222.03010 224.12468
 226.19625 228.29183 230.40041 232.51798 234.65856 236.84213 239.10971 241.49129
 244.12386 246.38644 248.40001 250.17659 251.60517 252.73974 253.57332 253.90089
 253.94947 253.73505 253.10662 252.06620 250.68377 248.85635 246.77693 244.62150
 242.42408 240.23965 238.07123 235.92181 233.79338 231.67196 229.70953 227.87811
 226.17269 224.65626 223.29784 222.08141 220.97499 219.94657 219.06214 218.21472
 217.46829 216.65987 215.76945 215.14502 214.60660 215.12570 216.35283 217.32280
 217.96564 218.97429 219.44130 218.66937 217.94569 218.61809 221.74098 225.17993
 229.35437 233.88741 238.53935 242.88855 247.06740 251.10800 254.89134 258.26135
 261.25446 264.02176 266.62491 269.02664 271.29333 273.50552 275.63321 277.55212
 279.14392 280.19879 280.70081 280.78128 280.87140 281.23795 281.98975 282.74551
 283.51666 284.20929 284.81436 285.58545
 366.78100 356.34611 345.78922 334.66632 323.08043 311.28554 299.16665 286.98076
 274.70387 262.61197 250.63208 239.94419 230.07730 221.19241 213.38551 206.39862
 200.24373 195.19284 191.78595 189.83905 188.88716 188.96227 189.80838 191.12749
 192.86360 194.96970 197.24381 199.61392 202.07003 204.56114 206.66024 208.51335
 210.15046 211.30657 211.54668 211.78579 211.73389 211.45000 211.09411 210.73522
 210.36333 210.08443 209.90354 209.77865 209.71776 210.05987 210.45697 210.85708
 211.66119 212.85030 214.11141 215.90552 217.84462 219.89873 222.00484 224.09895
 226.17006 228.26516 230.37327 232.49038 234.63049 236.81360 239.08070 241.46181
 244.09392 246.35603 248.36914 250.14525 251.57335 252.70746 253.54057 253.86768
 253.91579 253.70089 253.07200 252.03111 250.64822 248.82033 246.74044 244.58454
 242.38665 240.20176 238.03287 235.88298 233.75408 231.63219 229.66930 227.83741
 226.13152 224.61462 223.25573 222.03884 220.93195 219.90306 219.01817 218.17027
 217.42338 216.61449 215.72360 215.09871 214.55981 215.10165 216.38190 217.32335
 218.03310 218.93445 219.33617 218.54457 217.76846 218.40869 221.58331 225.16034
 229.40320 233.97519 238.64183 243.00674 247.20270 251.23546 254.99229 258.32837
 261.31354 264.09238 266.70609 269.11420 271.40579 273.65222 275.80560 277.72696
 279.29291 280.26913 280.62695 280.58151 280.68781 281.04865 281.83456 282.61951
 283.36264 284.03265 284.61798 285.36389
 366.78100 356.34592 345.78883 334.66575 323.07967 311.28459 299.16550 286.97942
 274.70234 262.61026 250.63017 239.94209 230.07501 221.18993 213.38284 206.39576
 200.24068 195.18960 191.78251 189.83543 188.88335 188.95827 189.80418 191.12310
 192.85902 194.96494 197.23885 199.60877 202.06469 204.55560 206.65452 208.50744
 210.14436 211.30027 211.54019 211.77911 211.72703 211.44294 211.08686 210.72778
 210.35570 210.07661 209.89553 209.77045 209.70937 210.05128 210.44820 210.84812
 211.65204 212.84095 214.10187 215.89579 217.83471 219.88862 221.99454 224.08846
 226.15937 228.25429 230.36221 232.47913 234.61904 236.80196 239.06888 241.44980
 244.08171 246.34363 248.35655 250.13247 251.56038 252.69430 253.52722 253.85414
 253.90205 253.68697 253.05789 252.01681 250.63372 248.80564 246.72556 244.56948
 242.37139 240.18631 238.01723 235.86715 233.73806 231.61598 229.65290 227.82081
 226.11473 224.59765 223.23857 222.02148 220.91440 219.88532 219.00024 218.15215
 217.40507 216.59599 215.70491 215.07982 214.54074 215.09256 216.39636 217.34990
 218.08180 218.86365 219.21826 218.42325 217.60254 218.20647 221.39583 225.14157
 229.46031 234.06955 238.74846 243.13252 247.34367 251.36925 255.09877 258.40591
 261.37512 264.15338 266.76703 269.18155 271.50595 273.79459 275.96466 277.87045
 279.40259 280.32849 280.58810 280.43057 280.51096 280.90363 281.72455 282.57269
 283.37152 284.08841 284.71469 285.51279
 366.78100 356.34553 345.78807 334.66460 323.07813 311.28267 299.16320 286.97673
 274.69927 262.60680 250.62633 239.93787 230.07040 221.18494 213.37747 206.39000
 200.23454 195.18307 191.77560 189.82814 188.87567 188.95020 189.79574 191.11427
 192.84980 194.95534 197.22887 199.59840 202.05394 204.54447 206.64300 208.49554
 210.13207 211.28761 211.52714 211.76567 211.71321 211.42874 211.07227 210.71281
 210.34034 210.06087 209.87941 209.75394 209.69247 210.03401 210.43054 210.83007
 211.63361 212.82214 214.08267 215.87621 217.81474 219.86828 221.97381 224.06734
 226.13788 228.23241 230.33994 232.45648 234.59601 236.77854 239.04508 241.42561
 244.05714 246.31868 248.33121 250.10674 251.53428 252.66781 253.50034 253.82688
 253.87441 253.65895 253.02948 251.98801 250.60455 248.77608 246.69561 244.53915
 242.34068 240.15521 237.98575 235.83528 233.70581 231.58335 229.61988 227.78741
 226.08095 224.56348 223.20401 221.98655 220.87908 219.84962 218.96415 218.11568
 217.36822 216.55875 215.66728 215.04182 214.50235 215.07362 216.42332 217.36937
 218.14621 218.82930 219.03773 218.19992 217.39854 218.07018 221.30688 225.12700
 229.51137 234.15364 238.85156 243.25360 247.48151 251.51260 255.24413 258.53955
 261.48813 264.24109 266.84296 269.25909 271.59338 273.91193 276.11523 278.03708
 279.53891 280.37512 280.46793 280.17865 280.25055 280.69150 281.45865 282.30740
 283.10944 283.84366 284.48502 285.30240
 354.97500 345.04800 334.58700 324.11500 313.32600 302.53700 291.65000 280.76700
 269.93100 259.19300 248.62200 238.61700 229.08700 220.35500 212.54000 205.53500
 199.46400 194.49300 191.14300 189.19000 188.08900 188.01400 188.72400 189.90600
 191.46900 193.38200 195.40300 197.55600 199.80700 202.06000 204.28800 206.47900
 208.55200 210.37800 212.02500 213.65900 214.99800 216.11800 217.17200 218.25900
 219.49400 220.64500 221.67900 222.61400 223.54500 224.98200 226.57100 228.19000
 229.79700 231.81100 233.86500 235.97200 238.24200 240.55300 242.89900 245.25300
 247.48800 249.53500 251.36600 252.84800 254.09800 255.16700 256.02700 256.25300
 256.09500 255.54300 253.93500 252.56600 251.38400 250.24500 249.05200 247.70100
 246.01600 243.99600 241.78400 239.39300 236.81300 234.22300 231.65800 229.14400
 226.74000 224.47300 222.33500 220.32500 218.44000 216.67700 214.96200 213.47200
 212.20000 211.10800 210.26000 209.63900 209.24400 209.03100 209.05800 209.33300
 209.78400 210.62600 211.33100 212.39100 213.62500 214.84668 217.72949 219.47640
 220.32566 220.86828 220.88710 220.27371 219.43733 218.84250 219.04934 220.86203
 222.60583 225.72206 229.03064 232.61777 236.12270 239.51333 242.70767 245.68587
 248.41061 250.90679 253.19353 254.91714 256.48655 257.94920 259.39966 260.69384
 261.81714 262.77997 263.71679 264.54570 265.26305 265.89772 266.47676 267.00133
 267.47312 267.89325 268.26027 268.72800
