|-------------------------------------------------------------------------|
|   File Name : in_temp.dat
|   Subject   : temperature profiles used for initial guess atmosphere
|   File Type : input of gmtr
|   Data Type : atmospherical data
|   Author/s  : WRF-Chem
|   Date      : Fri Jul 26 15:39:24 2024
|-------------------------------------------------------------------------|

 WRF-Chem temperature
#
 values of T (K)    (8f10.5)
#
 354.97500 345.04800 334.58700 324.11500 313.32600 302.53700 291.65000 280.76700
 269.93100 259.19300 248.62200 238.61700 229.08700 220.35500 212.54000 205.53500
 199.46400 194.49300 191.14300 189.19000 188.08900 188.01400 188.72400 189.90600
 191.46900 193.38200 195.40300 197.55600 199.80700 202.06000 204.28800 206.47900
 208.55200 210.37800 212.02500 213.65900 214.99800 216.11800 217.17200 218.25900
 219.49400 220.64500 221.67900 222.61400 223.54500 224.98200 226.57100 228.19000
 229.79700 231.81100 233.86500 235.97200 238.24200 240.55300 242.89900 245.25300
 247.48800 249.53500 251.36600 252.84800 254.09800 255.16700 256.02700 256.25300
 256.09500 255.54300 253.93500 252.56600 251.38400 250.24500 249.05200 247.70100
 246.01600 243.99600 241.78400 239.39300 236.81300 234.22300 231.65800 229.14400
 226.74000 224.47300 222.33500 220.32500 218.44000 216.67700 214.96200 213.47200
 212.20000 211.10800 210.26000 209.63900 209.24400 209.03100 209.05800 209.33300
 209.78400 210.62600 211.33100 212.39100 213.62500 214.84668 217.72949 219.47640
 220.32566 220.86828 220.88710 220.27371 219.43733 218.84250 219.04934 220.86203
 222.60583 225.72206 229.03064 232.61777 236.12270 239.51333 242.70767 245.68587
 248.41061 250.90679 253.19353 254.91714 256.48655 257.94920 259.39966 260.69384
 261.81714 262.77997 263.71679 264.54570 265.26305 265.89772 266.47676 267.00133
 267.47312 267.89325 268.26027 268.72800
 366.78100 356.33500 345.76700 334.63300 323.03600 311.23000 299.10000 286.90300
 274.61500 262.51200 250.52100 239.82200 229.94400 221.04800 213.23000 206.23200
 200.06600 195.00400 191.58600 189.62800 188.66500 188.72900 189.56400 190.87200
 192.59700 194.69200 196.95500 199.31400 201.75900 204.23900 206.32700 208.16900
 209.79500 210.94000 211.16900 211.39700 211.33400 211.03900 210.67200 210.30200
 209.91900 209.62900 209.43700 209.30100 209.22900 209.56000 209.94600 210.33500
 211.12800 212.30600 213.55600 215.33900 217.26700 219.31000 221.40500 223.48800
 225.54800 227.63200 229.72900 231.83500 233.96400 236.13600 238.39200 240.76200
 243.38300 245.63400 247.63600 249.40100 250.81800 251.94100 252.76300 253.07900
 253.11600 252.89000 252.25000 251.19800 249.80400 247.96500 245.87400 243.70700
 241.49800 239.30200 237.12200 234.96100 232.82100 230.68800 228.71400 226.87100
 225.15400 223.62600 222.25600 221.02800 219.91000 218.87000 217.97400 217.11500
 216.35700 215.53700 214.63500 213.99900 213.44900 212.85855 212.01316 212.61654
 214.26826 216.08686 218.14273 220.53346 223.40855 226.78828 231.49734 235.90155
 239.42278 243.28576 247.23140 251.11907 254.80144 258.23331 261.38913 264.27520
 266.89312 269.26852 271.44504 273.08845 274.58484 275.98591 277.39845 278.65879
 279.75272 280.69038 281.56708 282.34086 283.01050 283.60295 284.14348 284.63317
 285.07358 285.46577 285.80838 286.24500
 381.81900 372.39900 361.20600 349.77600 337.62200 324.85300 311.81000 298.35300
 284.86000 271.32400 258.56100 246.30400 236.08700 226.79600 218.44800 211.29000
 205.52200 200.89400 197.38100 194.84800 193.01500 192.31500 192.25000 192.43100
 192.91200 193.53700 194.13600 194.71200 195.26200 195.83100 196.39300 196.97600
 197.60400 198.14900 198.58400 199.05700 199.69500 200.37800 201.05400 201.70800
 202.31300 202.85700 203.35500 203.86200 204.56900 205.29700 206.02600 206.98700
 208.19300 209.44100 210.96900 212.57600 214.46200 216.51300 218.63000 220.85300
 223.34100 225.96200 228.73900 231.69700 234.70600 237.70600 240.69200 243.65700
 246.73700 249.69900 252.52100 255.06300 257.29000 259.23300 260.63300 261.68000
 262.46100 262.79800 262.69100 262.22400 261.06900 259.52500 257.70700 255.50700
 253.00100 250.30200 247.39800 244.45200 241.65400 239.05400 236.73300 234.59000
 232.59500 230.72500 228.83400 226.82600 224.66600 222.38700 220.10400 217.71500
 215.45900 213.06600 210.54600 208.09300 205.35400 202.08130 196.05959 200.71215
 209.01611 216.90438 223.84126 229.78593 235.00632 240.20838 245.98943 250.68668
 254.32982 257.93487 261.55666 264.96801 268.15192 271.06452 273.76717 276.25691
 278.57680 280.74479 282.77456 284.60533 286.27232 287.81705 289.31715 290.65561
 291.81734 292.81312 293.70701 294.49387 295.17482 295.77730 296.32696 296.82492
 297.27278 297.67160 298.02000 298.46400
 399.33000 389.90700 379.81300 368.66800 357.52200 345.30100 333.07400 320.22700
 307.21600 293.84800 280.37600 267.29600 254.61000 242.98700 232.15100 221.97700
 212.67200 204.28600 197.66900 192.82100 189.48600 187.45200 186.81400 187.08900
 187.78100 189.05400 190.64800 192.54200 194.63000 196.75200 198.67100 200.15800
 201.53500 202.48700 202.97500 203.34000 203.53900 203.49700 203.38500 203.24700
 203.00500 202.78600 202.60300 202.43700 202.42600 202.88800 203.42000 203.95100
 204.89500 205.99200 207.30100 208.95800 210.73800 213.10000 215.56400 218.18000
 220.96600 223.91800 226.96100 230.09200 233.29300 236.55700 239.95500 243.53700
 246.84500 249.39000 251.54200 253.47400 255.19500 256.48400 257.43100 258.05900
 258.21200 258.04000 257.58200 256.64300 255.23900 253.50700 251.40800 249.05600
 246.57600 243.99400 241.38900 238.83000 236.34400 233.98600 231.96900 230.11800
 228.42300 226.89900 225.54800 224.29700 223.10500 221.96500 220.95800 220.11300
 219.49000 218.92000 218.32500 217.88100 217.42300 216.96366 216.35568 216.80261
 217.73415 218.28582 218.64258 219.10077 220.44626 222.53987 226.38451 230.35736
 233.59734 237.39164 241.29814 245.22796 248.98002 252.51130 255.78595 258.80109
 261.54781 264.05210 266.34239 268.04198 269.58951 271.01303 272.35754 273.55718
 274.59842 275.49092 276.28989 276.99307 277.60161 278.14001 278.63122 279.07623
 279.47646 279.83287 280.14422 280.54100
 399.73800 389.78500 379.66200 368.15100 356.64100 344.35000 331.79200 318.88800
 305.72600 292.49300 279.20900 266.73800 254.69600 244.21100 234.45700 225.43300
 217.56900 210.45100 204.30000 199.30600 195.45800 192.57600 191.02700 190.38600
 190.23900 190.53400 191.16600 191.92500 192.79500 193.76600 194.73200 195.31200
 195.80000 196.05200 196.11500 196.11500 196.03900 195.72300 195.34000 194.98900
 194.75100 194.79200 195.13300 195.59800 196.50600 198.13600 199.85800 201.56600
 204.17900 206.82300 209.89300 213.28400 216.82800 220.60500 224.38700 228.20900
 232.03200 235.82500 239.56000 243.25800 246.84500 250.20100 253.70900 257.46800
 261.53000 264.22100 266.60100 268.68100 270.32900 271.74100 272.83600 273.47400
 273.89800 274.00200 273.75700 273.28800 272.37100 271.10000 269.58900 267.77900
 265.81600 263.72100 261.39300 258.91600 256.29800 253.42300 250.33100 247.11400
 243.83700 240.52900 237.24900 233.99900 230.72800 227.51500 224.25400 220.95200
 217.62700 213.65600 210.12100 206.78900 204.01000 201.99491 199.07309 198.76551
 199.40006 200.48994 201.46112 202.31912 203.45100 204.96110 207.47502 210.85391
 213.70530 217.29629 220.99574 224.72316 228.28753 231.64854 234.68024 237.40893
 239.70644 241.60899 243.46854 245.67368 247.68154 249.52395 251.24767 252.78566
 254.12057 255.26479 256.23740 257.09036 257.82852 258.48160 259.07744 259.61723
 260.10271 260.53504 260.91270 261.39400
 399.73800 389.78500 379.66200 368.15100 356.64100 344.35000 331.79200 318.88800
 305.72600 292.49300 279.20900 266.73800 254.69600 244.21100 234.45700 225.43300
 217.56900 210.45100 204.30000 199.30600 195.45800 192.57600 191.02700 190.38600
 190.23900 190.53400 191.16600 191.92500 192.79500 193.76600 194.73200 195.31200
 195.80000 196.05200 196.11500 196.11500 196.03900 195.72300 195.34000 194.98900
 194.75100 194.79200 195.13300 195.59800 196.50600 198.13600 199.85800 201.56600
 204.17900 206.82300 209.89300 213.28400 216.82800 220.60500 224.38700 228.20900
 232.03200 235.82500 239.56000 243.25800 246.84500 250.20100 253.70900 257.46800
 261.53000 264.22100 266.60100 268.68100 270.32900 271.74100 272.83600 273.47400
 273.89800 274.00200 273.75700 273.28800 272.37100 271.10000 269.58900 267.77900
 265.81600 263.72100 261.39300 258.91600 256.29800 253.42300 250.33100 247.11400
 243.83700 240.52900 237.24900 233.99900 230.72800 227.51500 224.25400 220.95200
 217.62700 213.65600 210.12100 206.78900 204.01000 201.99491 199.07309 198.76551
 199.40006 200.48994 201.46112 202.31912 203.45100 204.96110 207.47502 210.85391
 213.70530 217.29629 220.99574 224.72316 228.28753 231.64854 234.68024 237.40893
 239.70644 241.60899 243.46854 245.67368 247.68154 249.52395 251.24767 252.78566
 254.12057 255.26479 256.23740 257.09036 257.82852 258.48160 259.07744 259.61723
 260.10271 260.53504 260.91270 261.39400
 399.33000 389.90700 379.81300 368.66800 357.52200 345.30100 333.07400 320.22700
 307.21600 293.84800 280.37600 267.29600 254.61000 242.98700 232.15100 221.97700
 212.67200 204.28600 197.66900 192.82100 189.48600 187.45200 186.81400 187.08900
 187.78100 189.05400 190.64800 192.54200 194.63000 196.75200 198.67100 200.15800
 201.53500 202.48700 202.97500 203.34000 203.53900 203.49700 203.38500 203.24700
 203.00500 202.78600 202.60300 202.43700 202.42600 202.88800 203.42000 203.95100
 204.89500 205.99200 207.30100 208.95800 210.73800 213.10000 215.56400 218.18000
 220.96600 223.91800 226.96100 230.09200 233.29300 236.55700 239.95500 243.53700
 246.84500 249.39000 251.54200 253.47400 255.19500 256.48400 257.43100 258.05900
 258.21200 258.04000 257.58200 256.64300 255.23900 253.50700 251.40800 249.05600
 246.57600 243.99400 241.38900 238.83000 236.34400 233.98600 231.96900 230.11800
 228.42300 226.89900 225.54800 224.29700 223.10500 221.96500 220.95800 220.11300
 219.49000 218.92000 218.32500 217.88100 217.42300 216.96366 216.35568 216.80261
 217.73415 218.28582 218.64258 219.10077 220.44626 222.53987 226.38451 230.35736
 233.59734 237.39164 241.29814 245.22796 248.98002 252.51130 255.78595 258.80109
 261.54781 264.05210 266.34239 268.04198 269.58951 271.01303 272.35754 273.55718
 274.59842 275.49092 276.28989 276.99307 277.60161 278.14001 278.63122 279.07623
 279.47646 279.83287 280.14422 280.54100
 381.81900 372.39900 361.20600 349.77600 337.62200 324.85300 311.81000 298.35300
 284.86000 271.32400 258.56100 246.30400 236.08700 226.79600 218.44800 211.29000
 205.52200 200.89400 197.38100 194.84800 193.01500 192.31500 192.25000 192.43100
 192.91200 193.53700 194.13600 194.71200 195.26200 195.83100 196.39300 196.97600
 197.60400 198.14900 198.58400 199.05700 199.69500 200.37800 201.05400 201.70800
 202.31300 202.85700 203.35500 203.86200 204.56900 205.29700 206.02600 206.98700
 208.19300 209.44100 210.96900 212.57600 214.46200 216.51300 218.63000 220.85300
 223.34100 225.96200 228.73900 231.69700 234.70600 237.70600 240.69200 243.65700
 246.73700 249.69900 252.52100 255.06300 257.29000 259.23300 260.63300 261.68000
 262.46100 262.79800 262.69100 262.22400 261.06900 259.52500 257.70700 255.50700
 253.00100 250.30200 247.39800 244.45200 241.65400 239.05400 236.73300 234.59000
 232.59500 230.72500 228.83400 226.82600 224.66600 222.38700 220.10400 217.71500
 215.45900 213.06600 210.54600 208.09300 205.35400 202.08130 196.05959 200.71215
 209.01611 216.90438 223.84126 229.78593 235.00632 240.20838 245.98943 250.68668
 254.32982 257.93487 261.55666 264.96801 268.15192 271.06452 273.76717 276.25691
 278.57680 280.74479 282.77456 284.60533 286.27232 287.81705 289.31715 290.65561
 291.81734 292.81312 293.70701 294.49387 295.17482 295.77730 296.32696 296.82492
 297.27278 297.67160 298.02000 298.46400
 366.78100 356.33881 345.77461 334.64442 323.05122 311.24903 299.12283 286.92964
 274.64544 262.54625 250.55906 239.86386 229.98967 221.09747 213.28328 206.28908
 200.12689 195.06870 191.65450 189.70031 188.74111 188.80892 189.64772 190.95953
 192.68833 194.78714 197.05395 199.41675 201.86556 204.34936 206.44117 208.28697
 209.91678 211.06558 211.29839 211.53020 211.47100 211.17981 210.81661 210.45042
 210.07122 209.78503 209.59683 209.46464 209.39645 209.73125 210.12106 210.51386
 211.31067 212.49247 213.74628 215.53309 217.46489 219.51170 221.61050 223.69731
 225.76111 227.84892 229.94972 232.05953 234.19234 236.36814 238.62795 241.00175
 243.62656 245.88136 247.88717 249.65597 251.07678 252.20359 253.02939 253.34920
 253.39000 253.16781 252.53161 251.48342 250.09323 248.25803 246.17084 244.00764
 241.80245 239.61025 237.43406 235.27686 233.14067 231.01148 229.04128 227.20209
 225.48889 223.96470 222.59850 221.37431 220.26011 219.22392 218.33173 217.47653
 216.72234 215.90614 215.00795 214.37575 213.82956 212.94510 210.86304 210.01202
 210.33171 210.52051 211.81746 215.16655 219.50175 224.25653 229.98480 234.99866
 238.85696 242.85896 247.09760 251.25900 255.02945 258.55368 261.36923 263.62335
 266.39276 269.10956 271.66211 274.14023 276.23163 277.92462 279.29401 280.81317
 282.63159 284.38068 285.92242 287.28177 288.45932 289.50082 290.45190 291.31259
 292.08548 292.77383 293.37439 294.14001
 366.78100 356.33884 345.77468 334.64452 323.05137 311.24921 299.12305 286.92989
 274.64573 262.54657 250.55941 239.86426 229.99010 221.09794 213.28378 206.28962
 200.12746 195.06930 191.65515 189.70099 188.74183 188.80967 189.64851 190.96035
 192.68919 194.78804 197.05488 199.41772 201.86656 204.35040 206.44224 208.28808
 209.91793 211.06677 211.29961 211.53145 211.47229 211.18113 210.81798 210.45182
 210.07266 209.78650 209.59834 209.46618 209.39802 209.73287 210.12271 210.51555
 211.31239 212.49423 213.74807 215.53491 217.46676 219.51360 221.61244 223.69928
 225.76312 227.85096 229.95180 232.06165 234.19449 236.37033 238.63017 241.00401
 243.62885 245.88369 247.88954 249.65838 251.07922 252.20606 253.03190 253.35174
 253.39258 253.17043 252.53427 251.48611 250.09595 248.26079 246.17363 244.01047
 241.80532 239.61316 237.43700 235.27984 233.14368 231.01452 229.04436 227.20521
 225.49205 223.96789 222.60173 221.37757 220.26341 219.22725 218.33510 217.47994
 216.72578 215.90962 215.01146 214.37930 213.83315 212.97279 210.94716 210.12047
 210.32729 210.57759 211.85458 215.10121 219.43930 224.19336 229.89226 234.90189
 238.75699 242.75758 247.00783 251.17986 254.95842 258.51349 261.35651 263.62003
 266.39072 269.09442 271.61755 274.06000 276.14960 277.86618 279.24738 280.76431
 282.56927 284.29312 285.82819 287.18814 288.36530 289.40814 290.35956 291.22098
 291.99588 292.68469 293.28580 294.05664
 366.78100 356.33881 345.77462 334.64443 323.05123 311.24904 299.12285 286.92966
 274.64547 262.54628 250.55909 239.86390 229.98970 221.09751 213.28332 206.28913
 200.12694 195.06875 191.65456 189.70036 188.74117 188.80898 189.64779 190.95960
 192.68841 194.78722 197.05402 199.41683 201.86564 204.34945 206.44126 208.28707
 209.91688 211.06569 211.29849 211.53030 211.47111 211.17992 210.81673 210.45054
 210.07135 209.78515 209.59696 209.46477 209.39658 209.73139 210.12120 210.51401
 211.31081 212.49262 213.74643 215.53324 217.46505 219.51186 221.61067 223.69748
 225.76128 227.84909 229.94990 232.05971 234.19252 236.36833 238.62814 241.00194
 243.62675 245.88156 247.88737 249.65618 251.07699 252.20380 253.02961 253.34941
 253.39022 253.16803 252.53184 251.48365 250.09346 248.25827 246.17107 244.00788
 241.80269 239.61050 237.43431 235.27712 233.14093 231.01173 229.04154 227.20235
 225.48916 223.96497 222.59878 221.37459 220.26040 219.22420 218.33201 217.47682
 216.72263 215.90644 215.00825 214.37606 213.82986 212.99602 211.03235 210.22220
 210.34024 210.62637 211.90028 215.05219 219.35422 224.11726 229.80452 234.81264
 238.66484 242.66261 246.92026 251.10068 254.88542 258.46811 261.33572 263.61038
 266.38507 269.07773 271.57169 273.97980 276.07095 277.81195 279.20731 280.71942
 282.50876 284.20932 285.73694 287.09482 288.27435 289.31668 290.26929 291.13156
 291.90662 292.59589 293.19925 293.97498
 366.78100 356.33869 345.77438 334.64408 323.05077 311.24846 299.12215 286.92885
 274.64454 262.54523 250.55792 239.86261 229.98831 221.09600 213.28169 206.28738
 200.12508 195.06677 191.65246 189.69815 188.73884 188.80654 189.64523 190.95692
 192.68561 194.78431 197.05100 199.41369 201.86238 204.34607 206.43777 208.28346
 209.91315 211.06184 211.29454 211.52623 211.46692 211.17561 210.81230 210.44600
 210.06669 209.78038 209.59207 209.45977 209.39146 209.72615 210.11584 210.50853
 211.30523 212.48692 213.74061 215.52730 217.45900 219.50569 221.60438 223.69107
 225.75476 227.84246 229.94315 232.05284 234.18553 236.36123 238.62092 240.99461
 243.61930 245.87399 247.87969 249.64838 251.06907 252.19576 253.02146 253.34115
 253.38184 253.15953 252.52322 251.47492 250.08461 248.24930 246.16199 243.99869
 241.79338 239.60107 237.42476 235.26745 233.13115 231.00184 229.03153 227.19222
 225.47892 223.95461 222.58830 221.36399 220.24968 219.21338 218.32107 217.46576
 216.71145 215.89515 214.99684 214.36453 213.81822 213.01389 211.11919 210.31816
 210.36856 210.67320 211.93977 215.01480 219.26268 224.03764 229.72447 234.72810
 238.57390 242.56631 246.83032 251.01764 254.81053 258.42032 261.31076 263.59714
 266.37619 269.05783 271.52521 273.89987 275.99414 277.76239 279.17059 280.67859
 282.45242 284.13016 285.64841 287.00748 288.18741 289.23041 290.18329 291.04559
 291.82144 292.51263 293.11600 293.89706
 366.78100 356.33856 345.77412 334.64367 323.05023 311.24779 299.12135 286.92790
 274.64346 262.54402 250.55658 239.86113 229.98669 221.09425 213.27981 206.28536
 200.12292 195.06448 191.65004 189.69560 188.73615 188.80371 189.64227 190.95383
 192.68238 194.78094 197.04750 199.41006 201.85861 204.34217 206.43373 208.27929
 209.90884 211.05740 211.28996 211.52152 211.46207 211.17063 210.80719 210.44075
 210.06131 209.77486 209.58642 209.45398 209.38554 209.72009 210.10965 210.50221
 211.29877 212.48032 213.73388 215.52044 217.45200 219.49855 221.59711 223.68367
 225.74723 227.83479 229.93534 232.04490 234.17746 236.35302 238.61257 240.98613
 243.61069 245.86525 247.87080 249.63936 251.05992 252.18648 253.01203 253.33159
 253.37215 253.14971 252.51327 251.46482 250.07438 248.23894 246.15150 243.98805
 241.78261 239.59017 237.41373 235.25628 233.11984 230.99040 229.01996 227.18051
 225.46707 223.94263 222.57619 221.35175 220.23730 219.20086 218.30842 217.45298
 216.69853 215.88209 214.98365 214.35121 213.80476 213.02943 211.20258 210.41278
 210.40962 210.72205 211.97113 214.98540 219.17009 223.95334 229.64890 234.64496
 238.48148 242.46866 246.73846 250.93356 254.73636 258.37067 261.28098 263.57791
 266.36267 269.03500 271.47708 273.82065 275.92072 277.71692 279.13953 280.64294
 282.40042 284.05704 285.56805 286.92615 288.10522 289.14862 290.10352 290.96741
 291.74246 292.43375 293.03973 293.82349
 366.78100 356.33852 345.77405 334.64357 323.05010 311.24762 299.12115 286.92767
 274.64320 262.54372 250.55625 239.86077 229.98629 221.09382 213.27934 206.28487
 200.12239 195.06392 191.64944 189.69497 188.73549 188.80302 189.64154 190.95306
 192.68159 194.78011 197.04664 199.40916 201.85769 204.34121 206.43274 208.27826
 209.90778 211.05631 211.28883 211.52036 211.46088 211.16941 210.80593 210.43946
 210.05998 209.77351 209.58503 209.45255 209.38408 209.71860 210.10813 210.50065
 211.29718 212.47870 213.73223 215.51875 217.45028 219.49680 221.59532 223.68185
 225.74537 227.83290 229.93342 232.04295 234.17547 236.35100 238.61052 240.98405
 243.60857 245.86309 247.86862 249.63714 251.05767 252.18419 253.00972 253.32924
 253.36977 253.14729 252.51081 251.46234 250.07186 248.23639 246.14891 243.98544
 241.77996 239.58749 237.41101 235.25354 233.11706 230.98758 229.01711 227.17763
 225.46416 223.93968 222.57321 221.34873 220.23426 219.19778 218.30531 217.44983
 216.69535 215.87888 214.98040 214.34793 213.80145 213.04886 211.27531 210.51601
 210.45912 210.77135 211.99699 214.96234 219.07700 223.86380 229.57455 234.55997
 238.38785 242.37125 246.64723 250.84969 254.66357 258.32016 261.24625 263.55167
 266.34314 269.00784 271.42694 273.74182 275.85037 277.67566 279.11389 280.61115
 282.35422 283.99197 285.49512 286.85330 288.03262 289.07718 290.03122 290.89539
 291.67294 292.36398 292.96872 293.76230
 366.78100 356.33851 345.77401 334.64352 323.05002 311.24753 299.12103 286.92754
 274.64304 262.54355 250.55605 239.86056 229.98606 221.09357 213.27907 206.28458
 200.12208 195.06359 191.64910 189.69460 188.73511 188.80261 189.64112 190.95262
 192.68113 194.77963 197.04614 199.40864 201.85715 204.34065 206.43216 208.27766
 209.90717 211.05567 211.28818 211.51969 211.46019 211.16870 210.80520 210.43871
 210.05921 209.77272 209.58422 209.45173 209.38323 209.71774 210.10724 210.49975
 211.29625 212.47776 213.73127 215.51777 217.44928 219.49578 221.59429 223.68079
 225.74430 227.83180 229.93231 232.04181 234.17432 236.34982 238.60933 240.98283
 243.60734 245.86184 247.86735 249.63586 251.05636 252.18287 253.00837 253.32788
 253.36838 253.14589 252.50939 251.46090 250.07040 248.23491 246.14741 243.98392
 241.77842 239.58593 237.40943 235.25194 233.11545 230.98595 229.01546 227.17596
 225.46247 223.93797 222.57148 221.34698 220.23249 219.19599 218.30350 217.44800
 216.69351 215.87701 214.97852 214.34602 213.79953 213.06775 211.34312 210.62193
 210.51781 210.82237 212.02271 214.94118 218.98288 223.77058 229.50029 234.47322
 238.29391 242.27542 246.55655 250.76665 254.59277 258.26855 261.20639 263.51892
 266.31805 268.97598 271.37457 273.66534 275.78195 277.63742 279.09045 280.58521
 282.31235 283.93454 285.43130 286.78949 287.96896 289.01392 289.96686 290.83368
 291.60867 292.30228 292.90887 293.69937
 366.78100 356.33865 345.77429 334.64394 323.05058 311.24823 299.12187 286.92852
 274.64416 262.54481 250.55745 239.86210 229.98774 221.09539 213.28103 206.28668
 200.12432 195.06597 191.65161 189.69726 188.73790 188.80555 189.64419 190.95584
 192.68449 194.78313 197.04978 199.41242 201.86107 204.34471 206.43636 208.28200
 209.91165 211.06029 211.29294 211.52458 211.46523 211.17387 210.81052 210.44416
 210.06481 209.77845 209.59010 209.45774 209.38939 209.72404 210.11368 210.50633
 211.30297 212.48462 213.73826 215.52491 217.45655 219.50320 221.60184 223.68849
 225.75213 227.83978 229.94042 232.05007 234.18271 236.35836 238.61800 240.99165
 243.61629 245.87094 247.87658 249.64523 251.06588 252.19252 253.01817 253.33781
 253.37846 253.15610 252.51975 251.47139 250.08104 248.24568 246.15833 243.99497
 241.78962 239.59726 237.42091 235.26355 233.12720 230.99784 229.02749 227.18813
 225.47478 223.95042 222.58407 221.35972 220.24536 219.20901 218.31665 217.46130
 216.70694 215.89059 214.99223 214.35988 213.81352 213.09326 211.39590 210.73454
 210.58968 210.87419 212.04341 214.92345 218.89426 223.67215 229.42424 234.38187
 238.19725 242.17929 246.46632 250.68394 254.52396 258.21609 261.16135 263.47885
 266.28763 268.94098 271.32095 273.58929 275.71735 277.60269 279.07126 280.56317
 282.27637 283.88458 285.37622 286.73453 287.91458 288.96042 289.91263 290.77908
 291.55569 292.24884 292.85522 293.64926
 366.78100 356.33909 345.77517 334.64526 323.05235 311.25044 299.12452 286.93161
 274.64770 262.54879 250.56187 239.86696 229.99305 221.10113 213.28722 206.29331
 200.13140 195.07348 191.65957 189.70566 188.74675 188.81483 189.65392 190.96601
 192.69509 194.79418 197.06127 199.42436 201.87344 204.35753 206.44962 208.29571
 209.92579 211.07488 211.30797 211.54005 211.48114 211.19023 210.82732 210.46140
 210.08249 209.79658 209.60867 209.47675 209.40884 209.74393 210.13401 210.52710
 211.32419 212.50628 213.76036 215.54745 217.47954 219.52663 221.62571 223.71280
 225.77689 227.86497 229.96606 232.07615 234.20924 236.38532 238.64541 241.01950
 243.64459 245.89967 247.90576 249.67485 251.09593 252.22302 253.04911 253.36920
 253.41028 253.18837 252.55246 251.50455 250.11463 248.27972 246.19281 244.02989
 241.82498 239.63307 237.45716 235.30024 233.16433 231.03542 229.06551 227.22659
 225.51368 223.98977 222.62385 221.39994 220.28603 219.25012 218.35820 217.50329
 216.74938 215.93347 215.03555 214.40364 213.85773 213.13300 211.42554 210.85768
 210.67500 210.92848 212.06618 214.90125 218.80754 223.56688 229.34535 234.28761
 238.09995 242.08395 246.37555 250.59972 254.45555 258.16150 261.11087 263.43314
 266.25400 268.90442 271.26648 273.51550 275.65665 277.57230 279.05551 280.54562
 282.24594 283.84119 285.32886 286.68729 287.86700 288.91183 289.86621 290.73053
 291.50992 292.20325 292.81177 293.60474
 366.78100 356.33932 345.77564 334.64595 323.05327 311.25159 299.12591 286.93322
 274.64954 262.55086 250.56418 239.86949 229.99581 221.10413 213.29045 206.29677
 200.13508 195.07740 191.66372 189.71004 188.75135 188.81967 189.65899 190.97131
 192.70062 194.79994 197.06726 199.43058 201.87989 204.36421 206.45653 208.30285
 209.93317 211.08248 211.31580 211.54812 211.48944 211.19875 210.83607 210.47039
 210.09171 209.80602 209.61834 209.48666 209.41898 209.75430 210.14461 210.53793
 211.33525 212.51757 213.77188 215.55920 217.49152 219.53884 221.63815 223.72547
 225.78979 227.87811 229.97943 232.08974 234.22306 236.39938 238.65970 241.03401
 243.65933 245.91465 247.92097 249.69028 251.11160 252.23892 253.06524 253.38556
 253.42687 253.20519 252.56951 251.52183 250.13214 248.29746 246.21078 244.04810
 241.84341 239.65173 237.47605 235.31937 233.18368 231.05500 229.08532 227.24664
 225.53396 224.01027 222.64459 221.42091 220.30723 219.27154 218.37986 217.52518
 216.77150 215.95581 215.05813 214.42645 213.88077 213.16194 211.46837 210.95447
 210.79204 210.99071 212.07945 214.88838 218.71983 223.45547 229.26314 234.18857
 237.99829 241.98550 246.28183 250.51419 254.38931 258.10999 261.06409 263.38727
 266.21988 268.86670 271.21066 273.44104 275.59604 277.54074 279.03824 280.52927
 282.21790 283.80347 285.28802 286.64725 287.82642 288.87164 289.82446 290.69077
 291.46805 292.16501 292.77240 293.56345
 366.78100 356.34013 345.77726 334.64839 323.05652 311.25565 299.13078 286.93891
 274.65604 262.55817 250.57230 239.87843 230.00556 221.11469 213.30182 206.30895
 200.14808 195.09121 191.67834 189.72547 188.76760 188.83672 189.67685 190.98998
 192.72011 194.82024 197.08837 199.45250 201.90263 204.38776 206.48089 208.32802
 209.95915 211.10928 211.34341 211.57654 211.51867 211.22880 210.86693 210.50206
 210.12419 209.83932 209.65245 209.52158 209.45471 209.79084 210.18197 210.57610
 211.37423 212.55736 213.81249 215.60062 217.53375 219.58188 221.68201 223.77014
 225.83527 227.92440 230.02653 232.13766 234.27179 236.44891 238.71004 241.08517
 243.71130 245.96743 247.97456 249.74469 251.16682 252.29495 253.12208 253.44321
 253.48534 253.26447 252.62960 251.58273 250.19386 248.35999 246.27412 244.11225
 241.90838 239.71751 237.54264 235.38677 233.25190 231.12403 229.15516 227.31729
 225.60542 224.08255 222.71768 221.49481 220.38194 219.34707 218.45620 217.60233
 216.84946 216.03459 215.13772 214.50685 213.96198 213.21881 211.46838 211.07709
 210.91673 211.06349 212.11729 214.85158 218.60461 223.33154 229.17902 234.08565
 237.89484 241.88954 246.19270 250.43594 254.33308 258.06833 261.02402 263.34171
 266.18164 268.82233 271.14719 273.36154 275.53183 277.50302 279.01590 280.51050
 282.19208 283.76834 285.25488 286.61292 287.79199 288.83698 289.79233 290.65591
 291.43488 292.12854 292.74078 293.53400
 366.78100 356.34188 345.78075 334.65363 323.06350 311.26438 299.14126 286.95113
 274.67001 262.57389 250.58976 239.89764 230.02651 221.13739 213.32627 206.33514
 200.17602 195.12089 191.70977 189.75865 188.80252 188.87340 189.71527 191.03015
 192.76203 194.86390 197.13378 199.49966 201.95153 204.43841 206.53328 208.38216
 210.01504 211.16691 211.40279 211.63766 211.58154 211.29342 210.93329 210.57017
 210.19404 209.91092 209.72580 209.59667 209.53155 209.86943 210.26230 210.65818
 211.45805 212.64293 213.89981 215.68968 217.62456 219.67443 221.77631 223.86619
 225.93306 228.02394 230.12781 232.24069 234.37657 236.55544 238.81832 241.19520
 243.82307 246.08095 248.08982 249.86170 251.28558 252.41545 253.24433 253.56720
 253.61108 253.39196 252.75883 251.71371 250.32659 248.49446 246.41034 244.25021
 242.04809 239.85897 237.68584 235.53172 233.39859 231.27247 229.30535 227.46922
 225.75910 224.23797 222.87485 221.65373 220.54260 219.50948 218.62036 217.76823
 217.01711 216.20398 215.30886 214.67974 214.13661 213.32439 211.41183 211.17793
 211.17854 211.15755 212.00771 214.78090 218.51788 223.21671 229.09329 233.99020
 237.80563 241.80827 246.11545 250.36829 254.28358 258.02664 260.97519 263.28418
 266.13174 268.76657 271.07703 273.27893 275.46823 277.46713 278.99521 280.49435
 282.16928 283.73776 285.22403 286.58212 287.76102 288.80640 289.76038 290.62698
 291.40433 292.09933 292.70883 293.50632
 366.78100 356.34278 345.78257 334.65635 323.06714 311.26892 299.14671 286.95749
 274.67728 262.58206 250.59885 239.90763 230.03742 221.14920 213.33899 206.34877
 200.19056 195.13634 191.72613 189.77591 188.82070 188.89248 189.73527 191.05105
 192.78384 194.88662 197.15741 199.52419 201.97698 204.46476 206.56055 208.41033
 210.04412 211.19690 211.43369 211.66947 211.61426 211.32704 210.96783 210.60561
 210.23040 209.94818 209.76397 209.63575 209.57154 209.91032 210.30411 210.70089
 211.50168 212.68746 213.94525 215.73603 217.67182 219.72260 221.82539 223.91617
 225.98396 228.07574 230.18053 232.29431 234.43110 236.61088 238.87467 241.25245
 243.88124 246.14002 248.14981 249.92259 251.34738 252.47816 253.30795 253.63173
 253.67652 253.45830 252.82609 251.78187 250.39565 248.56444 246.48122 244.32201
 242.12079 239.93258 237.76036 235.60715 233.47493 231.34972 229.38350 227.54829
 225.83907 224.31886 222.95664 221.73643 220.62621 219.59400 218.70578 217.85457
 217.10435 216.29214 215.39792 214.76971 214.22749 213.39052 211.41911 211.20921
 211.35042 211.30650 212.06303 214.69000 218.34909 223.11227 229.01939 233.91833
 237.73846 241.74185 246.04456 250.30006 254.22899 257.97241 260.90674 263.21255
 266.07248 268.70715 271.00604 273.20084 275.41193 277.43979 278.98291 280.48511
 282.15253 283.71130 285.19781 286.55695 287.73624 288.77951 289.73303 290.59882
 291.37805 292.07367 292.68332 293.48010
 366.78100 356.34305 345.78309 334.65714 323.06818 311.27023 299.14827 286.95932
 274.67936 262.58441 250.60146 239.91050 230.04055 221.15259 213.34264 206.35268
 200.19473 195.14077 191.73082 189.78087 188.82591 188.89796 189.74100 191.05705
 192.79009 194.89314 197.16418 199.53123 201.98428 204.47232 206.56837 208.41841
 210.05246 211.20550 211.44255 211.67859 211.62364 211.33669 210.97773 210.61578
 210.24082 209.95887 209.77491 209.64696 209.58300 209.92205 210.31610 210.71314
 211.51419 212.70023 213.95828 215.74932 217.68537 219.73641 221.83946 223.93051
 225.99855 228.09060 230.19564 232.30969 234.44673 236.62678 238.89082 241.26887
 243.89792 246.15696 248.16701 249.94005 251.36510 252.49614 253.32619 253.65023
 253.69528 253.47733 252.84537 251.80142 250.41546 248.58451 246.50155 244.34260
 242.14164 239.95369 237.78174 235.62878 233.49683 231.37187 229.40592 227.57096
 225.86201 224.34205 222.98010 221.76015 220.65019 219.61824 218.73028 217.87933
 217.12937 216.31742 215.42346 214.79551 214.25356 213.42317 211.46658 211.23363
 211.45061 211.40106 212.15759 214.64482 218.21886 223.02994 228.97412 233.86671
 237.67891 241.67439 245.96655 250.22194 254.16594 257.90662 260.82791 263.13647
 266.01312 268.64890 270.93951 273.12985 275.36151 277.41931 278.97672 280.48004
 282.13794 283.68713 285.17496 286.53448 287.71228 288.75607 289.70959 290.57471
 291.35449 292.04947 292.65933 293.45731
 366.78100 356.34337 345.78374 334.65811 323.06948 311.27185 299.15022 286.96159
 274.68196 262.58733 250.60470 239.91407 230.04444 221.15681 213.34718 206.35754
 200.19991 195.14628 191.73665 189.78702 188.83239 188.90476 189.74813 191.06450
 192.79787 194.90124 197.17261 199.53998 201.99335 204.48172 206.57809 208.42846
 210.06283 211.21620 211.45357 211.68994 211.63531 211.34868 210.99005 210.62842
 210.25379 209.97216 209.78853 209.66089 209.59726 209.93663 210.33100 210.72837
 211.52974 212.71611 213.97448 215.76585 217.70222 219.75359 221.85696 223.94833
 226.01670 228.10907 230.21444 232.32881 234.46618 236.64655 238.91092 241.28929
 243.91866 246.17803 248.18840 249.96177 251.38714 252.51851 253.34888 253.67325
 253.71861 253.50098 252.86935 251.82572 250.44009 248.60946 246.52683 244.36820
 242.16757 239.97994 237.80831 235.65568 233.52405 231.39942 229.43379 227.59916
 225.89053 224.37090 223.00927 221.78964 220.68001 219.64838 218.76075 217.91012
 217.16049 216.34886 215.45523 214.82760 214.28596 213.45879 211.50902 211.25922
 211.55396 211.49052 212.21350 214.62599 218.15205 222.95323 228.93523 233.80600
 237.60367 241.59299 245.87848 250.13666 254.09976 257.83984 260.75229 263.06476
 265.95547 268.59174 270.87320 273.05939 275.31125 277.39594 278.96707 280.47388
 282.12408 283.66449 285.15329 286.51233 287.69034 288.73395 289.68692 290.55161
 291.33105 292.02689 292.63797 293.43387
 366.78100 356.34393 345.78485 334.65978 323.07171 311.27463 299.15356 286.96549
 274.68641 262.59234 250.61027 239.92019 230.05112 221.16405 213.35497 206.36590
 200.20883 195.15575 191.74668 189.79761 188.84353 188.91646 189.76039 191.07732
 192.81124 194.91517 197.18710 199.55502 202.00895 204.49788 206.59480 208.44573
 210.08066 211.23458 211.47251 211.70944 211.65536 211.36929 211.01122 210.65014
 210.27607 209.99500 209.81192 209.68485 209.62178 209.96170 210.35663 210.75456
 211.55648 212.74341 214.00234 215.79426 217.73119 219.78312 221.88704 223.97897
 226.04790 228.14082 230.24675 232.36168 234.49960 236.68053 238.94546 241.32439
 243.95431 246.21424 248.22517 249.99909 251.42502 252.55695 253.38787 253.71280
 253.75873 253.54165 252.91058 251.86751 250.48243 248.65236 246.57029 244.41221
 242.21214 240.02507 237.85399 235.70192 233.57085 231.44677 229.48170 227.64763
 225.93955 224.42048 223.05941 221.84033 220.73126 219.70019 218.81311 217.96304
 217.21397 216.40289 215.50982 214.88275 214.34167 213.50592 211.53534 211.28372
 211.66066 211.59480 212.25464 214.62329 218.10912 222.87675 228.88573 233.73187
 237.51764 241.50621 245.78931 250.05368 254.03792 257.77786 260.68262 262.99701
 265.89792 268.53036 270.80362 272.98672 275.25946 277.36725 278.95172 280.46420
 282.10834 283.63980 285.13394 286.49118 287.66956 288.71234 289.66516 290.52960
 291.30927 292.00455 292.61551 293.40961
 366.78100 356.34468 345.78635 334.66203 323.07471 311.27838 299.15806 286.97074
 274.69241 262.59909 250.61777 239.92844 230.06012 221.17380 213.36547 206.37715
 200.22083 195.16850 191.76018 189.81186 188.85853 188.93221 189.77689 191.09456
 192.82924 194.93392 197.20659 199.57527 202.02995 204.51962 206.61730 208.46898
 210.10465 211.25933 211.49801 211.73569 211.68236 211.39704 211.03972 210.67939
 210.30607 210.02575 209.84342 209.71710 209.65478 209.99545 210.39113 210.78981
 211.59248 212.78016 214.03984 215.83251 217.77019 219.82287 221.92754 224.02022
 226.08990 228.18357 230.29025 232.40593 234.54460 236.72628 238.99196 241.37163
 244.00231 246.26299 248.27466 250.04934 251.47602 252.60869 253.44037 253.76605
 253.81272 253.59640 252.96608 251.92375 250.53943 248.71011 246.62878 244.47146
 242.27214 240.08581 237.91549 235.76417 233.63384 231.51052 229.54620 227.71287
 226.00555 224.48723 223.12690 221.90858 220.80026 219.76993 218.88361 218.03429
 217.28596 216.47564 215.58332 214.95700 214.41667 213.56219 211.54691 211.31149
 211.76317 211.69983 212.31236 214.63232 218.05626 222.80746 228.82845 233.65388
 237.43082 241.42117 245.70358 249.97542 253.98061 257.71851 260.61539 262.93002
 265.83762 268.46512 270.72824 272.91324 275.20612 277.33560 278.93417 280.45322
 282.09128 283.61411 285.11279 286.47144 287.64792 288.69022 289.64340 290.50519
 291.28607 291.98038 292.58978 293.38693
 366.78100 356.34552 345.78804 334.66456 323.07808 311.28260 299.16313 286.97665
 274.69917 262.60669 250.62621 239.93773 230.07025 221.18477 213.37729 206.38981
 200.23434 195.18286 191.77538 189.82790 188.87542 188.94994 189.79546 191.11398
 192.84950 194.95502 197.22855 199.59807 202.05359 204.54411 206.64263 208.49515
 210.13167 211.28719 211.52671 211.76523 211.71276 211.42828 211.07180 210.71232
 210.33984 210.06036 209.87888 209.75340 209.69192 210.03344 210.42997 210.82949
 211.63301 212.82153 214.08205 215.87557 217.81409 219.86761 221.97313 224.06665
 226.13718 228.23170 230.33922 232.45574 234.59526 236.77778 239.04430 241.42482
 244.05634 246.31786 248.33039 250.10591 251.53343 252.66695 253.49947 253.82599
 253.87351 253.65803 253.02855 251.98707 250.60359 248.77512 246.69464 244.53816
 242.33968 240.15420 237.98472 235.83424 233.70476 231.58228 229.61880 227.78633
 226.07985 224.56237 223.20289 221.98541 220.87793 219.84845 218.96297 218.11449
 217.36701 216.55754 215.66606 215.04058 214.50110 213.62267 211.55029 211.33992
 211.85863 211.80348 212.38773 214.64432 217.99515 222.74861 228.76953 233.57578
 237.34648 241.33859 245.62065 249.90103 253.92479 257.65872 260.54764 262.86377
 265.77475 268.39478 270.65201 272.84015 275.15353 277.30209 278.91397 280.44095
 282.07425 283.58765 285.09207 286.44943 287.62473 288.66577 289.61847 290.48022
 291.25928 291.95422 292.56421 293.35892
 366.78100 356.34639 345.78979 334.66718 323.08157 311.28696 299.16836 286.98275
 274.70614 262.61454 250.63493 239.94732 230.08071 221.19611 213.38950 206.40289
 200.24829 195.19768 191.79107 189.84446 188.89286 188.96825 189.81464 191.13404
 192.87043 194.97682 197.25121 199.62161 202.07800 204.56939 206.66879 208.52218
 210.15957 211.31596 211.55636 211.79575 211.74414 211.46054 211.10493 210.74632
 210.37471 210.09611 209.91550 209.79089 209.73029 210.07268 210.47007 210.87047
 211.67486 212.86425 214.12564 215.92004 217.85943 219.91382 222.02022 224.11461
 226.18600 228.28139 230.38979 232.50718 234.64757 236.83097 239.09836 241.47975
 244.11214 246.37454 248.38793 250.16432 251.59272 252.72711 253.56050 253.88789
 253.93629 253.72168 253.09307 252.05247 250.66986 248.84225 246.76264 244.60704
 242.40943 240.22482 238.05622 235.90661 233.77800 231.65639 229.69379 227.86218
 226.15657 224.63997 223.28136 222.06475 220.95814 219.92954 219.04493 218.19732
 217.45072 216.64211 215.75150 215.12689 214.58829 213.68416 211.55054 211.36859
 211.94090 211.91310 212.47418 214.65321 217.93613 222.69792 228.71193 233.49619
 237.26187 241.25616 245.53969 249.82964 253.87128 257.59866 260.47989 262.79959
 265.71082 268.32224 270.57336 272.76752 275.10028 277.26581 278.89032 280.42517
 282.05148 283.56061 285.06781 286.42468 287.59854 288.63971 289.59000 290.45493
 291.23148 291.92633 292.53659 293.33026
 366.78100 356.34725 345.79151 334.66976 323.08501 311.29126 299.17352 286.98877
 274.71302 262.62227 250.64353 239.95678 230.09103 221.20728 213.40154 206.41579
 200.26204 195.21229 191.80655 189.86080 188.91005 188.98630 189.83356 191.15381
 192.89106 194.99831 197.27357 199.64482 202.10207 204.59432 206.69458 208.54883
 210.18708 211.34433 211.58559 211.82584 211.77509 211.49234 211.13760 210.77985
 210.40910 210.13135 209.95161 209.82786 209.76811 210.11136 210.50962 210.91087
 211.71612 212.90638 214.16863 215.96388 217.90413 219.95939 222.06664 224.16189
 226.23414 228.33040 230.43965 232.55790 234.69915 236.88341 239.15166 241.53391
 244.16716 246.43042 248.44467 250.22192 251.65117 252.78643 253.62068 253.94893
 253.99818 253.78444 253.15669 252.11694 250.73519 248.90845 246.82970 244.67495
 242.47820 240.29446 238.12671 235.97796 233.85021 231.72947 229.76772 227.93697
 226.23222 224.71648 223.35873 222.14298 221.03723 220.00949 219.12574 218.27899
 217.53325 216.72550 215.83575 215.21200 214.67426 213.74466 211.55028 211.39694
 212.01213 212.02824 212.56807 214.65889 217.88670 222.65088 228.65593 233.41789
 237.17773 241.17470 245.46037 249.76154 253.81932 257.53787 260.41357 262.73920
 265.64642 268.24710 270.49411 272.69650 275.04620 277.22589 278.86322 280.40616
 282.02811 283.53461 285.03931 286.39639 287.56909 288.60852 289.56033 290.42413
 291.20050 291.89548 292.50342 293.29807
 366.78100 356.34808 345.79316 334.67224 323.08832 311.29540 299.17848 286.99456
 274.71964 262.62972 250.65180 239.96589 230.10097 221.21805 213.41313 206.42821
 200.27529 195.22637 191.82145 189.87653 188.92661 189.00369 189.85177 191.17285
 192.91093 195.01901 197.29509 199.66717 202.12525 204.61833 206.71941 208.57450
 210.21358 211.37166 211.61374 211.85482 211.80490 211.52298 211.16906 210.81214
 210.44222 210.16530 209.98638 209.86346 209.80454 210.14862 210.54770 210.94978
 211.75586 212.94694 214.21002 216.00611 217.94719 220.00327 222.11135 224.20743
 226.28051 228.37759 230.48767 232.60675 234.74883 236.93391 239.20299 241.58607
 244.22015 246.48423 248.49931 250.27739 251.70747 252.84355 253.67863 254.00772
 254.05780 253.84488 253.21796 252.17904 250.79812 248.97220 246.89428 244.74036
 242.54444 240.36152 238.19460 236.04668 233.91976 231.79984 229.83892 228.00900
 226.30508 224.79016 223.43324 222.21833 221.11341 220.08649 219.20357 218.35765
 217.61273 216.80581 215.91689 215.29397 214.75705 213.80322 211.55093 211.41995
 212.08009 212.14198 212.66087 214.66690 217.85098 222.60660 228.59880 233.33647
 237.09328 241.09441 245.38495 249.69890 253.77165 257.47986 260.35074 262.68369
 265.58093 268.16760 270.41238 272.62537 274.99036 277.18207 278.83533 280.38879
 282.00427 283.51840 285.00089 286.36002 287.53339 288.57385 289.52512 290.38638
 291.16269 291.85898 292.46613 293.26093
 366.78100 356.34900 345.79500 334.67499 323.09199 311.29999 299.18399 287.00099
 274.72699 262.63798 250.66098 239.97598 230.11198 221.22998 213.42597 206.44197
 200.28997 195.24197 191.83797 189.89397 188.94496 189.02296 189.87196 191.19396
 192.93296 195.04195 197.31895 199.69195 202.15095 204.64495 206.74694 208.60294
 210.24294 211.40194 211.64494 211.88694 211.83793 211.55693 211.20393 210.84793
 210.47893 210.20292 210.02492 209.90292 209.84492 210.18992 210.58992 210.99291
 211.79991 212.99191 214.25591 216.05291 217.99490 220.05190 222.16090 224.25790
 226.33190 228.42990 230.54089 232.66089 234.80389 236.98989 239.25989 241.64388
 244.27888 246.54388 248.55988 250.33888 251.76987 252.90687 253.74287 254.07287
 254.12387 253.91187 253.28586 252.24786 250.86786 249.04286 246.96586 244.81285
 242.61785 240.43585 238.26985 236.12285 233.99685 231.87784 229.91784 228.08884
 226.38584 224.87184 223.51583 222.30183 221.19783 220.17183 219.28983 218.44483
 217.70082 216.89482 216.00682 215.38482 214.84882 213.86639 211.54585 211.44093
 212.14943 212.25322 212.74910 214.67249 217.83163 222.55894 228.53799 233.26283
 237.01729 241.02049 245.31522 249.64209 253.72684 257.42093 260.28687 262.62976
 265.51178 268.08194 270.32660 272.55307 274.93494 277.13788 278.80927 280.37326
 281.98187 283.49475 284.96283 286.32190 287.49738 288.53870 289.48944 290.35291
 291.13260 291.82846 292.43967 293.22971
 366.78100 356.34959 345.79618 334.67678 323.09437 311.30296 299.18755 287.00514
 274.73174 262.64333 250.66692 239.98251 230.11910 221.23770 213.43429 206.45088
 200.29947 195.25206 191.84866 189.90525 188.95684 189.03543 189.88502 191.20762
 192.94721 195.05680 197.33439 199.70798 202.16758 204.66217 206.76476 208.62135
 210.26194 211.42154 211.66513 211.90772 211.85931 211.57891 211.22650 210.87109
 210.50268 210.22727 210.04987 209.92846 209.87105 210.21664 210.61723 211.02083
 211.82842 213.02101 214.28560 216.08319 218.02579 220.08338 222.19297 224.29056
 226.36515 228.46375 230.57534 232.69593 234.83952 237.02611 239.29671 241.68130
 244.31689 246.58248 248.59907 250.37867 251.81026 252.94785 253.78444 254.11503
 254.16663 253.95522 253.32981 252.29240 250.91299 249.08859 247.01218 244.85977
 242.66536 240.48395 238.31855 236.17214 234.04673 231.92832 229.96891 228.14051
 226.43810 224.92469 223.56928 222.35587 221.25247 220.22706 219.34565 218.50124
 217.75784 216.95243 216.06502 215.44361 214.90820 213.91374 211.56422 211.43735
 212.21652 212.36674 212.84117 214.69460 217.80196 222.51547 228.48392 233.19164
 236.93962 240.94293 245.24547 249.58849 253.68480 257.36365 260.22729 262.58258
 265.44263 267.99222 270.23862 272.48059 274.87875 277.09164 278.78473 280.36148
 281.96152 283.46927 284.92450 286.28519 287.45978 288.50082 289.45331 290.31561
 291.09903 291.79523 292.40634 293.19809
 366.78100 356.35072 345.79844 334.68015 323.09887 311.30859 299.19431 287.01302
 274.74074 262.65346 250.67818 239.99489 230.13261 221.25233 213.45005 206.46777
 200.31748 195.27120 191.86892 189.92664 188.97935 189.05907 189.90979 191.23351
 192.97422 195.08494 197.36366 199.73838 202.19909 204.69481 206.79853 208.65625
 210.29797 211.45868 211.70340 211.94712 211.89984 211.62055 211.26927 210.91499
 210.54771 210.27342 210.09714 209.97686 209.92058 210.26730 210.66901 211.07373
 211.88245 213.07617 214.34188 216.14060 218.08432 220.14304 222.25375 224.35247
 226.42819 228.52791 230.64062 232.76234 234.90706 237.09478 239.36650 241.75221
 244.38893 246.65565 248.67337 250.45408 251.88680 253.02552 253.86324 254.19495
 254.24767 254.03739 253.41311 252.37683 250.99854 249.17526 247.09998 244.94870
 242.75541 240.57513 238.41085 236.26557 234.14128 232.02400 230.06572 228.23844
 226.53716 225.02487 223.67059 222.45831 221.35603 220.33174 219.45146 218.60818
 217.86590 217.06161 216.17533 215.55505 215.02077 213.98788 211.54756 211.45561
 212.29733 212.46127 212.92091 214.71080 217.77715 222.46877 228.43233 233.12280
 236.86517 240.87099 245.18320 249.54449 253.65096 257.31137 260.17413 262.54019
 265.37073 267.89542 270.14383 272.40558 274.82025 277.04150 278.75714 280.34888
 281.93692 283.43753 284.88870 286.24774 287.42145 288.46313 289.41318 290.27829
 291.05997 291.75885 292.36990 293.16397
 366.78100 356.35136 345.79973 334.68209 323.10145 311.31181 299.19818 287.01754
 274.74590 262.65926 250.68463 240.00199 230.14035 221.26071 213.45908 206.47744
 200.32780 195.28216 191.88053 189.93889 188.99225 189.07261 189.92398 191.24834
 192.98970 195.10106 197.38043 199.75579 202.21715 204.71351 206.81788 208.67624
 210.31860 211.47996 211.72533 211.96969 211.92305 211.64441 211.29378 210.94014
 210.57350 210.29986 210.12423 210.00459 209.94895 210.29631 210.69868 211.10404
 211.91340 213.10776 214.37413 216.17349 218.11785 220.17721 222.28858 224.38794
 226.46430 228.56466 230.67803 232.80039 234.94575 237.13411 239.40648 241.79284
 244.43020 246.69756 248.71593 250.49729 251.93065 253.07001 253.90838 254.24074
 254.29410 254.08446 253.46083 252.42519 251.04755 249.22491 247.15028 244.99964
 242.80700 240.62736 238.46373 236.31909 234.19545 232.07881 230.12118 228.29454
 226.59390 225.08226 223.72863 222.51699 221.41535 220.39171 219.51208 218.66944
 217.92780 217.12416 216.23853 215.61889 215.08525 214.03648 211.55864 211.46013
 212.38098 212.55653 212.99883 214.70662 217.73042 222.41878 228.38687 233.06683
 236.79980 240.80621 245.12666 249.50612 253.62123 257.26031 260.11755 262.49939
 265.29633 267.79535 270.04932 272.33209 274.76190 276.99252 278.73413 280.33997
 281.91537 283.40680 284.84830 286.20834 287.38101 288.42130 289.37201 290.23856
 291.02148 291.72070 292.33377 293.13037
 366.78100 356.35096 345.79892 334.68088 323.09985 311.30981 299.19577 287.01473
 274.74269 262.65565 250.68062 239.99758 230.13554 221.25550 213.45346 206.47142
 200.32139 195.27535 191.87331 189.93127 188.98423 189.06419 189.91516 191.23912
 192.98008 195.09104 197.37000 199.74496 202.20593 204.70189 206.80585 208.66381
 210.30577 211.46673 211.71170 211.95566 211.90862 211.62958 211.27854 210.92450
 210.55747 210.28343 210.10739 209.98735 209.93131 210.27827 210.68024 211.08520
 211.89416 213.08812 214.35408 216.15304 218.09701 220.15597 222.26693 224.36589
 226.44185 228.54181 230.65478 232.77674 234.92170 237.10966 239.38162 241.76758
 244.40455 246.67151 248.68947 250.47043 251.90339 253.04235 253.88032 254.21228
 254.26524 254.05520 253.43116 252.39512 251.01709 249.19405 247.11901 244.96797
 242.77493 240.59489 238.43086 236.28582 234.16178 232.04474 230.08670 228.25966
 226.55863 225.04659 223.69255 222.48051 221.37847 220.35443 219.47440 218.63136
 217.88932 217.08528 216.19924 215.57920 215.04517 214.02802 211.62489 211.46008
 212.46808 212.63274 212.99124 214.70074 217.70857 222.41544 228.35313 233.01617
 236.73518 240.73991 245.07051 249.46944 253.59218 257.20602 260.06421 262.46295
 265.22339 267.69836 269.96082 272.26511 274.70837 276.94846 278.71634 280.33594
 281.89526 283.37448 284.81049 286.16693 287.33746 288.37766 289.32941 290.19611
 290.97842 291.67892 292.29236 293.08881
 366.78100 356.35044 345.79788 334.67932 323.09775 311.30719 299.19263 287.01107
 274.73851 262.65095 250.67539 239.99183 230.12926 221.24870 213.44614 206.46358
 200.31302 195.26646 191.86390 189.92134 188.97377 189.05321 189.90365 191.22709
 192.96753 195.07797 197.35641 199.73085 202.19128 204.68672 206.79016 208.64760
 210.28904 211.44948 211.69392 211.93736 211.88979 211.61023 211.25867 210.90411
 210.53655 210.26199 210.08543 209.96487 209.90830 210.25474 210.65618 211.06062
 211.86906 213.06250 214.32794 216.12638 218.06981 220.12825 222.23869 224.33713
 226.41257 228.51201 230.62445 232.74589 234.89032 237.07776 239.34920 241.73464
 244.37108 246.63752 248.65496 250.43540 251.86783 253.00627 253.84371 254.17515
 254.22759 254.01703 253.39247 252.35591 250.97734 249.15378 247.07822 244.92666
 242.73310 240.55254 238.38798 236.24242 234.11785 232.00029 230.04173 228.21417
 226.51261 225.00005 223.64549 222.43293 221.33036 220.30580 219.42524 218.58168
 217.83912 217.03456 216.14800 215.52744 214.99287 214.00883 211.68393 211.50349
 212.49925 212.65724 213.04384 214.79303 217.69261 222.32201 228.32913 232.96970
 236.66571 240.67317 245.01770 249.43867 253.57108 257.16483 260.01898 262.43478
 265.15347 267.60214 269.86969 272.19461 274.64807 276.89069 278.68201 280.31464
 281.86099 283.33420 284.77243 286.12570 287.29568 288.33505 289.28799 290.15341
 290.93890 291.64133 292.25647 293.05240
 366.78100 356.35074 345.79847 334.68021 323.09895 311.30868 299.19442 287.01316
 274.74089 262.65363 250.67837 239.99510 230.13284 221.25258 213.45031 206.46805
 200.31779 195.27152 191.86926 189.92700 188.97973 189.05947 189.91021 191.23394
 192.97468 195.08541 197.36415 199.73889 202.19962 204.69536 206.79910 208.65683
 210.29857 211.45931 211.70404 211.94778 211.90052 211.62125 211.26999 210.91573
 210.54846 210.27420 210.09794 209.97767 209.92141 210.26815 210.66988 211.07462
 211.88336 213.07709 214.34283 216.14157 218.08530 220.14404 222.25478 224.35351
 226.42925 228.52899 230.64172 232.76346 234.90820 237.09593 239.36767 241.75341
 244.39014 246.65688 248.67462 250.45535 251.88809 253.02682 253.86456 254.19630
 254.24903 254.03877 253.41451 252.37824 250.99998 249.17672 247.10145 244.95019
 242.75693 240.57666 238.41240 236.26714 234.14287 232.02561 230.06735 228.24008
 226.53882 225.02656 223.67229 222.46003 221.35777 220.33350 219.45324 218.60998
 217.86771 217.06345 216.17719 215.55692 215.02266 214.03099 211.68808 211.54771
 212.56432 212.70628 213.10483 214.86952 217.71140 222.20731 228.28825 232.91061
 236.59140 240.60687 244.97018 249.41608 253.56067 257.12872 259.97983 262.40851
 265.07474 267.48914 269.76361 272.11145 274.57669 276.82202 278.64081 280.29153
 281.82669 283.29214 284.72913 286.07452 287.24222 288.28098 289.23328 290.09976
 290.88605 291.58932 292.20544 293.00055
 366.78100 356.35232 345.80164 334.68496 323.10528 311.31660 299.20393 287.02425
 274.75357 262.66789 250.69421 240.01253 230.15185 221.27317 213.47249 206.49181
 200.34313 195.29846 191.89778 189.95710 189.01142 189.09274 189.94506 191.27038
 193.01270 195.12502 197.40534 199.78166 202.24399 204.74131 206.84663 208.70595
 210.34927 211.51159 211.75791 212.00323 211.95755 211.67987 211.33019 210.97752
 210.61184 210.33916 210.16448 210.04580 209.99112 210.33944 210.74276 211.14908
 211.95940 213.15472 214.42205 216.22237 218.16769 220.22801 222.34033 224.44065
 226.51797 228.61929 230.73361 232.85693 235.00325 237.19258 239.46590 241.85322
 244.49154 246.75986 248.77918 250.56150 251.99582 253.13614 253.97546 254.30878
 254.36311 254.15443 253.53175 252.49707 251.12039 249.29871 247.22503 245.07535
 242.88367 240.70499 238.54231 236.39864 234.27596 232.16028 230.20360 228.37792
 226.67824 225.16756 223.81488 222.60420 221.50352 220.48084 219.60217 218.76049
 218.01981 217.21713 216.33245 215.71377 215.18109 214.12637 211.63445 211.51083
 212.69121 212.85121 213.17030 214.93044 217.76576 222.12637 228.21542 232.82675
 236.49739 240.52559 244.91023 249.37906 253.53371 257.08279 259.93503 262.37381
 265.00345 267.39545 269.67886 272.04630 274.51736 276.76324 278.60461 280.26553
 281.78806 283.25208 284.68948 286.03494 287.20230 288.24234 289.19501 290.06268
 290.85129 291.55545 292.17429 292.96832
 366.78100 356.35339 345.80377 334.68816 323.10954 311.32193 299.21032 287.03170
 274.76209 262.67748 250.70486 240.02425 230.16463 221.28702 213.48741 206.50779
 200.36018 195.31656 191.91695 189.97734 189.03272 189.11511 189.96849 191.29488
 193.03827 195.15165 197.43304 199.81043 202.27381 204.77220 206.87858 208.73897
 210.38336 211.54674 211.79413 212.04051 211.99590 211.71929 211.37067 211.01906
 210.65445 210.38283 210.20922 210.09160 210.03799 210.38738 210.79176 211.19915
 212.01053 213.20692 214.47531 216.27669 218.22308 220.28446 222.39785 224.49924
 226.57762 228.68001 230.79540 232.91978 235.06717 237.25755 239.53194 241.92033
 244.55971 246.82910 248.84948 250.63287 252.06826 253.20964 254.05003 254.38442
 254.43980 254.23219 253.61057 252.57696 251.20135 249.38073 247.30812 245.15950
 242.96889 240.79128 238.62966 236.48705 234.36543 232.25082 230.29521 228.47059
 226.77198 225.26237 223.91075 222.70114 221.60152 220.57991 219.70230 218.86168
 218.12207 217.32045 216.43684 215.81923 215.28761 214.19829 211.62466 211.47948
 212.72122 212.98444 213.26915 215.00638 217.82104 222.09065 228.13567 232.75493
 236.40866 240.45143 244.85196 249.33966 253.49492 257.01691 259.86511 262.36380
 264.94873 267.32169 269.62280 272.00403 274.47424 276.72385 278.59024 280.25644
 281.75958 283.20490 284.63641 285.97552 287.12747 288.16614 289.11920 289.98486
 290.77188 291.47455 292.08990 292.87927
 366.78100 356.35227 345.80154 334.68481 323.10507 311.31634 299.20361 287.02388
 274.75315 262.66742 250.69368 240.01195 230.15122 221.27249 213.47176 206.49103
 200.34229 195.29756 191.89683 189.95610 189.01037 189.09164 189.94391 191.26917
 193.01144 195.12371 197.40398 199.78025 202.24252 204.73978 206.84505 208.70432
 210.34759 211.50986 211.75613 212.00139 211.95566 211.67793 211.32820 210.97547
 210.60974 210.33701 210.16227 210.04354 209.98881 210.33708 210.74035 211.14662
 211.95688 213.15215 214.41942 216.21969 218.16496 220.22523 222.33749 224.43776
 226.51503 228.61630 230.73057 232.85384 235.00011 237.18937 239.46264 241.84991
 244.48818 246.75645 248.77572 250.55798 251.99225 253.13252 253.97179 254.30506
 254.35933 254.15059 253.52786 252.49313 251.11640 249.29467 247.22094 245.07121
 242.87947 240.70074 238.53801 236.39428 234.27155 232.15582 230.19908 228.37335
 226.67362 225.16289 223.81016 222.59943 221.49869 220.47596 219.59723 218.75550
 218.01477 217.21204 216.32731 215.70857 215.17584 214.14870 211.72353 211.57193
 212.64172 212.97598 213.32501 215.04620 217.84242 222.08060 228.06676 232.70688
 236.33533 240.39465 244.80719 249.31113 253.46677 256.96381 259.88037 262.34512
 264.89841 267.27148 269.58896 271.98404 274.44678 276.69888 278.58713 280.25266
 281.73755 283.18604 284.60864 285.94403 287.11008 288.15176 289.10605 289.97867
 290.77411 291.48972 292.12274 292.94153
 366.78100 356.35121 345.79943 334.68164 323.10085 311.31106 299.19728 287.01649
 274.74470 262.65791 250.68313 240.00034 230.13855 221.25876 213.45698 206.47519
 200.32540 195.27962 191.87783 189.93604 188.98925 189.06947 189.92068 191.24489
 192.98610 195.09732 197.37653 199.75174 202.21295 204.70917 206.81338 208.67159
 210.31381 211.47502 211.72023 211.96444 211.91766 211.63887 211.28808 210.93429
 210.56751 210.29372 210.11793 209.99814 209.94236 210.28957 210.69178 211.09700
 211.90621 213.10042 214.36663 216.16585 218.11006 220.16927 222.28048 224.37970
 226.45591 228.55612 230.66933 232.79155 234.93676 237.12497 239.39719 241.78340
 244.42061 246.68782 248.70604 250.48725 251.92046 253.05967 253.89789 254.23010
 254.28331 254.07352 253.44974 252.41395 251.03616 249.21338 247.13859 244.98780
 242.79501 240.61523 238.45144 236.30665 234.18286 232.06608 230.10829 228.28150
 226.58071 225.06893 223.71514 222.50335 221.40157 220.37778 219.49799 218.65520
 217.91342 217.10963 216.22384 215.60405 215.07027 214.09256 211.78339 211.71014
 212.64757 212.98225 213.36298 215.01421 217.79877 222.05475 228.02765 232.65706
 236.26988 240.33809 244.76265 249.27827 253.42996 256.88788 259.72333 262.41583
 264.91138 267.24991 269.58200 271.97168 274.42001 276.66971 278.57751 280.24457
 281.69476 283.09906 284.50864 285.82419 286.96826 287.99734 288.94519 289.80923
 290.58566 291.25235 291.76331 292.32004
 366.78100 356.35190 345.80081 334.68371 323.10361 311.31452 299.20142 287.02132
 274.75023 262.66413 250.69003 240.00794 230.14684 221.26774 213.46665 206.48555
 200.33645 195.29136 191.89026 189.94917 189.00307 189.08397 189.93588 191.26078
 193.00268 195.11459 197.39449 199.77039 202.23230 204.72920 206.83410 208.69301
 210.33591 211.49781 211.74372 211.98862 211.94252 211.66443 211.31433 210.96123
 210.59514 210.32204 210.14694 210.02785 209.97275 210.32065 210.72356 211.12946
 211.93936 213.13427 214.40117 216.20108 218.14598 220.20588 222.31779 224.41769
 226.49459 228.59550 230.70940 232.83230 234.97821 237.16711 239.44001 241.82692
 244.46482 246.73272 248.75163 250.53353 251.96743 253.10734 253.94624 254.27914
 254.33305 254.12395 253.50085 252.46576 251.08866 249.26656 247.19247 245.04237
 242.85027 240.67118 238.50808 236.36398 234.24089 232.12479 230.16770 228.34160
 226.64150 225.13041 223.77731 222.56621 221.46512 220.44202 219.56292 218.72083
 217.97973 217.17663 216.29154 215.67244 215.13934 214.13362 211.75751 211.73151
 212.78223 213.12158 213.44012 214.96547 217.72942 222.00717 228.00710 232.59616
 236.21042 240.28365 244.72408 249.25803 253.41560 256.85364 259.66037 262.32794
 264.77686 267.09341 269.43643 271.85126 274.30988 276.56308 278.49380 280.16852
 281.62289 283.04413 284.46030 285.76901 286.90289 287.93237 288.87589 289.73608
 290.50946 291.19138 291.76111 292.47311
 366.78100 356.35255 345.80209 334.68564 323.10618 311.31773 299.20528 287.02582
 274.75537 262.66991 250.69646 240.01501 230.15455 221.27610 213.47564 206.49519
 200.34674 195.30228 191.90183 189.96137 189.01592 189.09747 189.95001 191.27556
 193.01810 195.13065 197.41120 199.78774 202.25029 204.74783 206.85338 208.71293
 210.35647 211.51902 211.76556 212.01111 211.96566 211.68820 211.33875 210.98629
 210.62084 210.34839 210.17393 210.05548 210.00102 210.34957 210.75312 211.15966
 211.97021 213.16575 214.43330 216.23384 218.17939 220.23994 222.35248 224.45303
 226.53057 228.63212 230.74667 232.87021 235.01676 237.20630 239.47985 241.86740
 244.50594 246.77449 248.79403 250.57658 252.01113 253.15167 253.99122 254.32476
 254.37931 254.17086 253.54840 252.51395 251.13749 249.31604 247.24259 245.09313
 242.90168 240.72322 238.56077 236.41732 234.29486 232.17941 230.22295 228.39750
 226.69805 225.18759 223.83514 222.62468 221.52423 220.50178 219.62332 218.78187
 218.04141 217.23896 216.35451 215.73605 215.20360 214.18044 211.76314 211.67949
 212.89606 213.28943 213.53723 214.95992 217.67870 221.95119 227.96501 232.50177
 236.12547 240.20871 244.67473 249.23383 253.40324 256.82553 259.66693 262.26434
 264.67288 266.97989 269.32883 271.75623 274.21463 276.46640 278.41711 280.10202
 281.56763 282.99930 284.40912 285.70990 286.83926 287.86591 288.81055 289.66983
 290.44659 291.13599 291.71667 292.46716
 366.78100 356.35147 345.79995 334.68242 323.10190 311.31237 299.19885 287.01832
 274.74679 262.66027 250.68574 240.00322 230.14169 221.26216 213.46064 206.47911
 200.32959 195.28406 191.88254 189.94101 188.99448 189.07496 189.92643 191.25091
 192.99238 195.10386 197.38333 199.75880 202.22028 204.71675 206.82123 208.67970
 210.32217 211.48365 211.72912 211.97360 211.92707 211.64855 211.29802 210.94449
 210.57797 210.30444 210.12892 210.00939 209.95386 210.30134 210.70381 211.10929
 211.91876 213.11324 214.37971 216.17918 218.12366 220.18313 222.29461 224.39408
 226.47056 228.57103 230.68450 232.80698 234.95245 237.14093 239.41340 241.79987
 244.43735 246.70482 248.72330 250.50477 251.93825 253.07772 253.91619 254.24867
 254.30214 254.09262 253.46909 252.43357 251.05604 249.23351 247.15899 245.00846
 242.81594 240.63641 238.47288 236.32836 234.20483 232.08831 230.13078 228.30426
 226.60373 225.09220 223.73868 222.52715 221.42563 220.40210 219.52258 218.68005
 217.93852 217.13500 216.24947 215.62995 215.09642 214.13277 211.85605 211.68846
 212.90875 213.37386 213.64470 215.01465 217.66061 221.90714 227.89702 232.38812
 236.01247 240.11015 244.60513 249.18892 253.36852 256.78192 259.65720 262.22800
 264.61258 266.92340 269.28000 271.71216 274.16058 276.40964 278.36600 280.04755
 281.51413 282.94855 284.35205 285.64752 286.77414 287.79163 288.73254 289.59235
 290.37408 291.06134 291.63553 292.37170
 366.78100 356.34983 345.79666 334.67749 323.09533 311.30416 299.18899 287.00682
 274.73365 262.64548 250.66931 239.98514 230.12198 221.24081 213.43764 206.45447
 200.30330 195.25613 191.85296 189.90979 188.96163 189.04046 189.89029 191.21312
 192.95295 195.06278 197.34061 199.71444 202.17428 204.66911 206.77194 208.62877
 210.26960 211.42943 211.67326 211.91610 211.86793 211.58776 211.23559 210.88042
 210.51225 210.23708 210.05991 209.93875 209.88158 210.22741 210.62824 211.03207
 211.83990 213.03273 214.29756 216.09540 218.03823 220.09606 222.20589 224.30372
 226.37855 228.47738 230.58921 232.71005 234.85388 237.04071 239.31154 241.69637
 244.33220 246.59803 248.61487 250.39470 251.82653 252.96436 253.80119 254.13202
 254.18385 253.97268 253.34752 252.31035 250.93118 249.10701 247.03084 244.87867
 242.68450 240.50333 238.33817 236.19200 234.06683 231.94866 229.98949 228.16132
 226.45915 224.94598 223.59082 222.37765 221.27448 220.24931 219.36814 218.52397
 217.78080 216.97564 216.08847 215.46730 214.93213 214.05017 211.96643 211.76776
 212.83630 213.37241 213.76390 215.10051 217.67879 221.89584 227.83391 232.32671
 235.92574 240.02884 244.53842 249.13307 253.30930 256.70520 259.61951 262.18481
 264.55383 266.87540 269.24957 271.67770 274.11853 276.36600 278.33545 280.02914
 281.48550 282.90015 284.29117 285.56976 286.67834 287.67078 288.60489 289.46466
 290.24814 290.92969 291.47046 292.17899
 366.78100 356.34887 345.79473 334.67460 323.09147 311.29934 299.18320 287.00007
 274.72594 262.63681 250.65967 239.97454 230.11041 221.22827 213.42414 206.44001
 200.28788 195.23974 191.83561 189.89148 188.94234 189.02021 189.86908 191.19095
 192.92981 195.03868 197.31555 199.68842 202.14728 204.64115 206.74302 208.59888
 210.23875 211.39762 211.64049 211.88235 211.83322 211.55209 211.19896 210.84282
 210.47369 210.19756 210.01942 209.89729 209.83916 210.18403 210.58389 210.98676
 211.79363 212.98549 214.24936 216.04623 217.98810 220.04496 222.15383 224.25070
 226.32457 228.42243 230.53330 232.65317 234.79603 236.98190 239.25177 241.63564
 244.27050 246.53537 248.55124 250.33010 251.76097 252.89784 253.73371 254.06357
 254.11444 253.90231 253.27618 252.23804 250.85791 249.03278 246.95564 244.80251
 242.60738 240.42525 238.25911 236.11198 233.98585 231.86672 229.90658 228.07745
 226.37432 224.86018 223.50405 222.28992 221.18579 220.15965 219.27752 218.43239
 217.68825 216.88212 215.99399 215.37186 214.83572 214.00145 212.03035 211.87907
 212.78006 213.34343 213.84290 215.12494 217.69307 221.89818 227.78467 232.30525
 235.87517 239.98151 244.49426 249.08427 253.24106 256.68570 259.56281 262.15491
 264.52261 266.86206 269.24335 271.66422 274.06436 276.27774 278.22565 279.89920
 281.37939 282.84015 284.23721 285.51300 286.61487 287.60583 288.53198 289.39108
 290.16858 290.83014 291.34851 292.02258
 366.78100 356.34753 345.79206 334.67059 323.08612 311.29265 299.17517 286.99070
 274.71523 262.62476 250.64629 239.95982 230.09435 221.21088 213.40541 206.41994
 200.26646 195.21699 191.81152 189.86605 188.91558 188.99211 189.83964 191.16017
 192.89770 195.00523 197.28076 199.65228 202.10981 204.60234 206.70287 208.55740
 210.19593 211.35346 211.59499 211.83552 211.78505 211.50257 211.14810 210.79063
 210.42016 210.14269 209.96322 209.83975 209.78028 210.12381 210.52234 210.92387
 211.72939 212.91992 214.18245 215.97798 217.91851 219.97404 222.08157 224.17710
 226.24963 228.34616 230.45568 232.57421 234.71574 236.90027 239.16880 241.55133
 244.18486 246.44839 248.46292 250.24045 251.66997 252.80550 253.64003 253.96856
 254.01809 253.80462 253.17715 252.13768 250.75621 248.92974 246.85127 244.69679
 242.50032 240.31685 238.14938 236.00091 233.87344 231.75297 229.79150 227.96103
 226.25656 224.74108 223.38361 222.16814 221.06267 220.03520 219.15173 218.30526
 217.55979 216.75232 215.86285 215.23938 214.70190 213.93617 212.12706 211.96347
 212.76686 213.31444 213.87172 215.09818 217.68086 221.89297 227.75298 232.29530
 235.84618 239.95097 244.45959 249.04492 253.19972 256.50839 259.56476 262.14548
 264.50723 266.85974 269.27518 271.65363 274.02557 276.21460 278.15454 279.85474
 281.32846 282.73782 284.11658 285.35745 286.42810 287.38675 288.28461 289.15027
 289.92563 290.53601 291.00095 291.62595
 366.78100 356.34579 345.78857 334.66536 323.07914 311.28393 299.16472 286.97850
 274.70129 262.60907 250.62886 239.94064 230.07343 221.18822 213.38100 206.39379
 200.23857 195.18736 191.78015 189.83293 188.88072 188.95550 189.80129 191.12008
 192.85586 194.96165 197.23543 199.60522 202.06100 204.55179 206.65058 208.50336
 210.14015 211.29593 211.53572 211.77451 211.72229 211.43808 211.08186 210.72265
 210.35044 210.07122 209.89001 209.76479 209.70358 210.04536 210.44215 210.84194
 211.64572 212.83451 214.09529 215.88908 217.82787 219.88165 221.98744 224.08122
 226.15201 228.24680 230.35458 232.47137 234.61115 236.79394 239.06072 241.44151
 244.07330 246.33508 248.34787 250.12365 251.55144 252.68523 253.51801 253.84480
 253.89258 253.67737 253.04816 252.00694 250.62373 248.79551 246.71530 244.55908
 242.36087 240.17566 238.00644 235.85623 233.72701 231.60480 229.64159 227.80937
 226.10316 224.58594 223.22673 222.00951 220.90230 219.87309 218.98787 218.13966
 217.39244 216.58323 215.69202 215.06680 214.52759 213.85275 212.25841 212.06482
 212.77898 213.30177 213.81456 214.96642 217.62521 221.88618 227.73079 232.27716
 235.83376 239.95985 244.46848 249.04539 253.13538 256.63474 259.67682 262.26102
 264.57239 266.89972 269.27551 271.62103 273.93173 276.08905 278.02570 279.68558
 281.20135 282.61984 283.97885 285.19830 286.25708 287.22714 288.14273 288.96216
 289.65253 290.20889 290.69098 291.32034
 366.78100 356.34708 345.79116 334.66924 323.08433 311.29041 299.17249 286.98757
 274.71165 262.62073 250.64182 239.95490 230.08898 221.20506 213.39914 206.41322
 200.25930 195.20939 191.80347 189.85755 188.90663 188.98271 189.82979 191.14987
 192.88696 194.99404 197.26912 199.64020 202.09728 204.58936 206.68945 208.54353
 210.18161 211.33869 211.57977 211.81985 211.76893 211.48602 211.13110 210.77318
 210.40226 210.12434 209.94442 209.82050 209.76059 210.10367 210.50175 210.90283
 211.70791 212.89799 214.16008 215.95516 217.89524 219.95032 222.05740 224.15248
 226.22456 228.32065 230.42973 232.54781 234.68889 236.87297 239.14105 241.52313
 244.15622 246.41930 248.43338 250.21046 251.63954 252.77462 253.60871 253.93679
 253.98587 253.77195 253.14403 252.10411 250.72219 248.89528 246.81636 244.66144
 242.46452 240.28060 238.11268 235.96376 233.83585 231.71493 229.75301 227.92209
 226.21717 224.70125 223.34334 222.12742 221.02150 219.99358 219.10966 218.26274
 217.51682 216.70891 215.81899 215.19507 214.65715 213.92998 212.21799 212.14020
 212.93475 213.39455 213.91725 215.00441 217.51488 221.76111 227.57002 232.06152
 235.65770 239.83226 244.39386 248.98854 253.14447 256.72845 259.78824 262.38098
 264.68057 267.00571 269.35843 271.61130 273.84531 275.90945 277.73868 279.47876
 280.98105 282.39993 283.72256 284.88153 285.91110 286.86722 287.74387 288.49225
 289.08792 289.55194 289.83359 290.18539
 366.78100 356.34891 345.79482 334.67473 323.09164 311.29955 299.18346 287.00037
 274.72628 262.63720 250.66011 239.97502 230.11093 221.22884 213.42475 206.44066
 200.28857 195.24048 191.83639 189.89230 188.94321 189.02112 189.87003 191.19194
 192.93085 195.03976 197.31667 199.68959 202.14850 204.64241 206.74432 208.60023
 210.24014 211.39905 211.64196 211.88387 211.83478 211.55369 211.20060 210.84451
 210.47542 210.19933 210.02124 209.89915 209.84107 210.18598 210.58589 210.98880
 211.79571 212.98762 214.25153 216.04844 217.99035 220.04726 222.15617 224.25308
 226.32699 228.42490 230.53581 232.65572 234.79863 236.98454 239.25446 241.63837
 244.27328 246.53819 248.55410 250.33301 251.76392 252.90083 253.73674 254.06665
 254.11756 253.90547 253.27938 252.24129 250.86120 249.03611 246.95902 244.80594
 242.61085 240.42876 238.26267 236.11558 233.98949 231.87040 229.91031 228.08122
 226.37813 224.86404 223.50795 222.29386 221.18977 220.16368 219.28159 218.43650
 217.69242 216.88633 215.99824 215.37615 214.84006 214.04663 212.18546 212.05438
 213.07642 213.61398 214.17967 215.15454 217.46231 221.65390 227.41612 231.85132
 235.47841 239.68979 244.26573 248.84798 253.04521 256.67279 259.71307 262.29068
 264.63843 267.01431 269.37625 271.58276 273.72949 275.77383 277.77747 279.53265
 280.92233 282.22333 283.49133 284.61337 285.62000 286.55157 287.40085 288.10687
 288.64529 288.98889 289.20224 289.47412
 366.78100 356.34783 345.79266 334.67148 323.08731 311.29414 299.17697 286.99279
 274.71762 262.62745 250.64928 239.96310 230.09793 221.21476 213.40959 206.42441
 200.27124 195.22207 191.81690 189.87173 188.92155 188.99838 189.84621 191.16704
 192.90486 195.01269 197.28852 199.66035 202.11817 204.61100 206.71183 208.56666
 210.20549 211.36331 211.60514 211.84597 211.79580 211.51362 211.15945 210.80228
 210.43211 210.15493 209.97576 209.85259 209.79342 210.13724 210.53607 210.93790
 211.74373 212.93456 214.19738 215.99321 217.93404 219.98987 222.09769 224.19352
 226.26635 228.36318 230.47300 232.59183 234.73366 236.91849 239.18731 241.57014
 244.20397 246.46780 248.48263 250.26045 251.69028 252.82611 253.66094 253.98976
 254.03959 253.82642 253.19925 252.16007 250.77890 248.95273 246.87456 244.72038
 242.52421 240.34104 238.17387 236.02570 233.89852 231.77835 229.81718 227.98701
 226.28283 224.76766 223.41049 222.19532 221.09014 220.06297 219.17980 218.33363
 217.58846 216.78128 215.89211 215.26894 214.73177 214.01161 212.32440 212.01253
 213.10345 213.63925 214.30127 215.33725 217.55486 221.64777 227.34657 231.76572
 235.38071 239.59950 244.16357 248.72852 252.89575 256.48593 259.57697 262.17816
 264.58023 267.02118 269.43036 271.64212 273.68839 275.74570 277.78088 279.47763
 280.81348 282.12219 283.36450 284.44095 285.41519 286.32086 287.15512 287.85059
 288.37036 288.65332 288.87576 289.15924
 366.78100 356.34615 345.78929 334.66644 323.08059 311.28573 299.16688 286.98103
 274.70418 262.61232 250.63247 239.94462 230.07776 221.19291 213.38606 206.39920
 200.24435 195.19350 191.78664 189.83979 188.88794 188.96308 189.80923 191.12838
 192.86453 194.97067 197.24482 199.61497 202.07111 204.56226 206.66141 208.51455
 210.15170 211.30785 211.54799 211.78714 211.73529 211.45144 211.09558 210.73673
 210.36488 210.08602 209.90517 209.78032 209.71946 210.06161 210.45876 210.85890
 211.66305 212.85220 214.11335 215.90749 217.84664 219.90079 222.00693 224.10108
 226.17223 228.26737 230.37552 232.49267 234.63281 236.81596 239.08311 241.46425
 244.09640 246.35855 248.37170 250.14784 251.57599 252.71014 253.54328 253.87043
 253.91858 253.70372 253.07487 252.03402 250.65116 248.82331 246.74346 244.58761
 242.38975 240.20490 238.03605 235.88619 233.75734 231.63549 229.67263 227.84078
 226.13493 224.61807 223.25922 222.04237 220.93551 219.90666 219.02181 218.17396
 217.42710 216.61825 215.72740 215.10254 214.56369 213.94652 212.50696 212.03395
 213.05663 213.62398 214.31807 215.46944 217.69733 221.66580 227.20856 231.67783
 235.29034 239.51909 244.07343 248.55937 252.64751 256.28778 259.43335 262.11234
 264.54593 267.01224 269.41943 271.53726 273.64084 275.88013 277.83337 279.47568
 280.70297 281.98181 283.16464 284.20837 285.16019 286.02774 286.79990 287.32703
 287.60355 287.84979 288.06491 288.33902
 366.78100 356.34636 345.78971 334.66707 323.08142 311.28678 299.16813 286.98249
 274.70584 262.61420 250.63455 239.94691 230.08026 221.19562 213.38897 206.40233
 200.24769 195.19704 191.79040 189.84375 188.89211 188.96746 189.81382 191.13317
 192.86953 194.97588 197.25024 199.62059 202.07695 204.56830 206.66766 208.52102
 210.15837 211.31473 211.55508 211.79444 211.74279 211.45915 211.10350 210.74486
 210.37321 210.09457 209.91392 209.78928 209.72863 210.07099 210.46835 210.86870
 211.67306 212.86241 214.12377 215.91812 217.85748 219.91183 222.01819 224.11254
 226.18390 228.27925 230.38761 232.50496 234.64532 236.82868 239.09603 241.47739
 244.10974 246.37210 248.38545 250.16181 251.59016 252.72452 253.55787 253.88523
 253.93358 253.71894 253.09029 252.04965 250.66701 248.83936 246.75972 244.60407
 242.40643 240.22178 238.05314 235.90349 233.77485 231.65320 229.69056 227.85891
 226.15327 224.63662 223.27798 222.06134 220.95469 219.92605 219.04140 218.19376
 217.44711 216.63847 215.74782 215.12318 214.58453 213.98370 212.58363 212.02652
 212.87166 213.72311 214.51517 215.67619 217.85999 221.68991 227.07526 231.55527
 235.18611 239.43536 243.99651 248.43318 252.47386 256.04776 259.23044 261.99365
 264.51743 267.03403 269.50467 271.69238 273.56897 275.87314 277.73627 279.34189
 280.67828 281.99673 283.15018 284.16040 285.06363 285.88962 286.66699 287.36462
 287.99210 288.55084 289.03894 289.66098
 366.78100 356.34607 345.78915 334.66622 323.08030 311.28537 299.16645 286.98052
 274.70360 262.61167 250.63174 239.94382 230.07689 221.19197 213.38504 206.39812
 200.24319 195.19227 191.78534 189.83841 188.88649 188.96156 189.80764 191.12671
 192.86279 194.96886 197.24293 199.61301 202.06908 204.56016 206.65923 208.51231
 210.14938 211.30546 211.54553 211.78460 211.73268 211.44875 211.09283 210.73390
 210.36198 210.08305 209.90213 209.77720 209.71627 210.05835 210.45542 210.85550
 211.65957 212.84865 214.10972 215.90380 217.84287 219.89694 222.00302 224.09709
 226.16817 228.26324 230.37132 232.48839 234.62847 236.81154 239.07861 241.45969
 244.09176 246.35384 248.36691 250.14299 251.57106 252.70514 253.53821 253.86528
 253.91336 253.69843 253.06951 252.02858 250.64566 248.81773 246.73780 244.58188
 242.38395 240.19903 238.03010 235.88018 233.75125 231.62933 229.66640 227.83447
 226.12855 224.61162 223.25270 222.03577 220.92885 219.89992 219.01500 218.16707
 217.42014 216.61122 215.72029 215.09537 214.55644 213.98738 212.65915 212.07736
 212.74664 213.68106 214.59441 215.81680 217.99654 221.74696 227.07388 231.54636
 235.16888 239.40831 243.95210 248.37289 252.37691 255.89978 259.08969 261.83917
 264.40997 266.99103 269.48746 271.79996 273.69699 275.70840 277.67310 279.45587
 280.92075 282.15207 283.27170 284.26340 285.13663 286.02628 286.91641 287.73233
 288.46619 289.11969 289.69055 290.41809
 366.78100 356.34449 345.78599 334.66148 323.07398 311.27747 299.15697 286.96946
 274.69095 262.59745 250.61594 239.92644 230.05793 221.17142 213.36292 206.37441
 200.21791 195.16540 191.75690 189.80839 188.85488 188.92838 189.77287 191.09037
 192.82486 194.92936 197.20185 199.57034 202.02484 204.51433 206.61183 208.46332
 210.09882 211.25331 211.49180 211.72930 211.67579 211.39029 211.03278 210.67227
 210.29877 210.01826 209.83576 209.70925 209.64675 209.98724 210.38273 210.78123
 211.58372 212.77122 214.03071 215.82321 217.76070 219.81319 221.91769 224.01018
 226.07968 228.17317 230.27966 232.39516 234.53365 236.71515 238.98064 241.36014
 243.99063 246.25112 248.26262 250.03711 251.46361 252.59610 253.42760 253.75309
 253.79958 253.58308 252.95257 251.91007 250.52556 248.69606 246.61455 244.45704
 242.25754 240.07103 237.90053 235.74902 233.61851 231.49501 229.53050 227.69700
 225.98949 224.47099 223.11048 221.89197 220.78347 219.75296 218.86646 218.01695
 217.26845 216.45794 215.56543 214.93893 214.39842 213.92378 212.80296 212.16339
 212.85063 213.57307 214.41100 215.72920 218.01161 221.78748 227.12663 231.61090
 235.21391 239.43810 243.95511 248.35963 252.35358 255.79799 259.04361 261.85138
 264.40244 266.93481 269.40265 271.63824 273.65811 275.62494 277.59375 279.25974
 280.77890 282.06494 283.14694 284.07935 285.04651 286.02444 286.95264 287.79352
 288.54980 289.22327 289.81161 290.56137
 366.78100 356.34542 345.78785 334.66427 323.07770 311.28212 299.16255 286.97597
 274.69840 262.60582 250.62524 239.93667 230.06909 221.18352 213.37594 206.38837
 200.23279 195.18121 191.77364 189.82606 188.87349 188.94791 189.79334 191.11176
 192.84719 194.95261 197.22603 199.59546 202.05088 204.54131 206.63973 208.49216
 210.12858 211.28401 211.52343 211.76185 211.70928 211.42470 211.06813 210.70855
 210.33598 210.05640 209.87482 209.74925 209.68767 210.02910 210.42552 210.82495
 211.62837 212.81680 214.07722 215.87064 217.80907 219.86249 221.96792 224.06134
 226.13177 228.22619 230.33362 232.45004 234.58946 236.77189 239.03831 241.41874
 244.05016 246.31159 248.32401 250.09943 251.52686 252.66028 253.49271 253.81913
 253.86656 253.65098 253.02141 251.97983 250.59625 248.76768 246.68710 244.53053
 242.33195 240.14638 237.97680 235.82623 233.69665 231.57407 229.61050 227.77792
 226.07135 224.55377 223.19420 221.97662 220.86904 219.83947 218.95389 218.10532
 217.35774 216.54817 215.65659 215.03102 214.49144 214.00232 212.83772 212.23965
 213.08568 213.65517 214.39023 215.74942 218.06061 221.84969 227.17644 231.61131
 235.22348 239.44327 243.95450 248.34796 252.34395 255.70399 258.86792 261.72211
 264.39597 266.99106 269.39755 271.59097 273.52789 275.69281 277.61581 279.16785
 280.38074 281.59714 282.68457 283.86005 285.04553 286.10150 287.06488 287.93765
 288.72263 289.42163 290.03226 290.81046
 366.78100 356.34693 345.79087 334.66880 323.08374 311.28967 299.17161 286.98654
 274.71048 262.61941 250.64035 239.95328 230.08721 221.20315 213.39708 206.41102
 200.25695 195.20689 191.80082 189.85476 188.90369 188.97963 189.82656 191.14649
 192.88343 194.99036 197.26530 199.63623 202.09317 204.58510 206.68504 208.53897
 210.17691 211.33384 211.57478 211.81471 211.76364 211.48058 211.12551 210.76745
 210.39638 210.11832 209.93825 209.81419 209.75412 210.09706 210.49499 210.89592
 211.70086 212.89079 214.15273 215.94766 217.88760 219.94253 222.04947 224.14440
 226.21634 228.31227 230.42120 232.53914 234.68007 236.86401 239.13194 241.51388
 244.14681 246.40975 248.42368 250.20062 251.62955 252.76448 253.59842 253.92635
 253.97529 253.76122 253.13316 252.09309 250.71103 248.88396 246.80490 244.64983
 242.45276 240.26870 238.10063 235.95157 233.82350 231.70244 229.74037 227.90931
 226.20424 224.68818 223.33011 222.11405 221.00798 219.97991 219.09585 218.24878
 217.50272 216.69465 215.80459 215.18052 214.64246 214.12929 212.86646 212.23492
 213.17502 213.79736 214.53922 215.88251 218.07368 221.83786 227.22110 231.59259
 235.22021 239.44278 243.93237 248.29756 252.23706 255.66757 258.72052 261.60916
 264.41574 267.01266 269.37659 271.44730 273.58304 275.79099 277.61465 279.06784
 280.31427 281.46957 282.96439 284.33215 285.51581 286.56308 287.51852 288.38409
 289.16260 289.85583 290.46146 291.23325
 366.78100 356.34669 345.79037 334.66806 323.08274 311.28843 299.17011 286.98480
 274.70848 262.61717 250.63786 239.95054 230.08423 221.19991 213.39360 206.40728
 200.25297 195.20265 191.79634 189.85003 188.89871 188.97440 189.82108 191.14077
 192.87745 194.98414 197.25882 199.62951 202.08620 204.57788 206.67757 208.53125
 210.16894 211.32562 211.56631 211.80599 211.75468 211.47136 211.11605 210.75774
 210.38642 210.10811 209.92779 209.80348 209.74316 210.08585 210.48353 210.88422
 211.68891 212.87859 214.14028 215.93496 217.87465 219.92933 222.03602 224.13070
 226.20239 228.29808 230.40676 232.52445 234.66513 236.84882 239.11650 241.49819
 244.13087 246.39356 248.40725 250.18393 251.61262 252.74730 253.58099 253.90867
 253.95736 253.74304 253.11473 252.07442 250.69210 248.86479 246.78547 244.63016
 242.43284 240.24853 238.08021 235.93090 233.80259 231.68127 229.71896 227.88764
 226.18233 224.66601 223.30770 222.09138 220.98507 219.95675 219.07244 218.22513
 217.47881 216.67050 215.78018 215.15587 214.61755 214.14987 212.95952 212.19890
 213.08670 213.85770 214.65584 216.00677 218.10930 221.81041 227.20395 231.56096
 235.16859 239.40936 243.94656 248.35751 252.33571 255.77525 258.75748 261.54370
 264.29211 266.92676 269.31494 271.44385 273.62665 275.79703 277.56589 278.99799
 280.33719 281.77823 283.36789 284.78119 286.00427 287.08640 288.07367 288.96805
 289.77246 290.48880 291.11456 291.91205
 366.78100 356.34713 345.79126 334.66939 323.08452 311.29065 299.17278 286.98791
 274.71204 262.62116 250.64229 239.95542 230.08955 221.20568 213.39981 206.41394
 200.26007 195.21020 191.80433 189.85846 188.90759 188.98372 189.83085 191.15098
 192.88811 194.99524 197.27036 199.64149 202.09862 204.59075 206.69088 208.54501
 210.18314 211.34027 211.58140 211.82153 211.77066 211.48779 211.13292 210.77505
 210.40418 210.12631 209.94644 209.82256 209.76269 210.10582 210.50395 210.90508
 211.71021 212.90034 214.16247 215.95760 217.89773 219.95286 222.05999 224.15512
 226.22725 228.32338 230.43251 232.55064 234.69176 236.87589 239.14402 241.52615
 244.15928 246.42241 248.43654 250.21367 251.64280 252.77793 253.61206 253.94019
 253.98932 253.77545 253.14758 252.10771 250.72584 248.89896 246.82009 244.66522
 242.46835 240.28448 238.11661 235.96774 233.83987 231.71900 229.75713 227.92626
 226.22139 224.70552 223.34765 222.13178 221.02591 219.99804 219.11417 218.26729
 217.52142 216.71355 215.82368 215.19981 214.66194 214.18724 213.00163 212.18900
 213.03894 213.89261 214.77995 216.15919 218.26709 221.88538 227.10869 231.41985
 235.01508 239.28064 243.81706 248.19466 252.16779 255.62683 258.63110 261.41458
 264.24396 266.89865 269.31979 271.47922 273.58429 275.70541 277.43787 278.96310
 280.54263 281.87170 283.26834 284.58981 285.73340 286.74521 287.66833 288.50461
 289.25674 289.92651 290.51163 291.25726
 366.78100 356.34655 345.79010 334.66765 323.08220 311.28776 299.16931 286.98386
 274.70741 262.61596 250.63651 239.94906 230.08261 221.19816 213.39172 206.40527
 200.25082 195.20037 191.79392 189.84747 188.89602 188.97157 189.81812 191.13768
 192.87423 194.98078 197.25533 199.62588 202.08243 204.57398 206.67353 208.52708
 210.16464 211.32119 211.56174 211.80129 211.74984 211.46639 211.11094 210.75249
 210.38104 210.10260 209.92215 209.79770 209.73725 210.07980 210.47735 210.87790
 211.68245 212.87200 214.13356 215.92811 217.86766 219.92221 222.02876 224.12331
 226.19486 228.29041 230.39896 232.51652 234.65707 236.84062 239.10817 241.48972
 244.12227 246.38482 248.39837 250.17492 251.60348 252.73803 253.57158 253.89913
 253.94768 253.73323 253.10478 252.06433 250.68188 248.85444 246.77499 244.61954
 242.42209 240.23764 238.06919 235.91974 233.79129 231.66984 229.70740 227.87595
 226.17050 224.65405 223.29560 222.07915 220.97270 219.94425 219.05980 218.21236
 217.46591 216.65746 215.76701 215.14256 214.60411 214.20050 213.11703 212.13354
 212.91910 213.82140 214.99503 216.56573 218.62627 222.04843 227.18826 231.43675
 234.95934 239.14969 243.63618 247.93779 251.78061 255.11356 258.11371 261.20297
 264.10251 266.92169 269.45892 271.54199 273.55121 275.61667 277.34933 278.71652
 280.06433 281.43677 282.86697 284.14395 285.24908 286.22684 287.11887 287.92700
 288.65381 289.30106 289.86649 290.58704
 366.78100 356.34217 345.78134 334.65452 323.06469 311.26586 299.14303 286.95320
 274.67238 262.57655 250.59272 239.90089 230.03007 221.14124 213.33041 206.33958
 200.18075 195.12593 191.71510 189.76427 188.80844 188.87961 189.72179 191.03696
 192.76913 194.87130 197.14148 199.50765 201.95982 204.44699 206.54216 208.39134
 210.02451 211.17668 211.41285 211.64802 211.59220 211.30437 210.94454 210.58171
 210.20589 209.92306 209.73823 209.60940 209.54457 209.88275 210.27592 210.67209
 211.47226 212.65743 213.91461 215.70478 217.63995 219.69012 221.79230 223.88247
 225.94964 228.04081 230.14498 232.25816 234.39433 236.57350 238.83667 241.21384
 243.84202 246.10019 248.10936 249.88153 251.30571 252.43588 253.26505 253.58822
 253.63239 253.41357 252.78074 251.73591 250.34908 248.51725 246.43343 244.27360
 242.07177 239.88294 237.71012 235.55629 233.42346 231.29763 229.33080 227.49498
 225.78515 224.26432 222.90149 221.68066 220.56984 219.53701 218.64818 217.79635
 217.04553 216.23270 215.33787 214.70904 214.16621 214.03702 213.40768 212.13576
 212.53447 213.56631 215.08560 216.83934 218.95067 222.15565 227.34415 231.62885
 235.16173 239.28009 243.68723 247.95844 251.78395 255.07074 257.95526 261.11292
 264.04071 266.65637 269.12515 271.41934 273.67642 275.63113 277.25787 278.64182
 279.86673 281.44214 282.94260 284.26013 285.40033 286.40912 287.32947 288.16327
 288.91315 289.58093 290.16431 290.90775
 366.78100 356.33951 345.77601 334.64652 323.05403 311.25253 299.12704 286.93455
 274.65105 262.55256 250.56607 239.87157 229.99808 221.10659 213.29309 206.29960
 200.13811 195.08061 191.66712 189.71363 188.75513 188.82364 189.66314 190.97565
 192.70516 194.80466 197.07217 199.43568 201.88518 204.36969 206.46220 208.30870
 209.93921 211.08872 211.32222 211.55473 211.49624 211.20574 210.84325 210.47776
 210.09926 209.81377 209.62628 209.49478 209.42729 209.76280 210.15330 210.54681
 211.34432 212.52682 213.78133 215.56884 217.50134 219.54885 221.64836 223.73586
 225.80037 227.88888 229.99038 232.10089 234.23439 236.41090 238.67141 241.04591
 243.67142 245.92693 247.93343 249.70294 251.12445 252.25195 253.07846 253.39897
 253.44047 253.21898 252.58349 251.53599 250.14650 248.31201 246.22551 244.06302
 241.85853 239.66703 237.49154 235.33505 233.19955 231.07106 229.10157 227.26307
 225.55058 224.02709 222.66159 221.43810 220.32461 219.28911 218.39762 217.54313
 216.78963 215.97414 215.07665 214.44515 213.89966 213.92398 213.61214 212.31361
 212.23610 213.33400 214.94850 216.71631 218.94942 222.23927 227.39299 231.75041
 235.31081 239.43600 243.84531 248.16008 252.05511 255.35699 258.26315 261.15271
 264.00488 266.66333 269.10718 271.44452 273.68823 275.57483 277.17798 278.52438
 279.56497 280.43323 281.18454 281.84424 282.41516 282.92029 283.38113 283.79861
 284.17410 284.50848 284.80057 285.17282
 366.78100 356.33968 345.77637 334.64705 323.05474 311.25342 299.12811 286.93579
 274.65248 262.55416 250.56785 239.87353 230.00022 221.10890 213.29559 206.30227
 200.14096 195.08364 191.67033 189.71701 188.75870 188.82738 189.66707 190.97975
 192.70944 194.80912 197.07680 199.44049 201.89017 204.37486 206.46754 208.31423
 209.94491 211.09460 211.32828 211.56097 211.50265 211.21234 210.85002 210.48471
 210.10639 209.82108 209.63376 209.50245 209.43513 209.77082 210.16150 210.55519
 211.35287 212.53556 213.79024 215.57793 217.51061 219.55829 221.65798 223.74566
 225.81035 227.89903 230.00072 232.11140 234.24509 236.42177 238.68246 241.05714
 243.68283 245.93851 247.94520 249.71488 251.13657 252.26425 253.09094 253.41162
 253.45331 253.23199 252.59668 251.54936 250.16005 248.32573 246.23941 244.07710
 241.87278 239.68147 237.50615 235.34984 233.21452 231.08621 229.11689 227.27858
 225.56626 224.04295 222.67763 221.45432 220.34100 219.30569 218.41437 217.56006
 216.80674 215.99143 215.09411 214.46280 213.91748 213.93655 213.67207 212.50549
 212.20764 213.20303 214.78964 216.59796 218.84793 222.19872 227.28300 231.67285
 235.26044 239.42715 243.86311 248.18346 252.08043 255.43016 258.34314 261.16650
 263.98871 266.64694 269.11377 271.52869 273.69162 275.50690 277.05951 278.27502
 279.03653 279.68927 280.25412 280.75009 281.17932 281.55905 281.90552 282.21939
 282.50168 282.75308 282.97266 283.25253
 366.78100 356.34068 345.77837 334.65005 323.05874 311.25842 299.13411 286.94279
 274.66048 262.56316 250.57784 239.88453 230.01221 221.12190 213.30958 206.31727
 200.15695 195.10063 191.68832 189.73600 188.77869 188.84837 189.68906 191.00274
 192.73343 194.83411 197.10279 199.46748 201.91816 204.40385 206.49753 208.34522
 209.97690 211.12759 211.36227 211.59595 211.53864 211.24932 210.88801 210.52369
 210.14638 209.86206 209.67575 209.54543 209.47911 209.81580 210.20748 210.60217
 211.40085 212.58454 213.84022 215.62890 217.56259 219.61127 221.71196 223.80064
 225.86633 227.95601 230.05870 232.17038 234.30506 236.48275 238.74443 241.12012
 243.74680 246.00349 248.01117 249.78186 251.20454 252.33322 253.16091 253.48259
 253.52528 253.30496 252.67065 251.62433 250.23602 248.40270 246.31738 244.15607
 241.95275 239.76244 237.58812 235.43281 233.29849 231.17117 229.20286 227.36554
 225.65423 224.13191 222.76760 221.54528 220.43297 219.39865 218.50833 217.65502
 216.90270 216.08839 215.19207 214.56176 214.01744 213.99757 213.67250 212.60010
 212.24341 213.07446 214.65562 216.57851 218.85008 222.19337 227.20934 231.59953
 235.18568 239.38419 243.82545 248.12837 252.05142 255.47835 258.44525 261.25702
 264.09958 266.75644 269.13773 271.55734 273.68063 275.45206 276.93362 278.03571
 279.03513 279.89182 280.63312 281.28403 281.84735 282.34573 282.80045 283.21237
 283.58286 283.91278 284.20099 284.56830
 366.78100 356.34245 345.78190 334.65534 323.06579 311.26724 299.14469 286.95513
 274.67458 262.57903 250.59548 239.90392 230.03337 221.14482 213.33427 206.34372
 200.18516 195.13061 191.72006 189.76951 188.81395 188.88540 189.72785 191.04330
 192.77575 194.87819 197.14864 199.51509 201.96754 204.45498 206.55043 208.39988
 210.03333 211.18577 211.42222 211.65767 211.60212 211.31457 210.95501 210.59246
 210.21691 209.93436 209.74980 209.62125 209.55670 209.89515 210.28859 210.68504
 211.48549 212.67094 213.92839 215.71883 217.65428 219.70473 221.80718 223.89762
 225.96507 228.05652 230.16097 232.27442 234.41086 236.59031 238.85376 241.23121
 243.85965 246.11810 248.12755 249.90000 251.32444 252.45489 253.28434 253.60779
 253.65224 253.43368 252.80113 251.75658 250.37003 248.53847 246.45492 244.29537
 242.09382 239.90526 237.73271 235.57916 233.44661 231.32106 229.35450 227.51895
 225.80940 224.28885 222.92629 221.70574 220.59519 219.56264 218.67409 217.82253
 217.07198 216.25943 215.36488 214.73632 214.19377 214.07777 213.62820 212.69148
 212.35179 213.09459 214.60519 216.51509 218.81329 222.15901 227.11270 231.53810
 235.17661 239.37624 243.80905 248.11470 252.05804 255.49760 258.51880 261.40341
 264.25778 266.88141 269.22330 271.57828 273.66956 275.39902 276.83099 278.47791
 280.48392 282.25146 283.78098 285.12399 286.28629 287.31461 288.25278 289.10272
 289.86713 290.54785 291.14252 291.90033
 366.78100 356.34302 345.78304 334.65706 323.06809 311.27011 299.14813 286.95915
 274.67917 262.58419 250.60121 239.91023 230.04026 221.15228 213.34230 206.35232
 200.19434 195.14036 191.73038 189.78040 188.82543 188.89745 189.74047 191.05649
 192.78951 194.89253 197.16355 199.53057 201.98360 204.47162 206.56764 208.41766
 210.05168 211.20470 211.44172 211.67775 211.62277 211.33579 210.97681 210.61483
 210.23985 209.95787 209.77389 209.64592 209.58194 209.92096 210.31498 210.71200
 211.51302 212.69904 213.95706 215.74809 217.68411 219.73513 221.83815 223.92917
 225.99719 228.08921 230.19423 232.30826 234.44528 236.62530 238.88932 241.26734
 243.89636 246.15538 248.16541 249.93843 251.36345 252.49447 253.32449 253.64851
 253.69353 253.47555 252.84358 251.79960 250.41362 248.58264 246.49966 244.34068
 242.13970 239.95172 237.77975 235.62677 233.49479 231.36981 229.40383 227.56885
 225.85987 224.33989 222.97792 221.75794 220.64796 219.61598 218.72800 217.87702
 217.12704 216.31507 215.42109 214.79311 214.25113 214.09615 213.62584 212.76935
 212.40347 213.17059 214.70387 216.49234 218.72014 222.23380 226.94421 231.47363
 235.11145 239.28738 243.67044 247.90990 251.79208 255.24146 258.32172 261.24777
 264.11279 266.77893 269.26099 271.58359 273.60452 275.28625 276.72498 278.18649
 279.67648 281.22519 282.69012 283.97647 285.08966 286.07458 286.97314 287.78720
 288.51935 289.17133 289.74088 290.46671
 366.78100 356.34361 345.78421 334.65882 323.07043 311.27304 299.15164 286.96325
 274.68386 262.58947 250.60707 239.91668 230.04729 221.15989 213.35050 206.36111
 200.20372 195.15032 191.74093 189.79154 188.83714 188.90975 189.75336 191.06997
 192.80357 194.90718 197.17879 199.54640 202.00000 204.48861 206.58522 208.43582
 210.07043 211.22404 211.46165 211.69825 211.64386 211.35747 210.99907 210.63768
 210.26329 209.98190 209.79850 209.67111 209.60772 209.94733 210.34193 210.73954
 211.54115 212.72775 213.98636 215.77797 217.71458 219.76618 221.86979 223.96140
 226.03000 228.12261 230.22822 232.34283 234.48043 236.66104 238.92565 241.30426
 243.93386 246.19347 248.20408 249.97768 251.40329 252.53490 253.36551 253.69011
 253.73572 253.51833 252.88693 251.84354 250.45815 248.62776 246.54536 244.38697
 242.18658 239.99919 237.82779 235.67540 233.54401 231.41961 229.45422 227.61983
 225.91144 224.39204 223.03065 221.81126 220.70187 219.67047 218.78308 217.93269
 217.18329 216.37190 215.47851 214.85112 214.30972 214.12708 213.63554 212.89188
 212.37975 213.03209 214.64874 216.56618 218.83412 222.32372 226.95795 231.46350
 235.08218 239.24648 243.60495 247.80757 251.65367 255.08299 258.17465 261.14798
 264.04446 266.76868 269.30374 271.62485 273.57489 275.17087 276.60904 278.01651
 279.29562 280.56378 282.13190 283.52957 284.73914 285.80930 286.78564 287.67017
 288.46570 289.17410 289.79297 290.58163
 366.78100 356.34450 345.78599 334.66149 323.07399 311.27748 299.15698 286.96948
 274.69097 262.59747 250.61597 239.92646 230.05796 221.17146 213.36296 206.37445
 200.21795 195.16545 191.75694 189.80844 188.85494 188.92843 189.77293 191.09043
 192.82492 194.92942 197.20192 199.57041 202.02491 204.51441 206.61190 208.46340
 210.09890 211.25339 211.49189 211.72939 211.67589 211.39038 211.03288 210.67238
 210.29887 210.01837 209.83587 209.70936 209.64686 209.98736 210.38285 210.78135
 211.58385 212.77134 214.03084 215.82334 217.76083 219.81333 221.91783 224.01032
 226.07982 228.17332 230.27982 232.39531 234.53381 236.71531 238.98080 241.36030
 243.99080 246.25129 248.26279 250.03729 251.46378 252.59628 253.42778 253.75327
 253.79977 253.58327 252.95276 251.91026 250.52576 248.69625 246.61475 244.45725
 242.25775 240.07124 237.90074 235.74924 233.61873 231.49523 229.53073 227.69722
 225.98972 224.47122 223.11071 221.89221 220.78371 219.75320 218.86670 218.01720
 217.26869 216.45819 215.56569 214.93918 214.39868 214.17320 213.61743 213.00200
 212.43033 212.86873 214.45985 216.44965 218.83066 222.37498 227.00423 231.49391
 235.11002 239.27766 243.63100 247.82262 251.66899 255.10738 258.22382 261.23602
 264.16254 266.89096 269.36240 271.66220 273.53201 275.10587 276.67896 278.21368
 279.41910 280.32327 281.81277 283.26505 284.52185 285.63382 286.64832 287.56738
 288.39398 289.13007 289.77307 290.59256
 366.78100 356.34425 345.78551 334.66076 323.07302 311.27627 299.15553 286.96778
 274.68904 262.59529 250.61355 239.92380 230.05506 221.16831 213.35957 206.37082
 200.21408 195.16133 191.75259 189.80384 188.85010 188.92335 189.76761 191.08486
 192.81912 194.92337 197.19563 199.56388 202.01814 204.50739 206.60465 208.45590
 210.09116 211.24541 211.48367 211.72092 211.66718 211.38143 211.02369 210.66294
 210.28920 210.00845 209.82571 209.69896 209.63622 209.97647 210.37173 210.76998
 211.57224 212.75949 214.01875 215.81100 217.74826 219.80051 221.90477 223.99702
 226.06628 228.15953 230.26579 232.38104 234.51930 236.70055 238.96581 241.34506
 243.97532 246.23557 248.24683 250.02108 251.44734 252.57959 253.41085 253.73610
 253.78236 253.56561 252.93487 251.89212 250.50738 248.67763 246.59589 244.43814
 242.23840 240.05165 237.88091 235.72916 233.59842 231.47467 229.50993 227.67618
 225.96844 224.44969 223.08895 221.87020 220.76146 219.73071 218.84397 217.99422
 217.24548 216.43473 215.54199 214.91524 214.37450 214.16426 213.64120 213.02650
 212.51756 212.86501 214.35884 216.30331 218.73752 222.30064 226.95467 231.44225
 235.08846 239.25842 243.59047 247.77116 251.62665 255.07544 258.19919 261.23026
 264.16541 266.89551 269.39615 271.65677 273.49728 275.01901 276.65845 278.22861
 279.46750 280.55038 281.77325 283.11841 284.34363 285.42764 286.41663 287.31259
 288.11841 288.83600 289.46286 290.26172
 366.78100 356.34341 345.78381 334.65822 323.06962 311.27203 299.15043 286.96184
 274.68224 262.58765 250.60505 239.91446 230.04486 221.15727 213.34767 206.35808
 200.20049 195.14689 191.73730 189.78770 188.83311 188.90551 189.74892 191.06532
 192.79873 194.90213 197.17354 199.54094 201.99435 204.48276 206.57916 208.42957
 210.06397 211.21738 211.45478 211.69119 211.63659 211.35000 210.99140 210.62981
 210.25521 209.97362 209.79002 209.66243 209.59884 209.93824 210.33265 210.73005
 211.53146 212.71786 213.97627 215.76767 217.70408 219.75548 221.85889 223.95029
 226.01870 228.11111 230.21651 232.33092 234.46832 236.64873 238.91313 241.29154
 243.92094 246.18035 248.19075 249.96416 251.38956 252.52097 253.35137 253.67578
 253.72119 253.50359 252.87200 251.82840 250.44281 248.61221 246.52962 244.37102
 242.17043 239.98283 237.81124 235.65864 233.52705 231.40246 229.43686 227.60227
 225.89367 224.37408 223.01248 221.79289 220.68329 219.65170 218.76410 217.91351
 217.16391 216.35232 215.45872 214.83113 214.28954 214.13132 213.71523 213.01599
 212.46727 212.90625 214.41377 216.33836 218.72861 222.26112 226.91583 231.38921
 235.05980 239.22368 243.53198 247.69142 251.54286 255.00961 258.14008 261.19714
 264.13718 266.88016 269.41232 271.63913 273.40497 274.92270 276.50974 278.05762
 279.19083 280.43088 281.88321 283.19620 284.41876 285.50888 286.50342 287.40442
 288.21478 288.93640 289.56677 290.37015
 366.78100 356.34171 345.78041 334.65312 323.06282 311.26353 299.14024 286.94994
 274.66865 262.57235 250.58806 239.89577 230.02447 221.13518 213.32388 206.33259
 200.17330 195.11800 191.70671 189.75541 188.79912 188.86983 189.71153 191.02624
 192.75794 194.85965 197.12936 199.49506 201.94677 204.43347 206.52818 208.37689
 210.00959 211.16130 211.39700 211.63171 211.57542 211.28712 210.92683 210.56353
 210.18724 209.90395 209.71865 209.58936 209.52406 209.86177 210.25448 210.65018
 211.44989 212.63459 213.89130 215.68101 217.61571 219.66542 221.76712 223.85683
 225.92354 228.01424 230.11795 232.23065 234.36636 236.54507 238.80777 241.18448
 243.81218 246.06989 248.07859 249.85030 251.27401 252.40371 253.23242 253.55512
 253.59883 253.37954 252.74624 251.70095 250.31365 248.48136 246.39707 244.23677
 242.03448 239.84518 237.67189 235.51760 233.38430 231.25801 229.29071 227.45442
 225.74413 224.22283 222.85954 221.63824 220.52695 219.49366 218.60436 217.75207
 217.00077 216.18748 215.29219 214.66289 214.11960 214.05423 213.83804 213.07312
 212.30977 212.85674 214.45053 216.40038 218.77357 222.28369 226.92555 231.39467
 235.05789 239.21872 243.51480 247.66295 251.51909 255.00133 258.15930 261.24124
 264.18640 266.91974 269.43311 271.63196 273.33215 274.84088 276.43079 277.97073
 279.06595 280.34943 281.87112 283.21664 284.44373 285.53149 286.52390 287.42294
 288.23154 288.95160 289.58063 290.38226
 366.78100 356.33984 345.77668 334.64751 323.05535 311.25419 299.12903 286.93686
 274.65370 262.55554 250.56938 239.87522 230.00205 221.11089 213.29773 206.30457
 200.14341 195.08624 191.67308 189.71992 188.76176 188.83059 189.67043 190.98327
 192.71311 194.81295 197.08078 199.44462 201.89446 204.37930 206.47214 208.31897
 209.94981 211.09965 211.33349 211.56632 211.50816 211.21800 210.85584 210.49068
 210.11251 209.82735 209.64019 209.50903 209.44187 209.77770 210.16854 210.56238
 211.36022 212.54305 213.79789 215.58573 217.51857 219.56641 221.66624 223.75408
 225.81892 227.90776 230.00960 232.12043 234.25427 236.43111 238.69195 241.06678
 243.69262 245.94846 247.95530 249.72514 251.14697 252.27481 253.10165 253.42249
 253.46433 253.24316 252.60800 251.56084 250.17168 248.33751 246.25135 244.08919
 241.88503 239.69387 237.51870 235.36254 233.22738 231.09922 229.13006 227.29189
 225.57973 224.05657 222.69141 221.46824 220.35508 219.31992 218.42876 217.57460
 216.82143 216.00627 215.10911 214.47795 213.93279 213.96217 213.95821 213.20084
 212.22340 212.71808 214.37038 216.41231 218.81210 222.30087 226.91975 231.38959
 235.03914 239.19728 243.47975 247.61275 251.46988 254.96907 258.16425 261.27515
 264.23245 266.96497 269.44324 271.61444 273.29163 274.78915 276.47360 278.00211
 279.09607 280.36707 281.89795 283.25958 284.51245 285.62091 286.63223 287.54843
 288.37244 289.10620 289.74722 290.56412
 366.78100 356.33932 345.77564 334.64596 323.05327 311.25159 299.12591 286.93323
 274.64955 262.55087 250.56419 239.86950 229.99582 221.10414 213.29046 206.29678
 200.13510 195.07742 191.66373 189.71005 188.75137 188.81969 189.65901 190.97133
 192.70065 194.79996 197.06728 199.43060 201.87992 204.36424 206.45656 208.30288
 209.93319 211.08251 211.31583 211.54815 211.48947 211.19879 210.83611 210.47043
 210.09174 209.80606 209.61838 209.48670 209.41902 209.75434 210.14466 210.53797
 211.33529 212.51761 213.77193 215.55925 217.49157 219.53889 221.63820 223.72552
 225.78984 227.87816 229.97948 232.08980 234.22312 236.39943 238.65975 241.03407
 243.65939 245.91471 247.92103 249.69035 251.11166 252.23898 253.06530 253.38562
 253.42694 253.20526 252.56958 251.52189 250.13221 248.29753 246.21085 244.04817
 241.84349 239.65181 237.47612 235.31944 233.18376 231.05508 229.08540 227.24672
 225.53404 224.01035 222.64467 221.42099 220.30731 219.27163 218.37995 217.52527
 216.77158 215.95590 215.05822 214.42654 213.88086 213.93646 214.00185 213.33725
 212.25363 212.53946 214.27455 216.44737 218.87410 222.33499 226.92674 231.36197
 235.01305 239.15617 243.41800 247.53087 251.38748 254.90953 258.14719 261.28223
 264.24756 266.97333 269.40796 271.56174 273.27863 274.78238 276.56570 278.04642
 279.15039 280.45660 282.00226 283.38037 284.65204 285.77716 286.80365 287.73358
 288.56995 289.31473 289.96536 290.79453
 366.78100 356.33923 345.77546 334.64569 323.05292 311.25116 299.12539 286.93262
 274.64885 262.55008 250.56331 239.86854 229.99477 221.10300 213.28923 206.29547
 200.13370 195.07593 191.66216 189.70839 188.74962 188.81785 189.65708 190.96931
 192.69854 194.79778 197.06501 199.42824 201.87747 204.36170 206.45393 208.30016
 209.93039 211.07962 211.31285 211.54509 211.48632 211.19555 210.83278 210.46701
 210.08824 209.80247 209.61470 209.48293 209.41516 209.75040 210.14063 210.53386
 211.33109 212.51332 213.76755 215.55478 217.48701 219.53424 221.63347 223.72071
 225.78494 227.87317 229.97440 232.08463 234.21786 236.39409 238.65432 241.02855
 243.65378 245.90902 247.91525 249.68448 251.10571 252.23294 253.05917 253.37940
 253.42063 253.19886 252.56309 251.51533 250.12556 248.29079 246.20402 244.04125
 241.83648 239.64471 237.46894 235.31217 233.17640 231.04764 229.07787 227.23910
 225.52633 224.00256 222.63679 221.41302 220.29925 219.26348 218.37171 217.51695
 216.76318 215.94741 215.04964 214.41787 213.87210 213.94653 214.03407 213.36153
 212.39529 212.51051 214.20953 216.46645 218.92062 222.38197 226.97961 231.34129
 234.98172 239.10281 243.34038 247.42303 251.24998 254.78764 258.08847 261.24521
 264.22546 266.95081 269.38989 271.49637 273.20950 274.89767 276.67535 278.09360
 279.20264 280.74481 282.33862 283.83868 285.14362 286.29816 287.35150 288.30576
 289.16400 289.92828 290.59592 291.44678
 366.78100 356.33872 345.77443 334.64415 323.05086 311.24858 299.12229 286.92901
 274.64472 262.54544 250.55815 239.86287 229.98858 221.09630 213.28202 206.28773
 200.12545 195.06716 191.65288 189.69859 188.73931 188.80702 189.64574 190.95745
 192.68617 194.78489 197.05160 199.41432 201.86303 204.34675 206.43846 208.28418
 209.91389 211.06261 211.29532 211.52704 211.46775 211.17647 210.81319 210.44690
 210.06762 209.78133 209.59305 209.46076 209.39248 209.72719 210.11691 210.50962
 211.30634 212.48806 213.74177 215.52849 217.46020 219.50692 221.60563 223.69235
 225.75606 227.84378 229.94449 232.05421 234.18692 236.36264 238.62236 240.99607
 243.62079 245.87550 247.88122 249.64993 251.07065 252.19736 253.02308 253.34279
 253.38351 253.16123 252.52494 251.47666 250.08637 248.25109 246.16380 244.00052
 241.79523 239.60295 237.42666 235.26938 233.13309 231.00381 229.03353 227.19424
 225.48096 223.95667 222.59039 221.36610 220.25182 219.21553 218.32325 217.46796
 216.71368 215.89740 214.99911 214.36683 213.82054 213.94728 214.08749 213.27928
 212.46405 212.65512 214.25343 216.46469 218.86359 222.34645 227.03191 231.35703
 234.98709 239.06090 243.25241 247.30949 251.11887 254.67569 258.03201 261.22574
 264.22614 266.93121 269.34158 271.43726 273.17899 274.99594 276.80130 278.13583
 279.54648 281.41260 283.18085 284.73349 286.07718 287.26599 288.35062 289.33319
 290.21692 291.00391 291.69138 292.56747
 366.78100 356.33915 345.77530 334.64545 323.05260 311.25075 299.12490 286.93205
 274.64819 262.54934 250.56249 239.86764 229.99379 221.10194 213.28809 206.29424
 200.13239 195.07454 191.66069 189.70684 188.74799 188.81614 189.65529 190.96744
 192.69658 194.79573 197.06288 199.42603 201.87518 204.35933 206.45148 208.29763
 209.92778 211.07693 211.31008 211.54223 211.48338 211.19253 210.82968 210.46383
 210.08497 209.79912 209.61127 209.47942 209.41157 209.74672 210.13687 210.53002
 211.32717 212.50932 213.76347 215.55062 217.48277 219.52992 221.62907 223.71622
 225.78036 227.86851 229.96966 232.07981 234.21296 236.38911 238.64926 241.02341
 243.64856 245.90371 247.90986 249.67901 251.10016 252.22731 253.05346 253.37361
 253.41475 253.19290 252.55705 251.50920 250.11935 248.28450 246.19765 244.03480
 241.82995 239.63810 237.46225 235.30540 233.16955 231.04070 229.07085 227.23200
 225.51914 223.99529 222.62944 221.40559 220.29174 219.25589 218.36404 217.50919
 216.75534 215.93949 215.04164 214.40979 213.86394 213.98322 214.09204 213.23317
 212.47969 212.82149 214.32320 216.37289 218.77684 222.31252 227.08923 231.39688
 235.01112 239.05519 243.21844 247.25433 251.04939 254.61429 257.99478 261.20432
 264.21036 266.92722 269.30273 271.38147 273.08350 274.89825 276.68655 278.11697
 280.01315 281.94492 283.70837 285.25681 286.59683 287.78244 288.86411 289.84402
 290.72537 291.51019 292.19580 293.06955
 366.78100 356.34054 345.77808 334.64963 323.05817 311.25771 299.13325 286.94179
 274.65934 262.56188 250.57642 239.88296 230.01050 221.12004 213.30759 206.31513
 200.15467 195.09821 191.68575 189.73330 188.77584 188.84538 189.68592 190.99946
 192.73001 194.83055 197.09909 199.46363 201.91417 204.39971 206.49326 208.34080
 209.97234 211.12288 211.35742 211.59097 211.53351 211.24405 210.88259 210.51813
 210.14068 209.85622 209.66976 209.53930 209.47284 209.80939 210.20093 210.59547
 211.39401 212.57755 213.83309 215.62164 217.55518 219.60372 221.70426 223.79280
 225.85835 227.94789 230.05043 232.16197 234.29651 236.47406 238.73560 241.11114
 243.73768 245.99422 248.00176 249.77231 251.19485 252.32339 253.15093 253.47247
 253.51502 253.29456 252.66010 251.61364 250.22518 248.39173 246.30627 244.14481
 241.94135 239.75089 237.57644 235.42098 233.28652 231.15906 229.19060 227.35314
 225.64169 224.11923 222.75477 221.53231 220.41985 219.38540 218.49494 217.64148
 216.88902 216.07456 215.17811 214.54765 214.00319 214.06116 214.06126 213.27963
 212.48831 212.83638 214.36089 216.33722 218.72531 222.28723 227.11990 231.42334
 235.03003 239.05670 243.19997 247.21696 250.99837 254.56972 257.97119 261.18518
 264.18835 266.90845 269.26666 271.26169 272.99115 274.68484 276.41968 277.89862
 279.76935 281.66226 283.35074 284.83331 286.11636 287.25156 288.28723 289.22546
 290.06931 290.82077 291.47723 292.31381
 366.78100 356.34175 345.78049 334.65324 323.06298 311.26373 299.14047 286.95022
 274.66897 262.57271 250.58846 239.89620 230.02495 221.13569 213.32444 206.33318
 200.17393 195.11868 191.70742 189.75617 188.79991 188.87066 189.71240 191.02715
 192.75890 194.86064 197.13039 199.49613 201.94788 204.43462 206.52937 208.37812
 210.01086 211.16261 211.39835 211.63310 211.57684 211.28859 210.92833 210.56508
 210.18883 209.90557 209.72032 209.59106 209.52581 209.86355 210.25630 210.65205
 211.45179 212.63654 213.89328 215.68303 217.61777 219.66752 221.76927 223.85901
 225.92576 228.01650 230.12025 232.23299 234.36874 236.54749 238.81023 241.18698
 243.81472 246.07247 248.08121 249.85296 251.27670 252.40645 253.23520 253.55794
 253.60169 253.38243 252.74918 251.70392 250.31667 248.48442 246.40016 244.23991
 242.03765 239.84840 237.67514 235.52089 233.38764 231.26138 229.29413 227.45787
 225.74762 224.22636 222.86311 221.64185 220.53060 219.49735 218.60809 217.75584
 217.00458 216.19133 215.29607 214.66682 214.12357 214.13066 214.04614 213.37683
 212.54404 212.75957 214.26776 216.19984 218.65306 222.25488 227.10153 231.43031
 235.04715 239.07770 243.21895 247.23676 251.02321 254.62410 258.09158 261.33765
 264.34479 266.99695 269.29239 271.20703 272.93332 274.59219 276.38266 277.92563
 279.52817 281.53467 283.30603 284.86139 286.20743 287.39835 288.48486 289.46918
 290.35443 291.14279 291.83148 292.70911
 366.78100 356.34121 345.77942 334.65163 323.06084 311.26105 299.13726 286.94647
 274.66468 262.56789 250.58310 239.89031 230.01852 221.12873 213.31694 206.32515
 200.16536 195.10957 191.69778 189.74599 188.78920 188.85941 189.70062 191.01483
 192.74604 194.84725 197.11646 199.48167 201.93288 204.41909 206.51330 208.36151
 209.99372 211.14493 211.38014 211.61435 211.55756 211.26877 210.90798 210.54419
 210.16740 209.88361 209.69782 209.56803 209.50224 209.83945 210.23166 210.62687
 211.42608 212.61029 213.86650 215.65571 217.58992 219.63913 221.74034 223.82955
 225.89576 227.98597 230.08918 232.20139 234.33660 236.51481 238.77702 241.15323
 243.78044 246.03765 248.04586 249.81707 251.24028 252.36950 253.19771 253.51992
 253.56313 253.34334 252.70955 251.66376 250.27597 248.44318 246.35839 244.19760
 241.99481 239.80502 237.63123 235.47644 233.34265 231.21586 229.24807 227.41128
 225.70049 224.17870 222.81491 221.59312 220.48133 219.44754 218.55775 217.70496
 216.95317 216.13938 215.24359 214.61380 214.07001 214.09816 214.08614 213.48271
 212.65584 212.76933 214.09535 215.96643 218.53598 222.27100 226.93230 231.38158
 235.01007 239.04730 243.18771 247.21191 251.03210 254.68217 258.18271 261.46805
 264.52469 267.24692 269.41400 271.19736 272.90433 274.83856 276.71948 278.28351
 279.42755 281.08575 282.91498 284.60913 286.07529 287.37244 288.55591 289.62802
 290.59229 291.45099 292.20111 293.15707
 366.78100 356.33991 345.77683 334.64774 323.05566 311.25457 299.12948 286.93740
 274.65431 262.55623 250.57014 239.87606 230.00297 221.11188 213.29880 206.30571
 200.14463 195.08754 191.67445 189.72137 188.76328 188.83220 189.67211 190.98503
 192.71494 194.81485 197.08277 199.44668 201.89660 204.38151 206.47442 208.32134
 209.95225 211.10217 211.33608 211.56900 211.51091 211.22082 210.85874 210.49365
 210.11557 209.83048 209.64339 209.51231 209.44522 209.78114 210.17205 210.56596
 211.36388 212.54679 213.80171 215.58962 217.52254 219.57045 221.67036 223.75828
 225.82319 227.91211 230.01402 232.12493 234.25885 236.43576 238.69668 241.07159
 243.69751 245.95342 247.96033 249.73025 251.15216 252.28008 253.10699 253.42790
 253.46982 253.24873 252.61365 251.56656 250.17747 248.34339 246.25730 244.09522
 241.89113 239.70005 237.52496 235.36887 233.23379 231.10570 229.13662 227.29853
 225.58644 224.06336 222.69827 221.47519 220.36210 219.32702 218.43593 217.58184
 216.82876 216.01367 215.11659 214.48550 213.94041 214.02193 214.15509 213.60251
 212.66339 212.74948 213.99376 215.84663 218.46100 222.18359 226.85118 231.27858
 234.90903 238.92889 243.04672 247.06400 250.89246 254.57349 258.09323 261.38284
 264.42105 267.13596 269.36670 271.17780 272.95734 274.90097 276.83572 278.40811
 279.65076 280.91550 282.43405 283.85934 285.21927 286.42883 287.53238 288.53210
 289.43124 290.23193 290.93140 291.82278
 366.78100 356.33949 345.77598 334.64647 323.05396 311.25246 299.12695 286.93444
 274.65093 262.55242 250.56591 239.87140 229.99789 221.10639 213.29288 206.29937
 200.13786 195.08035 191.66684 189.71333 188.75482 188.82331 189.66281 190.97530
 192.70479 194.80428 197.07177 199.43526 201.88475 204.36924 206.46174 208.30823
 209.93872 211.08821 211.32170 211.55419 211.49568 211.20517 210.84266 210.47716
 210.09865 209.81314 209.62563 209.49412 209.42661 209.76210 210.15259 210.54609
 211.34358 212.52607 213.78056 215.56805 217.50054 219.54803 221.64752 223.73501
 225.79951 227.88800 229.98949 232.09998 234.23347 236.40996 238.67045 241.04494
 243.67043 245.92593 247.93242 249.70191 251.12340 252.25089 253.07738 253.39787
 253.43936 253.21786 252.58235 251.53484 250.14533 248.31082 246.22431 244.06180
 241.85729 239.66578 237.49028 235.33377 233.19826 231.06975 229.10024 227.26173
 225.54922 224.02571 222.66021 221.43670 220.32319 219.28768 218.39617 217.54166
 216.78815 215.97264 215.07513 214.44363 213.89812 213.99846 214.18895 213.70236
 212.61710 212.64319 213.91481 215.81369 218.45978 222.19019 226.89355 231.27278
 234.89955 238.88687 242.98596 246.99968 250.83517 254.53760 258.08548 261.36182
 264.39624 267.11279 269.31601 271.11224 272.93530 274.95566 276.85339 278.38190
 279.69119 281.01379 282.46487 283.84479 285.13757 286.35065 287.45737 288.46002
 289.36176 290.16479 290.86627 291.76025
 366.78100 356.34049 345.77799 334.64948 323.05797 311.25747 299.13296 286.94145
 274.65895 262.56144 250.57594 239.88243 230.00992 221.11942 213.30691 206.31440
 200.15390 195.09739 191.68488 189.73238 188.77487 188.84436 189.68486 190.99835
 192.72884 194.82934 197.09783 199.46233 201.91282 204.39831 206.49181 208.33930
 209.97079 211.12129 211.35578 211.58927 211.53177 211.24226 210.88075 210.51625
 210.13874 209.85423 209.66773 209.53722 209.47071 209.80721 210.19870 210.59320
 211.39169 212.57518 213.83068 215.61917 217.55266 219.60116 221.70165 223.79014
 225.85564 227.94513 230.04762 232.15912 234.29361 236.47110 238.73260 241.10809
 243.73459 245.99108 247.99857 249.76907 251.19156 252.32005 253.14755 253.46904
 253.51153 253.29103 252.65652 251.61001 250.22151 248.38800 246.30249 244.14099
 241.93748 239.74698 237.57247 235.41696 233.28246 231.15495 229.18644 227.34894
 225.63743 224.11492 222.75042 221.52791 220.41540 219.38090 218.49039 217.63688
 216.88438 216.06987 215.17337 214.54286 213.99835 214.05328 214.15248 213.77106
 212.72841 212.57965 213.77650 215.71895 218.42711 222.19720 226.93936 231.31030
 234.92302 238.88860 242.97444 246.99290 250.83878 254.56613 258.14322 261.41376
 264.44888 267.17029 269.35922 271.09497 272.89230 274.95203 276.81964 278.41064
 279.87836 281.26495 282.61340 283.97177 285.24445 286.41888 287.49036 288.46103
 289.33405 290.11148 290.79065 291.65613
 366.78100 356.34115 345.77930 334.65145 323.06060 311.26075 299.13691 286.94606
 274.66421 262.56736 250.58251 239.88966 230.01781 221.12796 213.31611 206.32426
 200.16441 195.10856 191.69672 189.74487 188.78802 188.85817 189.69932 191.01347
 192.74462 194.84577 197.11492 199.48007 201.93122 204.41738 206.51153 208.35968
 209.99183 211.14298 211.37813 211.61228 211.55543 211.26658 210.90573 210.54188
 210.16503 209.88119 209.69534 209.56549 209.49964 209.83679 210.22894 210.62409
 211.42324 212.60739 213.86354 215.65269 217.58685 219.63600 221.73715 223.82630
 225.89245 227.98260 230.08575 232.19790 234.33305 236.51120 238.77335 241.14950
 243.77666 246.03381 248.04196 249.81311 251.23626 252.36541 253.19356 253.51571
 253.55886 253.33901 252.70516 251.65932 250.27147 248.43862 246.35377 244.19292
 241.99007 239.80022 237.62637 235.47152 233.33767 231.21082 229.24297 227.40613
 225.69528 224.17343 222.80958 221.58773 220.47588 219.44203 218.55218 217.69933
 216.94748 216.13363 215.23779 214.60794 214.06409 214.10435 214.15361 213.70949
 212.92853 212.75192 213.78133 215.64926 218.36255 222.15138 226.89789 231.28224
 234.87624 238.82307 242.89622 246.91229 250.75752 254.50899 258.10632 261.39291
 264.43912 267.15958 269.35510 271.04416 272.81961 274.92389 276.81387 278.52548
 280.00949 281.35611 282.84250 284.27094 285.60611 286.78741 287.86514 288.84149
 289.71964 290.50162 291.18472 292.05527
 366.78100 356.33965 345.77629 334.64694 323.05459 311.25324 299.12788 286.93553
 274.65218 262.55382 250.56747 239.87312 229.99977 221.10841 213.29506 206.30171
 200.14035 195.08300 191.66965 189.71630 188.75794 188.82659 189.66624 190.97888
 192.70853 194.80818 197.07583 199.43947 201.88912 204.37377 206.46641 208.31306
 209.94371 211.09335 211.32700 211.55965 211.50130 211.21094 210.84859 210.48324
 210.10488 209.81953 209.63218 209.50083 209.43347 209.76912 210.15977 210.55341
 211.35106 212.53371 213.78836 215.57600 217.50865 219.55630 221.65594 223.74359
 225.80824 227.89689 229.99853 232.10918 234.24283 236.41947 238.68012 241.05477
 243.68042 245.93606 247.94271 249.71236 251.13400 252.26165 253.08830 253.40895
 253.45059 253.22924 252.59389 251.54653 250.15718 248.32283 246.23648 244.07412
 241.86977 239.67842 237.50306 235.34671 233.21136 231.08300 229.11365 227.27530
 225.56295 224.03959 222.67424 221.45089 220.33753 219.30218 218.41083 217.55648
 216.80312 215.98777 215.09042 214.45906 213.91371 214.04904 214.26744 213.59627
 212.91524 212.89165 213.90634 215.71887 218.39328 222.15654 226.88029 231.26495
 234.83560 238.76006 242.81847 246.82785 250.66237 254.43346 258.04181 261.33783
 264.40305 267.14709 269.36862 271.01990 272.81369 274.88318 276.78781 278.45685
 279.90265 281.41785 282.96103 284.41263 285.71829 286.87347 287.92740 288.88220
 289.74094 290.50562 291.17365 292.02499
 366.78100 356.33817 345.77333 334.64250 323.04866 311.24583 299.11900 286.92516
 274.64033 262.54049 250.55266 239.85683 229.98199 221.08916 213.27433 206.27949
 200.11666 195.05782 191.64299 189.68816 188.72832 188.79549 189.63365 190.94482
 192.67299 194.77115 197.03732 199.39948 201.84765 204.33082 206.42198 208.26715
 209.89632 211.04448 211.27665 211.50781 211.44798 211.15615 210.79231 210.42548
 210.04564 209.75881 209.56998 209.43714 209.36831 209.70247 210.09164 210.48381
 211.27997 212.46114 213.71430 215.50047 217.43164 219.47780 221.57597 223.66214
 225.72530 227.81247 229.91263 232.02180 234.15397 236.32913 238.58830 240.96146
 243.58563 245.83980 247.84496 249.61313 251.03329 252.15946 252.98463 253.30379
 253.34396 253.12113 252.48429 251.43546 250.04462 248.20879 246.12096 243.95712
 241.75129 239.55845 237.38162 235.22379 233.08695 230.95712 228.98628 227.14645
 225.43262 223.90778 222.54095 221.31611 220.20128 219.16445 218.27161 217.41578
 216.66095 215.84411 214.94528 214.31244 213.76561 213.98009 214.36961 213.64703
 212.78275 212.82057 213.92680 215.77885 218.45409 222.19865 226.90471 231.27887
 234.82809 238.73328 242.77849 246.78290 250.60712 254.39432 258.01584 261.31384
 264.38803 267.15280 269.40863 271.04340 272.80704 274.80075 276.59787 278.18237
 279.67731 281.27991 282.83011 284.27734 285.57391 286.72104 287.76761 288.71576
 289.56848 290.32785 290.99121 291.83661
 366.78100 356.33872 345.77443 334.64415 323.05086 311.24858 299.12230 286.92901
 274.64473 262.54544 250.55816 239.86288 229.98859 221.09631 213.28202 206.28774
 200.12546 195.06717 191.65289 189.69860 188.73932 188.80704 189.64575 190.95747
 192.68618 194.78490 197.05162 199.41433 201.86305 204.34676 206.43848 208.28420
 209.91391 211.06263 211.29534 211.52706 211.46778 211.17649 210.81321 210.44692
 210.06764 209.78136 209.59307 209.46079 209.39251 209.72722 210.11694 210.50965
 211.30637 212.48809 213.74180 215.52852 217.46023 219.50695 221.60567 223.69238
 225.75610 227.84381 229.94453 232.05425 234.18696 236.36268 238.62239 240.99611
 243.62083 245.87554 247.88126 249.64997 251.07069 252.19741 253.02312 253.34284
 253.38355 253.16127 252.52499 251.47670 250.08642 248.25113 246.16385 244.00057
 241.79528 239.60300 237.42671 235.26943 233.13315 231.00386 229.03358 227.19429
 225.48101 223.95673 222.59044 221.36616 220.25187 219.21559 218.32331 217.46802
 216.71374 215.89745 214.99917 214.36689 213.82060 214.00713 214.35880 213.80731
 212.81287 212.72369 213.82019 215.71315 218.43320 222.19969 226.91592 231.27658
 234.81392 238.70703 242.74570 246.74620 250.57477 254.37180 258.00018 261.31042
 264.38553 267.16232 269.48038 271.18134 272.90369 274.81882 276.59811 278.07318
 279.47824 281.07352 282.64658 284.15378 285.48383 286.66058 287.73419 288.70682
 289.58157 290.36057 291.04105 291.90826
 366.78100 356.34040 345.77781 334.64921 323.05761 311.25702 299.13242 286.94082
 274.65823 262.56063 250.57503 239.88144 230.00884 221.11824 213.30565 206.31305
 200.15245 195.09586 191.68326 189.73066 188.77307 188.84247 189.68287 190.99628
 192.72668 194.82708 197.09549 199.45989 201.91029 204.39570 206.48910 208.33650
 209.96791 211.11831 211.35271 211.58612 211.52852 211.23892 210.87733 210.51273
 210.13513 209.85054 209.66394 209.53334 209.46675 209.80315 210.19455 210.58896
 211.38736 212.57076 213.82617 215.61457 217.54797 219.59638 221.69678 223.78518
 225.85059 227.93999 230.04239 232.15380 234.28820 236.46560 238.72701 241.10241
 243.72881 245.98522 247.99262 249.76302 251.18543 252.31383 253.14123 253.46264
 253.50504 253.28444 252.64985 251.60325 250.21465 248.38106 246.29546 244.13386
 241.93027 239.73967 237.56507 235.40948 233.27488 231.14728 229.17869 227.34109
 225.62949 224.10690 222.74230 221.51970 220.40711 219.37251 218.48191 217.62832
 216.87572 216.06112 215.16453 214.53393 213.98933 214.09807 214.29558 213.88220
 212.97015 212.71523 213.73152 215.63129 218.38126 222.17554 226.91037 231.25533
 234.78506 238.67461 242.71542 246.71361 250.54063 254.33745 257.96188 261.27145
 264.33258 267.10022 269.47461 271.28302 273.04156 274.94556 276.71472 278.13000
 279.34152 281.00113 282.60532 284.16803 285.52042 286.71695 287.80859 288.79755
 289.68701 290.47910 291.17102 292.05280
 366.78100 356.34268 345.78235 334.65603 323.06670 311.26838 299.14605 286.95673
 274.67641 262.58108 250.59776 239.90643 230.03611 221.14779 213.33746 206.34714
 200.18881 195.13449 191.72416 189.77384 188.81852 188.89019 189.73287 191.04854
 192.78122 194.88390 197.15457 199.52125 201.97392 204.46160 206.55727 208.40695
 210.04063 211.19330 211.42998 211.66565 211.61033 211.32301 210.96368 210.60136
 210.22603 209.94371 209.75938 209.63106 209.56674 209.90541 210.29909 210.69576
 211.49644 212.68212 213.93979 215.73047 217.66614 219.71682 221.81949 223.91017
 225.97785 228.06952 230.17420 232.28787 234.42455 236.60423 238.86790 241.24558
 243.87425 246.13293 248.14260 249.91528 251.33996 252.47063 253.30031 253.62398
 253.66866 253.45034 252.81801 251.77369 250.38736 248.55604 246.47271 244.31339
 242.11207 239.92374 237.75142 235.59809 233.46577 231.34045 229.37412 227.53880
 225.82947 224.30915 222.94682 221.72650 220.61618 219.58385 218.69553 217.84420
 217.09388 216.28156 215.38723 214.75891 214.21658 214.22876 214.21732 213.86760
 213.13646 212.77873 213.70576 215.59222 218.33694 222.13559 226.90201 231.21776
 234.74072 238.62871 242.67021 246.66524 250.50021 254.29424 257.90833 261.21890
 264.26297 266.98444 269.32748 271.24179 273.04904 275.02121 276.77600 277.81946
 279.34305 281.04669 282.70895 284.22903 285.54449 286.70837 287.77020 288.73218
 289.59735 290.36780 291.04083 291.89856
 366.78100 356.34346 345.78391 334.65837 323.06982 311.27228 299.15073 286.96219
 274.68264 262.58810 250.60555 239.91501 230.04546 221.15792 213.34837 206.35883
 200.20128 195.14774 191.73819 189.78865 188.83411 188.90656 189.75002 191.06647
 192.79993 194.90338 197.17484 199.54229 201.99575 204.48420 206.58066 208.43111
 210.06557 211.21902 211.45648 211.69293 211.63839 211.35184 210.99330 210.63175
 210.25721 209.97567 209.79212 209.66458 209.60103 209.94049 210.33494 210.73240
 211.53385 212.72031 213.97876 215.77022 217.70667 219.75813 221.86158 223.95304
 226.02149 228.11395 230.21940 232.33386 234.47132 236.65177 238.91623 241.29468
 243.92414 246.18359 248.19405 249.96750 251.39296 252.52441 253.35487 253.67932
 253.72478 253.50723 252.87569 251.83214 250.44660 248.61605 246.53351 244.37496
 242.17442 239.98688 237.81533 235.66279 233.53124 231.40670 229.44115 227.60661
 225.89806 224.37852 223.01697 221.79743 220.68788 219.65634 218.76879 217.91825
 217.16870 216.35716 215.46361 214.83607 214.29453 214.28587 214.21150 213.79625
 213.23201 212.86325 213.69147 215.55725 218.30875 222.12238 226.88744 231.19640
 234.70966 238.60356 242.66476 246.66960 250.49586 254.29034 257.91010 261.22424
 264.25967 266.93082 269.20874 271.16110 273.06641 274.93152 276.34839 277.79300
 279.33203 281.01495 282.59439 284.03610 285.28375 286.38763 287.39474 288.30710
 289.12769 289.85840 290.49677 291.31027
 366.78100 356.34207 345.78114 334.65421 323.06428 311.26535 299.14242 286.95249
 274.67156 262.57563 250.59171 239.89978 230.02885 221.13992 213.32899 206.33806
 200.17913 195.12420 191.71327 189.76234 188.80641 188.87748 189.71955 191.03462
 192.76669 194.86876 197.13883 199.50490 201.95697 204.44404 206.53912 208.38819
 210.02126 211.17333 211.40940 211.64447 211.58854 211.30061 210.94068 210.57775
 210.20182 209.91889 209.73396 209.60503 209.54010 209.87817 210.27124 210.66731
 211.46738 212.65246 213.90953 215.69960 217.63467 219.68474 221.78681 223.87688
 225.94395 228.03502 230.13909 232.25216 234.38823 236.56730 238.83037 241.20744
 243.83551 246.09358 248.10265 249.87472 251.29880 252.42887 253.25794 253.58101
 253.62508 253.40615 252.77322 251.72829 250.34136 248.50943 246.42550 244.26557
 242.06364 239.87471 237.70178 235.54785 233.41492 231.28899 229.32206 227.48613
 225.77621 224.25528 222.89235 221.67142 220.56049 219.52756 218.63863 217.78670
 217.03577 216.22284 215.32791 214.69898 214.15605 214.22147 214.30746 213.74768
 213.20453 212.87955 213.67603 215.53653 218.28290 222.07793 226.84708 231.15317
 234.66820 238.56375 242.62778 246.64691 250.48033 254.27866 257.91058 261.21243
 264.21536 266.83582 269.06070 271.03409 272.89587 274.66708 276.24771 277.77090
 279.13925 280.73709 282.17905 283.47067 284.64093 285.67740 286.62302 287.47968
 288.25015 288.93628 289.53564 290.29950
 366.78100 356.34097 345.77894 334.65091 323.05988 311.25985 299.13581 286.94478
 274.66275 262.56572 250.58069 239.88766 230.01563 221.12560 213.31357 206.32154
 200.16151 195.10548 191.69344 189.74141 188.78438 188.85435 189.69532 191.00929
 192.74026 194.84123 197.11020 199.47517 201.92614 204.41210 206.50607 208.35404
 209.98601 211.13698 211.37195 211.60592 211.54889 211.25986 210.89883 210.53480
 210.15777 209.87373 209.68770 209.55767 209.49164 209.82861 210.22058 210.61555
 211.41452 212.59849 213.85446 215.64343 217.57740 219.62636 221.72733 223.81630
 225.88227 227.97224 230.07521 232.18718 234.32215 236.50012 238.76209 241.13806
 243.76502 246.02199 248.02996 249.80093 251.22390 252.35287 253.18084 253.50281
 253.54578 253.32575 252.69172 251.64569 250.25765 248.42462 246.33959 244.17856
 241.97553 239.78550 237.61147 235.45644 233.32241 231.19538 229.22735 227.39031
 225.67928 224.15725 222.79322 221.57119 220.45916 219.42513 218.53510 217.68207
 216.93004 216.11601 215.21998 214.58994 214.04591 214.17276 214.39920 213.78992
 213.10339 212.85080 213.69281 215.53987 218.26437 222.04460 226.83434 231.12526
 234.63297 238.51599 242.57422 246.58989 250.42035 254.22963 257.88437 261.19339
 264.19415 266.77960 268.90381 270.81055 272.67142 274.44955 276.15793 277.70508
 278.96817 280.24350 281.74811 283.01114 284.03220 284.96237 285.81100 286.57983
 287.27127 287.88702 288.42493 289.11041
 366.78100 356.34220 345.78140 334.65460 323.06480 311.26600 299.14320 286.95340
 274.67260 262.57680 250.59300 239.90120 230.03040 221.14160 213.33080 206.34000
 200.18120 195.12640 191.71560 189.76480 188.80900 188.88019 189.72239 191.03759
 192.76979 194.87199 197.14219 199.50839 201.96059 204.44779 206.54299 208.39219
 210.02539 211.17759 211.41379 211.64899 211.59319 211.30539 210.94559 210.58279
 210.20699 209.92419 209.73939 209.61059 209.54579 209.88399 210.27719 210.67339
 211.47359 212.65879 213.91599 215.70619 217.64139 219.69159 221.79379 223.88399
 225.95119 228.04239 230.14659 232.25979 234.39599 236.57519 238.83839 241.21558
 243.84378 246.10198 248.11118 249.88338 251.30758 252.43778 253.26698 253.59018
 253.63438 253.41558 252.78278 251.73798 250.35118 248.51938 246.43558 244.27578
 242.07398 239.88518 237.71238 235.55858 233.42578 231.29998 229.33318 227.49738
 225.78758 224.26678 222.90398 221.68318 220.57238 219.53958 218.65078 217.79898
 217.04818 216.23538 215.34058 214.71178 214.16898 214.24556 214.37216 213.92625
 213.09761 212.74615 213.50540 215.42874 218.23982 222.07881 226.93773 231.23473
 234.73228 238.60764 242.66843 246.70067 250.53683 254.34361 257.99121 261.30954
 264.27908 266.81052 268.87976 270.73184 272.51624 274.37711 276.14798 277.66452
 278.91055 280.01697 281.31772 282.59653 283.71185 284.69864 285.59891 286.41452
 287.14807 287.80127 288.37192 289.09912
 366.78100 356.34396 345.78492 334.65989 323.07185 311.27481 299.15377 286.96573
 274.68669 262.59266 250.61062 239.92058 230.05154 221.16450 213.35547 206.36643
 200.20939 195.15635 191.74731 189.79828 188.84424 188.91720 189.76116 191.07812
 192.81208 194.91605 197.18801 199.55597 202.00993 204.49889 206.59586 208.44682
 210.08178 211.23574 211.47370 211.71066 211.65663 211.37059 211.01255 210.65151
 210.27747 209.99644 209.81340 209.68636 209.62332 209.96328 210.35824 210.75621
 211.55817 212.74513 214.00409 215.79605 217.73302 219.78498 221.88894 223.98090
 226.04986 228.14283 230.24879 232.36375 234.50171 236.68267 238.94763 241.32660
 243.95656 246.21652 248.22748 250.00144 251.42741 252.55937 253.39033 253.71529
 253.76125 253.54421 252.91318 251.87014 250.48510 248.65506 246.57302 244.41499
 242.21495 240.02791 237.85687 235.70483 233.57379 231.44976 229.48472 227.65068
 225.94264 224.42360 223.06257 221.84353 220.73449 219.70345 218.81641 217.96638
 217.21734 216.40630 215.51326 214.88622 214.34518 214.34070 214.31050 214.05943
 213.39478 212.69415 213.08203 214.95203 217.91878 221.95992 226.87320 231.26424
 234.79370 238.70767 242.81015 246.88591 250.76810 254.59381 258.26379 261.61032
 264.60568 267.17670 269.25854 271.05447 272.67551 274.26193 276.06567 277.58221
 278.80933 279.95920 281.18265 282.53159 283.70197 284.73743 285.68213 286.53799
 287.30774 287.99319 288.59198 289.35507
 366.78100 356.34296 345.78293 334.65689 323.06786 311.26982 299.14779 286.95875
 274.67872 262.58368 250.60065 239.90961 230.03958 221.15154 213.34151 206.35147
 200.19344 195.13940 191.72937 189.77933 188.82430 188.89626 189.73923 191.05519
 192.78816 194.89112 197.16209 199.52905 201.98202 204.46998 206.56595 208.41591
 210.04987 211.20284 211.43980 211.67577 211.62073 211.33370 210.97466 210.61263
 210.23759 209.95556 209.77152 209.64349 209.57945 209.91842 210.31238 210.70935
 211.51031 212.69628 213.95424 215.74521 217.68117 219.73214 221.83510 223.92607
 225.99403 228.08600 230.19096 232.30493 234.44189 236.62185 238.88582 241.26378
 243.89275 246.15171 248.16168 249.93464 251.35961 252.49057 253.32054 253.64450
 253.68947 253.47143 252.83940 251.79536 250.40933 248.57829 246.49526 244.33622
 242.13519 239.94715 237.77512 235.62208 233.49005 231.36501 229.39898 227.56394
 225.85491 224.33487 222.97284 221.75280 220.64276 219.61073 218.72269 217.87166
 217.12162 216.30959 215.41555 214.78752 214.24548 214.29280 214.36958 214.02048
 213.71118 213.00676 212.95688 214.54848 217.52022 221.60085 226.55595 230.95076
 234.55969 238.52307 242.66440 246.77931 250.74661 254.62686 258.35651 261.80020
 264.89468 267.56335 269.74258 271.56940 273.17120 274.52390 275.84625 277.48950
 278.79156 280.20242 281.56705 282.48541 283.59076 284.65958 285.63470 286.51810
 287.31262 288.02014 288.63821 289.42587
 366.78100 356.34108 345.77917 334.65125 323.06033 311.26041 299.13650 286.94558
 274.66366 262.56675 250.58183 239.88891 230.01699 221.12708 213.31516 206.32324
 200.16333 195.10741 191.69549 189.74357 188.78666 188.85674 189.69782 191.01190
 192.74299 194.84407 197.11315 199.47824 201.92932 204.41540 206.50948 208.35757
 209.98965 211.14073 211.37582 211.60990 211.55298 211.26406 210.90315 210.53923
 210.16231 209.87840 209.69248 209.56256 209.49664 209.83373 210.22581 210.62089
 211.41998 212.60406 213.86014 215.64922 217.58331 219.63239 221.73347 223.82255
 225.88864 227.97872 230.08180 232.19389 234.32897 236.50705 238.76913 241.14522
 243.77230 246.02938 248.03747 249.80855 251.23163 252.36071 253.18880 253.51088
 253.55396 253.33405 252.70013 251.65421 250.26629 248.43338 246.34846 244.18754
 241.98463 239.79471 237.62079 235.46587 233.33196 231.20504 229.23712 227.40020
 225.68929 224.16737 222.80345 221.58154 220.46962 219.43570 218.54578 217.69287
 216.94095 216.12703 215.23112 214.60120 214.05728 214.19627 214.49715 213.96921
 213.62154 213.25697 213.21173 214.60599 217.44527 221.46323 226.43910 230.64978
 234.34639 238.26335 242.39824 246.49347 250.46428 254.33553 258.07056 261.54544
 264.68243 267.42651 269.73071 271.67212 273.33813 274.72763 275.94452 277.37033
 278.95123 280.28815 281.75604 282.99274 283.89929 284.82098 285.76791 286.70691
 287.55167 288.30392 288.96106 289.79852
 366.78100 356.34033 345.77766 334.64899 323.05732 311.25665 299.13198 286.94031
 274.65764 262.55997 250.57430 239.88063 230.00796 221.11729 213.30462 206.31195
 200.15128 195.09461 191.68194 189.72927 188.77161 188.84094 189.68127 190.99460
 192.72493 194.82526 197.09359 199.45792 201.90825 204.39358 206.48691 208.33424
 209.96557 211.11590 211.35023 211.58356 211.52589 211.23622 210.87455 210.50988
 210.13221 209.84754 209.66087 209.53020 209.46353 209.79986 210.19119 210.58552
 211.38385 212.56718 213.82251 215.61084 217.54417 219.59250 221.69283 223.78116
 225.84649 227.93582 230.03815 232.14948 234.28382 236.46115 238.72248 241.09781
 243.72414 245.98047 247.98780 249.75813 251.18046 252.30879 253.13612 253.45745
 253.49978 253.27911 252.64444 251.59777 250.20910 248.37543 246.28976 244.12809
 241.92442 239.73375 237.55908 235.40341 233.26874 231.14107 229.17240 227.33473
 225.62306 224.10039 222.73572 221.51305 220.40038 219.36571 218.47504 217.62137
 216.86870 216.05403 215.15736 214.52669 213.98203 214.16933 214.57895 213.97693
 213.38142 213.06856 213.29234 214.82452 217.65430 221.62471 226.59163 230.80139
 234.38484 238.31073 242.41428 246.46877 250.37494 254.17596 257.84479 261.26413
 264.37534 267.13177 269.48349 271.48953 273.14240 274.46661 275.75565 277.26462
 278.80981 280.33005 281.85690 283.02515 284.02762 285.01971 285.95126 286.83087
 287.62198 288.32648 288.94189 289.72620
 366.78100 356.34158 345.78016 334.65275 323.06233 311.26291 299.13949 286.94908
 274.66766 262.57124 250.58682 239.89441 230.02299 221.13357 213.32215 206.33074
 200.17132 195.11590 191.70448 189.75307 188.79665 188.86723 189.70881 191.02339
 192.75498 194.85656 197.12614 199.49172 201.94331 204.42989 206.52447 208.37305
 210.00564 211.15722 211.39280 211.62738 211.57097 211.28255 210.92213 210.55871
 210.18230 209.89888 209.71346 209.58404 209.51863 209.85621 210.24879 210.64437
 211.44395 212.62854 213.88512 215.67470 217.60928 219.65887 221.76045 223.85003
 225.91661 228.00720 230.11078 232.22336 234.35894 236.53753 238.80011 241.17669
 243.80427 246.06186 248.07044 249.84202 251.26560 252.39518 253.22377 253.54635
 253.58993 253.37051 252.73710 251.69168 250.30426 248.47184 246.38743 244.22701
 242.02459 239.83517 237.66176 235.50734 233.37392 231.24750 229.28009 227.44367
 225.73325 224.21183 222.84841 221.62700 220.51558 219.48216 218.59274 217.74033
 216.98891 216.17549 215.28007 214.65066 214.10724 214.24814 214.54077 214.08586
 213.26434 212.70067 213.13376 214.91986 217.84393 221.80307 226.76817 231.04424
 234.54822 238.48718 242.58846 246.63185 250.50787 254.25264 257.85556 261.20474
 264.24835 266.96210 269.30542 271.31131 272.85208 274.14975 275.72095 277.29434
 278.73737 280.38580 281.91833 283.07199 284.12091 285.09732 285.99014 286.79895
 287.52640 288.17419 288.74011 289.46127
 366.78100 356.34389 345.78479 334.65968 323.07158 311.27447 299.15337 286.96526
 274.68616 262.59205 250.60995 239.91984 230.05074 221.16363 213.35453 206.36542
 200.20832 195.15521 191.74610 189.79700 188.84289 188.91579 189.75968 191.07658
 192.81047 194.91437 197.18626 199.55416 202.00805 204.49695 206.59384 208.44474
 210.07963 211.23353 211.47142 211.70831 211.65421 211.36810 211.01000 210.64889
 210.27479 209.99368 209.81058 209.68347 209.62037 209.96026 210.35516 210.75305
 211.55495 212.74184 214.00074 215.79263 217.72952 219.78142 221.88531 223.97721
 226.04610 228.13900 230.24489 232.35979 234.49768 236.67858 238.94347 241.32237
 243.95226 246.21216 248.22305 249.99695 251.42284 252.55473 253.38563 253.71052
 253.75642 253.53931 252.90821 251.86510 250.48000 248.64989 246.56779 244.40968
 242.20958 240.02247 237.85137 235.69926 233.56816 231.44405 229.47894 227.64484
 225.93673 224.41763 223.05652 221.83742 220.72831 219.69721 218.81010 217.96000
 217.21089 216.39979 215.50668 214.87958 214.33847 214.36858 214.43573 214.32071
 213.34392 212.43404 212.89938 214.81995 217.82736 221.81526 226.83035 231.12592
 234.63301 238.58995 242.71817 246.78299 250.65503 254.37328 257.94052 261.25366
 264.24176 266.90445 269.24503 271.24152 272.68665 273.98553 275.68491 277.24054
 278.62967 280.35876 281.99866 283.15274 284.15854 285.11099 285.98087 286.76895
 287.47772 288.10889 288.66028 289.36295
 366.78100 356.34589 345.78877 334.66566 323.07954 311.28443 299.16532 286.97920
 274.70209 262.60998 250.62986 239.94175 230.07463 221.18952 213.38241 206.39529
 200.24018 195.18906 191.78195 189.83484 188.88272 188.95761 189.80349 191.12238
 192.85827 194.96415 197.23804 199.60793 202.06381 204.55470 206.65358 208.50647
 210.14336 211.29924 211.53913 211.77801 211.72590 211.44179 211.08567 210.72656
 210.35445 210.07533 209.89422 209.76910 209.70799 210.04988 210.44676 210.84665
 211.65053 212.83942 214.10031 215.89419 217.83308 219.88696 221.99285 224.08674
 226.15762 228.25251 230.36040 232.47728 234.61717 236.80005 239.06694 241.44783
 244.07971 246.34160 248.35448 250.13037 251.55826 252.69214 253.52503 253.85192
 253.89980 253.68469 253.05557 252.01446 250.63135 248.80323 246.72312 244.56700
 242.36889 240.18378 238.01466 235.86455 233.73543 231.61332 229.65021 227.81809
 226.11198 224.59487 223.23575 222.01864 220.91152 219.88241 218.99730 218.14918
 217.40207 216.59295 215.70184 215.07673 214.53761 214.47368 214.34915 214.48021
 213.70128 212.35063 212.58542 214.52966 217.62486 221.68562 226.74452 231.06104
 234.59877 238.58813 242.75946 246.86552 250.76112 254.48378 258.04562 261.35422
 264.30795 266.94098 269.28900 271.31393 272.73248 273.90359 275.59750 277.15961
 278.63678 280.38406 282.01718 283.35388 284.30676 285.21686 286.04718 286.79941
 287.47595 288.07840 288.60471 289.27542
 366.78100 356.34524 345.78747 334.66371 323.07694 311.28118 299.16141 286.97465
 274.69688 262.60412 250.62335 239.93459 230.06683 221.18106 213.37330 206.38553
 200.22977 195.17800 191.77024 189.82247 188.86971 188.94395 189.78918 191.10742
 192.84265 194.94789 197.22112 199.59036 202.04559 204.53583 206.63406 208.48630
 210.12254 211.27777 211.51701 211.75524 211.70248 211.41771 211.06095 210.70118
 210.32842 210.04866 209.86689 209.74113 209.67936 210.02060 210.41683 210.81607
 211.61930 212.80754 214.06777 215.86101 217.79925 219.85248 221.95772 224.05095
 226.12119 228.21542 230.32266 232.43889 234.57813 236.76037 239.02660 241.40684
 244.03807 246.29931 248.31154 250.08678 251.51401 252.64725 253.47948 253.80572
 253.85296 253.63719 253.00743 251.96566 250.58190 248.75313 246.67237 244.51560
 242.31684 240.13108 237.96131 235.81055 233.68078 231.55802 229.59425 227.76149
 226.05472 224.53696 223.17719 221.95943 220.85167 219.82190 218.93614 218.08737
 217.33961 216.52984 215.63808 215.01231 214.47255 214.46477 214.43552 214.33243
 214.09860 212.65436 212.43074 214.26218 217.39246 221.50198 226.55331 230.88023
 234.45274 238.48625 242.71205 246.87332 250.81908 254.58878 258.18985 261.52692
 264.49228 267.12430 269.48517 271.52173 272.92648 273.98627 275.49884 277.11551
 278.76178 280.53857 282.14410 283.53268 284.70276 285.76419 286.73260 287.60989
 288.39893 289.10159 289.71539 290.49762
 366.78100 356.34288 345.78276 334.65664 323.06751 311.26939 299.14727 286.95815
 274.67803 262.58291 250.59979 239.90866 230.03854 221.15042 213.34030 206.35018
 200.19206 195.13794 191.72782 189.77769 188.82257 188.89445 189.73733 191.05321
 192.78609 194.88897 197.15984 199.52672 201.97960 204.46748 206.56336 208.41324
 210.04712 211.19999 211.43687 211.67275 211.61763 211.33051 210.97139 210.60927
 210.23414 209.95202 209.76790 209.63978 209.57566 209.91454 210.30842 210.70530
 211.50617 212.69205 213.94993 215.74081 217.67669 219.72757 221.83045 223.92132
 225.98920 228.08108 230.18596 232.29984 234.43672 236.61660 238.88047 241.25835
 243.88723 246.14611 248.15599 249.92887 251.35375 252.48462 253.31450 253.63838
 253.68326 253.46514 252.83302 251.78890 250.40278 248.57165 246.48853 244.32941
 242.12829 239.94017 237.76805 235.61493 233.48280 231.35768 229.39156 227.55644
 225.84732 224.32720 222.96508 221.74495 220.63483 219.60271 218.71459 217.86347
 217.11335 216.30123 215.40710 214.77898 214.23686 214.36894 214.61098 214.15262
 214.09758 213.09515 212.60341 214.18297 217.23849 221.34241 226.33893 230.65962
 234.24944 238.31424 242.57541 246.76976 250.75302 254.57327 258.23318 261.63174
 264.65131 267.31635 269.70633 271.79996 273.22269 274.18869 275.52231 277.17538
 278.95389 280.73682 282.34109 283.77335 285.07104 286.24771 287.32123 288.29379
 289.16849 289.94739 290.62784 291.49500
 366.78100 356.34245 345.78190 334.65535 323.06580 311.26725 299.14470 286.95515
 274.67460 262.57904 250.59549 239.90394 230.03339 221.14484 213.33429 206.34374
 200.18519 195.13064 191.72009 189.76954 188.81399 188.88544 189.72789 191.04334
 192.77579 194.87823 197.14868 199.51513 201.96758 204.45503 206.55048 208.39993
 210.03338 211.18583 211.42228 211.65773 211.60218 211.31463 210.95508 210.59253
 210.21698 209.93443 209.74987 209.62132 209.55677 209.89522 210.28867 210.68512
 211.48557 212.67102 213.92847 215.71892 217.65437 219.70482 221.80727 223.89772
 225.96517 228.05662 230.16106 232.27451 234.41096 236.59041 238.85386 241.23131
 243.85976 246.11821 248.12766 249.90011 251.32456 252.45501 253.28446 253.60791
 253.65236 253.43381 252.80126 251.75670 250.37015 248.53860 246.45505 244.29550
 242.09395 239.90540 237.73285 235.57930 233.44675 231.32120 229.35465 227.51910
 225.80955 224.28900 222.92645 221.70589 220.59534 219.56279 218.67424 217.82269
 217.07214 216.25959 215.36504 214.73649 214.19394 214.35448 214.66924 214.18442
 213.93240 213.20631 212.70729 214.26628 217.30515 221.35378 226.29820 230.57082
 234.13429 238.17966 242.42183 246.59274 250.56799 254.39575 258.07367 261.51004
 264.57394 267.28186 269.70670 271.81006 273.25519 274.28952 275.63547 277.33487
 279.14276 280.92203 282.51962 283.94449 285.20337 286.37335 287.44080 288.40781
 289.27753 290.05203 290.72861 291.59085
 366.78100 356.34378 345.78457 334.65935 323.07113 311.27391 299.15270 286.96448
 274.68526 262.59104 250.60883 239.91861 230.04939 221.16218 213.35296 206.36374
 200.20652 195.15331 191.74409 189.79487 188.84065 188.91344 189.75722 191.07400
 192.80778 194.91157 197.18335 199.55113 202.00492 204.49370 206.59048 208.44126
 210.07605 211.22983 211.46761 211.70439 211.65018 211.36396 211.00574 210.64453
 210.27031 209.98909 209.80587 209.67866 209.61544 209.95522 210.35000 210.74779
 211.54957 212.73635 213.99514 215.78692 217.72370 219.77548 221.87927 223.97105
 226.03983 228.13261 230.23840 232.35318 234.49096 236.67175 238.93653 241.31531
 243.94509 246.20488 248.21566 249.98944 251.41522 252.54701 253.37779 253.70257
 253.74835 253.53114 252.89992 251.85670 250.47149 248.64127 246.55905 244.40083
 242.20062 240.01340 237.84218 235.68996 233.55875 231.43453 229.46931 227.63510
 225.92688 224.40766 223.04644 221.82723 220.71801 219.68679 218.79957 217.94936
 217.20014 216.38892 215.49571 214.86849 214.32727 214.42445 214.62245 214.36130
 213.80220 213.05751 212.76033 214.34280 217.39696 221.45299 226.41263 230.64435
 234.16301 238.17903 242.39781 246.53532 250.45529 254.22536 257.87207 261.30762
 264.39163 267.13760 269.60880 271.72592 273.10883 274.10611 275.58249 277.38077
 279.29993 281.09360 282.69165 284.12216 285.38336 286.53592 287.58746 288.54010
 289.39688 290.15985 290.82639 291.67578
 366.78100 356.34615 345.78930 334.66646 323.08061 311.28576 299.16691 286.98107
 274.70422 262.61237 250.63252 239.94468 230.07783 221.19298 213.38613 206.39929
 200.24444 195.19359 191.78674 189.83990 188.88805 188.96320 189.80935 191.12851
 192.86466 194.97081 197.24496 199.61511 202.07127 204.56242 206.66157 208.51472
 210.15188 211.30803 211.54818 211.78733 211.73549 211.45164 211.09579 210.73694
 210.36510 210.08625 209.90540 209.78055 209.71971 210.06186 210.45901 210.85916
 211.66331 212.85247 214.11362 215.90777 217.84692 219.90108 222.00723 224.10138
 226.17253 228.26769 230.37584 232.49299 234.63314 236.81630 239.08345 241.46460
 244.09675 246.35891 248.37206 250.14821 251.57636 252.71052 253.54367 253.87082
 253.91897 253.70412 253.07528 252.03443 250.65158 248.82373 246.74389 244.58804
 242.39019 240.20534 238.03650 235.88665 233.75780 231.63595 229.67311 227.84126
 226.13541 224.61856 223.25972 222.04287 220.93602 219.90717 219.02233 218.17448
 217.42763 216.61878 215.72793 215.10309 214.56424 214.55794 214.54549 214.48123
 213.89256 212.88135 212.75471 214.34413 217.35556 221.46271 226.49080 230.70566
 234.22963 238.25900 242.49561 246.64670 250.54726 254.25761 257.83322 261.21710
 264.29419 267.06354 269.58853 271.76379 273.11652 274.22202 275.66364 277.46841
 279.44009 281.25003 282.87378 284.41360 285.79364 287.01462 288.12857 289.13776
 290.04538 290.85364 291.55972 292.45953
 366.78100 356.34795 345.79289 334.67184 323.08778 311.29473 299.17767 286.99362
 274.71856 262.62851 250.65046 239.96440 230.09935 221.21629 213.41124 206.42618
 200.27313 195.22408 191.81902 189.87397 188.92391 189.00086 189.84880 191.16975
 192.90769 195.01564 197.29159 199.66353 202.12148 204.61442 206.71537 208.57031
 210.20926 211.36721 211.60915 211.85010 211.80004 211.51799 211.16393 210.80688
 210.43682 210.15977 209.98072 209.85766 209.79861 210.14255 210.54150 210.94344
 211.74939 212.94033 214.20328 215.99923 217.94017 219.99612 222.10406 224.20001
 226.27295 228.36990 230.47985 232.59879 234.74074 236.92568 239.19463 241.57757
 244.21152 246.47546 248.49041 250.26836 251.69830 252.83425 253.66919 253.99814
 254.04808 253.83503 253.20797 252.16892 250.78787 248.96181 246.88376 244.72970
 242.53365 240.35059 238.18354 236.03549 233.90843 231.78838 229.82732 227.99727
 226.29321 224.77816 223.42110 222.20605 221.10100 220.07394 219.19089 218.34483
 217.59978 216.79272 215.90367 215.28062 214.74356 214.67311 214.51089 214.46054
 214.07625 212.87881 212.70705 214.20766 217.17302 221.33240 226.44861 230.67714
 234.22942 238.29689 242.57025 246.76114 250.71234 254.43367 257.98160 261.33057
 264.40073 267.17981 269.70721 271.83777 273.32031 274.48956 275.88370 277.63907
 279.65692 281.50259 283.28110 284.92755 286.35242 287.61307 288.76321 289.80515
 290.74228 291.57678 292.30579 293.23483
 366.78100 356.34778 345.79257 334.67135 323.08714 311.29392 299.17670 286.99249
 274.71727 262.62706 250.64884 239.96262 230.09741 221.21419 213.40898 206.42376
 200.27054 195.22133 191.81611 189.87090 188.92068 188.99746 189.84525 191.16603
 192.90382 195.01160 197.28738 199.65917 202.11695 204.60974 206.71052 208.56530
 210.20409 211.36187 211.60366 211.84444 211.79422 211.51201 211.15779 210.80058
 210.43036 210.15314 209.97393 209.85071 209.79150 210.13528 210.53406 210.93585
 211.74163 212.93242 214.19520 215.99098 217.93177 219.98755 222.09534 224.19112
 226.26390 228.36069 230.47047 232.58926 234.73104 236.91583 239.18461 241.56739
 244.20118 246.46496 248.47975 250.25753 251.68731 252.82310 253.65788 253.98667
 254.03645 253.82323 253.19602 252.15680 250.77559 248.94937 246.87115 244.71694
 242.52072 240.33751 238.17029 236.02207 233.89486 231.77464 229.81343 227.98321
 226.27899 224.76378 223.40656 222.19135 221.08613 220.05891 219.17570 218.32948
 217.58427 216.77705 215.88783 215.26462 214.72740 214.68298 214.54831 214.38992
 214.26913 213.09521 212.72011 214.06923 216.98268 221.16330 226.18692 230.47197
 234.06107 238.18919 242.51741 246.76262 250.76468 254.51573 258.06567 261.41498
 264.49789 267.29425 269.85059 272.06989 273.64026 274.78656 276.10828 277.85425
 279.86731 281.69836 283.39551 284.98593 286.36234 287.58005 288.69107 289.69757
 290.60278 291.40891 292.11310 293.01053
 366.78100 356.34782 345.79264 334.67145 323.08727 311.29409 299.17691 286.99273
 274.71755 262.62736 250.64918 239.96300 230.09782 221.21464 213.40945 206.42427
 200.27109 195.22191 191.81673 189.87155 188.92136 188.99818 189.84600 191.16682
 192.90464 195.01245 197.28827 199.66009 202.11791 204.61073 206.71155 208.56636
 210.20518 211.36300 211.60482 211.84564 211.79546 211.51327 211.15909 210.80191
 210.43173 210.15455 209.97536 209.85218 209.79300 210.13682 210.53564 210.93746
 211.74327 212.93409 214.19691 215.99273 217.93355 219.98936 222.09718 224.19300
 226.26582 228.36264 230.47246 232.59127 234.73309 236.91791 239.18673 241.56955
 244.20336 246.46718 248.48200 250.25982 251.68964 252.82546 253.66027 253.98909
 254.03891 253.82573 253.19855 252.15936 250.77818 248.95200 246.87382 244.71964
 242.52346 240.34027 238.17309 236.02491 233.89773 231.77755 229.81636 227.98618
 226.28200 224.76682 223.40964 222.19446 221.08927 220.06209 219.17891 218.33273
 217.58755 216.78037 215.89118 215.26800 214.73082 214.68834 214.56392 214.33870
 214.33519 213.41090 212.83885 214.04155 216.90683 221.01761 225.93701 230.22409
 233.83566 237.98291 242.32170 246.58237 250.60786 254.38106 257.94415 261.30984
 264.41599 267.24481 269.81958 272.05759 273.72339 274.96048 276.34225 278.08093
 280.01517 281.80051 283.36694 284.79193 286.13486 287.32297 288.40698 289.38901
 290.27222 291.05875 291.74582 292.62143
 366.78100 356.34727 345.79154 334.66980 323.08507 311.29134 299.17361 286.98887
 274.71314 262.62241 250.64368 239.95694 230.09121 221.20748 213.40175 206.41601
 200.26228 195.21255 191.80682 189.86108 188.91035 188.98662 189.83389 191.15415
 192.89142 194.99869 197.27396 199.64522 202.10249 204.59476 206.69503 208.54929
 210.18756 211.34483 211.58610 211.82636 211.77563 211.49290 211.13817 210.78043
 210.40970 210.13197 209.95224 209.82850 209.76877 210.11204 210.51031 210.91157
 211.71684 212.90711 214.16938 215.96464 217.90491 219.96018 222.06745 224.16271
 226.23498 228.33125 230.44052 232.55878 234.70005 236.88432 239.15259 241.53485
 244.16812 246.43139 248.44566 250.22292 251.65219 252.78746 253.62173 253.94999
 253.99926 253.78553 253.15780 252.11806 250.73633 248.90960 246.83087 244.67613
 242.47940 240.29567 238.12794 235.97920 233.85147 231.73074 229.76901 227.93827
 226.23354 224.71781 223.36008 222.14434 221.03861 220.01088 219.12715 218.28041
 217.53468 216.72695 215.83722 215.21348 214.67575 214.66226 214.61263 214.31966
 214.15625 213.47762 212.92839 214.05716 216.95421 221.02713 225.95450 230.13081
 233.73779 237.84605 242.16441 246.40681 250.42493 254.20349 257.77402 261.14139
 264.25864 267.09570 269.64194 271.82730 273.51559 274.91293 276.43686 278.22769
 280.14203 281.90378 283.44760 284.82706 286.04526 287.07910 288.02124 288.87473
 289.64236 290.32596 290.92310 291.68411
 366.78100 356.34666 345.79033 334.66799 323.08266 311.28832 299.16999 286.98465
 274.70832 262.61698 250.63765 239.95031 230.08398 221.19964 213.39330 206.40697
 200.25263 195.20230 191.79596 189.84963 188.89829 188.97396 189.82062 191.14029
 192.87695 194.98362 197.25828 199.62895 202.08561 204.57727 206.67694 208.53060
 210.16827 211.32493 211.56560 211.80526 211.75393 211.47059 211.11526 210.75692
 210.38559 210.10725 209.92691 209.80258 209.74224 210.08491 210.48257 210.88324
 211.68790 212.87757 214.13923 215.93390 217.87356 219.92823 222.03489 224.12955
 226.20122 228.29688 230.40555 232.52321 234.66388 236.84754 239.11521 241.49687
 244.12954 246.39220 248.40587 250.18253 251.61120 252.74586 253.57952 253.90719
 253.95585 253.74152 253.11318 252.07285 250.69051 248.86318 246.78384 244.62851
 242.43117 240.24684 238.07850 235.92916 233.80083 231.67949 229.71716 227.88582
 226.18049 224.66415 223.30582 222.08948 220.98315 219.95481 219.07048 218.22314
 217.47680 216.66847 215.77813 215.15380 214.61546 214.63141 214.66107 214.44040
 214.03391 213.30255 212.85445 213.98824 217.00005 221.12741 226.12529 230.18414
 233.76326 237.83124 242.13953 246.37083 250.38020 254.14613 257.70184 261.05545
 264.16394 266.98865 269.50665 271.65305 273.33658 274.77692 276.41440 278.28754
 280.17212 281.89526 283.40738 284.76706 285.94809 286.85736 287.72208 288.56421
 289.32162 289.99612 290.58533 291.33621
 366.78100 356.34765 345.79230 334.67096 323.08661 311.29326 299.17591 286.99156
 274.71622 262.62587 250.64752 239.96117 230.09582 221.21248 213.40713 206.42178
 200.26843 195.21908 191.81374 189.86839 188.91804 188.99469 189.84234 191.16300
 192.90065 195.00830 197.28395 199.65560 202.11326 204.60591 206.70656 208.56121
 210.19986 211.35752 211.59917 211.83982 211.78947 211.50713 211.15278 210.79543
 210.42508 210.14773 209.96839 209.84504 209.78569 210.12934 210.52799 210.92965
 211.73530 212.92595 214.18860 215.98425 217.92491 219.98056 222.08821 224.18386
 226.25651 228.35317 230.46282 232.58147 234.72312 236.90777 239.17643 241.55908
 244.19273 246.45638 248.47103 250.24869 251.67834 252.81399 253.64864 253.97729
 254.02695 253.81360 253.18625 252.14690 250.76555 248.93921 246.86086 244.70651
 242.51016 240.32681 238.15947 236.01112 233.88377 231.76342 229.80207 227.97173
 226.26738 224.75203 223.39468 222.17933 221.07399 220.04664 219.16329 218.31694
 217.57159 216.76425 215.87490 215.25155 214.71420 214.68639 214.62062 214.55635
 214.14813 213.17758 212.72681 213.85205 216.93436 221.15111 226.20380 230.24059
 233.78641 237.84428 242.15544 246.39140 250.40335 254.16164 257.70175 261.04929
 264.16061 266.97885 269.47720 271.59479 273.26102 274.74411 276.42441 278.34088
 280.20688 281.86917 283.30643 284.67563 285.86539 286.51068 287.18515 288.04431
 288.82565 289.52142 290.12924 290.90381
 366.78100 356.34777 345.79253 334.67130 323.08706 311.29383 299.17659 286.99236
 274.71712 262.62689 250.64865 239.96242 230.09718 221.21395 213.40871 206.42348
 200.27024 195.22101 191.81577 189.87054 188.92030 188.99707 189.84483 191.16560
 192.90336 195.01113 197.28689 199.65866 202.11642 204.60919 206.70995 208.56472
 210.20348 211.36125 211.60301 211.84378 211.79354 211.51131 211.15707 210.79984
 210.42960 210.15237 209.97313 209.84990 209.79066 210.13443 210.53319 210.93496
 211.74072 212.93149 214.19425 215.99002 217.93079 219.98655 222.09432 224.19008
 226.26285 228.35961 230.46938 232.58814 234.72991 236.91467 239.18344 241.56620
 244.19997 246.46373 248.47850 250.25626 251.68603 252.82179 253.65656 253.98532
 254.03509 253.82185 253.19462 252.15538 250.77415 248.94791 246.86968 244.71544
 242.51921 240.33597 238.16874 236.02050 233.89327 231.77303 229.81180 227.98156
 226.27733 224.76209 223.40486 222.18962 221.08439 220.05715 219.17392 218.32768
 217.58245 216.77521 215.88598 215.26274 214.72551 214.70465 214.65277 214.51390
 214.28828 213.23163 212.71190 213.76094 216.80939 221.07861 226.16238 230.19907
 233.74605 237.81621 242.14250 246.39258 250.41685 254.17610 257.70966 261.06073
 264.18628 267.01562 269.51517 271.63232 273.29129 274.77808 276.48587 278.39706
 280.22748 281.82251 283.16785 284.51761 285.69940 286.24335 287.16223 288.06946
 288.90308 289.64542 290.29391 291.12033
 366.78100 356.34653 345.79005 334.66758 323.08211 311.28764 299.16916 286.98369
 274.70722 262.61575 250.63627 239.94880 230.08233 221.19786 213.39138 206.40491
 200.25044 195.19997 191.79349 189.84702 188.89555 188.97108 189.81760 191.13713
 192.87366 194.98019 197.25471 199.62524 202.08177 204.57330 206.67282 208.52635
 210.16388 211.32041 211.56093 211.80046 211.74899 211.46552 211.11004 210.75157
 210.38010 210.10163 209.92115 209.79668 209.73621 210.07874 210.47626 210.87679
 211.68132 212.87085 214.13237 215.92690 217.86643 219.92096 222.02748 224.12201
 226.19354 228.28906 230.39759 232.51512 234.65565 236.83917 239.10670 241.48823
 244.12076 246.38328 248.39681 250.17334 251.60187 252.73639 253.56992 253.89745
 253.94598 253.73150 253.10303 252.06256 250.68009 248.85261 246.77314 244.61767
 242.42020 240.23572 238.06725 235.91778 233.78931 231.66783 229.70536 227.87389
 226.16842 224.65194 223.29347 222.07700 220.97053 219.94205 219.05758 218.21011
 217.46364 216.65516 215.76469 215.14022 214.60175 214.65463 214.77003 214.44676
 214.32721 213.37727 212.80026 213.73680 216.69685 220.96945 226.06393 230.08871
 233.65714 237.74966 242.09529 246.36127 250.39716 254.15729 257.68622 261.04248
 264.18643 267.03366 269.54730 271.68079 273.35123 274.85062 276.57211 278.44650
 280.22763 281.76791 283.05502 284.35837 285.53268 286.21509 287.07861 287.97955
 288.81332 289.55579 290.20441 291.03098
 366.78100 356.34668 345.79037 334.66805 323.08273 311.28841 299.17010 286.98478
 274.70846 262.61715 250.63783 239.95051 230.08420 221.19988 213.39356 206.40724
 200.25293 195.20261 191.79629 189.84998 188.89866 188.97434 189.82102 191.14071
 192.87739 194.98407 197.25876 199.62944 202.08612 204.57781 206.67749 208.53117
 210.16885 211.32554 211.56622 211.80590 211.75459 211.47127 211.11595 210.75763
 210.38632 210.10800 209.92768 209.80337 209.74305 210.08573 210.48342 210.88410
 211.68878 212.87846 214.14015 215.93483 217.87451 219.92920 222.03588 224.13056
 226.20224 228.29793 230.40661 232.52429 234.66498 236.84866 239.11634 241.49803
 244.13071 246.39339 248.40707 250.18376 251.61244 252.74712 253.58081 253.90849
 253.95717 253.74285 253.11454 252.07422 250.69190 248.86459 246.78527 244.62995
 242.43264 240.24832 238.08000 235.93068 233.80237 231.68105 229.71873 227.88742
 226.18210 224.66578 223.30746 222.09115 220.98483 219.95651 219.07220 218.22488
 217.47856 216.67025 215.77993 215.15561 214.61729 214.67194 214.79260 214.49174
 214.29744 213.43152 212.82796 213.72054 216.65596 220.91895 226.01230 230.02579
 233.60248 237.70711 242.06578 246.34225 250.38557 254.13841 257.65314 261.00500
 264.15533 267.00995 269.53235 271.67648 273.36475 274.90472 276.64850 278.48575
 280.19720 281.67343 282.91943 284.14474 285.27667 286.05054 286.92072 287.82001
 288.65991 289.40784 290.06122 290.89389
 366.78100 356.34710 345.79120 334.66929 323.08439 311.29049 299.17259 286.98768
 274.71178 262.62088 250.64198 239.95507 230.08917 221.20527 213.39937 206.41346
 200.25956 195.20966 191.80376 189.85785 188.90695 188.98305 189.83015 191.15024
 192.88734 194.99444 197.26954 199.64063 202.09773 204.58983 206.68993 208.54402
 210.18212 211.33922 211.58032 211.82041 211.76951 211.48661 211.13171 210.77380
 210.40290 210.12500 209.94510 209.82119 209.76129 210.10439 210.50249 210.90358
 211.70868 212.89878 214.16088 215.95597 217.89607 219.95117 222.05827 224.15336
 226.22546 228.32156 230.43066 232.54875 234.68985 236.87395 239.14205 241.52414
 244.15724 246.42034 248.43444 250.21153 251.64063 252.77573 253.60983 253.93792
 253.98702 253.77312 253.14522 252.10531 250.72341 248.89651 246.81761 244.66270
 242.46580 240.28190 238.11400 235.96509 233.83719 231.71629 229.75439 227.92348
 226.21858 224.70268 223.34478 222.12887 221.02297 219.99507 219.11117 218.26426
 217.51836 216.71046 215.82056 215.19665 214.65875 214.69946 214.79027 214.59045
 214.27771 213.32030 212.70853 213.69618 216.69705 220.95055 226.05380 230.07671
 233.61368 237.72015 242.08104 246.36192 250.40656 254.14038 257.62674 260.96201
 264.10977 266.96823 269.50226 271.66687 273.38660 274.96307 276.68817 278.44275
 280.04294 281.42490 282.62512 283.85544 284.99246 285.80719 286.67993 287.57568
 288.41370 289.15994 289.81186 290.64264
 366.78100 356.34670 345.79041 334.66811 323.08281 311.28851 299.17022 286.98492
 274.70862 262.61733 250.63803 239.95073 230.08444 221.20014 213.39384 206.40754
 200.25325 195.20295 191.79665 189.85036 188.89906 188.97476 189.82146 191.14117
 192.87787 194.98457 197.25928 199.62998 202.08668 204.57839 206.67809 208.53179
 210.16949 211.32620 211.56690 211.80660 211.75531 211.47201 211.11671 210.75841
 210.38712 210.10882 209.92852 209.80423 209.74393 210.08663 210.48433 210.88504
 211.68974 212.87944 214.14115 215.93585 217.87555 219.93026 222.03696 224.13166
 226.20336 228.29907 230.40777 232.52547 234.66618 236.84988 239.11758 241.49928
 244.13199 246.39469 248.40839 250.18510 251.61380 252.74850 253.58221 253.90991
 253.95861 253.74431 253.11602 252.07572 250.69342 248.86613 246.78683 244.63153
 242.43423 240.24994 238.08164 235.93234 233.80405 231.68275 229.72045 227.88916
 226.18386 224.66756 223.30926 222.09297 220.98667 219.95837 219.07408 218.22678
 217.48048 216.67218 215.78189 215.15759 214.61929 214.68697 214.83958 214.64830
 214.31505 213.22090 212.56990 213.62010 216.70155 220.96428 226.06987 230.12033
 233.62407 237.72934 242.08841 246.37511 250.42183 254.14178 257.60788 260.93057
 264.07568 266.94168 269.50070 271.70642 273.47092 275.08154 276.77451 278.43765
 279.91589 281.20709 282.36163 283.54279 284.62485 285.43027 286.36481 287.26471
 288.09604 288.83633 289.48303 290.30719
 366.78100 356.34711 345.79122 334.66933 323.08443 311.29054 299.17265 286.98776
 274.71187 262.62098 250.64208 239.95519 230.08930 221.20541 213.39952 206.41363
 200.25973 195.20984 191.80395 189.85806 188.90717 188.98328 189.83038 191.15049
 192.88760 194.99471 197.26982 199.64093 202.09803 204.59014 206.69025 208.54436
 210.18247 211.33958 211.58068 211.82079 211.76990 211.48701 211.13212 210.77423
 210.40333 210.12544 209.94555 209.82166 209.76177 210.10488 210.50298 210.90409
 211.70920 212.89931 214.16142 215.95653 217.89663 219.95174 222.05885 224.15396
 226.22607 228.32218 230.43128 232.54939 234.69050 236.87461 239.14272 241.52483
 244.15793 246.42104 248.43515 250.21226 251.64137 252.77648 253.61059 253.93869
 253.98780 253.77391 253.14602 252.10613 250.72424 248.89734 246.81845 244.66356
 242.46667 240.28278 238.11489 235.96599 233.83810 231.71721 229.75532 227.92443
 226.21954 224.70364 223.34575 222.12986 221.02397 219.99608 219.11219 218.26529
 217.51940 216.71151 215.82162 215.19773 214.65984 214.71907 214.84929 214.66891
 214.42384 213.21019 212.49216 213.54956 216.61465 220.89009 225.99478 230.08658
 233.57718 237.69951 242.06155 246.35698 250.40778 254.11772 257.56979 260.89069
 264.04251 266.92612 269.52728 271.80518 273.64984 275.29236 276.93417 278.50003
 279.87936 281.07098 282.12018 283.13254 284.26535 285.26147 286.21100 287.12732
 287.95145 288.68536 289.32648 290.14349
 366.78100 356.34790 345.79281 334.67171 323.08762 311.29452 299.17743 286.99333
 274.71824 262.62814 250.65005 239.96395 230.09885 221.21576 213.41066 206.42557
 200.27247 195.22338 191.81828 189.87319 188.92309 189.00000 189.84790 191.16880
 192.90671 195.01461 197.29052 199.66242 202.12033 204.61323 206.71414 208.56904
 210.20795 211.36585 211.60776 211.84866 211.79856 211.51647 211.16237 210.80528
 210.43518 210.15809 209.97899 209.85590 209.79680 210.14071 210.53961 210.94151
 211.74742 212.93832 214.20123 215.99713 217.93804 219.99394 222.10185 224.19775
 226.27066 228.36756 230.47746 232.59637 234.73827 236.92318 239.19208 241.57499
 244.20889 246.47280 248.48770 250.26561 251.69551 252.83141 253.66632 253.99522
 254.04513 253.83203 253.20494 252.16584 250.78475 248.95865 246.88056 244.72646
 242.53036 240.34727 238.18017 236.03208 233.90498 231.78489 229.82379 227.99370
 226.28960 224.77451 223.41741 222.20232 221.09722 220.07012 219.18703 218.34093
 217.59584 216.78874 215.89965 215.27655 214.73946 214.78058 214.85840 214.65721
 214.39276 213.39735 212.69153 213.60315 216.57156 220.81894 225.88651 230.01508
 233.52103 237.65785 242.02444 246.33910 250.39468 254.08746 257.52621 260.83582
 263.98456 266.86325 269.48495 271.79980 273.75433 275.50000 277.13898 278.65363
 279.93875 281.00510 281.85104 282.83466 284.03268 285.21722 286.31061 287.30115
 288.19202 288.98532 289.67838 290.56155
 366.78100 356.34780 345.79261 334.67141 323.08721 311.29402 299.17682 286.99262
 274.71742 262.62723 250.64903 239.96283 230.09764 221.21444 213.40924 206.42405
 200.27085 195.22165 191.81646 189.87126 188.92106 188.99786 189.84567 191.16647
 192.90427 195.01208 197.28788 199.65968 202.11749 204.61029 206.71109 208.56590
 210.20470 211.36250 211.60431 211.84511 211.79491 211.51271 211.15852 210.80132
 210.43112 210.15393 209.97473 209.85153 209.79234 210.13614 210.53494 210.93675
 211.74255 212.93335 214.19615 215.99196 217.93276 219.98856 222.09637 224.19217
 226.26497 228.36178 230.47158 232.59038 234.73219 236.91699 239.18579 241.56859
 244.20240 246.46620 248.48100 250.25881 251.68861 252.82441 253.65922 253.98802
 254.03782 253.82463 253.19743 252.15823 250.77703 248.95084 246.87264 244.71844
 242.52225 240.33905 238.17185 236.02366 233.89646 231.77626 229.81507 227.98487
 226.28067 224.76548 223.40828 222.19308 221.08788 220.06069 219.17749 218.33129
 217.58610 216.77890 215.88970 215.26651 214.72931 214.79152 214.90556 214.63159
 214.25226 213.48300 212.85991 213.67558 216.59846 220.82715 225.89755 230.00237
 233.51274 237.65192 242.02719 246.36052 250.42969 254.10690 257.51602 260.80045
 263.92514 266.79626 269.43069 271.78778 273.81241 275.61060 277.26706 278.72018
 279.78088 280.45477 281.29855 282.67474 284.05273 285.32159 286.47925 287.52798
 288.47122 289.31119 290.04495 290.98007
 366.78100 356.34761 345.79221 334.67082 323.08643 311.29303 299.17564 286.99125
 274.71585 262.62546 250.64707 239.96068 230.09528 221.21189 213.40650 206.42110
 200.26771 195.21832 191.81292 189.86753 188.91714 188.99374 189.84135 191.16196
 192.89956 195.00717 197.28278 199.65439 202.11199 204.60460 206.70521 208.55981
 210.19842 211.35603 211.59763 211.83824 211.78785 211.50545 211.15106 210.79367
 210.42327 210.14588 209.96649 209.84310 209.78370 210.12731 210.52592 210.92752
 211.73313 212.92374 214.18634 215.98195 217.92256 219.97816 222.08577 224.18138
 226.25398 228.35059 230.46020 232.57880 234.72041 236.90502 239.17363 241.55623
 244.18984 246.45345 248.46805 250.24566 251.67527 252.81087 253.64548 253.97409
 254.02369 253.81030 253.18291 252.14351 250.76212 248.93573 246.85734 244.70294
 242.50655 240.32316 238.15576 236.00737 233.87998 231.75958 229.79819 227.96780
 226.26340 224.74801 223.39062 222.17522 221.06983 220.04244 219.15905 218.31265
 217.56726 216.75987 215.87047 215.24708 214.70969 214.78798 214.93864 214.65161
 214.22556 213.36864 212.76761 213.63820 216.61714 220.85614 225.91656 230.03093
 233.52661 237.65469 242.03345 246.37706 250.45499 254.13033 257.51523 260.76117
 263.86197 266.72217 269.36835 271.76758 273.83804 275.63913 277.22388 278.50882
 279.25705 279.67627 280.44623 281.81335 283.11847 284.32913 285.43365 286.43430
 287.33423 288.13565 288.83575 289.72794
 366.78100 356.34753 345.79207 334.67060 323.08613 311.29266 299.17520 286.99073
 274.71526 262.62479 250.64633 239.95986 230.09439 221.21092 213.40546 206.41999
 200.26652 195.21705 191.81159 189.86612 188.91565 188.99218 189.83972 191.16025
 192.89778 195.00531 197.28085 199.65238 202.10991 204.60244 206.70298 208.55751
 210.19604 211.35357 211.59511 211.83564 211.78517 211.50270 211.14824 210.79077
 210.42030 210.14283 209.96337 209.83990 209.78043 210.12396 210.52250 210.92403
 211.72956 212.92010 214.18263 215.97816 217.91869 219.97423 222.08176 224.17729
 226.24982 228.34636 230.45589 232.57442 234.71595 236.90049 239.16902 241.55155
 244.18508 246.44862 248.46315 250.24068 251.67021 252.80575 253.64028 253.96881
 254.01834 253.80488 253.17741 252.13794 250.75647 248.93001 246.85154 244.69707
 242.50060 240.31714 238.14967 236.00120 233.87373 231.75327 229.79180 227.96133
 226.25686 224.74140 223.38393 222.16846 221.06299 220.03553 219.15206 218.30559
 217.56013 216.75266 215.86319 215.23972 214.70226 214.79578 214.97063 214.62396
 214.31274 213.36778 212.64915 213.52490 216.58211 220.84669 225.89166 229.98874
 233.49063 237.62819 242.02264 246.39220 250.49287 254.17548 257.54068 260.75082
 263.82358 266.66321 269.31006 271.74600 273.87503 275.72214 277.27908 278.38159
 278.69800 278.77902 279.71750 281.10364 282.45197 283.68942 284.81839 285.84116
 286.76105 287.58020 288.29578 289.20773
 366.78100 356.34670 345.79041 334.66811 323.08281 311.28852 299.17022 286.98492
 274.70863 262.61733 250.63803 239.95074 230.08444 221.20014 213.39385 206.40755
 200.25325 195.20296 191.79666 189.85036 188.89906 188.97477 189.82147 191.14117
 192.87788 194.98458 197.25928 199.62999 202.08669 204.57839 206.67810 208.53180
 210.16950 211.32621 211.56691 211.80661 211.75532 211.47202 211.11672 210.75843
 210.38713 210.10883 209.92854 209.80424 209.74394 210.08665 210.48435 210.88505
 211.68976 212.87946 214.14116 215.93587 217.87557 219.93027 222.03697 224.13168
 226.20338 228.29908 230.40779 232.52549 234.66619 236.84990 239.11760 241.49930
 244.13201 246.39471 248.40841 250.18512 251.61382 252.74852 253.58223 253.90993
 253.95863 253.74434 253.11604 252.07574 250.69345 248.86615 246.78685 244.63156
 242.43426 240.24996 238.08167 235.93237 233.80407 231.68278 229.72048 227.88918
 226.18388 224.66759 223.30929 222.09299 220.98670 219.95840 219.07410 218.22681
 217.48051 216.67221 215.78192 215.15762 214.61932 214.75606 215.03302 214.58830
 214.26648 213.33762 212.56357 213.40688 216.53496 220.84682 225.87323 229.99960
 233.49248 237.61174 242.00157 246.37000 250.47394 254.17690 257.55276 260.74551
 263.79770 266.63840 269.30695 271.80194 273.98163 275.82507 277.28464 278.08923
 278.19833 278.18826 279.02606 280.22021 281.44281 282.60928 283.68607 284.66153
 285.53888 286.32016 287.00266 287.87244
 366.78100 356.34597 345.78894 334.66591 323.07988 311.28485 299.16582 286.97979
 274.70276 262.61073 250.63070 239.94267 230.07564 221.19060 213.38357 206.39654
 200.24151 195.19048 191.78345 189.83642 188.88439 188.95936 189.80533 191.12430
 192.86027 194.96624 197.24021 199.61018 202.06615 204.55712 206.65609 208.50906
 210.14603 211.30200 211.54197 211.78094 211.72891 211.44488 211.08884 210.72981
 210.35778 210.07875 209.89772 209.77269 209.71166 210.05363 210.45060 210.85057
 211.65454 212.84351 214.10448 215.89845 217.83742 219.89139 221.99736 224.09133
 226.16230 228.25727 230.36524 232.48221 234.62218 236.80515 239.07211 241.45308
 244.08505 246.34702 248.35999 250.13596 251.56393 252.69790 253.53087 253.85784
 253.90581 253.69078 253.06175 252.02072 250.63769 248.80966 246.72963 244.57360
 242.37557 240.19054 238.02151 235.87148 233.74245 231.62042 229.65739 227.82535
 226.11932 224.60229 223.24326 222.02623 220.91920 219.89017 219.00514 218.15711
 217.41008 216.60105 215.71002 215.08499 214.54596 214.72495 215.09386 214.63452
 214.24507 213.25113 212.49962 213.35246 216.51617 220.85374 225.88867 229.99968
 233.47681 237.59103 241.98415 246.36255 250.47260 254.16637 257.51471 260.66568
 263.68610 266.52164 269.21048 271.75879 273.99683 275.84149 277.18173 277.77011
 277.80215 277.92798 278.82172 279.83188 281.05505 282.22528 283.29291 284.26013
 285.13004 285.90466 286.58139 287.44379
 366.78100 356.34556 345.78813 334.66469 323.07826 311.28282 299.16339 286.97695
 274.69952 262.60708 250.62665 239.93821 230.07078 221.18534 213.37791 206.39047
 200.23504 195.18360 191.77617 189.82873 188.87630 188.95086 189.79643 191.11499
 192.85056 194.95612 197.22969 199.59925 202.05482 204.54538 206.64395 208.49651
 210.13308 211.28864 211.52821 211.76677 211.71434 211.42990 211.07347 210.71403
 210.34160 210.06216 209.88073 209.75529 209.69386 210.03542 210.43199 210.83155
 211.63512 212.82368 214.08425 215.87781 217.81638 219.86994 221.97551 224.06907
 226.13964 228.23420 230.34177 232.45833 234.59790 236.78046 239.04703 241.42759
 244.05916 246.32072 248.33329 250.10885 251.53642 252.66998 253.50255 253.82911
 253.87668 253.66124 253.03180 251.99037 250.60693 248.77850 246.69806 244.54163
 242.34319 240.15776 237.98832 235.83789 233.70845 231.58602 229.62258 227.79015
 226.08371 224.56628 223.20684 221.98941 220.88197 219.85254 218.96710 218.11867
 217.37123 216.56180 215.67036 215.04493 214.50549 214.72409 215.14177 214.63873
 214.23940 213.29047 212.50133 213.34619 216.51788 220.82974 225.91397 229.98341
 233.48544 237.61171 242.02063 246.43007 250.55481 254.24303 257.57870 260.69968
 263.67126 266.48911 269.19614 271.76340 274.01703 275.79935 276.96573 277.32556
 277.27820 277.83356 278.76962 279.87329 281.21603 282.40399 283.48785 284.46973
 285.35284 286.13925 286.82623 287.70172
 366.78100 356.34470 345.78641 334.66211 323.07482 311.27852 299.15822 286.97093
 274.69263 262.59934 250.61804 239.92874 230.06045 221.17415 213.36586 206.37756
 200.22126 195.16897 191.76067 189.81238 188.85908 188.93278 189.77749 191.09519
 192.82990 194.93460 197.20730 199.57601 202.03071 204.52042 206.61812 208.46982
 210.10553 211.26023 211.49894 211.73664 211.68335 211.39805 211.04075 210.68046
 210.30716 210.02687 209.84457 209.71827 209.65598 209.99668 210.39239 210.79109
 211.59379 212.78150 214.04120 215.83391 217.77161 219.82431 221.92902 224.02172
 226.09143 228.18513 230.29183 232.40754 234.54624 236.72795 238.99365 241.37335
 244.00406 246.26476 248.27647 250.05117 251.47787 252.61058 253.44228 253.76799
 253.81469 253.59839 252.96810 251.92580 250.54151 248.71221 246.63091 244.47362
 242.27432 240.08803 237.91773 235.76643 233.63614 231.51284 229.54855 227.71525
 226.00795 224.48966 223.12936 221.91107 220.80277 219.77247 218.88618 218.03688
 217.28859 216.47829 215.58600 214.95970 214.41940 214.69344 215.20615 214.62193
 214.19547 213.39160 212.45676 213.18404 216.40262 220.75690 225.88934 229.96362
 233.47057 237.61845 242.04865 246.47881 250.63014 254.35684 257.71301 260.82611
 263.77444 266.57855 269.27805 271.87085 274.15338 275.93790 276.92361 277.07416
 276.92273 277.81561 278.69983 279.42667 280.05569 280.61224 281.12000 281.57999
 281.99368 282.36209 282.68393 283.09409
 366.78100 356.34420 345.78539 334.66059 323.07279 311.27598 299.15518 286.96738
 274.68857 262.59477 250.61297 239.92316 230.05436 221.16755 213.35875 206.36995
 200.21314 195.16034 191.75154 189.80273 188.84893 188.92213 189.76632 191.08352
 192.81772 194.92191 197.19411 199.56231 202.01650 204.50570 206.60290 208.45409
 210.08929 211.24349 211.48168 211.71888 211.66507 211.37927 211.02147 210.66066
 210.28686 210.00606 209.82325 209.69645 209.63365 209.97384 210.36904 210.76724
 211.56943 212.75663 214.01583 215.80802 217.74522 219.79742 221.90161 223.99381
 226.06301 228.15620 230.26240 232.37759 234.51579 236.69699 238.96218 241.34138
 243.97158 246.23177 248.24297 250.01717 251.44336 252.57556 253.40676 253.73195
 253.77815 253.56135 252.93054 251.88774 250.50294 248.67313 246.59133 244.43353
 242.23372 240.04692 237.87611 235.72431 233.59351 231.46970 229.50490 227.67110
 225.96329 224.44449 223.08369 221.86488 220.75608 219.72528 218.83847 217.98867
 217.23987 216.42906 215.53626 214.90946 214.36865 214.66917 215.24889 214.63693
 214.13562 213.50067 212.49239 213.07950 216.25710 220.64658 225.71684 229.84523
 233.39253 237.55017 241.98798 246.43732 250.60805 254.36269 257.74997 260.88232
 263.84277 266.66068 269.37851 272.01434 274.36502 276.21350 277.29654 277.52536
 277.15045 277.80084 278.64832 280.03366 281.38138 282.57373 283.66159 284.64713
 285.53348 286.32281 287.01233 287.89105
 366.78100 356.34557 345.78813 334.66470 323.07827 311.28284 299.16340 286.97697
 274.69954 262.60710 250.62667 239.93824 230.07081 221.18537 213.37794 206.39051
 200.23508 195.18364 191.77621 189.82878 188.87634 188.95091 189.79648 191.11505
 192.85061 194.95618 197.22975 199.59931 202.05488 204.54545 206.64402 208.49658
 210.13315 211.28872 211.52829 211.76685 211.71442 211.42999 211.07355 210.71412
 210.34169 210.06226 209.88082 209.75539 209.69396 210.03552 210.43209 210.83166
 211.63523 212.82379 214.08436 215.87793 217.81650 219.87006 221.97563 224.06920
 226.13976 228.23433 230.34190 232.45847 234.59803 236.78060 239.04717 241.42773
 244.05930 246.32087 248.33344 250.10900 251.53657 252.67014 253.50271 253.82927
 253.87684 253.66141 253.03197 251.99054 250.60711 248.77868 246.69824 244.54181
 242.34338 240.15794 237.98851 235.83808 233.70865 231.58621 229.62278 227.79035
 226.08392 224.56648 223.20705 221.98962 220.88218 219.85275 218.96732 218.11889
 217.37145 216.56202 215.67059 215.04515 214.50572 214.73291 215.18683 214.69466
 214.05898 213.46559 212.57690 213.11360 216.21327 220.59744 225.61058 229.78587
 233.33783 237.47374 241.89807 246.32571 250.48412 254.23622 257.64526 260.81995
 263.81436 266.66605 269.42819 272.11981 274.58328 276.53897 277.77570 278.12158
 277.90662 277.77368 278.65033 280.08871 281.47617 282.70374 283.82367 284.83829
 285.75082 286.56342 287.27328 288.17795
 366.78100 356.34555 345.78809 334.66464 323.07818 311.28273 299.16327 286.97682
 274.69937 262.60691 250.62646 239.93800 230.07055 221.18509 213.37764 206.39019
 200.23473 195.18328 191.77582 189.82837 188.87591 188.95046 189.79601 191.11455
 192.85010 194.95564 197.22919 199.59873 202.05428 204.54483 206.64337 208.49592
 210.13246 211.28801 211.52755 211.76610 211.71365 211.42919 211.07274 210.71328
 210.34083 210.06137 209.87992 209.75447 209.69301 210.03456 210.43110 210.83065
 211.63419 212.82274 214.08329 215.87683 217.81538 219.86892 221.97447 224.06801
 226.13856 228.23311 230.34065 232.45720 234.59674 236.77929 239.04583 241.42638
 244.05793 246.31947 248.33202 250.10756 251.53511 252.66865 253.50120 253.82775
 253.87529 253.65984 253.03038 251.98893 250.60547 248.77702 246.69657 244.54011
 242.34166 240.15620 237.98675 235.83629 233.70684 231.58438 229.62093 227.78848
 226.08202 224.56457 223.20511 221.98766 220.88020 219.85075 218.96530 218.11684
 217.36939 216.55993 215.66848 215.04302 214.50357 214.72948 215.19441 214.69258
 214.01398 213.26907 212.50389 213.14287 216.25084 220.63788 225.65298 229.84042
 233.37593 237.47531 241.87918 246.25897 250.36195 254.10210 257.52332 260.72595
 263.74100 266.61896 269.41895 272.15408 274.66068 276.69202 277.84171 278.25388
 278.11038 277.99261 278.64395 280.02219 281.35767 282.58475 283.70425 284.71844
 285.63062 286.44290 287.15250 288.05679
 366.78100 356.34424 345.78548 334.66072 323.07296 311.27621 299.15545 286.96769
 274.68893 262.59517 250.61341 239.92365 230.05489 221.16813 213.35938 206.37062
 200.21386 195.16110 191.75234 189.80358 188.84982 188.92306 189.76730 191.08454
 192.81879 194.92303 197.19527 199.56351 202.01775 204.50699 206.60423 208.45547
 210.09071 211.24496 211.48320 211.72044 211.66668 211.38092 211.02316 210.66240
 210.28864 210.00788 209.82513 209.69837 209.63561 209.97585 210.37109 210.76933
 211.57157 212.75881 214.01805 215.81030 217.74754 219.79978 221.90402 223.99626
 226.06550 228.15874 230.26498 232.38022 234.51846 236.69971 238.96495 241.34419
 243.97443 246.23467 248.24591 250.02015 251.44639 252.57863 253.40988 253.73512
 253.78136 253.56460 252.93384 251.89108 250.50632 248.67656 246.59480 244.43705
 242.23729 240.05053 237.87977 235.72801 233.59725 231.47349 229.50873 227.67497
 225.96721 224.44846 223.08770 221.86894 220.76018 219.72942 218.84266 217.99290
 217.24414 216.43338 215.54063 214.91387 214.37311 214.66278 215.27431 214.67972
 214.01033 213.10779 212.30676 213.02956 216.22444 220.64700 225.69447 229.90152
 233.43654 237.51379 241.90758 246.27692 250.35017 254.06673 257.48965 260.70352
 263.71982 266.59875 269.41202 272.18268 274.70221 276.70047 277.88840 278.25745
 278.18692 278.18417 278.80194 280.12375 281.36993 282.60809 283.73770 284.76105
 285.68146 286.50107 287.21707 288.12955
 366.78100 356.34447 345.78594 334.66141 323.07388 311.27734 299.15681 286.96928
 274.69075 262.59722 250.61569 239.92616 230.05763 221.17110 213.36256 206.37403
 200.21750 195.16497 191.75644 189.80791 188.85438 188.92785 189.77232 191.08978
 192.82425 194.92872 197.20119 199.56966 202.02413 204.51360 206.61107 208.46254
 210.09800 211.25247 211.49094 211.72841 211.67488 211.38935 211.03182 210.67129
 210.29776 210.01722 209.83469 209.70816 209.64563 209.98610 210.38157 210.78004
 211.58251 212.76998 214.02944 215.82191 217.75938 219.81185 221.91632 224.00879
 226.07826 228.17173 230.27820 232.39366 234.53213 236.71360 238.97907 241.35854
 243.98901 246.24948 248.26095 250.03542 251.46188 252.59435 253.42582 253.75129
 253.79776 253.58123 252.95070 251.90817 250.52364 248.69410 246.61257 244.45504
 242.25551 240.06898 237.89845 235.74692 233.61639 231.49286 229.52832 227.69479
 225.98726 224.46873 223.10820 221.88967 220.78114 219.75061 218.86408 218.01454
 217.26601 216.45548 215.56295 214.93642 214.39589 214.67433 215.26646 214.70422
 214.03658 213.09995 212.17545 212.88521 216.13469 220.57584 225.64772 229.89136
 233.44545 237.52141 241.92119 246.30557 250.37740 254.08112 257.50491 260.72702
 263.74399 266.62054 269.44025 272.23642 274.77713 276.77264 277.95105 278.31866
 278.31390 278.43448 279.01486 280.25378 281.48441 282.69662 283.81232 284.82309
 285.73215 286.54166 287.24884 288.15009
 366.78100 356.34361 345.78421 334.65882 323.07043 311.27303 299.15164 286.96325
 274.68385 262.58946 250.60707 239.91667 230.04728 221.15989 213.35049 206.36110
 200.20371 195.15031 191.74092 189.79153 188.83713 188.90974 189.75335 191.06995
 192.80356 194.90717 197.17877 199.54638 201.99999 204.48859 206.58520 208.43581
 210.07041 211.22402 211.46163 211.69823 211.64384 211.35744 210.99905 210.63766
 210.26326 209.98187 209.79848 209.67108 209.60769 209.94730 210.34190 210.73951
 211.54112 212.72772 213.98633 215.77794 217.71454 219.76615 221.86976 223.96136
 226.02997 228.12258 230.22818 232.34279 234.48040 236.66100 238.92561 241.30422
 243.93382 246.19343 248.20404 249.97764 251.40325 252.53486 253.36546 253.69007
 253.73568 253.51828 252.88689 251.84350 250.45810 248.62771 246.54532 244.38692
 242.18653 239.99914 237.82774 235.67535 233.54396 231.41956 229.45417 227.61978
 225.91138 224.39199 223.03060 221.81120 220.70181 219.67042 218.78302 217.93263
 217.18324 216.37184 215.47845 214.85106 214.30966 214.62950 215.31873 214.69875
 213.92734 213.14549 212.23018 212.78667 216.03331 220.49031 225.56805 229.83894
 233.42326 237.50148 241.89963 246.29720 250.37466 254.07552 257.50842 260.74609
 263.77423 266.65314 269.47845 272.29880 274.85321 276.82468 277.97440 278.37500
 278.42422 278.62445 279.21985 280.34167 281.53799 282.70773 283.80789 284.80453
 285.70093 286.49915 287.19647 288.08511
 366.78100 356.34263 345.78225 334.65588 323.06650 311.26813 299.14575 286.95638
 274.67600 262.58063 250.59725 239.90588 230.03551 221.14713 213.33676 206.34638
 200.18801 195.13363 191.72326 189.77288 188.81751 188.88914 189.73176 191.04739
 192.78001 194.88264 197.15326 199.51989 201.97251 204.46014 206.55576 208.40539
 210.03902 211.19164 211.42827 211.66389 211.60852 211.32114 210.96177 210.59939
 210.22402 209.94164 209.75727 209.62890 209.56452 209.90315 210.29677 210.69340
 211.49402 212.67965 213.93727 215.72790 217.66352 219.71415 221.81678 223.90740
 225.97503 228.06665 230.17128 232.28490 234.42153 236.60115 238.86478 241.24241
 243.87103 246.12966 248.13928 249.91191 251.33653 252.46716 253.29678 253.62041
 253.66503 253.44666 252.81429 251.76991 250.38354 248.55216 246.46879 244.30941
 242.10804 239.91966 237.74729 235.59391 233.46154 231.33617 229.36979 227.53442
 225.82504 224.30467 222.94229 221.72192 220.61154 219.57917 218.69079 217.83942
 217.08905 216.27667 215.38230 214.75392 214.21155 214.56958 215.36699 214.80321
 213.76747 212.98029 212.23628 212.71465 215.95813 220.42833 225.52771 229.79846
 233.40663 237.47949 241.86771 246.25999 250.32864 254.03139 257.47736 260.72833
 263.77496 266.67819 269.52017 272.36526 274.96274 276.98645 278.16370 278.63187
 278.77249 279.05176 279.62375 280.62387 281.76639 282.82474 283.86035 284.80054
 285.64615 286.39917 287.05698 287.89529
 366.78100 356.34272 345.78244 334.65617 323.06689 311.26861 299.14633 286.95705
 274.67678 262.58150 250.59822 239.90694 230.03666 221.14838 213.33811 206.34783
 200.18955 195.13527 191.72499 189.77472 188.81944 188.89116 189.73388 191.04960
 192.78233 194.88505 197.15577 199.52249 201.97521 204.46294 206.55866 208.40838
 210.04210 211.19482 211.43155 211.66727 211.61199 211.32471 210.96543 210.60315
 210.22788 209.94560 209.76132 209.63304 209.56876 209.90749 210.30121 210.69793
 211.49865 212.68437 213.94210 215.73282 217.66854 219.71926 221.82198 223.91271
 225.98043 228.07215 230.17687 232.29059 234.42731 236.60704 238.87076 241.24848
 243.87720 246.13592 248.14565 249.91837 251.34309 252.47381 253.30353 253.62726
 253.67198 253.45370 252.82142 251.77714 250.39087 248.55959 246.47631 244.31703
 242.11575 239.92748 237.75520 235.60192 233.46964 231.34436 229.37808 227.54281
 225.83353 224.31325 222.95097 221.73069 220.62042 219.58814 218.69986 217.84858
 217.09830 216.28603 215.39175 214.76347 214.22119 214.56598 215.34732 214.89517
 213.87654 212.75668 212.08090 212.57649 215.89938 220.41133 225.52716 229.80550
 233.42906 237.48230 241.84442 246.23766 250.30206 253.99550 257.44421 260.70197
 263.74741 266.64694 269.50998 272.37073 275.00769 277.07620 278.27982 278.81702
 279.09668 279.48318 280.09003 281.01779 282.16125 283.18759 284.15295 285.04556
 285.84839 286.56329 287.18784 287.98373
 366.78100 356.34305 345.78311 334.65716 323.06822 311.27027 299.14833 286.95938
 274.67944 262.58449 250.60155 239.91060 230.04066 221.15271 213.34277 206.35282
 200.19488 195.14093 191.73099 189.78104 188.82610 188.89815 189.74121 191.05726
 192.79032 194.89337 197.16443 199.53148 201.98454 204.47259 206.56865 208.41870
 210.05276 211.20581 211.44287 211.67892 211.62397 211.33703 210.97808 210.61614
 210.24119 209.95925 209.77530 209.64736 209.58341 209.92247 210.31652 210.71358
 211.51463 212.70069 213.95874 215.74980 217.68585 219.73691 221.83996 223.93102
 225.99907 228.09113 230.19618 232.31024 234.44729 236.62735 238.89140 241.26946
 243.89851 246.15757 248.16762 249.94068 251.36573 252.49679 253.32684 253.65090
 253.69595 253.47800 252.84606 251.80211 250.41617 248.58522 246.50228 244.34333
 242.14239 239.95444 237.78250 235.62955 233.49761 231.37266 229.40672 227.57177
 225.86283 224.34288 222.98094 221.76099 220.65105 219.61910 218.73116 217.88021
 217.13027 216.31832 215.42438 214.79643 214.25449 214.59042 215.32346 214.86057
 214.09027 212.73459 211.91811 212.64334 215.90196 220.35007 225.48877 229.84114
 233.43188 237.49496 241.87419 246.26401 250.33249 254.02916 257.47372 260.71759
 263.72931 266.60895 269.49091 272.36438 274.96365 276.99573 278.26630 278.91467
 279.30212 279.72122 280.28186 281.35382 282.53064 283.65488 284.69528 285.63785
 286.48553 287.24045 287.89990 288.74030
 366.78100 356.34303 345.78305 334.65708 323.06811 311.27013 299.14816 286.95919
 274.67921 262.58424 250.60127 239.91029 230.04032 221.15235 213.34237 206.35240
 200.19443 195.14045 191.73048 189.78051 188.82553 188.89756 189.74059 191.05661
 192.78964 194.89267 197.16369 199.53072 201.98375 204.47177 206.56780 208.41783
 210.05185 211.20488 211.44191 211.67793 211.62296 211.33599 210.97701 210.61504
 210.24007 209.95809 209.77412 209.64615 209.58217 209.92120 210.31523 210.71225
 211.51328 212.69930 213.95733 215.74836 217.68438 219.73541 221.83844 223.92946
 225.99749 228.08952 230.19454 232.30857 234.44560 236.62562 238.88965 241.26768
 243.89670 246.15573 248.16576 249.93878 251.36381 252.49484 253.32486 253.64889
 253.69392 253.47594 252.84397 251.80000 250.41402 248.58305 246.50008 244.34110
 242.14013 239.95216 237.78018 235.62721 233.49524 231.37026 229.40429 227.56932
 225.86034 224.34037 222.97840 221.75842 220.64845 219.61648 218.72850 217.87753
 217.12756 216.31558 215.42161 214.79364 214.25166 214.59734 215.32896 214.81815
 214.11082 212.85997 211.89426 212.57698 215.86884 220.30344 225.42316 229.82010
 233.43692 237.47862 241.86368 246.29118 250.35022 254.04243 257.51248 260.79852
 263.82288 266.69525 269.56464 272.41278 275.03934 277.14847 278.32544 278.94647
 279.38193 279.94373 280.82379 282.11649 283.35403 284.46765 285.48367 286.40408
 287.23193 287.96912 288.61310 289.43381
 366.78100 356.34300 345.78301 334.65701 323.06801 311.27001 299.14802 286.95902
 274.67902 262.58403 250.60103 239.91003 230.04003 221.15204 213.34204 206.35204
 200.19405 195.14005 191.73005 189.78005 188.82506 188.89706 189.74006 191.05607
 192.78907 194.89207 197.16307 199.53008 201.98308 204.47108 206.56708 208.41709
 210.05109 211.20409 211.44110 211.67710 211.62210 211.33510 210.97611 210.61411
 210.23911 209.95712 209.77312 209.64512 209.58112 209.92013 210.31413 210.71113
 211.51214 212.69814 213.95614 215.74714 217.68315 219.73415 221.83715 223.92816
 225.99616 228.08816 230.19316 232.30717 234.44417 236.62417 238.88818 241.26618
 243.89518 246.15418 248.16419 249.93719 251.36219 252.49320 253.32320 253.64720
 253.69220 253.47421 252.84221 251.79821 250.41221 248.58122 246.49822 244.33922
 242.13823 239.95023 237.77823 235.62523 233.49324 231.36824 229.40224 227.56725
 225.85825 224.33825 222.97625 221.75626 220.64626 219.61426 218.72627 217.87527
 217.12527 216.31327 215.41928 214.79128 214.24928 214.56287 215.25742 214.81947
 214.08685 212.77057 211.76442 212.38905 215.78847 220.23734 225.36504 229.82397
 233.45288 237.46297 241.82649 246.24008 250.28661 254.00389 257.53491 260.86844
 263.90335 266.75525 269.57922 272.42706 274.98001 276.93713 278.13687 278.84744
 279.51935 280.30609 281.34100 282.53198 283.68314 284.48981 285.25586 285.94986
 286.57401 287.12982 287.61539 288.23416
 354.97500 345.04800 334.58700 324.11500 313.32600 302.53700 291.65000 280.76700
 269.93100 259.19300 248.62200 238.61700 229.08700 220.35500 212.54000 205.53500
 199.46400 194.49300 191.14300 189.19000 188.08900 188.01400 188.72400 189.90600
 191.46900 193.38200 195.40300 197.55600 199.80700 202.06000 204.28800 206.47900
 208.55200 210.37800 212.02500 213.65900 214.99800 216.11800 217.17200 218.25900
 219.49400 220.64500 221.67900 222.61400 223.54500 224.98200 226.57100 228.19000
 229.79700 231.81100 233.86500 235.97200 238.24200 240.55300 242.89900 245.25300
 247.48800 249.53500 251.36600 252.84800 254.09800 255.16700 256.02700 256.25300
 256.09500 255.54300 253.93500 252.56600 251.38400 250.24500 249.05200 247.70100
 246.01600 243.99600 241.78400 239.39300 236.81300 234.22300 231.65800 229.14400
 226.74000 224.47300 222.33500 220.32500 218.44000 216.67700 214.96200 213.47200
 212.20000 211.10800 210.26000 209.63900 209.24400 209.03100 209.05800 209.33300
 209.78400 210.62600 211.33100 212.39100 213.62500 214.84668 217.72949 219.47640
 220.32566 220.86828 220.88710 220.27371 219.43733 218.84250 219.04934 220.86203
 222.60583 225.72206 229.03064 232.61777 236.12270 239.51333 242.70767 245.68587
 248.41061 250.90679 253.19353 254.91714 256.48655 257.94920 259.39966 260.69384
 261.81714 262.77997 263.71679 264.54570 265.26305 265.89772 266.47676 267.00133
 267.47312 267.89325 268.26027 268.72800
