|-------------------------------------------------------------------------|
|   File Name : in_temp.dat
|   Subject   : temperature profiles used for initial guess atmosphere
|   File Type : input of gmtr
|   Data Type : atmospherical data
|   Author/s  : WRF-Chem
|   Date      : Fri Jul 26 15:39:24 2024
|-------------------------------------------------------------------------|

 WRF-Chem temperature
#
 values of T (K)    (8f10.5)
#
 354.97500 345.04800 334.58700 324.11500 313.32600 302.53700 291.65000 280.76700
 269.93100 259.19300 248.62200 238.61700 229.08700 220.35500 212.54000 205.53500
 199.46400 194.49300 191.14300 189.19000 188.08900 188.01400 188.72400 189.90600
 191.46900 193.38200 195.40300 197.55600 199.80700 202.06000 204.28800 206.47900
 208.55200 210.37800 212.02500 213.65900 214.99800 216.11800 217.17200 218.25900
 219.49400 220.64500 221.67900 222.61400 223.54500 224.98200 226.57100 228.19000
 229.79700 231.81100 233.86500 235.97200 238.24200 240.55300 242.89900 245.25300
 247.48800 249.53500 251.36600 252.84800 254.09800 255.16700 256.02700 256.25300
 256.09500 255.54300 253.93500 252.56600 251.38400 250.24500 249.05200 247.70100
 246.01600 243.99600 241.78400 239.39300 236.81300 234.22300 231.65800 229.14400
 226.74000 224.47300 222.33500 220.32500 218.44000 216.67700 214.96200 213.47200
 212.20000 211.10800 210.26000 209.63900 209.24400 209.03100 209.05800 209.33300
 209.78400 210.62600 211.33100 212.39100 213.62500 214.84668 217.72949 219.47640
 220.32566 220.86828 220.88710 220.27371 219.43733 218.84250 219.04934 220.86203
 222.60583 225.72206 229.03064 232.61777 236.12270 239.51333 242.70767 245.68587
 248.41061 250.90679 253.19353 254.91714 256.48655 257.94920 259.39966 260.69384
 261.81714 262.77997 263.71679 264.54570 265.26305 265.89772 266.47676 267.00133
 267.47312 267.89325 268.26027 268.72800
 366.78100 356.33500 345.76700 334.63300 323.03600 311.23000 299.10000 286.90300
 274.61500 262.51200 250.52100 239.82200 229.94400 221.04800 213.23000 206.23200
 200.06600 195.00400 191.58600 189.62800 188.66500 188.72900 189.56400 190.87200
 192.59700 194.69200 196.95500 199.31400 201.75900 204.23900 206.32700 208.16900
 209.79500 210.94000 211.16900 211.39700 211.33400 211.03900 210.67200 210.30200
 209.91900 209.62900 209.43700 209.30100 209.22900 209.56000 209.94600 210.33500
 211.12800 212.30600 213.55600 215.33900 217.26700 219.31000 221.40500 223.48800
 225.54800 227.63200 229.72900 231.83500 233.96400 236.13600 238.39200 240.76200
 243.38300 245.63400 247.63600 249.40100 250.81800 251.94100 252.76300 253.07900
 253.11600 252.89000 252.25000 251.19800 249.80400 247.96500 245.87400 243.70700
 241.49800 239.30200 237.12200 234.96100 232.82100 230.68800 228.71400 226.87100
 225.15400 223.62600 222.25600 221.02800 219.91000 218.87000 217.97400 217.11500
 216.35700 215.53700 214.63500 213.99900 213.44900 212.85855 212.01316 212.61654
 214.26826 216.08686 218.14273 220.53346 223.40855 226.78828 231.49734 235.90155
 239.42278 243.28576 247.23140 251.11907 254.80144 258.23331 261.38913 264.27520
 266.89312 269.26852 271.44504 273.08845 274.58484 275.98591 277.39845 278.65879
 279.75272 280.69038 281.56708 282.34086 283.01050 283.60295 284.14348 284.63317
 285.07358 285.46577 285.80838 286.24500
 381.81900 372.39900 361.20600 349.77600 337.62200 324.85300 311.81000 298.35300
 284.86000 271.32400 258.56100 246.30400 236.08700 226.79600 218.44800 211.29000
 205.52200 200.89400 197.38100 194.84800 193.01500 192.31500 192.25000 192.43100
 192.91200 193.53700 194.13600 194.71200 195.26200 195.83100 196.39300 196.97600
 197.60400 198.14900 198.58400 199.05700 199.69500 200.37800 201.05400 201.70800
 202.31300 202.85700 203.35500 203.86200 204.56900 205.29700 206.02600 206.98700
 208.19300 209.44100 210.96900 212.57600 214.46200 216.51300 218.63000 220.85300
 223.34100 225.96200 228.73900 231.69700 234.70600 237.70600 240.69200 243.65700
 246.73700 249.69900 252.52100 255.06300 257.29000 259.23300 260.63300 261.68000
 262.46100 262.79800 262.69100 262.22400 261.06900 259.52500 257.70700 255.50700
 253.00100 250.30200 247.39800 244.45200 241.65400 239.05400 236.73300 234.59000
 232.59500 230.72500 228.83400 226.82600 224.66600 222.38700 220.10400 217.71500
 215.45900 213.06600 210.54600 208.09300 205.35400 202.08130 196.05959 200.71215
 209.01611 216.90438 223.84126 229.78593 235.00632 240.20838 245.98943 250.68668
 254.32982 257.93487 261.55666 264.96801 268.15192 271.06452 273.76717 276.25691
 278.57680 280.74479 282.77456 284.60533 286.27232 287.81705 289.31715 290.65561
 291.81734 292.81312 293.70701 294.49387 295.17482 295.77730 296.32696 296.82492
 297.27278 297.67160 298.02000 298.46400
 399.33000 389.90700 379.81300 368.66800 357.52200 345.30100 333.07400 320.22700
 307.21600 293.84800 280.37600 267.29600 254.61000 242.98700 232.15100 221.97700
 212.67200 204.28600 197.66900 192.82100 189.48600 187.45200 186.81400 187.08900
 187.78100 189.05400 190.64800 192.54200 194.63000 196.75200 198.67100 200.15800
 201.53500 202.48700 202.97500 203.34000 203.53900 203.49700 203.38500 203.24700
 203.00500 202.78600 202.60300 202.43700 202.42600 202.88800 203.42000 203.95100
 204.89500 205.99200 207.30100 208.95800 210.73800 213.10000 215.56400 218.18000
 220.96600 223.91800 226.96100 230.09200 233.29300 236.55700 239.95500 243.53700
 246.84500 249.39000 251.54200 253.47400 255.19500 256.48400 257.43100 258.05900
 258.21200 258.04000 257.58200 256.64300 255.23900 253.50700 251.40800 249.05600
 246.57600 243.99400 241.38900 238.83000 236.34400 233.98600 231.96900 230.11800
 228.42300 226.89900 225.54800 224.29700 223.10500 221.96500 220.95800 220.11300
 219.49000 218.92000 218.32500 217.88100 217.42300 216.96366 216.35568 216.80261
 217.73415 218.28582 218.64258 219.10077 220.44626 222.53987 226.38451 230.35736
 233.59734 237.39164 241.29814 245.22796 248.98002 252.51130 255.78595 258.80109
 261.54781 264.05210 266.34239 268.04198 269.58951 271.01303 272.35754 273.55718
 274.59842 275.49092 276.28989 276.99307 277.60161 278.14001 278.63122 279.07623
 279.47646 279.83287 280.14422 280.54100
 399.73800 389.78500 379.66200 368.15100 356.64100 344.35000 331.79200 318.88800
 305.72600 292.49300 279.20900 266.73800 254.69600 244.21100 234.45700 225.43300
 217.56900 210.45100 204.30000 199.30600 195.45800 192.57600 191.02700 190.38600
 190.23900 190.53400 191.16600 191.92500 192.79500 193.76600 194.73200 195.31200
 195.80000 196.05200 196.11500 196.11500 196.03900 195.72300 195.34000 194.98900
 194.75100 194.79200 195.13300 195.59800 196.50600 198.13600 199.85800 201.56600
 204.17900 206.82300 209.89300 213.28400 216.82800 220.60500 224.38700 228.20900
 232.03200 235.82500 239.56000 243.25800 246.84500 250.20100 253.70900 257.46800
 261.53000 264.22100 266.60100 268.68100 270.32900 271.74100 272.83600 273.47400
 273.89800 274.00200 273.75700 273.28800 272.37100 271.10000 269.58900 267.77900
 265.81600 263.72100 261.39300 258.91600 256.29800 253.42300 250.33100 247.11400
 243.83700 240.52900 237.24900 233.99900 230.72800 227.51500 224.25400 220.95200
 217.62700 213.65600 210.12100 206.78900 204.01000 201.99491 199.07309 198.76551
 199.40006 200.48994 201.46112 202.31912 203.45100 204.96110 207.47502 210.85391
 213.70530 217.29629 220.99574 224.72316 228.28753 231.64854 234.68024 237.40893
 239.70644 241.60899 243.46854 245.67368 247.68154 249.52395 251.24767 252.78566
 254.12057 255.26479 256.23740 257.09036 257.82852 258.48160 259.07744 259.61723
 260.10271 260.53504 260.91270 261.39400
 399.73800 389.78500 379.66200 368.15100 356.64100 344.35000 331.79200 318.88800
 305.72600 292.49300 279.20900 266.73800 254.69600 244.21100 234.45700 225.43300
 217.56900 210.45100 204.30000 199.30600 195.45800 192.57600 191.02700 190.38600
 190.23900 190.53400 191.16600 191.92500 192.79500 193.76600 194.73200 195.31200
 195.80000 196.05200 196.11500 196.11500 196.03900 195.72300 195.34000 194.98900
 194.75100 194.79200 195.13300 195.59800 196.50600 198.13600 199.85800 201.56600
 204.17900 206.82300 209.89300 213.28400 216.82800 220.60500 224.38700 228.20900
 232.03200 235.82500 239.56000 243.25800 246.84500 250.20100 253.70900 257.46800
 261.53000 264.22100 266.60100 268.68100 270.32900 271.74100 272.83600 273.47400
 273.89800 274.00200 273.75700 273.28800 272.37100 271.10000 269.58900 267.77900
 265.81600 263.72100 261.39300 258.91600 256.29800 253.42300 250.33100 247.11400
 243.83700 240.52900 237.24900 233.99900 230.72800 227.51500 224.25400 220.95200
 217.62700 213.65600 210.12100 206.78900 204.01000 201.99491 199.07309 198.76551
 199.40006 200.48994 201.46112 202.31912 203.45100 204.96110 207.47502 210.85391
 213.70530 217.29629 220.99574 224.72316 228.28753 231.64854 234.68024 237.40893
 239.70644 241.60899 243.46854 245.67368 247.68154 249.52395 251.24767 252.78566
 254.12057 255.26479 256.23740 257.09036 257.82852 258.48160 259.07744 259.61723
 260.10271 260.53504 260.91270 261.39400
 399.33000 389.90700 379.81300 368.66800 357.52200 345.30100 333.07400 320.22700
 307.21600 293.84800 280.37600 267.29600 254.61000 242.98700 232.15100 221.97700
 212.67200 204.28600 197.66900 192.82100 189.48600 187.45200 186.81400 187.08900
 187.78100 189.05400 190.64800 192.54200 194.63000 196.75200 198.67100 200.15800
 201.53500 202.48700 202.97500 203.34000 203.53900 203.49700 203.38500 203.24700
 203.00500 202.78600 202.60300 202.43700 202.42600 202.88800 203.42000 203.95100
 204.89500 205.99200 207.30100 208.95800 210.73800 213.10000 215.56400 218.18000
 220.96600 223.91800 226.96100 230.09200 233.29300 236.55700 239.95500 243.53700
 246.84500 249.39000 251.54200 253.47400 255.19500 256.48400 257.43100 258.05900
 258.21200 258.04000 257.58200 256.64300 255.23900 253.50700 251.40800 249.05600
 246.57600 243.99400 241.38900 238.83000 236.34400 233.98600 231.96900 230.11800
 228.42300 226.89900 225.54800 224.29700 223.10500 221.96500 220.95800 220.11300
 219.49000 218.92000 218.32500 217.88100 217.42300 216.96366 216.35568 216.80261
 217.73415 218.28582 218.64258 219.10077 220.44626 222.53987 226.38451 230.35736
 233.59734 237.39164 241.29814 245.22796 248.98002 252.51130 255.78595 258.80109
 261.54781 264.05210 266.34239 268.04198 269.58951 271.01303 272.35754 273.55718
 274.59842 275.49092 276.28989 276.99307 277.60161 278.14001 278.63122 279.07623
 279.47646 279.83287 280.14422 280.54100
 381.81900 372.39900 361.20600 349.77600 337.62200 324.85300 311.81000 298.35300
 284.86000 271.32400 258.56100 246.30400 236.08700 226.79600 218.44800 211.29000
 205.52200 200.89400 197.38100 194.84800 193.01500 192.31500 192.25000 192.43100
 192.91200 193.53700 194.13600 194.71200 195.26200 195.83100 196.39300 196.97600
 197.60400 198.14900 198.58400 199.05700 199.69500 200.37800 201.05400 201.70800
 202.31300 202.85700 203.35500 203.86200 204.56900 205.29700 206.02600 206.98700
 208.19300 209.44100 210.96900 212.57600 214.46200 216.51300 218.63000 220.85300
 223.34100 225.96200 228.73900 231.69700 234.70600 237.70600 240.69200 243.65700
 246.73700 249.69900 252.52100 255.06300 257.29000 259.23300 260.63300 261.68000
 262.46100 262.79800 262.69100 262.22400 261.06900 259.52500 257.70700 255.50700
 253.00100 250.30200 247.39800 244.45200 241.65400 239.05400 236.73300 234.59000
 232.59500 230.72500 228.83400 226.82600 224.66600 222.38700 220.10400 217.71500
 215.45900 213.06600 210.54600 208.09300 205.35400 202.08130 196.05959 200.71215
 209.01611 216.90438 223.84126 229.78593 235.00632 240.20838 245.98943 250.68668
 254.32982 257.93487 261.55666 264.96801 268.15192 271.06452 273.76717 276.25691
 278.57680 280.74479 282.77456 284.60533 286.27232 287.81705 289.31715 290.65561
 291.81734 292.81312 293.70701 294.49387 295.17482 295.77730 296.32696 296.82492
 297.27278 297.67160 298.02000 298.46400
 366.78100 356.36243 345.82186 334.71530 323.14573 311.36716 299.26459 287.09503
 274.83446 262.75889 250.79532 240.12376 230.27319 221.40462 213.61405 206.64349
 200.50492 195.47035 192.07978 190.14922 189.21365 189.30508 190.16751 191.50295
 193.25538 195.37781 197.66824 200.05468 202.52711 205.03454 207.14997 209.01941
 210.67284 211.84527 212.10170 212.35714 212.32157 212.05400 211.71443 211.37187
 211.01630 210.75373 210.58916 210.48060 210.43603 210.79446 211.20789 211.62433
 212.44476 213.65019 214.92762 216.73806 218.69349 220.76392 222.88635 224.99679
 227.08422 229.19565 231.32008 233.45351 235.60995 237.80938 240.09281 242.49024
 245.13868 247.41711 249.44654 251.23897 252.68341 253.83384 254.68327 255.02670
 255.09114 254.89257 254.28000 253.25543 251.88887 250.07730 248.01373 245.87416
 243.69260 241.52403 239.37146 237.23789 235.12533 233.01976 231.07319 229.25762
 227.56806 226.06749 224.72492 223.52435 222.43379 221.42122 220.55265 219.72108
 218.99052 218.19795 217.32338 216.71481 216.19225 214.16576 209.40683 208.38591
 209.82053 210.56062 211.99875 215.60533 220.01466 224.82591 230.56497 235.61717
 239.48792 243.56477 247.96188 252.31401 255.92601 258.77646 261.32297 263.96436
 266.72595 269.32837 271.88156 274.42456 276.30258 277.75977 279.22153 280.92679
 282.86450 284.65625 286.20361 287.55975 288.73123 289.76730 290.71161 291.56763
 292.33331 293.01846 293.61407 294.36230
 366.78100 356.36216 345.82132 334.71448 323.14464 311.36579 299.26295 287.09311
 274.83227 262.75643 250.79259 240.12075 230.26991 221.40107 213.61022 206.63938
 200.50054 195.46570 192.07486 190.14402 189.20818 189.29934 190.16150 191.49665
 193.24881 195.37097 197.66113 200.04729 202.51945 205.02661 207.14177 209.01092
 210.66408 211.83624 212.09240 212.34756 212.31172 212.04388 211.70404 211.36120
 211.00535 210.74251 210.57767 210.46883 210.42399 210.78215 211.19531 211.61147
 212.43163 213.63678 214.91394 216.72410 218.67926 220.74942 222.87158 224.98174
 227.06890 229.18006 231.30421 233.43737 235.59353 237.79269 240.07585 242.47301
 245.12117 247.39933 249.42849 251.22064 252.66480 253.81496 254.66412 255.00728
 255.07144 254.87260 254.25976 253.23491 251.86807 250.05623 247.99239 245.85255
 243.67071 241.50187 239.34903 237.21519 235.10234 232.99650 231.04966 229.23382
 227.54398 226.04314 224.70030 223.49946 222.40862 221.39577 220.52693 219.69509
 218.96425 218.17141 217.29657 216.68773 216.16489 214.16496 209.46715 208.46716
 209.83179 210.57700 212.01808 215.55009 219.93092 224.75261 230.49849 235.53912
 239.40717 243.48662 247.89223 252.26636 255.91562 258.78864 261.33054 263.95090
 266.70148 269.30295 271.85275 274.37744 276.23309 277.67889 279.15756 280.88901
 282.84784 284.63925 286.18594 287.54218 288.71350 289.74884 290.69293 291.54648
 292.31390 292.99731 293.59235 294.33841
 366.78100 356.36178 345.82055 334.71333 323.14310 311.36388 299.26065 287.09043
 274.82920 262.75298 250.78876 240.11653 230.26531 221.39608 213.60486 206.63363
 200.49441 195.45918 192.06796 190.13674 189.20051 189.29129 190.15306 191.48784
 193.23961 195.36139 197.65116 200.03694 202.50872 205.01549 207.13027 208.99904
 210.65182 211.82359 212.07937 212.33414 212.29792 212.02970 211.68947 211.34625
 210.99002 210.72680 210.56157 210.45235 210.40712 210.76490 211.17768 211.59345
 212.41323 213.61800 214.89478 216.70455 218.65933 220.72910 222.85088 224.96066
 227.04743 229.15821 231.28198 233.41476 235.57053 237.76931 240.05208 242.44886
 245.09664 247.37441 249.40319 251.19496 252.63874 253.78851 254.63729 254.98007
 255.04384 254.84462 254.23139 253.20617 251.83894 250.02672 247.96249 245.82227
 243.64005 241.47082 239.31760 237.18337 235.07015 232.96392 231.01670 229.20047
 227.51025 226.00903 224.66580 223.46458 222.37335 221.36013 220.49090 219.65868
 218.92745 218.13423 217.25901 216.64978 216.12656 214.15771 209.53169 208.55206
 209.83209 210.60454 212.02371 215.49550 219.86736 224.67953 230.42604 235.46301
 239.33141 243.41319 247.82426 252.21747 255.90263 258.80051 261.33987 263.93945
 266.67783 269.27591 271.82013 274.32629 276.15961 277.59552 279.09024 280.84949
 282.82916 284.61932 286.16647 287.52109 288.69217 289.72708 290.66879 291.52325
 292.28900 292.97208 293.56622 294.30991
 366.78100 356.36128 345.81956 334.71184 323.14112 311.36140 299.25768 287.08696
 274.82524 262.74852 250.78380 240.11107 230.25935 221.38963 213.59791 206.62619
 200.48647 195.45075 192.05903 190.12731 189.19059 189.28087 190.14215 191.47643
 193.22771 195.34899 197.63827 200.02355 202.49483 205.00111 207.11539 208.98366
 210.63594 211.80722 212.06250 212.31678 212.28006 212.01134 211.67062 211.32690
 210.97018 210.70646 210.54074 210.43102 210.38530 210.74258 211.15486 211.57014
 212.38942 213.59370 214.86998 216.67925 218.63353 220.70281 222.82409 224.93337
 227.01965 229.12993 231.25321 233.38549 235.54077 237.73905 240.02133 242.41761
 245.06489 247.34217 249.37045 251.16173 252.60501 253.75429 254.60257 254.94484
 255.00812 254.80840 254.19468 253.16896 251.80124 249.98852 247.92380 245.78308
 243.60036 241.43064 239.27692 237.14220 235.02848 232.92176 230.97404 229.15732
 227.46660 225.96488 224.62116 223.41943 222.32771 221.31399 220.44427 219.61155
 218.87983 218.08611 217.21039 216.60067 216.07695 214.14450 209.60262 208.63564
 209.83345 210.62749 212.01982 215.44897 219.81180 224.60910 230.34979 235.39081
 239.26115 243.34392 247.75740 252.16634 255.88593 258.81137 261.35144 263.93130
 266.65475 269.24744 271.78476 274.27078 276.08246 277.50961 279.02274 280.80841
 282.80762 284.59711 286.14191 287.49695 288.66876 289.70154 290.64191 291.49310
 292.26093 292.94183 293.53488 294.27542
 366.78100 356.36083 345.81866 334.71049 323.13932 311.35915 299.25498 287.08381
 274.82163 262.74446 250.77929 240.10612 230.25395 221.38378 213.59161 206.61944
 200.47927 195.44310 192.05093 190.11876 189.18159 189.27142 190.13225 191.46608
 193.21690 195.33773 197.62656 200.01139 202.48222 204.98805 207.10188 208.96971
 210.62154 211.79237 212.04720 212.30103 212.26386 211.99469 211.65352 211.30935
 210.95217 210.68800 210.52183 210.41166 210.36549 210.72232 211.13415 211.54898
 212.36781 213.57164 214.84747 216.65630 218.61013 220.67896 222.79979 224.90862
 226.99444 229.10427 231.22710 233.35893 235.51376 237.71159 239.99342 242.38925
 245.03608 247.31291 249.34074 251.13157 252.57440 253.72323 254.57106 254.91289
 254.97571 254.77554 254.16137 253.13520 251.76703 249.95386 247.88869 245.74752
 243.56435 241.39418 239.24001 237.10484 234.99067 232.88350 230.93533 229.11815
 227.42698 225.92481 224.58064 223.37847 222.28630 221.27213 220.40196 219.56879
 218.83662 218.04245 217.16628 216.55611 216.03194 214.13358 209.67064 208.71927
 209.84924 210.64134 212.00929 215.40791 219.75354 224.53854 230.27330 235.31940
 239.19276 243.27771 247.69299 252.11621 255.86720 258.82153 261.36636 263.92728
 266.63425 269.21756 271.74576 274.21042 276.00116 277.42218 278.95300 280.76703
 282.78113 284.57004 286.11462 287.46881 288.63806 289.67178 290.60916 291.45901
 292.22394 292.90512 293.49689 294.23389
 366.78100 356.36027 345.81753 334.70880 323.13706 311.35633 299.25159 287.07986
 274.81712 262.73939 250.77365 240.09992 230.24718 221.37645 213.58371 206.61098
 200.47024 195.43351 192.04077 190.10804 189.17030 189.25957 190.11984 191.45310
 193.20337 195.32363 197.61190 199.99616 202.46643 204.97169 207.08496 208.95222
 210.60349 211.77375 212.02802 212.28128 212.24355 211.97381 211.63208 211.28734
 210.92961 210.66488 210.49814 210.38741 210.34067 210.69694 211.10820 211.52247
 212.34073 213.54400 214.81926 216.62753 218.58079 220.64906 222.76932 224.87759
 226.96285 229.07212 231.19438 233.32565 235.47991 237.67718 239.95845 242.35371
 244.99998 247.27624 249.30351 251.09377 252.53604 253.68430 254.53157 254.87283
 254.93510 254.73436 254.11963 253.09289 251.72416 249.91042 247.84469 245.70295
 243.51922 241.34849 239.19375 237.05802 234.94328 232.83555 230.88681 229.06908
 227.37734 225.87461 224.52987 223.32714 222.23440 221.21967 220.34893 219.51520
 218.78246 217.98773 217.11099 216.50026 215.97552 214.11578 209.74252 208.80443
 209.87595 210.64441 211.99147 215.37164 219.69054 224.46761 230.19969 235.24806
 239.12483 243.21350 247.63194 252.06747 255.84683 258.82932 261.38177 263.92468
 266.61475 269.18683 271.70340 274.14542 275.91827 277.33359 278.88391 280.72638
 282.75052 284.53833 286.08136 287.43494 288.60425 289.63635 290.57193 291.42035
 292.18201 292.86530 293.45401 294.18716
 366.78100 356.35960 345.81621 334.70681 323.13441 311.35301 299.24762 287.07522
 274.81182 262.73342 250.76703 240.09263 230.23923 221.36784 213.57444 206.60104
 200.45964 195.42225 192.02885 190.09545 189.15705 189.24566 190.10526 191.43786
 193.18747 195.30707 197.59467 199.97827 202.44788 204.95248 207.06508 208.93168
 210.58229 211.75189 212.00549 212.25809 212.21970 211.94930 211.60690 211.26151
 210.90311 210.63771 210.47031 210.35892 210.31152 210.66712 211.07772 211.49133
 212.30893 213.51153 214.78614 216.59374 218.54634 220.61394 222.73355 224.84115
 226.92575 229.03435 231.15596 233.28656 235.44016 237.63677 239.91737 242.31197
 244.95757 247.23318 249.25978 251.04938 252.49098 253.63859 254.48519 254.82579
 254.88740 254.68600 254.07060 253.04320 251.67381 249.85941 247.79301 245.65061
 243.46622 241.29482 239.13942 237.00303 234.88763 232.77923 230.82983 229.01144
 227.31904 225.81564 224.47024 223.26685 222.17345 221.15805 220.28665 219.45226
 218.71886 217.92346 217.04607 216.43467 215.90927 214.09055 209.81262 208.90408
 209.90694 210.63615 211.97371 215.33986 219.62436 224.39087 230.12575 235.17569
 239.05646 243.15080 247.57285 252.01886 255.82333 258.83350 261.39658 263.92490
 266.59821 269.15668 271.65781 274.07761 275.83157 277.24463 278.81595 280.68600
 282.71811 284.50391 286.04306 287.39658 288.56610 289.59348 290.52432 291.37000
 292.13095 292.81329 293.40536 294.14438
 366.78100 356.35897 345.81494 334.70491 323.13188 311.34985 299.24382 287.07079
 274.80676 262.72773 250.76071 240.08568 230.23165 221.35962 213.56559 206.59156
 200.44953 195.41150 192.01747 190.08344 189.14441 189.23238 190.09135 191.42332
 193.17229 195.29126 197.57823 199.96120 202.43018 204.93415 207.04612 208.91209
 210.56206 211.73103 211.98400 212.23597 212.19694 211.92591 211.58288 211.23685
 210.87782 210.61179 210.44376 210.33173 210.28370 210.63867 211.04864 211.46162
 212.27859 213.48056 214.75453 216.56150 218.51347 220.58044 222.69941 224.80638
 226.89035 228.99832 231.11929 233.24926 235.40223 237.59820 239.87817 242.27214
 244.91711 247.19209 249.21806 251.00703 252.44800 253.59497 254.44094 254.78091
 254.84188 254.63985 254.02382 252.99579 251.62576 249.81073 247.74370 245.60067
 243.41564 241.24361 239.08758 236.95055 234.83453 232.72550 230.77547 228.95644
 227.26341 225.75938 224.41335 223.20932 222.11529 221.09926 220.22723 219.39220
 218.65817 217.86214 216.98411 216.37208 215.84605 214.06683 209.88097 209.00754
 209.94902 210.62332 211.95801 215.30592 219.55209 224.31483 230.05571 235.10695
 238.99164 243.09210 247.51920 251.97467 255.80309 258.84354 261.42010 263.93207
 266.58380 269.12320 271.60327 273.99625 275.73364 277.14676 278.74030 280.63989
 282.67477 284.45844 285.99509 287.34714 288.51572 289.54242 290.47647 291.32480
 292.08670 292.76657 293.36319 294.11002
 366.78100 356.35833 345.81365 334.70298 323.12930 311.34663 299.23995 287.06628
 274.80160 262.72193 250.75425 240.07858 230.22390 221.35123 213.55655 206.58188
 200.43920 195.40053 192.00585 190.07118 189.13150 189.21883 190.07715 191.40848
 193.15680 195.27513 197.56145 199.94378 202.41210 204.91543 207.02675 208.89208
 210.54140 211.70973 211.96205 212.21338 212.17370 211.90203 211.55835 211.21168
 210.85200 210.58533 210.41665 210.30398 210.25530 210.60963 211.01895 211.43128
 212.24760 213.44893 214.72225 216.52858 218.47990 220.54623 222.66456 224.77088
 226.85421 228.96153 231.08186 233.21118 235.36351 237.55883 239.83816 242.23148
 244.87581 247.15013 249.17546 250.96378 252.40411 253.55043 254.39576 254.73508
 254.79541 254.59273 253.97606 252.94738 251.57671 249.76103 247.69336 245.54968
 243.36401 241.19133 239.03466 236.89698 234.78031 232.67063 230.71996 228.90028
 227.20661 225.70193 224.35526 223.15058 222.05591 221.03923 220.16656 219.33088
 218.59621 217.79953 216.92086 216.30818 215.78151 214.04251 209.95058 209.11226
 210.00960 210.61020 211.91444 215.26328 219.47081 224.22998 229.98589 235.04430
 238.93677 243.04745 247.47841 251.94533 255.80240 258.87796 261.46786 263.95624
 266.57635 269.08713 271.53995 273.90714 275.62250 277.04224 278.66486 280.59265
 282.62744 284.40359 285.93750 287.28998 288.45856 289.48868 290.42709 291.27731
 292.04099 292.72327 293.32022 294.07303
 366.78100 356.35798 345.81296 334.70193 323.12791 311.34489 299.23787 287.06385
 274.79882 262.71880 250.75078 240.07476 230.21974 221.34672 213.55169 206.57667
 200.43365 195.39463 191.99961 190.06458 189.12456 189.21154 190.06952 191.40050
 193.14847 195.26645 197.55243 199.93441 202.40239 204.90537 207.01634 208.88132
 210.53030 211.69828 211.95026 212.20123 212.16121 211.88919 211.54517 211.19815
 210.83812 210.57110 210.40208 210.28906 210.24004 210.59401 211.00299 211.41497
 212.23095 213.43193 214.70491 216.51088 218.46186 220.52784 222.64582 224.75180
 226.83477 228.94175 231.06173 233.19071 235.34269 237.53766 239.81664 242.20962
 244.85360 247.12758 249.15256 250.94053 252.38051 253.52649 254.37147 254.71045
 254.77042 254.56740 253.95038 252.92136 251.55034 249.73431 247.66629 245.52227
 243.33625 241.16323 239.00620 236.86818 234.75116 232.64114 230.69012 228.87010
 227.17607 225.67105 224.32403 223.11901 222.02399 221.00696 220.13394 219.29792
 218.56290 217.76588 216.88685 216.27383 215.74681 214.03162 209.99550 209.23193
 210.11353 210.57036 211.84708 215.19875 219.37006 224.14049 229.91910 234.98489
 238.88403 243.00674 247.44101 251.91536 255.79889 258.91425 261.52802 264.00150
 266.59000 269.07315 271.49356 273.83472 275.54434 276.96439 278.60101 280.54257
 282.57553 284.34393 285.87271 287.22278 288.39285 289.42490 290.36450 291.21564
 291.98050 292.66449 293.26254 294.01773
 366.78100 356.35840 345.81379 334.70319 323.12958 311.34698 299.24038 287.06677
 274.80217 262.72256 250.75496 240.07935 230.22475 221.35215 213.55754 206.58294
 200.44033 195.40173 192.00713 190.07252 189.13292 189.22031 190.07871 191.41011
 193.15850 195.27690 197.56329 199.94569 202.41409 204.91748 207.02888 208.89427
 210.54367 211.71206 211.96446 212.21586 212.17625 211.90465 211.56104 211.21444
 210.85484 210.58823 210.41963 210.30702 210.25842 210.61282 211.02221 211.43461
 212.25100 213.45240 214.72579 216.53219 218.48359 220.54998 222.66838 224.77477
 226.85817 228.96557 231.08596 233.21536 235.36775 237.56315 239.84255 242.23594
 244.88034 247.15473 249.18013 250.96852 252.40892 253.55532 254.40071 254.74011
 254.80050 254.59790 253.98130 252.95269 251.58209 249.76648 247.69888 245.55528
 243.36967 241.19707 239.04046 236.90286 234.78626 232.67665 230.72605 228.90644
 227.21284 225.70823 224.36163 223.15703 222.06242 221.04582 220.17321 219.33761
 218.60301 217.80640 216.92780 216.31519 215.78859 214.05942 209.99361 209.35419
 210.24788 210.54826 211.77679 215.12401 219.26788 224.05418 229.84915 234.91782
 238.82083 242.95348 247.39136 251.86353 255.75682 258.91113 261.56335 264.04391
 266.61432 269.07932 271.47223 273.78281 275.50253 276.93359 278.56818 280.50281
 282.51556 284.27634 285.80179 287.15317 288.32422 289.35837 290.30002 291.15411
 291.92365 292.61292 293.21558 293.98178
 366.78100 356.35842 345.81383 334.70325 323.12967 311.34708 299.24050 287.06692
 274.80233 262.72275 250.75516 240.07958 230.22500 221.35241 213.55783 206.58325
 200.44066 195.40208 192.00750 190.07291 189.13333 189.22075 190.07916 191.41058
 193.15900 195.27741 197.56383 199.94625 202.41466 204.91808 207.02949 208.89491
 210.54433 211.71274 211.96516 212.21658 212.17699 211.90541 211.56183 211.21524
 210.85566 210.58908 210.42049 210.30791 210.25933 210.61374 211.02316 211.43558
 212.25199 213.45341 214.72682 216.53324 218.48466 220.55107 222.66949 224.77591
 226.85932 228.96674 231.08716 233.21657 235.36899 237.56441 239.84382 242.23724
 244.88166 247.15607 249.18149 250.96991 252.41032 253.55674 254.40215 254.74157
 254.80199 254.59940 253.98282 252.95424 251.58365 249.76807 247.70049 245.55690
 243.37132 241.19874 239.04215 236.90457 234.78799 232.67840 230.72782 228.90823
 227.21465 225.71007 224.36348 223.15890 222.06432 221.04773 220.17515 219.33957
 218.60498 217.80840 216.92982 216.31723 215.79065 214.07394 210.03336 209.34161
 210.44493 210.63046 211.64528 215.08592 219.19400 223.96765 229.79279 234.85512
 238.75781 242.89455 247.33281 251.80165 255.69176 258.87173 261.56161 264.05515
 266.62415 269.07202 271.43735 273.74457 275.48035 276.92413 278.54517 280.45819
 282.46002 284.21713 285.72998 287.07642 288.24542 289.27509 290.21579 291.06305
 291.82831 292.50885 293.08258 293.82834
 366.78100 356.35741 345.81182 334.70023 323.12564 311.34204 299.23445 287.05986
 274.79427 262.71368 250.74509 240.06850 230.21291 221.33932 213.54373 206.56813
 200.42454 195.38495 191.98936 190.05377 189.11318 189.19959 190.05700 191.38741
 193.13481 195.25222 197.53763 199.91904 202.38645 204.88886 206.99927 208.86368
 210.51209 211.67950 211.93090 212.18131 212.14072 211.86813 211.52354 211.17595
 210.81536 210.54777 210.37818 210.26459 210.21499 210.56840 210.97681 211.38822
 212.20363 213.40404 214.67645 216.48186 218.43227 220.49767 222.61508 224.72049
 226.80290 228.90931 231.02872 233.15713 235.30854 237.50295 239.78136 242.17376
 244.81717 247.09058 249.11499 250.90240 252.34181 253.48722 254.33163 254.67004
 254.72944 254.52585 253.90826 252.87867 251.50708 249.69049 247.62190 245.47731
 243.29072 241.11713 238.95953 236.82094 234.70335 232.59276 230.64117 228.82058
 227.12599 225.62040 224.27281 223.06722 221.97162 220.95403 220.08044 219.24385
 218.50826 217.71067 216.83108 216.21749 215.68990 214.04111 210.15735 209.29828
 210.48810 210.77951 211.63495 215.01862 219.14136 223.91771 229.74619 234.79390
 238.69734 242.84766 247.28593 251.74841 255.64296 258.85107 261.56525 264.05609
 266.60818 269.03241 271.37234 273.66031 275.40924 276.88141 278.50754 280.41241
 282.40472 284.15912 285.66940 287.00543 288.16922 289.17682 290.10913 290.96021
 291.72144 292.39923 292.90359 293.63284
 366.78100 356.35631 345.80963 334.69694 323.12125 311.33657 299.22788 287.05220
 274.78551 262.70382 250.73414 240.05645 230.19976 221.32508 213.52839 206.55171
 200.40702 195.36633 191.96965 190.03296 189.09127 189.17659 190.03290 191.36221
 193.10853 195.22484 197.50916 199.88947 202.35578 204.85710 206.96641 208.82972
 210.47704 211.64335 211.89367 212.14298 212.10129 211.82761 211.48192 211.13323
 210.77155 210.50286 210.33217 210.21749 210.16680 210.51912 210.92643 211.33674
 212.15106 213.35037 214.62168 216.42600 218.37531 220.43963 222.55594 224.66025
 226.74157 228.84688 230.96519 233.09251 235.24282 237.43613 239.71345 242.10476
 244.74708 247.01939 249.04270 250.82902 252.26733 253.41164 254.25496 254.59227
 254.65058 254.44590 253.82721 252.79653 251.42384 249.60615 247.53647 245.39078
 243.20309 241.02841 238.86972 236.73004 234.61135 232.49966 230.54698 228.72529
 227.02960 225.52292 224.17423 222.96754 221.87086 220.85217 219.97749 219.13980
 218.40311 217.60443 216.72374 216.10905 215.58037 214.00586 210.30693 209.34222
 210.40993 210.80267 211.74318 214.96652 219.07524 223.87460 229.68573 234.72594
 238.63107 242.81033 247.24870 251.69672 255.61189 258.86807 261.61404 264.10474
 266.60370 268.99802 271.30399 273.53107 275.30655 276.82251 278.46423 280.36331
 282.34134 284.09235 285.60175 286.93289 288.08667 289.08038 289.99844 290.85110
 291.61459 292.15817 292.62411 293.31747
 366.78100 356.35566 345.80832 334.69498 323.11864 311.33330 299.22395 287.04761
 274.78027 262.69793 250.72759 240.04925 230.19191 221.31657 213.51923 206.54189
 200.39655 195.35520 191.95786 190.02052 189.07818 189.16284 190.01850 191.34716
 193.09282 195.20848 197.49214 199.87180 202.33745 204.83811 206.94677 208.80943
 210.45609 211.62175 211.87141 212.12007 212.07773 211.80339 211.45704 211.10770
 210.74536 210.47602 210.30468 210.18934 210.13800 210.48966 210.89632 211.30598
 212.11964 213.31829 214.58895 216.39261 218.34127 220.40493 222.52059 224.62425
 226.70491 228.80957 230.92723 233.05389 235.20354 237.39620 239.67286 242.06352
 244.70518 246.97684 248.99950 250.78516 252.22282 253.36648 254.20914 254.54579
 254.60345 254.39811 253.77877 252.74743 251.37409 249.55575 247.48541 245.33907
 243.15073 240.97539 238.81604 236.67570 234.55636 232.44402 230.49068 228.66834
 226.97200 225.46466 224.11532 222.90798 221.81064 220.79129 219.91595 219.07761
 218.34027 217.54093 216.65959 216.04425 215.51491 213.99208 210.42665 209.44266
 210.33781 210.76314 211.84033 214.92372 218.97771 223.80074 229.61348 234.65132
 238.55966 242.76646 247.20937 251.63857 255.57236 258.88245 261.67859 264.18878
 266.64578 269.00293 271.28571 273.44592 275.23285 276.78448 278.43695 280.32401
 282.26852 284.01343 285.52423 286.85614 287.98828 288.96338 289.88696 290.72797
 291.47690 292.11893 292.70367 293.44888
 366.78100 356.35450 345.80600 334.69150 323.11401 311.32751 299.21701 287.03951
 274.77101 262.68751 250.71601 240.03652 230.17802 221.30152 213.50302 206.52452
 200.37802 195.33552 191.93703 189.99853 189.05503 189.13853 189.99303 191.32053
 193.06503 195.17953 197.46204 199.84054 202.30504 204.80454 206.91204 208.77354
 210.41904 211.58355 211.83205 212.07955 212.03605 211.76055 211.41305 211.06255
 210.69906 210.42856 210.25606 210.13956 210.08706 210.43756 210.84306 211.25157
 212.06407 213.26157 214.53107 216.33357 218.28107 220.34357 222.45808 224.56058
 226.64008 228.74358 230.86008 232.98558 235.13408 237.32559 239.60109 241.99059
 244.63109 246.90159 248.92309 250.70759 252.14409 253.28660 254.12810 254.46360
 254.52010 254.31360 253.69310 252.66060 251.28611 249.46661 247.39511 245.24761
 243.05811 240.88161 238.72111 236.57962 234.45912 232.34562 230.39112 228.56762
 226.87012 225.36162 224.01113 222.80263 221.70413 220.68363 219.80713 218.96763
 218.22913 217.42864 216.54614 215.92964 215.39914 213.95743 210.59370 209.50153
 210.29297 210.73933 211.90324 214.91626 218.90088 223.70967 229.52966 234.56787
 238.47420 242.70988 247.16228 251.57414 255.52895 258.89932 261.75690 264.29962
 266.72583 269.03870 271.26517 273.37701 275.14133 276.69385 278.35583 280.27045
 282.21600 283.94531 285.43427 286.74872 287.85220 288.82977 289.75085 290.57755
 291.31873 291.99573 292.58716 293.34088
 366.78100 356.35047 345.79794 334.67941 323.09788 311.30735 299.19282 287.01128
 274.73875 262.65122 250.67569 239.99216 230.12963 221.24910 213.44657 206.46404
 200.31351 195.26698 191.86445 189.92192 188.97439 189.05385 189.90432 191.22779
 192.96826 195.07873 197.35720 199.73167 202.19214 204.68761 206.79108 208.64855
 210.29002 211.45049 211.69495 211.93842 211.89089 211.61136 211.25983 210.90530
 210.53777 210.26324 210.08671 209.96618 209.90965 210.25612 210.65759 211.06206
 211.87052 213.06399 214.32946 216.12793 218.07140 220.12987 222.24034 224.33881
 226.41428 228.51375 230.62622 232.74769 234.89216 237.07962 239.35109 241.73656
 244.37303 246.63950 248.65697 250.43744 251.86991 253.00838 253.84585 254.17732
 254.22979 254.01926 253.39473 252.35819 250.97966 249.15613 247.08060 244.92907
 242.73554 240.55501 238.39048 236.24495 234.12042 232.00289 230.04436 228.21683
 226.51529 225.00276 223.64823 222.43570 221.33317 220.30864 219.42811 218.58458
 217.84205 217.03752 216.15099 215.53046 214.99593 213.77823 210.94411 209.67485
 210.08917 210.47644 211.85905 214.86897 218.80786 223.59648 229.44847 234.48465
 238.39264 242.66136 247.13921 251.54431 255.53421 258.96753 261.87747 264.45828
 266.84766 269.14874 271.20081 273.45209 275.23364 276.71869 278.29599 280.14252
 282.07715 283.81812 285.28101 286.57162 287.71689 288.74280 289.70099 290.58054
 291.37161 292.07608 292.69147 293.47571
 366.78100 356.34356 345.78413 334.65869 323.07025 311.27281 299.15138 286.96294
 274.68350 262.58907 250.60663 239.91619 230.04676 221.15932 213.34988 206.36044
 200.20301 195.14957 191.74013 189.79070 188.83626 188.90882 189.75239 191.06895
 192.80251 194.90607 197.17764 199.54520 201.99876 204.48733 206.58389 208.43445
 210.06902 211.22258 211.46014 211.69670 211.64227 211.35583 210.99739 210.63596
 210.26152 209.98008 209.79665 209.66921 209.60577 209.94533 210.33990 210.73746
 211.53902 212.72559 213.98415 215.77571 217.71227 219.76384 221.86740 223.95896
 226.02753 228.12009 230.22565 232.34022 234.47778 236.65834 238.92290 241.30147
 243.93103 246.19059 248.20116 249.97472 251.40028 252.53185 253.36241 253.68697
 253.73253 253.51510 252.88366 251.84022 250.45479 248.62435 246.54191 244.38348
 242.18304 239.99560 237.82416 235.67173 233.54029 231.41585 229.45042 227.61598
 225.90754 224.38811 223.02667 221.80723 220.69779 219.66636 218.77892 217.92848
 217.17905 216.36761 215.47417 214.84673 214.30530 213.43153 211.35529 210.02637
 209.96072 210.28694 211.86308 214.84766 218.75691 223.53957 229.45691 234.48410
 238.42970 242.70706 247.19727 251.62802 255.67285 259.15952 262.08151 264.60651
 266.89822 269.04019 271.35938 273.61127 275.41592 276.88171 278.38516 280.11838
 281.95169 283.50034 284.86398 286.24777 287.58463 288.77625 289.86340 290.84827
 291.73407 292.52289 293.21198 294.09012
 366.78100 356.34241 345.78181 334.65522 323.06563 311.26704 299.14444 286.95485
 274.67426 262.57867 250.59507 239.90348 230.03289 221.14430 213.33370 206.34311
 200.18452 195.12993 191.71933 189.76874 188.81315 188.88456 189.72696 191.04237
 192.77478 194.87719 197.14759 199.51400 201.96641 204.45382 206.54922 208.39863
 210.03204 211.18445 211.42085 211.65626 211.60067 211.31307 210.95348 210.59089
 210.21530 209.93270 209.74811 209.61952 209.55493 209.89333 210.28674 210.68315
 211.48356 212.66896 213.92637 215.71678 217.65219 219.70259 221.80500 223.89541
 225.96282 228.05422 230.15863 232.27204 234.40845 236.58785 238.85126 241.22867
 243.85708 246.11548 248.12489 249.89730 251.32171 252.45211 253.28152 253.60493
 253.64933 253.43074 252.79815 251.75356 250.36696 248.53537 246.45178 244.29219
 242.09059 239.90200 237.72941 235.57582 233.44322 231.31763 229.35104 227.51545
 225.80585 224.28526 222.92267 221.70208 220.59148 219.55889 218.67030 217.81871
 217.06811 216.25552 215.36093 214.73234 214.18974 213.37570 211.43584 210.22321
 210.05341 210.31419 211.87677 214.79303 218.64430 223.45081 229.42274 234.42993
 238.38258 242.66525 247.15617 251.60330 255.67583 259.19806 262.14828 264.74033
 266.94693 269.17374 271.47845 273.79913 275.67303 277.14163 278.49243 280.09164
 281.74939 283.33859 285.04395 286.79755 288.31516 289.65784 290.88284 291.99258
 292.99069 293.87952 294.65598 295.64548
 366.78100 356.34928 345.79556 334.67584 323.09312 311.30140 299.18568 287.00296
 274.72924 262.64052 250.66380 239.97907 230.11535 221.23363 213.42991 206.44619
 200.29447 195.24675 191.84303 189.89931 188.95059 189.02887 189.87815 191.20043
 192.93971 195.04899 197.32627 199.69955 202.15883 204.65311 206.75539 208.61167
 210.25194 211.41122 211.65450 211.89678 211.84806 211.56734 211.21462 210.85890
 210.49018 210.21446 210.03674 209.91502 209.85730 210.20258 210.60286 211.00614
 211.81342 213.00570 214.26998 216.06726 218.00954 220.06682 222.17609 224.27337
 226.34765 228.44593 230.55721 232.67749 234.82077 237.00705 239.27733 241.66161
 244.29689 246.56217 248.57845 250.35773 251.78901 252.92629 253.76257 254.09285
 254.14413 253.93241 253.30669 252.26896 250.88924 249.06452 246.98780 244.83508
 242.64036 240.45864 238.29292 236.14620 234.02048 231.90176 229.94204 228.11332
 226.41060 224.89688 223.54116 222.32744 221.22372 220.19800 219.31628 218.47156
 217.72783 216.92211 216.03439 215.41267 214.87695 213.72577 211.11302 210.23288
 210.45319 210.71732 212.01566 214.72316 218.50513 223.31532 229.12029 234.14667
 238.08954 242.39249 246.89128 251.27962 255.26456 258.77945 261.83868 264.55063
 267.03189 269.41580 271.83240 274.23560 276.28912 277.87338 279.17447 280.51361
 282.02600 283.47845 285.03784 286.55771 288.10083 289.46609 290.71167 291.84012
 292.85498 293.75876 294.54828 295.55441
 366.78100 356.35765 345.81230 334.70096 323.12661 311.34326 299.23591 287.06156
 274.79622 262.71587 250.74752 240.07117 230.21582 221.34248 213.54713 206.57178
 200.42843 195.38908 191.99374 190.05839 189.11804 189.20469 190.06234 191.39300
 193.14065 195.25830 197.54395 199.92560 202.39326 204.89591 207.00656 208.87121
 210.51986 211.68752 211.93917 212.18982 212.14947 211.87713 211.53278 211.18543
 210.82508 210.55773 210.38839 210.27504 210.22569 210.57934 210.98799 211.39965
 212.21530 213.41595 214.68860 216.49425 218.44491 220.51056 222.62821 224.73386
 226.81651 228.92317 231.04282 233.17147 235.32312 237.51777 239.79643 242.18908
 244.83273 247.10638 249.13103 250.91869 252.35834 253.50399 254.34864 254.68729
 254.74695 254.54360 253.92625 252.89690 251.52555 249.70921 247.64086 245.49651
 243.31016 241.13681 238.97947 236.84112 234.72377 232.61342 230.66207 228.84173
 227.14738 225.64203 224.29468 223.08933 221.99399 220.97664 220.10329 219.26694
 218.53159 217.73425 216.85490 216.24155 215.71420 214.19420 210.70074 209.89845
 210.70825 211.20845 212.35124 214.84999 218.48779 223.19264 228.95036 233.91406
 237.88644 242.16368 246.56213 250.82405 254.71530 258.18149 261.26871 264.07477
 266.72159 269.28906 271.79108 274.17651 276.31570 278.13672 279.68610 281.12000
 282.51123 283.86923 285.19525 286.48746 287.66983 288.74442 289.75946 290.76288
 291.67126 292.48019 293.18686 294.08740
 366.78100 356.36066 345.81833 334.70999 323.13865 311.35832 299.25398 287.08265
 274.82031 262.74297 250.77764 240.10430 230.25196 221.38163 213.58929 206.61695
 200.47662 195.44028 192.04795 190.11561 189.17827 189.26794 190.12860 191.46226
 193.21293 195.33359 197.62226 200.00692 202.47758 204.98325 207.09691 208.96457
 210.61624 211.78690 212.04156 212.29523 212.25789 211.98856 211.64722 211.30288
 210.94555 210.68121 210.51487 210.40454 210.35820 210.71486 211.12653 211.54119
 212.35986 213.56352 214.83918 216.64785 218.60151 220.67017 222.79084 224.89950
 226.98516 229.09483 231.21749 233.34916 235.50382 237.70148 239.98315 242.37881
 245.02547 247.30214 249.32980 251.12046 252.56313 253.71179 254.55946 254.90112
 254.96378 254.76345 254.14911 253.12277 251.75444 249.94110 247.87577 245.73443
 243.55109 241.38076 239.22642 237.09108 234.97675 232.86941 230.92107 229.10374
 227.41240 225.91007 224.56573 223.36339 222.27106 221.25672 220.38638 219.55305
 218.82071 218.02637 217.15004 216.53970 216.01537 214.40335 210.62907 209.63356
 210.68494 211.48831 212.65610 215.04051 218.54541 223.17593 228.97417 233.84860
 237.89534 242.15030 246.54822 250.82571 254.73460 258.17834 261.20087 263.91492
 266.49985 269.04205 271.52762 273.87344 275.98056 277.82834 279.49478 281.05679
 282.54657 283.94800 285.26172 286.51627 287.68839 288.76123 289.74817 290.64206
 291.41116 291.92496 292.25211 292.66901
 366.78100 356.35324 345.80348 334.68771 323.10895 311.32119 299.20943 287.03067
 274.76090 262.67614 250.70338 240.02262 230.16286 221.28510 213.48533 206.50557
 200.35781 195.31405 191.91429 189.97452 189.02976 189.11200 189.96524 191.29148
 193.03471 195.14795 197.42919 199.80643 202.26967 204.76791 206.87414 208.73438
 210.37862 211.54186 211.78910 212.03533 211.99057 211.71381 211.36505 211.01329
 210.64852 210.37676 210.20300 210.08524 210.03148 210.38072 210.78495 211.19219
 212.00343 213.19967 214.46791 216.26914 218.21538 220.27662 222.38986 224.49110
 226.56933 228.67157 230.78681 232.91105 235.05829 237.24853 239.52276 241.91100
 244.55024 246.81948 248.83972 250.62295 252.05819 253.19943 254.03967 254.37391
 254.42914 254.22138 253.59962 252.56586 251.19010 249.36934 247.29657 245.14781
 242.95705 240.77929 238.61753 236.47476 234.35300 232.23824 230.28248 228.45772
 226.75895 225.24919 223.89743 222.68767 221.58791 220.56615 219.68838 218.84762
 218.10786 217.30610 216.42234 215.80457 215.27281 214.01497 211.05013 209.92284
 210.36092 211.12439 212.51225 215.00420 218.52667 223.17828 229.01385 233.87299
 237.96513 242.22334 246.64282 250.97061 254.95515 258.45325 261.44547 264.03030
 266.47748 268.91492 271.32993 273.62555 275.67474 277.48993 279.18680 280.82617
 282.42172 283.90201 285.27255 286.54996 287.72864 288.80557 289.79605 290.66660
 291.38947 291.93167 292.17776 292.14590
 366.78100 356.34710 345.79120 334.66931 323.08441 311.29051 299.17261 286.98772
 274.71182 262.62092 250.64202 239.95512 230.08923 221.20533 213.39943 206.41353
 200.25964 195.20974 191.80384 189.85794 188.90705 188.98315 189.83025 191.15035
 192.88745 194.99456 197.26966 199.64076 202.09786 204.58997 206.69007 208.54417
 210.18227 211.33937 211.58048 211.82058 211.76968 211.48678 211.13189 210.77399
 210.40309 210.12519 209.94529 209.82140 209.76150 210.10460 210.50270 210.90381
 211.70891 212.89901 214.16111 215.95621 217.89632 219.95142 222.05852 224.15362
 226.22573 228.32183 230.43093 232.54903 234.69014 236.87424 239.14234 241.52444
 244.15754 246.42065 248.43475 250.21185 251.64095 252.77606 253.61016 253.93826
 253.98736 253.77346 253.14557 252.10567 250.72377 248.89687 246.81798 244.66308
 242.46618 240.28228 238.11438 235.96549 233.83759 231.71669 229.75479 227.92390
 226.21900 224.70310 223.34520 222.12931 221.02341 219.99551 219.11161 218.26471
 217.51882 216.71092 215.82102 215.19712 214.65923 213.65930 211.29918 210.41458
 210.39549 210.80301 212.20535 214.81270 218.37840 223.07281 228.94234 233.80823
 237.91507 242.19226 246.63412 251.00072 255.04892 258.61487 261.63034 264.17026
 266.54575 268.90375 271.23950 273.46323 275.42316 277.18140 278.89673 280.61359
 282.31897 283.88666 285.30307 286.58075 287.72830 288.79282 289.79694 290.67929
 291.34665 291.82120 292.15091 292.22586
 366.78100 356.34758 345.79216 334.67074 323.08632 311.29290 299.17547 286.99105
 274.71563 262.62521 250.64679 239.96037 230.09495 221.21153 213.40611 206.42069
 200.26727 195.21784 191.81242 189.86700 188.91658 188.99316 189.84074 191.16132
 192.89890 195.00648 197.28206 199.65364 202.11121 204.60379 206.70437 208.55895
 210.19753 211.35511 211.59669 211.83727 211.78685 211.50443 211.15001 210.79258
 210.42216 210.14474 209.96532 209.84190 209.78248 210.12606 210.52464 210.92622
 211.73180 212.92238 214.18495 215.98053 217.92111 219.97669 222.08427 224.17985
 226.25243 228.34901 230.45859 232.57717 234.71875 236.90332 239.17190 241.55448
 244.18806 246.45164 248.46622 250.24380 251.67338 252.80896 253.64354 253.97212
 254.02169 253.80827 253.18085 252.14143 250.76001 248.93359 246.85517 244.70075
 242.50433 240.32091 238.15349 236.00506 233.87764 231.75722 229.79580 227.96538
 226.26096 224.74554 223.38812 222.17270 221.06728 220.03986 219.15643 218.31001
 217.56459 216.75717 215.86775 215.24433 214.70691 213.67969 211.25652 210.58420
 210.62325 210.88539 212.17560 214.72885 218.22076 222.91415 228.80765 233.69417
 237.80168 242.09352 246.55045 250.93346 255.01399 258.62076 261.66541 264.21698
 266.59808 268.93683 271.23166 273.42361 275.34662 277.06311 278.75589 280.48450
 282.23453 283.84863 285.29172 286.57382 287.70227 288.76031 289.75476 290.59955
 291.22336 291.64996 291.95139 292.25256
 366.78100 356.34982 345.79663 334.67745 323.09526 311.30408 299.18890 287.00671
 274.73353 262.64534 250.66916 239.98498 230.12179 221.24061 213.43742 206.45424
 200.30306 195.25587 191.85269 189.90950 188.96132 189.04014 189.88995 191.21277
 192.95258 195.06240 197.34022 199.71403 202.17385 204.66866 206.77148 208.62830
 210.26911 211.42893 211.67275 211.91556 211.86738 211.58719 211.23501 210.87983
 210.51164 210.23646 210.05927 209.93809 209.88091 210.22672 210.62754 211.03135
 211.83917 213.03199 214.29680 216.09462 218.03743 220.09525 222.20507 224.30288
 226.37770 228.47651 230.58833 232.70915 234.85296 237.03978 239.31059 241.69541
 244.33123 246.59704 248.61386 250.39367 251.82549 252.96331 253.80012 254.13094
 254.18275 253.97157 253.34639 252.30920 250.93002 249.10583 247.02965 244.87747
 242.68328 240.50210 238.33691 236.19073 234.06555 231.94736 229.98818 228.15999
 226.45781 224.94463 223.58944 222.37626 221.27307 220.24789 219.36671 218.52252
 217.77934 216.97415 216.08697 215.46579 214.93060 213.82413 211.22299 210.49757
 210.86934 211.08717 212.25880 214.70444 218.06029 222.78391 228.68840 233.62128
 237.70226 242.02020 246.47224 250.85905 254.95908 258.59201 261.65033 264.21613
 266.60800 268.94531 271.22733 273.41422 275.31985 277.00354 278.66107 280.38202
 282.14801 283.79547 285.24805 286.51181 287.62161 288.67639 289.66693 290.44733
 290.94809 291.29996 291.56549 291.89111
 366.78100 356.34748 345.79197 334.67045 323.08593 311.29241 299.17490 286.99038
 274.71486 262.62435 250.64583 239.95931 230.09380 221.21028 213.40476 206.41924
 200.26573 195.21621 191.81069 189.86518 188.91466 188.99114 189.83863 191.15911
 192.89659 195.00407 197.27956 199.65104 202.10852 204.60101 206.70149 208.55597
 210.19445 211.35194 211.59342 211.83390 211.78339 211.50087 211.14635 210.78884
 210.41832 210.14080 209.96128 209.83777 209.77825 210.12173 210.52022 210.92170
 211.72718 212.91767 214.18015 215.97563 217.91611 219.97160 222.07908 224.17456
 226.24705 228.34353 230.45301 232.57149 234.71298 236.89746 239.16594 241.54843
 244.18191 246.44539 248.45988 250.23736 251.66684 252.80232 253.63681 253.96529
 254.01477 253.80126 253.17374 252.13422 250.75271 248.92619 246.84767 244.69315
 242.49664 240.31312 238.14560 235.99709 233.86957 231.74905 229.78753 227.95702
 226.25250 224.73698 223.37947 222.16395 221.05843 220.03092 219.14740 218.30088
 217.55536 216.74785 215.85833 215.23481 214.69730 213.75005 211.53392 210.42029
 210.59566 211.16927 212.36795 214.61690 218.00085 222.69705 228.61710 233.65472
 237.65106 241.99451 246.44028 250.82182 254.93932 258.60248 261.68036 264.27780
 266.65518 268.95004 271.21838 273.37305 275.25397 276.91409 278.55557 280.28799
 282.04428 283.68927 285.13919 286.41205 287.52557 288.47223 289.40262 290.30942
 291.13763 291.87515 292.51944 293.34052
 366.78100 356.34591 345.78882 334.66572 323.07963 311.28454 299.16545 286.97936
 274.70226 262.61017 250.63008 239.94199 230.07490 221.18980 213.38271 206.39562
 200.24053 195.18944 191.78234 189.83525 188.88316 188.95807 189.80397 191.12288
 192.85879 194.96470 197.23861 199.60851 202.06442 204.55533 206.65424 208.50715
 210.14405 211.29996 211.53987 211.77878 211.72669 211.44259 211.08650 210.72741
 210.35532 210.07623 209.89513 209.77004 209.70895 210.05086 210.44777 210.84767
 211.65158 212.84049 214.10140 215.89531 217.83421 219.88812 221.99403 224.08794
 226.15885 228.25375 230.36166 232.47857 234.61848 236.80138 239.06829 241.44920
 244.08111 246.34302 248.35592 250.13183 251.55974 252.69365 253.52656 253.85346
 253.90137 253.68628 253.05719 252.01610 250.63300 248.80491 246.72482 244.56873
 242.37064 240.18554 238.01645 235.86636 233.73727 231.61518 229.65208 227.81999
 226.11390 224.59681 223.23772 222.02062 220.91353 219.88444 218.99935 218.15126
 217.40416 216.59507 215.70398 215.07889 214.53979 213.70668 211.73582 210.47722
 210.47340 211.23128 212.53156 214.66571 218.02489 222.70697 228.63882 233.66599
 237.65788 241.98900 246.42587 250.81531 254.97461 258.69208 261.77905 264.37152
 266.74274 269.02374 271.27646 273.40598 275.25446 276.89105 278.51874 280.21274
 281.97324 283.60318 285.14023 286.55151 287.88092 289.09207 290.19705 291.19812
 292.09845 292.90021 293.60059 294.49316
 366.78100 356.35206 345.80111 334.68417 323.10423 311.31529 299.20234 287.02240
 274.75146 262.66551 250.69157 240.00963 230.14869 221.26974 213.46880 206.48786
 200.33891 195.29397 191.89303 189.95208 189.00614 189.08720 189.93926 191.26431
 193.00637 195.11843 197.39848 199.77454 202.23660 204.73366 206.83871 208.69777
 210.34083 211.50288 211.74894 211.99400 211.94806 211.67011 211.32017 210.96723
 210.60128 210.32834 210.15340 210.03445 209.97951 210.32757 210.73063 211.13668
 211.94674 213.14180 214.40885 216.20891 218.15397 220.21403 222.32608 224.42614
 226.50320 228.60425 230.71831 232.84137 234.98743 237.17648 239.44954 241.83660
 244.47465 246.74271 248.76177 250.54382 251.97788 253.11794 253.95700 254.29005
 254.34411 254.13517 253.51222 252.47728 251.10034 249.27840 247.20445 245.05451
 242.86257 240.68362 238.52068 236.37674 234.25380 232.13785 230.18091 228.35497
 226.65502 225.14408 223.79114 222.58020 221.47925 220.45631 219.57737 218.73542
 217.99448 217.19154 216.30659 215.68765 215.15471 214.05891 211.53586 210.43199
 210.74037 211.58620 212.72847 214.63062 217.91147 222.61977 228.57169 233.56587
 237.54326 241.85913 246.27811 250.65277 254.80602 258.51178 261.63031 264.28723
 266.74081 269.10074 271.40009 273.61047 275.51562 277.13730 278.68738 280.30750
 282.00061 283.79550 285.42828 287.01321 288.43021 289.68387 290.82764 291.86383
 292.79575 293.62564 294.35062 295.27451
 366.78100 356.35651 345.81002 334.69753 323.12204 311.33755 299.22905 287.05356
 274.78707 262.70558 250.73609 240.05860 230.20211 221.32762 213.53113 206.55464
 200.41015 195.36966 191.97316 190.03667 189.09518 189.18069 190.03720 191.36671
 193.11322 195.22973 197.51424 199.89475 202.36126 204.86277 206.97227 208.83578
 210.48329 211.64980 211.90031 212.14982 212.10833 211.83484 211.48935 211.14086
 210.77937 210.51087 210.34038 210.22589 210.17540 210.52791 210.93542 211.34593
 212.16044 213.35995 214.63146 216.43597 218.38548 220.44998 222.56649 224.67100
 226.75251 228.85802 230.97653 233.10404 235.25455 237.44806 239.72557 242.11708
 244.75959 247.03209 249.05560 250.84211 252.28062 253.42513 254.26864 254.60615
 254.66466 254.46017 253.84168 252.81119 251.43870 249.62120 247.55171 245.40622
 243.21873 241.04424 238.88575 236.74626 234.62777 232.51628 230.56379 228.74230
 227.04680 225.54031 224.19182 222.98533 221.88884 220.87035 219.99586 219.15837
 218.42188 217.62339 216.74290 216.12841 215.59991 214.32208 211.39404 210.31859
 210.80861 211.75357 212.89069 214.67082 217.87419 222.55716 228.42738 233.43472
 237.39308 241.68976 246.08185 250.43886 254.57808 258.26178 261.35419 264.04105
 266.58844 269.06680 271.50662 273.81564 275.75934 277.39771 278.96994 280.56360
 282.25153 283.99426 285.57312 287.00131 288.33954 289.60199 290.75378 291.79724
 292.73572 293.57141 294.30148 295.23184
 366.78100 356.35341 345.80382 334.68823 323.10964 311.32205 299.21046 287.03187
 274.76228 262.67769 250.70510 240.02451 230.16492 221.28733 213.48774 206.50815
 200.36056 195.31697 191.91738 189.97779 189.03320 189.11561 189.96902 191.29543
 193.03884 195.15225 197.43366 199.81107 202.27448 204.77289 206.87930 208.73971
 210.38412 211.54753 211.79494 212.04135 211.99676 211.72017 211.37158 211.01999
 210.65540 210.38381 210.21022 210.09263 210.03904 210.38845 210.79286 211.20027
 212.01168 213.20809 214.47650 216.27791 218.22432 220.28573 222.39914 224.50055
 226.57896 228.68137 230.79678 232.92120 235.06861 237.25902 239.53343 241.92184
 244.56125 246.83066 248.85107 250.63448 252.06989 253.21130 254.05171 254.38612
 254.44153 254.23394 253.61235 252.57876 251.20317 249.38258 247.30999 245.16140
 242.97081 240.79322 238.63163 236.48904 234.36745 232.25286 230.29727 228.47268
 226.77409 225.26450 223.91291 222.70332 221.60373 220.58214 219.70455 218.86396
 218.12437 217.32278 216.43919 215.82160 215.29001 214.15851 211.51355 210.41911
 210.59926 211.55080 212.99831 214.82660 217.88676 222.48322 228.41199 233.37683
 237.35867 241.64424 246.02780 250.35600 254.46825 258.14142 261.25247 263.92908
 266.43140 268.88535 271.28888 273.55685 275.54651 277.29730 278.98660 280.69794
 282.38721 284.02570 285.56177 286.93362 288.13138 289.20370 290.20270 291.12506
 292.00934 292.81097 293.51126 294.40369
 366.78100 356.34857 345.79413 334.67370 323.09026 311.29783 299.18139 286.99796
 274.72352 262.63409 250.65666 239.97122 230.10679 221.22435 213.41992 206.43548
 200.28305 195.23461 191.83018 189.88575 188.93631 189.01388 189.86244 191.18401
 192.92257 195.03114 197.30770 199.68027 202.13884 204.63240 206.73397 208.58953
 210.22910 211.38766 211.63023 211.87180 211.82236 211.54093 211.18749 210.83106
 210.46162 210.18519 210.00675 209.88432 209.82589 210.17045 210.57002 210.97258
 211.77915 212.97071 214.23428 216.03084 217.97241 220.02898 222.13754 224.23411
 226.30767 228.40524 230.51580 232.63537 234.77793 236.96350 239.23307 241.61663
 244.25120 246.51576 248.53133 250.30989 251.74046 252.87702 253.71259 254.04216
 254.09272 253.88029 253.25385 252.21542 250.83498 249.00955 246.93211 244.77868
 242.58325 240.40081 238.23438 236.08694 233.96051 231.84107 229.88064 228.05120
 226.34777 224.83334 223.47690 222.26247 221.15803 220.13160 219.24916 218.40373
 217.65929 216.85286 215.96443 215.34199 214.80556 213.91818 211.82550 210.49364
 210.42574 211.47095 212.99194 214.87685 217.89934 222.44817 228.36502 233.32204
 237.30894 241.60674 245.99327 250.33272 254.49675 258.23416 261.37256 264.01556
 266.46347 268.86151 271.23215 273.49939 275.44617 277.10919 278.73395 280.41574
 282.09985 283.82938 285.38858 286.76169 287.95523 289.02219 290.00888 290.92062
 291.77399 292.56229 293.25089 294.12848
 366.78100 356.34668 345.79037 334.66805 323.08274 311.28842 299.17010 286.98479
 274.70847 262.61716 250.63784 239.95053 230.08421 221.19989 213.39358 206.40726
 200.25295 195.20263 191.79631 189.85000 188.89868 188.97437 189.82105 191.14074
 192.87742 194.98410 197.25879 199.62947 202.08616 204.57784 206.67752 208.53121
 210.16889 211.32558 211.56626 211.80595 211.75463 211.47131 211.11600 210.75768
 210.38637 210.10805 209.92773 209.80342 209.74310 210.08579 210.48347 210.88416
 211.68884 212.87852 214.14021 215.93489 217.87458 219.92926 222.03594 224.13063
 226.20231 228.29800 230.40668 232.52437 234.66505 236.84873 239.11642 241.49810
 244.13079 246.39347 248.40715 250.18384 251.61252 252.74721 253.58089 253.90858
 253.95726 253.74294 253.11463 252.07431 250.69200 248.86468 246.78536 244.63005
 242.43273 240.24842 238.08010 235.93079 233.80247 231.68115 229.71884 227.88752
 226.18221 224.66589 223.30757 222.09126 220.98494 219.95663 219.07231 218.22500
 217.47868 216.67036 215.78005 215.15573 214.61742 213.85641 212.03491 210.49896
 210.27280 211.34866 212.90285 214.87965 217.97008 222.47763 228.29575 233.28886
 237.25073 241.55434 245.93263 250.28531 254.46463 258.21967 261.36255 264.02115
 266.48682 268.87735 271.27670 273.58234 275.50626 277.16757 278.80426 280.46432
 282.12399 283.85870 285.42386 286.81375 288.03467 289.13983 290.21255 291.21194
 292.11081 292.91122 293.61047 294.50156
 366.78100 356.35036 345.79771 334.67907 323.09742 311.30678 299.19213 287.01049
 274.73784 262.65020 250.67455 239.99091 230.12826 221.24762 213.44497 206.46233
 200.31168 195.26504 191.86239 189.91975 188.97210 189.05146 189.90181 191.22517
 192.96552 195.07588 197.35423 199.72859 202.18894 204.68430 206.78765 208.64501
 210.28636 211.44672 211.69107 211.93443 211.88678 211.60714 211.25549 210.90085
 210.53320 210.25856 210.08192 209.96127 209.90463 210.25098 210.65234 211.05669
 211.86505 213.05840 214.32376 216.12211 218.06547 220.12382 222.23418 224.33253
 226.40789 228.50724 230.61960 232.74095 234.88531 237.07266 239.34402 241.72937
 244.36573 246.63208 248.64944 250.42979 251.86215 253.00050 253.83786 254.16921
 254.22157 254.01092 253.38628 252.34963 250.97099 249.14734 247.07170 244.92005
 242.72641 240.54576 238.38112 236.23548 234.11083 231.99319 230.03454 228.20690
 226.50525 224.99261 223.63796 222.42532 221.32267 220.29803 219.41738 218.57374
 217.83109 217.02645 216.13980 215.51916 214.98451 214.04187 211.82968 210.69180
 210.44765 211.33270 212.88641 214.86479 217.93721 222.45619 228.30830 233.27628
 237.22958 241.52283 245.88783 250.21381 254.38414 258.13879 261.29922 263.97186
 266.45248 268.88385 271.29581 273.60175 275.57794 277.26678 278.89767 280.54785
 282.18726 283.80746 285.35095 286.72437 287.91690 288.98605 289.98764 290.90427
 291.69556 292.38434 292.98602 293.75281
 366.78100 356.35147 345.79995 334.68242 323.10189 311.31236 299.19884 287.01831
 274.74678 262.66025 250.68573 240.00320 230.14167 221.26214 213.46062 206.47909
 200.32956 195.28403 191.88251 189.94098 188.99445 189.07492 189.92640 191.25087
 192.99234 195.10381 197.38329 199.75876 202.22023 204.71670 206.82118 208.67965
 210.32212 211.48359 211.72907 211.97354 211.92701 211.64848 211.29796 210.94443
 210.57790 210.30437 210.12885 210.00932 209.95379 210.30126 210.70374 211.10921
 211.91868 213.11315 214.37963 216.17910 218.12357 220.18304 222.29452 224.39399
 226.47046 228.57093 230.68441 232.80688 234.95235 237.14082 239.41330 241.79977
 244.43724 246.70471 248.72319 250.50466 251.93813 253.07760 253.91608 254.24855
 254.30202 254.09249 253.46897 252.43344 251.05591 249.23338 247.15886 245.00833
 242.81580 240.63627 238.47275 236.32822 234.20469 232.08816 230.13064 228.30411
 226.60358 225.09205 223.73853 222.52700 221.42547 220.40194 219.52242 218.67989
 217.93836 217.13483 216.24931 215.62978 215.09625 214.10370 211.75891 210.77963
 210.59810 211.46306 212.83363 214.66180 217.76079 222.40469 228.31943 233.21736
 237.21239 241.50635 245.85847 250.16376 254.37540 258.16211 261.30081 263.90515
 266.38541 268.82663 271.23557 273.61615 275.55533 277.11053 278.70166 280.40286
 282.10388 283.69803 285.18225 286.52753 287.68076 288.70474 289.65564 290.53821
 291.28683 291.77179 292.09396 292.27274
 366.78100 356.35307 345.80315 334.68722 323.10829 311.32036 299.20844 287.02951
 274.75958 262.67465 250.70173 240.02080 230.16087 221.28294 213.48302 206.50309
 200.35516 195.31123 191.91131 189.97138 189.02645 189.10852 189.96160 191.28767
 193.03074 195.14381 197.42489 199.80196 202.26503 204.76310 206.86918 208.72925
 210.37332 211.53639 211.78347 212.02954 211.98461 211.70768 211.35876 211.00683
 210.64190 210.36998 210.19605 210.07812 210.02419 210.37327 210.77734 211.18441
 211.99548 213.19156 214.45963 216.26070 218.20677 220.26785 222.38092 224.48199
 226.56006 228.66214 230.77721 232.90128 235.04835 237.23843 239.51250 241.90057
 244.53964 246.80872 248.82879 250.61186 252.04693 253.18801 254.02808 254.36215
 254.41722 254.20930 253.58737 252.55344 251.17751 249.35659 247.28366 245.13473
 242.94380 240.76588 238.60395 236.46102 234.33910 232.22417 230.26824 228.44331
 226.74439 225.23446 223.88253 222.67260 221.57268 220.55075 219.67282 218.83189
 218.09197 217.29004 216.40611 215.78818 215.25626 214.23018 211.82961 210.70752
 210.71185 211.40358 212.70474 214.66122 217.83907 222.41275 228.21101 233.18323
 237.14622 241.44589 245.80342 250.12782 254.30879 258.08075 261.25458 263.95804
 266.47067 268.89731 271.30682 273.59595 275.51877 277.15167 278.74268 280.38547
 282.04648 283.62363 285.07489 286.37967 287.55066 288.60657 289.58206 290.50250
 291.36615 292.13522 292.80710 293.66327
 366.78100 356.35586 345.80872 334.69559 323.11945 311.33431 299.22517 287.04903
 274.78190 262.69976 250.72962 240.05148 230.19434 221.31921 213.52207 206.54493
 200.39979 195.35865 191.96152 190.02438 189.08224 189.16710 190.02296 191.35183
 193.09769 195.21355 197.49741 199.87727 202.34314 204.84400 206.95286 208.81572
 210.46258 211.62845 211.87831 212.12717 212.08503 211.81089 211.46476 211.11562
 210.75348 210.48434 210.31320 210.19807 210.14693 210.49879 210.90565 211.31551
 212.12938 213.32824 214.59910 216.40296 218.35183 220.41569 222.53155 224.63541
 226.71627 228.82114 230.93900 233.06586 235.21572 237.40858 239.68545 242.07631
 244.71817 246.99003 249.01289 250.79876 252.23662 253.38048 254.22334 254.56020
 254.61807 254.41293 253.79379 252.76265 251.38951 249.57138 247.50124 245.35510
 243.16696 240.99182 238.83269 236.69255 234.57341 232.46127 230.50813 228.68600
 226.98986 225.48272 224.13358 222.92644 221.82931 220.81017 219.93503 219.09689
 218.35975 217.56062 216.67948 216.06434 215.53520 214.42436 211.83597 210.59001
 210.83417 211.56940 212.76730 214.62541 217.80777 222.33638 228.07524 233.04358
 237.01411 241.31432 245.66881 250.00784 254.19502 257.96945 261.16409 263.94437
 266.56830 269.06516 271.51596 273.85934 275.84641 277.50305 279.03555 280.56335
 282.12570 283.62900 285.07147 286.44858 287.67459 288.80640 289.91513 290.91956
 291.82291 292.62738 293.33011 294.22571
 366.78100 356.35486 345.80672 334.69259 323.11545 311.32931 299.21917 287.04204
 274.77390 262.69076 250.71962 240.04048 230.18235 221.30621 213.50807 206.52993
 200.38380 195.34166 191.94352 190.00538 189.06225 189.14611 190.00097 191.32883
 193.07369 195.18856 197.47142 199.85028 202.31514 204.81501 206.92287 208.78473
 210.43059 211.59545 211.84432 212.09218 212.04904 211.77390 211.42677 211.07663
 210.71349 210.44335 210.27122 210.15508 210.10294 210.45380 210.85966 211.26853
 212.08139 213.27925 214.54911 216.35198 218.29984 220.36270 222.47756 224.58042
 226.66029 228.76415 230.88101 233.00687 235.15574 237.34760 239.62346 242.01332
 244.65418 246.92505 248.94691 250.73177 252.16863 253.31150 254.15336 254.48922
 254.54608 254.33995 253.71981 252.68767 251.31353 249.49439 247.42326 245.27612
 243.08698 240.91084 238.75071 236.60957 234.48943 232.37629 230.42215 228.59902
 226.90188 225.39374 224.04360 222.83547 221.73733 220.71719 219.84105 219.00192
 218.26378 217.46364 216.58150 215.96536 215.43523 214.38231 211.91438 210.63210
 210.79539 211.62511 212.88968 214.70424 217.78639 222.27757 228.02551 232.95152
 236.92465 241.21094 245.56697 249.87643 254.00337 257.72202 260.90985 263.71689
 266.38501 268.98868 271.54691 273.99075 276.09372 277.83835 279.38968 280.89188
 282.37021 283.79193 285.15802 286.52002 287.71503 288.79205 289.80457 290.76437
 291.64539 292.42996 293.11533 293.98877
 366.78100 356.35504 345.80708 334.69312 323.11616 311.33020 299.22023 287.04327
 274.77531 262.69235 250.72139 240.04243 230.18447 221.30851 213.51055 206.53259
 200.38663 195.34466 191.94670 190.00874 189.06578 189.14982 190.00486 191.33290
 193.07794 195.19298 197.47602 199.85506 202.32010 204.82013 206.92817 208.79021
 210.43625 211.60129 211.85033 212.09837 212.05541 211.78045 211.43349 211.08353
 210.72056 210.45060 210.27864 210.16268 210.11072 210.46176 210.86780 211.27684
 212.08988 213.28792 214.55796 216.36099 218.30903 220.37207 222.48711 224.59015
 226.67019 228.77423 230.89127 233.01731 235.16635 237.35839 239.63443 242.02446
 244.66550 246.93654 248.95858 250.74362 252.18066 253.32370 254.16574 254.50178
 254.55882 254.35286 253.73289 252.70093 251.32697 249.50801 247.43705 245.29009
 243.10113 240.92517 238.76521 236.62425 234.50429 232.39132 230.43736 228.61440
 226.91744 225.40948 224.05952 222.85156 221.75360 220.73364 219.85768 219.01872
 218.28075 217.48079 216.59883 215.98287 215.45291 214.39075 211.89096 210.71954
 210.93896 211.55446 212.87680 214.72780 217.71371 222.23279 228.05260 232.89116
 236.90219 241.17754 245.54306 249.85690 254.00803 257.75586 260.94904 263.70557
 266.31027 268.85764 271.35498 273.75443 275.84848 277.64612 279.31686 280.91873
 282.44537 283.87805 285.21695 286.52051 287.70175 288.75424 289.72952 290.62558
 291.44159 292.18585 292.84369 293.68204
 366.78100 356.35477 345.80655 334.69232 323.11509 311.32886 299.21864 287.04141
 274.77318 262.68995 250.71873 240.03950 230.18127 221.30504 213.50682 206.52859
 200.38236 195.34013 191.94191 190.00368 189.06045 189.14422 189.99900 191.32677
 193.07154 195.18631 197.46909 199.84786 202.31263 204.81240 206.92018 208.78195
 210.42772 211.59249 211.84127 212.08904 212.04581 211.77058 211.42336 211.07313
 210.70990 210.43967 210.26745 210.15122 210.09899 210.44976 210.85554 211.26431
 212.07708 213.27485 214.54463 216.34740 218.29517 220.35794 222.47272 224.57549
 226.65526 228.75903 230.87581 233.00158 235.15035 237.34213 239.61790 242.00767
 244.64844 246.91922 248.94099 250.72576 252.16253 253.30531 254.14708 254.48285
 254.53962 254.33340 253.71317 252.68094 251.30671 249.48749 247.41626 245.26903
 243.07980 240.90358 238.74335 236.60212 234.48189 232.36867 230.41444 228.59121
 226.89398 225.38576 224.03553 222.82730 221.72907 220.70885 219.83262 218.99339
 218.25516 217.45494 216.57271 215.95648 215.42625 214.40857 212.01302 210.65422
 210.99727 211.48653 212.71840 214.74576 217.79665 222.22742 227.96741 232.85541
 236.82431 241.12210 245.50423 249.83919 254.00249 257.77988 261.02475 263.82925
 266.43466 268.93536 271.38235 273.73041 275.78012 277.53952 279.17148 280.75714
 282.29568 283.76297 285.14935 286.48361 287.66846 288.72720 289.71078 290.61554
 291.46094 292.22583 292.89401 293.74554
 366.78100 356.35376 345.80453 334.68929 323.11106 311.32382 299.21258 287.03435
 274.76511 262.68088 250.70864 240.02840 230.16917 221.29193 213.49270 206.51346
 200.36623 195.32299 191.92375 189.98452 189.04028 189.12305 189.97681 191.30357
 193.04734 195.16110 197.44287 199.82063 202.28439 204.78316 206.88992 208.75069
 210.39545 211.55921 211.80698 212.05374 212.00951 211.73327 211.38504 211.03380
 210.66956 210.39833 210.22509 210.10786 210.05462 210.40438 210.80915 211.21691
 212.02868 213.22544 214.49420 216.29597 218.24273 220.30450 222.41826 224.52002
 226.59879 228.70155 230.81732 232.94208 235.08985 237.28061 239.55537 241.94414
 244.58390 246.85367 248.87443 250.65819 252.09396 253.23572 254.07649 254.41125
 254.46701 254.25978 253.63854 252.60531 251.23007 249.40983 247.33760 245.18936
 242.99913 240.82189 238.66066 236.51842 234.39718 232.28295 230.32771 228.50348
 226.80524 225.29600 223.94477 222.73553 221.63630 220.61506 219.73782 218.89759
 218.15835 217.35712 216.47388 215.85664 215.32541 214.38350 212.15775 210.65535
 210.80145 211.43535 212.77319 214.90036 217.95726 222.23993 227.88393 232.78384
 236.73460 241.03761 245.41774 249.75154 253.90308 257.66385 260.90436 263.75189
 266.43576 268.99118 271.47043 273.87961 275.98355 277.74625 279.33197 280.85181
 282.35010 283.76950 285.13159 286.47870 287.66837 288.73462 289.72098 290.64865
 291.51480 292.28613 292.95993 293.81863
 366.78100 356.35433 345.80566 334.69099 323.11332 311.32665 299.21598 287.03831
 274.76964 262.68597 250.71430 240.03464 230.17597 221.29930 213.50063 206.52196
 200.37529 195.33262 191.93395 189.99528 189.05161 189.13494 189.98927 191.31660
 193.06093 195.17526 197.45759 199.83592 202.30025 204.79958 206.90691 208.76825
 210.41358 211.57791 211.82624 212.07357 212.02990 211.75423 211.40656 211.05589
 210.69222 210.42155 210.24888 210.13221 210.07954 210.42987 210.83520 211.24353
 212.05586 213.25319 214.52252 216.32486 218.27219 220.33452 222.44885 224.55118
 226.63051 228.73384 230.85017 232.97550 235.12383 237.31516 239.59049 241.97982
 244.62015 246.89048 248.91181 250.69614 252.13247 253.27480 254.11613 254.45147
 254.50780 254.30113 253.68046 252.64779 251.27312 249.45345 247.38178 245.23411
 243.04444 240.86777 238.70710 236.56543 234.44476 232.33109 230.37642 228.55275
 226.85508 225.34641 223.99574 222.78708 221.68841 220.66774 219.79107 218.95140
 218.21273 217.41206 216.52939 215.91272 215.38205 214.41254 212.12460 210.74132
 210.70796 211.49467 212.90709 215.01094 218.00134 222.20885 227.87740 232.72171
 236.68182 240.97357 245.34282 249.64989 253.76482 257.48120 260.70139 263.55273
 266.27759 268.90799 271.43451 273.89035 276.07919 277.90985 279.53412 281.05869
 282.51859 283.90579 285.21393 286.44940 287.60638 288.65408 289.61731 290.50143
 291.30267 291.98599 292.54523 293.25793
 366.78100 356.35584 345.80868 334.69552 323.11935 311.33419 299.22503 287.04887
 274.78171 262.69955 250.72939 240.05123 230.19406 221.31890 213.52174 206.54458
 200.39942 195.35826 191.96110 190.02393 189.08177 189.16661 190.02245 191.35129
 193.09713 195.21297 197.49681 199.87664 202.34248 204.84332 206.95216 208.81500
 210.46184 211.62768 211.87751 212.12635 212.08419 211.81003 211.46387 211.11471
 210.75255 210.48339 210.31222 210.19706 210.14590 210.49774 210.90458 211.31442
 212.12826 213.32710 214.59793 216.40177 218.35061 220.41445 222.53029 224.63413
 226.71497 228.81980 230.93764 233.06448 235.21432 237.40716 239.68400 242.07484
 244.71668 246.98851 249.01135 250.79719 252.23503 253.37887 254.22171 254.55855
 254.61638 254.41122 253.79206 252.76090 251.38774 249.56958 247.49942 245.35326
 243.16509 240.98993 238.83077 236.69061 234.57145 232.45929 230.50613 228.68396
 226.98780 225.48064 224.13148 222.92432 221.82716 220.80800 219.93284 219.09467
 218.35751 217.55835 216.67719 216.06203 215.53287 214.49500 212.04288 210.85249
 210.66895 211.52829 212.97096 214.96301 217.90976 222.15125 227.86914 232.65012
 236.65158 240.93620 245.31879 249.63586 253.76169 257.47433 260.66995 263.48499
 266.21152 268.81665 271.32181 273.82391 276.02048 277.81473 279.39639 280.91177
 282.42792 283.87729 285.23196 286.46378 287.54367 288.56125 289.51974 290.40085
 291.19556 291.80252 292.25409 292.79504
 366.78100 356.35880 345.81460 334.70439 323.13119 311.34899 299.24279 287.06959
 274.80538 262.72618 250.75898 240.08378 230.22958 221.35738 213.56317 206.58897
 200.44677 195.40857 192.01437 190.08016 189.14096 189.22876 190.08756 191.41936
 193.16815 195.28695 197.57375 199.95655 202.42535 204.92915 207.04094 208.90674
 210.55654 211.72534 211.97814 212.22993 212.19073 211.91953 211.57633 211.23013
 210.87092 210.60472 210.43652 210.32432 210.27612 210.63092 211.04071 211.45351
 212.27031 213.47211 214.74591 216.55270 218.50450 220.57130 222.69010 224.79690
 226.88069 228.98849 231.10929 233.23909 235.39189 237.58769 239.86748 242.26128
 244.90608 247.18088 249.20668 250.99547 252.43627 253.58307 254.42887 254.76867
 254.82946 254.62726 254.01106 252.98286 251.61266 249.79745 247.73025 245.58705
 243.40185 241.22965 239.07345 236.93624 234.82004 232.71084 230.76064 228.94144
 227.24823 225.74403 224.39783 223.19363 222.09943 221.08322 220.21102 219.37582
 218.64162 217.84542 216.96722 216.35501 215.82881 214.67384 211.95592 210.89948
 210.71724 211.56216 212.98561 214.87070 217.82103 222.10994 227.80557 232.64320
 236.59979 240.90178 245.29872 249.63454 253.76033 257.48108 260.70190 263.55148
 266.26758 268.84760 271.33487 273.80194 276.00269 277.82825 279.38812 280.83755
 282.26578 283.67194 285.02740 286.28668 287.40213 288.42419 289.35852 290.20026
 290.85907 291.34775 291.73135 292.22021
 366.78100 356.36131 345.81963 334.71194 323.14125 311.36156 299.25788 287.08719
 274.82550 262.74881 250.78413 240.11144 230.25975 221.39006 213.59838 206.62669
 200.48700 195.45131 192.05963 190.12794 189.19125 189.28156 190.14288 191.47719
 193.22850 195.34982 197.63913 200.02444 202.49575 205.00207 207.11638 208.98469
 210.63700 211.80832 212.06363 212.31794 212.28125 212.01257 211.67188 211.32819
 210.97150 210.70782 210.54213 210.43244 210.38675 210.74407 211.15638 211.57169
 212.39101 213.59532 214.87163 216.68094 218.63526 220.70457 222.82588 224.93519
 227.02151 229.13182 231.25513 233.38744 235.54276 237.74107 240.02338 242.41969
 245.06701 247.34432 249.37263 251.16395 252.60726 253.75657 254.60488 254.94720
 255.01051 254.81082 254.19713 253.17145 251.80376 249.99107 247.92638 245.78570
 243.60301 241.43332 239.27963 237.14495 235.03126 232.92457 230.97688 229.16020
 227.46951 225.96782 224.62414 223.42245 222.33076 221.31707 220.44739 219.61470
 218.88301 218.08932 217.21364 216.60395 216.08026 214.84895 211.98401 210.81154
 210.73264 211.50166 212.91295 214.84636 217.83838 222.12675 227.74797 232.62503
 236.54712 240.84709 245.24698 249.59091 253.70627 257.41666 260.64203 263.53928
 266.28329 268.85385 271.36853 273.84598 276.07697 277.94943 279.54242 280.98822
 282.37164 283.72180 285.03030 286.24469 287.40097 288.46375 289.47794 290.51471
 291.44714 292.27750 293.00287 293.92728
 366.78100 356.36034 345.81768 334.70902 323.13736 311.35670 299.25204 287.08038
 274.81772 262.74006 250.77440 240.10075 230.24809 221.37743 213.58477 206.61211
 200.47145 195.43479 192.04213 190.10947 189.17181 189.26115 190.12149 191.45483
 193.20517 195.32551 197.61385 199.99819 202.46853 204.97387 207.08721 208.95455
 210.60590 211.77624 212.03058 212.28392 212.24626 211.97660 211.63494 211.29028
 210.93262 210.66796 210.50130 210.39064 210.34398 210.70032 211.11166 211.52600
 212.34434 213.54768 214.82302 216.63136 218.58470 220.65305 222.77339 224.88173
 226.96707 229.07641 231.19875 233.33009 235.48443 237.68177 239.96311 242.35845
 245.00479 247.28113 249.30847 251.09881 252.54115 253.68949 254.53683 254.87817
 254.94051 254.73985 254.12520 253.09854 251.72988 249.91622 247.85056 245.70890
 243.52524 241.35458 239.19992 237.06426 234.94960 232.84194 230.89328 229.07562
 227.38396 225.88130 224.53664 223.33398 222.24132 221.22666 220.35600 219.52235
 218.78969 217.99503 217.11837 216.50771 215.98305 214.82164 212.09071 210.61012
 210.82108 211.60031 212.98946 214.96219 217.88263 222.10925 227.73624 232.57695
 236.48990 240.76942 245.16032 249.49300 253.59167 257.28363 260.51093 263.42648
 266.21216 268.82748 271.35559 273.86893 276.14337 278.08835 279.76202 281.23370
 282.59811 283.89905 285.14560 286.36081 287.51978 288.57944 289.56772 290.49643
 291.42770 292.25949 292.98611 293.91211
 366.78100 356.35822 345.81344 334.70266 323.12889 311.34611 299.23933 287.06555
 274.80077 262.72099 250.75321 240.07743 230.22266 221.34988 213.55510 206.58032
 200.43754 195.39876 192.00398 190.06921 189.12943 189.21665 190.07487 191.40609
 193.15431 195.27253 197.55875 199.94098 202.40920 204.91242 207.02364 208.88886
 210.53808 211.70630 211.95853 212.20975 212.16997 211.89819 211.55441 211.20763
 210.84785 210.58107 210.41230 210.29952 210.25074 210.60496 211.01418 211.42640
 212.24262 213.44385 214.71707 216.52329 218.47451 220.54073 222.65895 224.76517
 226.84839 228.95562 231.07584 233.20506 235.35728 237.55250 239.83172 242.22494
 244.86917 247.14339 249.16861 250.95683 252.39705 253.54327 254.38849 254.72771
 254.78794 254.58516 253.96838 252.93960 251.56882 249.75304 247.68526 245.54149
 243.35571 241.18293 239.02615 236.88837 234.77159 232.66181 230.71103 228.89126
 227.19748 225.69270 224.34592 223.14114 222.04636 221.02958 220.15681 219.32103
 218.58625 217.78947 216.91069 216.29791 215.77113 214.71449 212.21806 210.51888
 210.75546 211.67345 213.09410 215.09596 217.90221 222.06178 227.73544 232.50827
 236.45235 240.70007 245.08649 249.40837 253.49733 257.16019 260.36417 263.26508
 266.09076 268.73669 271.23953 273.79562 276.09140 278.01062 279.66226 281.16626
 282.58380 283.91779 285.17465 286.35913 287.46466 288.50537 289.46973 290.35519
 291.15921 291.83713 292.34653 292.96628
 366.78100 356.35844 345.81388 334.70333 323.12977 311.34721 299.24065 287.06709
 274.80254 262.72298 250.75542 240.07986 230.22530 221.35275 213.55819 206.58363
 200.44107 195.40251 192.00796 190.07340 189.13384 189.22128 190.07972 191.41117
 193.15961 195.27805 197.56449 199.94693 202.41538 204.91882 207.03026 208.89570
 210.54514 211.71359 211.96603 212.21747 212.17791 211.90635 211.56280 211.21624
 210.85668 210.59012 210.42156 210.30900 210.26045 210.61489 211.02433 211.43677
 212.25321 213.45466 214.72810 216.53454 218.48598 220.55242 222.67087 224.77731
 226.86075 228.96819 231.08863 233.21808 235.37052 237.56596 239.84540 242.23884
 244.88329 247.15773 249.18317 250.97161 252.41205 253.55850 254.40394 254.74338
 254.80382 254.60126 253.98471 252.95615 251.58559 249.77003 247.70247 245.55892
 243.37336 241.20080 239.04424 236.90668 234.79013 232.68057 230.73001 228.91045
 227.21689 225.71234 224.36578 223.16122 222.06666 221.05010 220.17755 219.34199
 218.60743 217.81087 216.93231 216.31976 215.79320 214.73361 212.23035 210.64461
 210.60532 211.55258 213.15726 215.15967 217.94899 222.07683 227.72021 232.52771
 236.44601 240.69560 245.07414 249.38724 253.45605 257.09134 260.27563 263.18384
 266.04260 268.70016 271.19510 273.76196 276.06671 277.98041 279.57690 281.01392
 282.39862 283.74457 285.03531 286.25079 287.36496 288.38388 289.31927 290.17731
 290.95654 291.59030 291.80908 292.05515
 366.78100 356.36100 345.81900 334.71101 323.14001 311.36001 299.25601 287.08501
 274.82302 262.74602 250.78102 240.10802 230.25602 221.38603 213.59403 206.62203
 200.48203 195.44603 192.05403 190.12204 189.18504 189.27504 190.13604 191.47004
 193.22105 195.34205 197.63105 200.01605 202.48705 204.99306 207.10706 208.97506
 210.62706 211.79806 212.05307 212.30707 212.27007 212.00107 211.66007 211.31608
 210.95908 210.69508 210.52908 210.41908 210.37309 210.73009 211.14209 211.55709
 212.37609 213.58010 214.85610 216.66510 218.61910 220.68810 222.80910 224.91811
 227.00411 229.11411 231.23711 233.36911 235.52412 237.72212 240.00412 242.40012
 245.04712 247.32413 249.35213 251.14313 252.58613 253.73513 254.58314 254.92514
 254.98814 254.78814 254.17414 253.14815 251.78015 249.96715 247.90215 245.76115
 243.57816 241.40816 239.25416 237.11916 235.00516 232.89817 230.95017 229.13317
 227.44217 225.94017 224.59617 223.39418 222.30218 221.28818 220.41818 219.58518
 218.85319 218.05919 217.18319 216.57319 216.04919 214.87868 212.11865 210.77115
 210.60489 211.48932 213.12828 215.08302 217.91316 222.06711 227.69717 232.53586
 236.44542 240.71075 245.09381 249.40594 253.45508 257.07178 260.24487 263.15512
 265.99997 268.64215 271.15771 273.71747 276.01755 277.93982 279.54294 280.97003
 282.32800 283.64163 284.91135 286.11758 287.25156 288.29184 289.25125 290.13367
 290.94540 291.69070 292.34946 293.18893
 366.78100 356.36067 345.81835 334.71002 323.13869 311.35837 299.25404 287.08272
 274.82039 262.74306 250.77774 240.10441 230.25208 221.38176 213.58943 206.61710
 200.47678 195.44045 192.04812 190.11580 189.17847 189.26815 190.12882 191.46249
 193.21317 195.33384 197.62251 200.00719 202.47786 204.98353 207.09721 208.96488
 210.61655 211.78723 212.04190 212.29558 212.25825 211.98892 211.64760 211.30327
 210.94594 210.68162 210.51529 210.40496 210.35864 210.71531 211.12698 211.54166
 212.36033 213.56401 214.83968 216.64835 218.60203 220.67070 222.79137 224.90005
 226.98572 229.09539 231.21807 233.34974 235.50441 237.70209 239.98376 242.37944
 245.02611 247.30278 249.33046 251.12113 252.56380 253.71248 254.56015 254.90182
 254.96450 254.76417 254.14984 253.12352 251.75519 249.94187 247.87654 245.73521
 243.55189 241.38156 239.22723 237.09191 234.97758 232.87025 230.92193 229.10460
 227.41327 225.91095 224.56662 223.36430 222.27197 221.25764 220.38732 219.55399
 218.82166 218.02734 217.15101 216.54068 216.01636 214.88875 212.23129 210.64209
 210.62675 211.59755 213.06088 214.96974 217.85912 222.05685 227.67528 232.53413
 236.41885 240.70000 245.09805 249.41989 253.46075 257.06873 260.23825 263.15323
 265.97015 268.58655 271.10623 273.63562 275.94104 277.87552 279.47491 280.87576
 282.20575 283.51123 284.76382 286.02078 287.19901 288.25485 289.23358 290.14163
 291.04214 291.87045 292.59409 293.51624
 366.78100 356.35966 345.81631 334.70697 323.13463 311.35328 299.24794 287.07559
 274.81225 262.73391 250.76756 240.09322 230.23988 221.36853 213.57519 206.60184
 200.46050 195.42316 192.02981 190.09647 189.15813 189.24678 190.10644 191.43909
 193.18875 195.30841 197.59606 199.97972 202.44938 204.95403 207.06669 208.93334
 210.58400 211.75366 212.00731 212.25997 212.22163 211.95128 211.60894 211.26359
 210.90525 210.63991 210.47256 210.36122 210.31388 210.66953 211.08019 211.49384
 212.31150 213.51416 214.78881 216.59647 218.54913 220.61678 222.73644 224.84409
 226.92875 229.03741 231.15906 233.28972 235.44338 237.64003 239.92069 242.31535
 244.96100 247.23666 249.26331 251.05297 252.49463 253.64228 254.48894 254.82960
 254.89125 254.68991 254.07456 253.04722 251.67788 249.86353 247.79719 245.65485
 243.47050 241.29916 239.14381 237.00747 234.89213 232.78378 230.83444 229.01610
 227.32375 225.82041 224.47506 223.27172 222.17838 221.16303 220.29169 219.45735
 218.72400 217.92866 217.05131 216.43997 215.91463 214.85626 212.35361 210.57208
 210.58524 211.53647 213.04610 215.05511 217.95799 222.11612 227.67223 232.51099
 236.38446 240.65903 245.06078 249.38765 253.41846 257.00577 260.17163 263.11768
 265.95758 268.59900 271.14194 273.66501 275.96915 277.91241 279.50162 280.85745
 282.13885 283.38004 284.66714 285.98965 287.17538 288.23566 289.21790 290.14661
 291.07809 291.90756 292.63220 293.55566
 366.78100 356.35743 345.81185 334.70028 323.12570 311.34213 299.23456 287.05998
 274.79441 262.71384 250.74526 240.06869 230.21311 221.33954 213.54397 206.56839
 200.42482 195.38525 191.98967 190.05410 189.11352 189.19995 190.05738 191.38780
 193.13523 195.25265 197.53808 199.91951 202.38693 204.88936 206.99979 208.86421
 210.51264 211.68006 211.93149 212.18192 212.14134 211.86877 211.52420 211.17662
 210.81605 210.54847 210.37890 210.26533 210.21575 210.56918 210.97761 211.38903
 212.20446 213.40488 214.67731 216.48274 218.43316 220.49859 222.61601 224.72144
 226.80387 228.91029 231.02972 233.15815 235.30957 237.50400 239.78242 242.17485
 244.81828 247.09170 249.11613 250.90356 252.34298 253.48841 254.33283 254.67126
 254.73069 254.52711 253.90954 252.87996 251.50839 249.69182 247.62324 245.47867
 243.29210 241.11852 238.96095 236.82237 234.70480 232.59423 230.64265 228.82208
 227.12751 225.62193 224.27436 223.06878 221.97321 220.95564 220.08206 219.24549
 218.50992 217.71234 216.83277 216.21919 215.69162 214.72748 212.44925 210.69540
 210.45457 211.48460 213.14119 215.12978 217.97964 222.11967 227.68944 232.43939
 236.32130 240.57379 244.96472 249.27814 253.28252 256.83521 259.99310 262.96045
 265.85065 268.58463 271.17059 273.69818 276.03693 278.05206 279.73148 281.12924
 282.35403 283.50064 284.63321 285.80487 286.92029 287.91376 288.83505 289.69009
 290.46628 291.15338 291.75232 292.51559
 366.78100 356.35594 345.80887 334.69581 323.11974 311.33468 299.22561 287.04955
 274.78248 262.70042 250.73036 240.05229 230.19523 221.32016 213.52310 206.54603
 200.40097 195.35990 191.96284 190.02578 189.08371 189.16865 190.02458 191.35352
 193.09945 195.21539 197.49932 199.87926 202.34520 204.84613 206.95507 208.81800
 210.46494 211.63087 211.88081 212.12974 212.08768 211.81362 211.46755 211.11849
 210.75642 210.48736 210.31629 210.20123 210.15016 210.50210 210.90904 211.31897
 212.13291 213.33184 214.60278 216.40671 218.35565 220.41959 222.53552 224.63946
 226.72039 228.82533 230.94326 233.07020 235.22013 237.41307 239.69001 242.08094
 244.72288 246.99481 249.01775 250.80368 252.24162 253.38555 254.22849 254.56543
 254.62336 254.41830 253.79923 252.76817 251.39510 249.57704 247.50697 245.36091
 243.17285 240.99778 238.83872 236.69865 234.57959 232.46752 230.51446 228.69239
 226.99633 225.48927 224.14020 222.93314 221.83607 220.81701 219.94194 219.10388
 218.36681 217.56775 216.68669 216.07162 215.54256 214.63338 212.48532 210.88785
 210.33867 211.41338 213.17024 215.13605 217.97491 222.10205 227.70352 232.38213
 236.29022 240.52692 244.91776 249.22391 253.19968 256.69611 259.80905 262.77155
 265.68970 268.45303 271.07742 273.64590 276.02789 278.10141 279.85718 281.31308
 282.55353 283.66913 284.72083 285.75674 286.79083 287.74753 288.59259 289.42920
 290.20459 290.89841 291.49667 292.20996
 366.78100 356.35659 345.81019 334.69778 323.12238 311.33797 299.22957 287.05416
 274.78776 262.70635 250.73695 240.05954 230.20314 221.32873 213.53233 206.55592
 200.41152 195.37111 191.97471 190.03830 189.09690 189.18249 190.03909 191.36868
 193.11528 195.23187 197.51647 199.89706 202.36366 204.86525 206.97485 208.83844
 210.48604 211.65263 211.90323 212.15282 212.11142 211.83801 211.49261 211.14420
 210.78280 210.51439 210.34399 210.22958 210.17918 210.53177 210.93937 211.34996
 212.16456 213.36415 214.63574 216.44034 218.38993 220.45453 222.57112 224.67572
 226.75731 228.86291 230.98150 233.10910 235.25969 237.45329 239.73088 242.12248
 244.76507 247.03767 249.06126 250.84786 252.28645 253.43105 254.27464 254.61224
 254.67083 254.46643 253.84802 252.81762 251.44521 249.62781 247.55840 245.41300
 243.22559 241.05119 238.89278 236.75338 234.63497 232.52357 230.57116 228.74976
 227.05435 225.54795 224.19954 222.99314 221.89673 220.87833 220.00392 219.16652
 218.43011 217.63171 216.75130 216.13690 215.60849 214.67107 212.45633 210.90401
 210.39767 211.31485 213.13116 215.17703 218.02777 222.11906 227.70795 232.38516
 236.29726 240.54364 244.94655 249.26610 253.24678 256.72620 259.80481 262.72626
 265.61652 268.34494 270.94547 273.52203 275.91580 278.02271 279.82227 281.31961
 282.57904 283.69565 284.72092 285.71750 286.70300 287.62210 288.47314 289.32339
 290.10382 290.80084 291.40805 292.14532
 366.78100 356.35633 345.80966 334.69698 323.12131 311.33664 299.22797 287.05230
 274.78563 262.70395 250.73428 240.05661 230.19994 221.32527 213.52860 206.55192
 200.40725 195.36658 191.96991 190.03324 189.09157 189.17689 190.03322 191.36255
 193.10888 195.22521 197.50954 199.88986 202.35619 204.85752 206.96685 208.83018
 210.47751 211.64383 211.89416 212.14349 212.10182 211.82815 211.48248 211.13380
 210.77213 210.50346 210.33279 210.21812 210.16745 210.51977 210.92710 211.33743
 212.15176 213.35109 214.62242 216.42674 218.37607 220.44040 222.55673 224.66106
 226.74239 228.84771 230.96604 233.09337 235.24370 237.43703 239.71436 242.10568
 244.74801 247.02034 249.04367 250.83000 252.26833 253.41265 254.25598 254.59331
 254.65164 254.44697 253.82830 252.79762 251.42495 249.60728 247.53761 245.39194
 243.20427 241.02959 238.87092 236.73125 234.61258 232.50091 230.54824 228.72656
 227.03089 225.52422 224.17555 222.96888 221.87221 220.85353 219.97886 219.14119
 218.40452 217.60585 216.72518 216.11050 215.58183 214.66437 212.49675 210.87358
 210.51469 211.23071 212.99988 215.16264 218.05023 222.12669 227.69284 232.37447
 236.28662 240.54172 244.95895 249.29578 253.29007 256.76120 259.81436 262.70831
 265.58499 268.28369 270.84119 273.39749 275.78491 277.90967 279.74228 281.27170
 282.54303 283.65115 284.64420 285.61176 286.58600 287.46887 288.38214 289.24231
 290.02054 290.72379 291.32962 292.08597
 366.78100 356.35520 345.80741 334.69361 323.11682 311.33102 299.22123 287.04443
 274.77664 262.69384 250.72305 240.04425 230.18646 221.31066 213.51287 206.53507
 200.38927 195.34748 191.94968 190.01189 189.06909 189.15330 190.00850 191.33671
 193.08191 195.19712 197.48032 199.85953 202.32473 204.82494 206.93314 208.79534
 210.44155 211.60675 211.85596 212.10416 212.06137 211.78657 211.43978 211.08998
 210.72719 210.45739 210.28560 210.16980 210.11801 210.46921 210.87541 211.28462
 212.09782 213.29603 214.56623 216.36944 218.31764 220.38085 222.49605 224.59926
 226.67946 228.78367 230.90087 233.02708 235.17628 237.36848 239.64469 242.03489
 244.67610 246.94730 248.96951 250.75471 252.19192 253.33512 254.17733 254.51353
 254.57074 254.36494 253.74515 252.71335 251.33956 249.52076 247.44996 245.30317
 243.11437 240.93858 238.77878 236.63799 234.51819 232.40540 230.45160 228.62881
 226.93201 225.42422 224.07442 222.86663 221.76883 220.74903 219.87324 219.03444
 218.29665 217.49685 216.61506 215.99926 215.46947 214.60707 212.56960 210.88481
 210.58678 211.20428 212.89885 215.14336 218.05440 222.12959 227.66498 232.34584
 236.25163 240.51181 244.93649 249.28149 253.27319 256.71765 259.74860 262.64401
 265.54251 268.24884 270.78928 273.32944 275.70667 277.83572 279.68704 281.24127
 282.51688 283.60233 284.54825 285.47495 286.41840 287.35065 288.28806 289.15137
 289.93771 290.64178 291.25214 292.01126
 366.78100 356.35406 345.80512 334.69018 323.11224 311.32530 299.21436 287.03642
 274.76748 262.68354 250.71160 240.03166 230.17272 221.29578 213.49684 206.51790
 200.37096 195.32802 191.92908 189.99014 189.04620 189.12926 189.98332 191.31038
 193.05444 195.16850 197.45056 199.82862 202.29268 204.79174 206.89880 208.75986
 210.40492 211.56898 211.81704 212.06410 212.02016 211.74422 211.39628 211.04534
 210.68140 210.41046 210.23752 210.12058 210.06764 210.41770 210.82276 211.23082
 212.04288 213.23994 214.50900 216.31106 218.25812 220.32018 222.43424 224.53630
 226.61536 228.71842 230.83448 232.95954 235.10760 237.29866 239.57372 241.96278
 244.60284 246.87290 248.89396 250.67802 252.11408 253.25614 254.09720 254.43226
 254.48832 254.28138 253.66044 252.62750 251.25256 249.43262 247.36068 245.21274
 243.02280 240.84586 238.68492 236.54298 234.42204 232.30810 230.35316 228.52922
 226.83128 225.32234 223.97140 222.76246 221.66352 220.64258 219.76564 218.92570
 218.18676 217.38582 216.50288 215.88594 215.35500 214.54936 212.64595 210.89903
 210.60350 211.19069 212.85568 215.15480 218.06929 222.13754 227.64546 232.32253
 236.21837 240.48326 244.91307 249.26378 253.24765 256.65652 259.66006 262.56201
 265.48947 268.21436 270.75558 273.29272 275.66315 277.78748 279.64053 281.20413
 282.48123 283.55246 284.45862 285.34558 286.27567 287.21912 288.15024 289.00473
 289.77280 290.46393 291.06638 291.84567
 366.78100 356.35345 345.80390 334.68835 323.10980 311.32225 299.21070 287.03215
 274.76261 262.67806 250.70551 240.02496 230.16541 221.28786 213.48831 206.50876
 200.36121 195.31766 191.91811 189.97856 189.03401 189.11646 189.96991 191.29637
 193.03982 195.15327 197.43472 199.81217 202.27562 204.77407 206.88052 208.74097
 210.38542 211.54887 211.79632 212.04277 211.99822 211.72167 211.37313 211.02158
 210.65703 210.38548 210.21193 210.09438 210.04083 210.39028 210.79473 211.20218
 212.01363 213.21008 214.47853 216.27998 218.22644 220.28789 222.40134 224.50279
 226.58124 228.68369 230.79914 232.92359 235.07104 237.26149 239.53594 241.92439
 244.56384 246.83329 248.85374 250.63720 252.07265 253.21410 254.05455 254.38900
 254.44445 254.23690 253.61535 252.58180 251.20625 249.38570 247.31315 245.16460
 242.97405 240.79650 238.63496 236.49241 234.37086 232.25631 230.30076 228.47621
 226.77766 225.26811 223.91656 222.70701 221.60746 220.58591 219.70836 218.86781
 218.12826 217.32672 216.44317 215.82562 215.29407 214.51845 212.68597 210.96359
 210.61244 211.12903 212.81071 215.16548 218.07930 222.14427 227.64075 232.31178
 236.19360 240.45914 244.89436 249.25317 253.23341 256.61200 259.58981 262.49573
 265.44183 268.17502 270.71411 273.24927 275.61487 277.72983 279.57446 281.13483
 282.40967 283.47052 284.35229 285.21854 286.14203 287.08914 288.01910 288.87430
 289.63950 290.32639 290.92679 291.70938
 366.78100 356.35335 345.80369 334.68804 323.10939 311.32173 299.21008 287.03143
 274.76178 262.67712 250.70447 240.02382 230.16416 221.28651 213.48686 206.50720
 200.35955 195.31590 191.91624 189.97659 189.03194 189.11429 189.96763 191.29398
 193.03733 195.15067 197.43202 199.80937 202.27271 204.77106 206.87741 208.73775
 210.38210 211.54545 211.79280 212.03914 211.99449 211.71784 211.36918 211.01753
 210.65288 210.38122 210.20757 210.08992 210.03626 210.38561 210.78996 211.19730
 212.00865 213.20500 214.47335 216.27469 218.22104 220.28239 222.39573 224.49708
 226.57543 228.67777 230.79312 232.91747 235.06481 237.25516 239.52951 241.91786
 244.55720 246.82655 248.84690 250.63024 252.06559 253.20694 254.04728 254.38163
 254.43698 254.22932 253.60767 252.57402 251.19837 249.37771 247.30506 245.15641
 242.96575 240.78810 238.62645 236.48379 234.36214 232.24749 230.29183 228.46718
 226.76853 225.25888 223.90722 222.69757 221.59792 220.57626 219.69861 218.85796
 218.11830 217.31665 216.43300 215.81534 215.28369 214.51231 212.68987 211.07587
 210.62662 211.06233 212.75877 215.14427 218.05728 222.14841 227.64676 232.31277
 236.17470 240.43689 244.87587 249.23949 253.21378 256.56790 259.52765 262.44214
 265.40390 268.14139 270.67355 273.19916 275.55923 277.66724 279.50311 281.05807
 282.32996 283.38547 284.24780 285.09262 286.03815 286.98492 287.87186 288.70129
 289.46680 290.15033 290.75119 291.52048
 366.78100 356.35273 345.80247 334.68620 323.10694 311.31867 299.20641 287.02714
 274.75688 262.67161 250.69834 240.01708 230.15681 221.27855 213.47828 206.49802
 200.34975 195.30549 191.90522 189.96495 189.01969 189.10142 189.95416 191.27989
 193.02263 195.13536 197.41610 199.79283 202.25556 204.75330 206.85903 208.71877
 210.36250 211.52524 211.77197 212.01770 211.97244 211.69517 211.34591 210.99364
 210.62838 210.35611 210.18185 210.06358 210.00931 210.35805 210.76178 211.16852
 211.97925 213.17499 214.44272 216.24346 218.18919 220.24992 222.36266 224.46339
 226.54113 228.64286 230.75760 232.88133 235.02807 237.21780 239.49153 241.87927
 244.51800 246.78674 248.80647 250.58921 252.02394 253.16468 254.00441 254.33814
 254.39288 254.18461 253.56235 252.52808 251.15182 249.33055 247.25729 245.10802
 242.91675 240.73849 238.57622 236.43296 234.31069 232.19543 230.23916 228.41390
 226.71463 225.20436 223.85210 222.64183 221.54157 220.51930 219.64104 218.79977
 218.05950 217.25724 216.37297 215.75471 215.22244 214.48141 212.73064 211.15932
 210.62411 211.04839 212.72125 215.08876 218.00958 222.14386 227.64665 232.31480
 236.15752 240.42204 244.86467 249.22998 253.19290 256.52448 259.47104 262.39453
 265.36285 268.10266 270.63144 273.13846 275.48575 277.58810 279.42371 280.98093
 282.25455 283.30496 284.15869 284.99924 285.94110 286.87088 287.76950 288.61755
 289.38922 290.08023 290.68985 291.47363
 366.78100 356.35129 345.79958 334.68188 323.10117 311.31146 299.19775 287.01705
 274.74534 262.65863 250.68392 240.00122 230.13951 221.25980 213.45809 206.47638
 200.32668 195.28097 191.87926 189.93755 188.99085 189.07114 189.92243 191.24672
 192.98802 195.09931 197.37860 199.75389 202.21518 204.71148 206.81577 208.67406
 210.31635 211.47765 211.72294 211.96723 211.92052 211.64182 211.29111 210.93740
 210.57069 210.29699 210.12128 210.00157 209.94586 210.29315 210.69545 211.10074
 211.91003 213.10432 214.37062 216.16991 218.11420 220.17349 222.28479 224.38408
 226.46037 228.56066 230.67395 232.79625 234.94154 237.12983 239.40212 241.78842
 244.42571 246.69300 248.71129 250.49259 251.92588 253.06517 253.90346 254.23575
 254.28905 254.07934 253.45563 252.41992 251.04222 249.21951 247.14480 244.99409
 242.80139 240.62168 238.45797 236.31326 234.18955 232.07285 230.11514 228.28843
 226.58772 225.07602 223.72231 222.51060 221.40889 220.38519 219.50548 218.66277
 217.92106 217.11735 216.23165 215.61194 215.07823 214.40736 212.82234 211.20009
 210.61993 211.06122 212.69278 215.01904 217.96210 222.12738 227.63417 232.30026
 236.14142 240.41380 244.86693 249.23807 253.19330 256.50714 259.43985 262.36420
 265.32901 268.06433 270.58087 273.06070 275.37665 277.45139 279.27042 280.82501
 282.11099 283.17755 284.05386 284.89536 285.82779 286.81149 287.74869 288.60703
 289.38281 290.07675 290.68750 291.47772
 366.78100 356.35001 345.79702 334.67803 323.09603 311.30504 299.19005 287.00806
 274.73507 262.64708 250.67109 239.98709 230.12410 221.24311 213.44012 206.45713
 200.30614 195.25915 191.85615 189.91316 188.96517 189.04418 189.89419 191.21720
 192.95721 195.06721 197.34522 199.71923 202.17924 204.67425 206.77726 208.63427
 210.27528 211.43528 211.67929 211.92230 211.87431 211.59432 211.24233 210.88734
 210.51934 210.24435 210.06736 209.94637 209.88938 210.23539 210.63640 211.04040
 211.84841 213.04142 214.30643 216.10444 218.04745 220.10546 222.21546 224.31347
 226.38848 228.48749 230.59950 232.72051 234.86452 237.05152 239.32253 241.70754
 244.34355 246.60956 248.62657 250.40658 251.83858 252.97659 253.81360 254.14461
 254.19662 253.98563 253.36064 252.32364 250.94465 249.12066 247.04467 244.89268
 242.69869 240.51770 238.35270 236.20671 234.08172 231.96373 230.00474 228.17675
 226.47476 224.96177 223.60677 222.39378 221.29079 220.26580 219.38481 218.54082
 217.79783 216.99283 216.10584 215.48485 214.94986 214.33800 212.89240 211.26431
 210.65359 211.05350 212.65515 214.94313 217.91374 222.10017 227.61983 232.26741
 236.12489 240.40520 244.87268 249.25708 253.21254 256.50397 259.41379 262.33603
 265.29984 268.02689 270.53232 272.99069 275.27365 277.30664 279.08698 280.60443
 281.85855 282.88489 283.75272 284.66354 285.76105 286.79825 287.74869 288.61743
 289.40308 290.11423 290.75998 291.65308
 366.78100 356.34985 345.79670 334.67755 323.09541 311.30426 299.18911 287.00696
 274.73381 262.64566 250.66951 239.98536 230.12222 221.24107 213.43792 206.45477
 200.30362 195.25647 191.85332 189.91017 188.96203 189.04088 189.89073 191.21358
 192.95343 195.06328 197.34113 199.71498 202.17484 204.66969 206.77254 208.62939
 210.27024 211.43009 211.67394 211.91679 211.86865 211.58850 211.23635 210.88120
 210.51305 210.23790 210.06075 209.93960 209.88246 210.22831 210.62916 211.03301
 211.84086 213.03371 214.29856 216.09642 218.03927 220.09712 222.20697 224.30482
 226.37967 228.47852 230.59037 232.71123 234.85508 237.04193 239.31278 241.69763
 244.33348 246.59933 248.61618 250.39604 251.82789 252.96574 253.80259 254.13344
 254.18529 253.97414 253.34899 252.31185 250.93270 249.10855 247.03240 244.88025
 242.68610 240.50495 238.33980 236.19366 234.06851 231.95036 229.99121 228.16306
 226.46091 224.94776 223.59262 222.37947 221.27632 220.25117 219.37002 218.52587
 217.78272 216.97757 216.09043 215.46928 214.93413 214.32845 212.89748 211.37167
 210.73651 211.02745 212.57883 214.85837 217.87111 222.07639 227.60553 232.23351
 236.11440 240.39124 244.86925 249.26323 253.21947 256.49689 259.39841 262.32504
 265.27899 267.98862 270.47794 272.91309 275.14853 277.13416 278.88550 280.39319
 281.64984 282.67926 283.56778 284.53314 285.61331 286.60596 287.54352 288.40454
 289.19183 289.89789 290.51645 291.31332
 366.78100 356.34956 345.79611 334.67667 323.09423 311.30278 299.18734 287.00490
 274.73146 262.64301 250.66657 239.98213 230.11868 221.23724 213.43380 206.45035
 200.29891 195.25147 191.84802 189.90458 188.95614 189.03470 189.88425 191.20681
 192.94637 195.05592 197.33348 199.70704 202.16659 204.66115 206.76371 208.62027
 210.26082 211.42038 211.66394 211.90649 211.85805 211.57761 211.22516 210.86972
 210.50128 210.22583 210.04839 209.92695 209.86951 210.21506 210.61562 211.01918
 211.82673 213.01929 214.28385 216.08140 218.02396 220.08152 222.19107 224.28863
 226.36319 228.46175 230.57330 232.69386 234.83742 237.02397 239.29453 241.67909
 244.31464 246.58020 248.59676 250.37631 251.80787 252.94543 253.78199 254.11254
 254.16410 253.95266 253.32721 252.28977 250.91033 249.08588 247.00944 244.85700
 242.66255 240.48111 238.31567 236.16923 234.04378 231.92534 229.96590 228.13745
 226.43501 224.92157 223.56612 222.35268 221.24924 220.22380 219.34235 218.49791
 217.75447 216.94902 216.06158 215.44014 214.90469 214.32191 212.94505 211.42072
 210.83638 211.06181 212.47159 214.75374 217.80873 222.04391 227.56779 232.23192
 236.09171 240.38158 244.86288 249.25839 253.21004 256.50000 259.41818 262.35410
 265.29089 267.99994 270.47287 272.85013 275.01749 276.92068 278.60205 280.06973
 281.32626 282.39664 283.35101 284.36197 285.47202 286.50873 287.46246 288.33768
 289.13672 289.86029 290.54309 291.44153
 366.78100 356.34743 345.79186 334.67029 323.08572 311.29215 299.17458 286.99001
 274.71444 262.62387 250.64530 239.95873 230.09316 221.20959 213.40402 206.41845
 200.26488 195.21531 191.80974 189.86417 188.91360 188.99003 189.83746 191.15789
 192.89532 195.00275 197.27818 199.64961 202.10704 204.59947 206.69990 208.55433
 210.19276 211.35019 211.59162 211.83205 211.78147 211.49890 211.14433 210.78676
 210.41619 210.13862 209.95905 209.83548 209.77591 210.11934 210.51777 210.91920
 211.72463 212.91506 214.17749 215.97292 217.91335 219.96878 222.07621 224.17164
 226.24407 228.34050 230.44993 232.56836 234.70979 236.89422 239.16265 241.54508
 244.17851 246.44194 248.45637 250.23380 251.66323 252.79866 253.63309 253.96152
 254.01095 253.79738 253.16981 252.13024 250.74867 248.92210 246.84353 244.68896
 242.49239 240.30882 238.14125 235.99268 233.86511 231.74454 229.78297 227.95240
 226.24783 224.73226 223.37469 222.15912 221.05355 220.02598 219.14241 218.29584
 217.55027 216.74270 215.85313 215.22956 214.69199 214.23810 213.12965 211.43933
 210.80995 211.01907 212.31281 214.66275 217.84709 222.07654 227.51999 232.26746
 236.09009 240.38371 244.85599 249.22073 253.12694 256.44928 259.45306 262.42377
 265.33328 268.03836 270.54758 272.88330 274.97403 276.79398 278.39240 279.78638
 280.97916 282.00879 283.05304 284.24197 285.42361 286.49628 287.50665 288.50970
 289.42587 290.24173 290.95444 291.86270
 366.78100 356.34801 345.79301 334.67202 323.08802 311.29503 299.17803 286.99404
 274.71904 262.62905 250.65105 239.96506 230.10006 221.21707 213.41207 206.42708
 200.27408 195.22509 191.82009 189.87510 188.92511 189.00211 189.85012 191.17112
 192.90913 195.01713 197.29314 199.66514 202.12315 204.61615 206.71716 208.57216
 210.21117 211.36917 211.61118 211.85218 211.80219 211.52019 211.16620 210.80921
 210.43921 210.16222 209.98322 209.86023 209.80123 210.14524 210.54424 210.94625
 211.75225 212.94326 214.20626 216.00227 217.94327 219.99928 222.10728 224.20329
 226.27630 228.37330 230.48331 232.60231 234.74432 236.92932 239.19833 241.58133
 244.21534 246.47934 248.49435 250.27235 251.70236 252.83836 253.67337 254.00237
 254.05238 253.83938 253.21239 252.17340 250.79240 248.96641 246.88841 244.73442
 242.53842 240.35543 238.18843 236.04044 233.91344 231.79345 229.83245 228.00246
 226.29846 224.78347 223.42647 222.21148 221.10648 220.07949 219.19650 218.35050
 217.60551 216.79851 215.90952 215.28652 214.74953 214.28706 213.12129 211.57014
 210.87114 211.07617 212.38564 214.65654 217.84621 222.08133 227.53487 232.25523
 236.09122 240.37857 244.85632 249.22075 253.10909 256.40402 259.42233 262.43829
 265.38980 268.12616 270.65857 272.98840 275.05240 276.84604 278.39526 279.72861
 280.84903 281.85947 283.11728 284.50400 285.85156 287.21765 288.46399 289.59308
 290.60858 291.51288 292.30286 293.30960
 366.78100 356.34830 345.79359 334.67289 323.08918 311.29648 299.17977 286.99607
 274.72136 262.63166 250.65395 239.96825 230.10354 221.22084 213.41613 206.43143
 200.27873 195.23002 191.82532 189.88061 188.93091 189.00820 189.85650 191.17779
 192.91609 195.02438 197.30068 199.67297 202.13127 204.62456 206.72586 208.58116
 210.22045 211.37875 211.62104 211.86234 211.81263 211.53093 211.17722 210.82052
 210.45081 210.17411 209.99540 209.87270 209.81399 210.15829 210.55759 210.95988
 211.76618 212.95747 214.22077 216.01706 217.95836 220.01465 222.12295 224.21924
 226.29254 228.38983 230.50013 232.61943 234.76172 236.94702 239.21631 241.59961
 244.23390 246.49820 248.51349 250.29179 251.72208 252.85838 253.69367 254.02297
 254.07326 253.86056 253.23386 252.19515 250.81445 248.98874 246.91104 244.75733
 242.56163 240.37892 238.21222 236.06451 233.93781 231.81810 229.85740 228.02769
 226.32399 224.80929 223.45258 222.23788 221.13317 220.10647 219.22376 218.37806
 217.63335 216.82665 215.93794 215.31524 214.77853 214.29391 213.10370 211.68576
 210.88753 210.98419 212.24275 214.58421 217.84026 222.08922 227.51962 232.26436
 236.10117 240.38472 244.86046 249.20679 253.05641 256.31573 259.33215 262.36057
 265.31750 268.06024 270.61545 272.98508 275.06534 276.88159 278.49875 279.88846
 281.03702 282.02823 283.13208 284.48392 285.72614 286.99219 288.22189 289.33594
 290.33789 291.23013 292.00955 293.00287
 366.78100 356.34858 345.79415 334.67373 323.09030 311.29788 299.18146 286.99803
 274.72361 262.63418 250.65676 239.97134 230.10691 221.22449 213.42007 206.43564
 200.28322 195.23479 191.83037 189.88595 188.93652 189.01410 189.86267 191.18425
 192.92283 195.03140 197.30798 199.68055 202.13913 204.63271 206.73428 208.58986
 210.22944 211.38801 211.63059 211.87216 211.82274 211.54132 211.18789 210.83147
 210.46204 210.18562 210.00720 209.88477 209.82635 210.17092 210.57050 210.97308
 211.77965 212.97123 214.23481 216.03138 217.97296 220.02953 222.13811 224.23469
 226.30826 228.40584 230.51641 232.63599 234.77857 236.96414 239.23372 241.61729
 244.25187 246.51645 248.53202 250.31060 251.74117 252.87775 253.71333 254.04290
 254.09348 253.88106 253.25463 252.21621 250.83578 249.01036 246.93294 244.77951
 242.58409 240.40166 238.23524 236.08782 233.96139 231.84197 229.88154 228.05212
 226.34870 224.83427 223.47785 222.26343 221.15900 220.13258 219.25015 218.40473
 217.66031 216.85388 215.96546 215.34303 214.80661 214.28438 213.04469 211.87633
 211.02275 210.86664 212.06445 214.44553 217.73483 222.03418 227.52086 232.26440
 236.12576 240.40669 244.85909 249.18855 253.04401 256.33713 259.34094 262.33179
 265.24081 267.94623 270.42892 272.69128 274.68903 276.46155 278.08942 279.56924
 280.86700 282.04282 283.15991 284.32217 285.47534 286.53387 287.52362 288.44550
 289.33514 290.13275 290.82953 291.71747
 366.78100 356.34850 345.79400 334.67350 323.08999 311.29749 299.18099 286.99749
 274.72299 262.63349 250.65598 239.97048 230.10598 221.22348 213.41898 206.43448
 200.28197 195.23347 191.82897 189.88447 188.93497 189.01247 189.86097 191.18246
 192.92096 195.02946 197.30596 199.67846 202.13696 204.63045 206.73195 208.58745
 210.22695 211.38545 211.62795 211.86945 211.81994 211.53844 211.18494 210.82844
 210.45894 210.18244 210.00393 209.88143 209.82293 210.16743 210.56693 210.96943
 211.77592 212.96742 214.23092 216.02742 217.96892 220.02542 222.13392 224.23041
 226.30391 228.40141 230.51191 232.63141 234.77391 236.95940 239.22890 241.61240
 244.24690 246.51140 248.52690 250.30540 251.73589 252.87239 253.70789 254.03739
 254.08789 253.87539 253.24888 252.21038 250.82988 249.00438 246.92688 244.77338
 242.57787 240.39537 238.22887 236.08137 233.95487 231.83537 229.87487 228.04536
 226.34186 224.82736 223.47086 222.25636 221.15186 220.12535 219.24285 218.39735
 217.65285 216.84635 215.95785 215.33534 214.79884 214.28073 213.05502 211.91711
 211.21620 210.92845 211.96198 214.30103 217.58763 221.94499 227.49396 232.22554
 236.11699 240.40680 244.87027 249.22029 253.08591 256.36942 259.35809 262.38019
 265.30835 268.00775 270.46655 272.68509 274.58029 276.20404 277.72559 279.14053
 280.40070 281.56140 282.69229 283.95053 285.13425 286.19223 287.16910 288.07224
 288.90762 289.70844 290.40799 291.29950
 366.78100 356.34773 345.79246 334.67119 323.08692 311.29365 299.17638 286.99211
 274.71684 262.62657 250.64830 239.96204 230.09677 221.21350 213.40823 206.42296
 200.26969 195.22042 191.81515 189.86988 188.91961 188.99634 189.84407 191.16480
 192.90253 195.01026 197.28599 199.65772 202.11545 204.60818 206.70891 208.56364
 210.20237 211.36011 211.60184 211.84257 211.79230 211.51003 211.15576 210.79849
 210.42822 210.15095 209.97168 209.84841 209.78914 210.13287 210.53160 210.93333
 211.73906 212.92979 214.19252 215.98825 217.92898 219.98471 222.09244 224.18818
 226.26091 228.35764 230.46737 232.58610 234.72783 236.91256 239.18129 241.56402
 244.19775 246.46148 248.47621 250.25394 251.68367 252.81940 253.65413 253.98286
 254.03259 253.81932 253.19205 252.15278 250.77151 248.94525 246.86698 244.71271
 242.51644 240.33317 238.16590 236.01763 233.89036 231.77009 229.80882 227.97855
 226.27428 224.75901 223.40174 222.18647 221.08120 220.05393 219.17066 218.32439
 217.57912 216.77185 215.88258 215.25932 214.72205 214.26619 213.16843 211.86990
 211.22691 210.88826 211.88362 214.25816 217.57275 221.92661 227.45238 232.24611
 236.11444 240.41428 244.87804 249.20692 253.05127 256.34122 259.38904 262.42883
 265.34598 268.03033 270.49332 272.70267 274.53278 276.07800 277.56079 278.96283
 280.24036 281.41534 282.56516 283.72040 284.88193 285.95917 286.97876 287.99658
 288.91855 289.73956 290.45679 291.37079
 366.78100 356.34727 345.79154 334.66981 323.08508 311.29135 299.17362 286.98889
 274.71316 262.62243 250.64370 239.95697 230.09124 221.20751 213.40178 206.41605
 200.26232 195.21259 191.80686 189.86113 188.91040 188.98667 189.83394 191.15421
 192.89148 194.99875 197.27402 199.64529 202.10256 204.59483 206.69510 208.54937
 210.18764 211.34491 211.58618 211.82645 211.77572 211.49299 211.13826 210.78053
 210.40980 210.13207 209.95234 209.82861 209.76888 210.11215 210.51042 210.91169
 211.71696 212.90723 214.16950 215.96477 217.90504 219.96031 222.06758 224.16285
 226.23512 228.33139 230.44066 232.55893 234.70020 236.88447 239.15274 241.53501
 244.16828 246.43155 248.44582 250.22309 251.65236 252.78763 253.62190 253.95017
 253.99944 253.78571 253.15798 252.11825 250.73652 248.90979 246.83106 244.67633
 242.47960 240.29587 238.12814 235.97941 233.85168 231.73095 229.76922 227.93849
 226.23376 224.71803 223.36030 222.14457 221.03884 220.01111 219.12738 218.28065
 217.53492 216.72719 215.83745 215.21372 214.67599 214.26414 213.24113 211.86528
 211.23808 210.90486 211.87666 214.26256 217.59782 221.93311 227.44052 232.25011
 236.12346 240.41920 244.88843 249.21645 253.06075 256.33807 259.41156 262.48257
 265.40347 268.06528 270.48883 272.65375 274.42911 275.93121 277.39371 278.82361
 280.08350 281.20740 282.39041 283.74713 284.97046 286.15488 287.29089 288.32004
 289.24567 290.06992 290.78998 291.70761
 366.78100 356.34556 345.78812 334.66468 323.07824 311.28280 299.16336 286.97692
 274.69948 262.60703 250.62659 239.93815 230.07071 221.18527 213.37783 206.39039
 200.23495 195.18351 191.77607 189.82863 188.87619 188.95075 189.79631 191.11487
 192.85043 194.95599 197.22955 199.59910 202.05466 204.54522 206.64378 208.49634
 210.13290 211.28846 211.52802 211.76658 211.71414 211.42970 211.07326 210.71382
 210.34138 210.06194 209.88050 209.75506 209.69362 210.03517 210.43173 210.83129
 211.63485 212.82341 214.08397 215.87753 217.81609 219.86965 221.97521 224.06877
 226.13933 228.23389 230.34145 232.45801 234.59757 236.78013 239.04669 241.42724
 244.05880 246.32036 248.33292 250.10848 251.53604 252.66960 253.50216 253.82872
 253.87628 253.66084 253.03140 251.98996 250.60652 248.77808 246.69764 244.54120
 242.34276 240.15731 237.98787 235.83743 233.70799 231.58555 229.62211 227.78967
 226.08323 224.56579 223.20635 221.98891 220.88147 219.85203 218.96659 218.11815
 217.37071 216.56127 215.66982 215.04438 214.50494 214.17159 213.34215 211.93678
 211.10809 210.87572 211.81535 214.18236 217.53735 221.89432 227.40900 232.22447
 236.11145 240.41248 244.87692 249.19173 253.01447 256.31097 259.41751 262.52368
 265.46161 268.13419 270.55716 272.69318 274.37274 275.77026 277.18121 278.55768
 279.81464 281.03943 282.34821 283.70163 284.90869 286.01248 287.09894 288.11862
 289.03571 289.85236 290.56580 291.47498
 366.78100 356.34539 345.78777 334.66416 323.07755 311.28194 299.16232 286.97571
 274.69810 262.60548 250.62487 239.93626 230.06865 221.18303 213.37542 206.38781
 200.23219 195.18058 191.77297 189.82536 188.87274 188.94713 189.79252 191.11090
 192.84629 194.95168 197.22507 199.59445 202.04984 204.54023 206.63862 208.49100
 210.12739 211.28278 211.52216 211.76055 211.70794 211.42333 211.06671 210.70710
 210.33449 210.05487 209.87326 209.74765 209.68604 210.02742 210.42381 210.82320
 211.62658 212.81497 214.07536 215.86875 217.80713 219.86052 221.96591 224.05929
 226.12968 228.22407 230.33146 232.44784 234.58723 236.76962 239.03600 241.41639
 244.04778 246.30917 248.32155 250.09694 251.52433 252.65771 253.49010 253.81649
 253.86388 253.64826 253.01865 251.97704 250.59342 248.76481 246.68420 244.52759
 242.32897 240.14336 237.97375 235.82313 233.69352 231.57091 229.60730 227.77468
 226.06807 224.55046 223.19085 221.97323 220.86562 219.83601 218.95039 218.10178
 217.35417 216.54456 215.65294 215.02733 214.48772 214.13542 213.30310 212.19847
 211.23248 210.91063 211.75372 214.05196 217.42398 221.81197 227.40529 232.15369
 236.09407 240.39153 244.83762 249.13794 252.94487 256.24722 259.34775 262.48029
 265.46744 268.17200 270.59946 272.70850 274.41541 275.79916 277.13165 278.47635
 279.75070 280.97516 282.19543 283.43002 284.59952 285.65594 286.63293 287.52057
 288.32492 289.08344 289.77448 290.65512
 366.78100 356.34592 345.78885 334.66577 323.07969 311.28462 299.16554 286.97946
 274.70238 262.61031 250.63023 239.94215 230.07508 221.19000 213.38292 206.39585
 200.24077 195.18969 191.78261 189.83554 188.88346 188.95838 189.80431 191.12323
 192.85915 194.96508 197.23900 199.60892 202.06485 204.55577 206.65469 208.50761
 210.14454 211.30046 211.54038 211.77931 211.72723 211.44315 211.08708 210.72800
 210.35592 210.07685 209.89577 209.77069 209.70961 210.05154 210.44846 210.84838
 211.65231 212.84123 214.10215 215.89608 217.83500 219.88892 221.99484 224.08877
 226.15969 228.25461 230.36254 232.47946 234.61938 236.80231 239.06923 241.45015
 244.08208 246.34400 248.35692 250.13284 251.56077 252.69469 253.52761 253.85454
 253.90246 253.68738 253.05831 252.01723 250.63415 248.80608 246.72600 244.56992
 242.37184 240.18677 238.01769 235.86761 233.73854 231.61646 229.65338 227.82131
 226.11523 224.59815 223.23907 222.02200 220.91492 219.88584 219.00077 218.15269
 217.40561 216.59654 215.70546 215.08038 214.54131 214.15805 213.25258 212.29012
 211.41736 210.94730 211.69510 213.95395 217.33252 221.73856 227.37230 232.07372
 236.06572 240.34615 244.79852 249.09041 252.86646 256.14526 259.26511 262.45703
 265.46445 268.18271 270.64511 272.80579 274.49811 275.80966 277.14630 278.50143
 279.73895 280.93115 282.13876 283.33377 284.42657 285.46951 286.42728 287.28082
 288.01852 288.68198 289.28784 290.10190
 366.78100 356.34529 345.78758 334.66387 323.07716 311.28145 299.16175 286.97504
 274.69733 262.60462 250.62391 239.93520 230.06749 221.18178 213.37407 206.38636
 200.23065 195.17895 191.77124 189.82353 188.87082 188.94511 189.79040 191.10869
 192.84398 194.94927 197.22256 199.59185 202.04714 204.53744 206.63573 208.48802
 210.12431 211.27960 211.51889 211.75718 211.70447 211.41976 211.06305 210.70334
 210.33064 210.05093 209.86922 209.74351 209.68180 210.02309 210.41938 210.81867
 211.62196 212.81025 214.07054 215.86384 217.80213 219.85542 221.96071 224.05400
 226.12429 228.21858 230.32587 232.44216 234.58145 236.76374 239.03003 241.41033
 244.04162 246.30291 248.31520 250.09049 251.51778 252.65107 253.48336 253.80965
 253.85694 253.64123 253.01153 251.96982 250.58611 248.75740 246.67669 244.51998
 242.32127 240.13556 237.96585 235.81514 233.68543 231.56273 229.59902 227.76631
 226.05960 224.54189 223.18218 221.96447 220.85676 219.82705 218.94134 218.09263
 217.34492 216.53522 215.64351 215.01780 214.47809 214.13847 213.33609 212.28671
 211.48470 210.96402 211.67563 213.94035 217.31032 221.71207 227.31865 232.07614
 236.01534 240.31956 244.76186 249.03751 252.79686 256.08167 259.23291 262.45129
 265.47476 268.19080 270.63589 272.79901 274.52142 275.87106 277.18610 278.54630
 279.83871 281.05115 282.21951 283.37659 284.50653 285.56577 286.53470 287.38022
 288.13885 288.82999 289.45987 290.26260
 366.78100 356.34370 345.78440 334.65910 323.07080 311.27350 299.15220 286.96390
 274.68460 262.59029 250.60799 239.91769 230.04839 221.16109 213.35179 206.36249
 200.20519 195.15189 191.74259 189.79329 188.83899 188.91169 189.75539 191.07209
 192.80579 194.90948 197.18118 199.54888 202.00258 204.49128 206.58798 208.43868
 210.07338 211.22708 211.46478 211.70148 211.64718 211.36088 211.00258 210.64128
 210.26698 209.98568 209.80237 209.67507 209.61177 209.95147 210.34617 210.74387
 211.54557 212.73227 213.99097 215.78267 217.71937 219.77107 221.87477 223.96647
 226.03517 228.12787 230.23356 232.34826 234.48596 236.66666 238.93136 241.31006
 243.93976 246.19946 248.21016 249.98386 251.40956 252.54126 253.37196 253.69666
 253.74236 253.52506 252.89376 251.85045 250.46515 248.63485 246.55255 244.39425
 242.19395 240.00665 237.83535 235.68305 233.55175 231.42745 229.46215 227.62785
 225.91955 224.40025 223.03895 221.81964 220.71034 219.67904 218.79174 217.94144
 217.19214 216.38084 215.48754 214.86024 214.31894 214.09087 213.50137 212.35721
 211.38077 210.77226 211.62090 214.01843 217.41953 221.77225 227.29076 232.12656
 236.01796 240.32068 244.74767 248.96687 252.71019 256.03992 259.26852 262.46317
 265.44873 268.14429 270.57095 272.65344 274.33249 275.78891 277.22345 278.67484
 280.08627 281.42529 282.74405 284.06873 285.27872 286.45477 287.58548 288.60980
 289.53110 290.35150 291.06821 291.98154
 366.78100 356.34217 345.78134 334.65452 323.06469 311.26586 299.14303 286.95321
 274.67238 262.57655 250.59272 239.90090 230.03007 221.14124 213.33041 206.33959
 200.18076 195.12593 191.71510 189.76428 188.80845 188.87962 189.72179 191.03697
 192.76914 194.87131 197.14148 199.50766 201.95983 204.44700 206.54217 208.39135
 210.02452 211.17669 211.41286 211.64804 211.59221 211.30438 210.94455 210.58173
 210.20590 209.92307 209.73824 209.60942 209.54459 209.88276 210.27593 210.67210
 211.47228 212.65745 213.91462 215.70479 217.63997 219.69014 221.79231 223.88248
 225.94966 228.04083 230.14500 232.25817 234.39435 236.57352 238.83669 241.21386
 243.84204 246.10021 248.10938 249.88155 251.30573 252.43590 253.26507 253.58824
 253.63242 253.41359 252.78076 251.73593 250.34911 248.51728 246.43345 244.27362
 242.07180 239.88297 237.71014 235.55631 233.42349 231.29766 229.33083 227.49500
 225.78518 224.26435 222.90152 221.68069 220.56986 219.53704 218.64821 217.79638
 217.04555 216.23273 215.33790 214.70907 214.16624 214.04735 213.61664 212.38432
 211.43561 210.86557 211.72701 214.08061 217.46906 221.79988 227.37273 232.15495
 236.05539 240.34732 244.76680 248.96704 252.69533 256.04459 259.29016 262.46722
 265.42661 268.11551 270.51672 272.56635 274.27179 275.79865 277.33295 278.88937
 280.24643 282.00449 283.72592 285.39874 286.84644 288.12726 289.29584 290.35446
 291.30658 292.15448 292.89514 293.83908
 366.78100 356.34121 345.77942 334.65163 323.06084 311.26105 299.13726 286.94647
 274.66468 262.56789 250.58310 239.89031 230.01852 221.12873 213.31694 206.32515
 200.16536 195.10957 191.69778 189.74599 188.78920 188.85941 189.70061 191.01482
 192.74603 194.84724 197.11645 199.48166 201.93287 204.41908 206.51329 208.36150
 209.99371 211.14492 211.38013 211.61434 211.55755 211.26876 210.90797 210.54418
 210.16739 209.88360 209.69781 209.56802 209.50223 209.83944 210.23165 210.62686
 211.42607 212.61028 213.86649 215.65570 217.58991 219.63912 221.74033 223.82954
 225.89575 227.98596 230.08917 232.20138 234.33659 236.51480 238.77701 241.15322
 243.78043 246.03763 248.04584 249.81705 251.24026 252.36947 253.19768 253.51989
 253.56310 253.34331 252.70952 251.66373 250.27594 248.44315 246.35836 244.19757
 241.99478 239.80499 237.63120 235.47641 233.34262 231.21583 229.24804 227.41125
 225.70046 224.17867 222.81488 221.59309 220.48130 219.44751 218.55772 217.70493
 216.95314 216.13935 215.24356 214.61377 214.06998 214.01555 213.68524 212.39766
 211.47899 210.90117 211.77081 214.08514 217.43700 221.75909 227.34761 232.12379
 236.01982 240.30600 244.70990 248.89146 252.60713 255.96394 259.23138 262.44211
 265.42520 268.11197 270.50153 272.56857 274.29767 275.86871 277.42654 278.75479
 280.47458 282.33102 284.18918 285.85928 287.30463 288.58337 289.75006 290.80698
 291.75754 292.60403 293.34354 294.28592
 366.78100 356.34228 345.78156 334.65484 323.06512 311.26640 299.14368 286.95396
 274.67324 262.57751 250.59379 239.90207 230.03135 221.14263 213.33191 206.34119
 200.18247 195.12775 191.71703 189.76631 188.81059 188.88187 189.72415 191.03943
 192.77171 194.87399 197.14426 199.51054 201.96282 204.45010 206.54538 208.39466
 210.02794 211.18022 211.41650 211.65178 211.59606 211.30834 210.94862 210.58590
 210.21018 209.92746 209.74274 209.61401 209.54929 209.88757 210.28085 210.67713
 211.47741 212.66269 213.91997 215.71025 217.64553 219.69581 221.79809 223.88837
 225.95565 228.04693 230.15121 232.26449 234.40076 236.58004 238.84332 241.22060
 243.84888 246.10716 248.11644 249.88872 251.31300 252.44328 253.27256 253.59584
 253.64012 253.42140 252.78868 251.74396 250.35724 248.52551 246.44179 244.28207
 242.08035 239.89163 237.71891 235.56519 233.43247 231.30675 229.34003 227.50431
 225.79459 224.27387 222.91115 221.69043 220.57971 219.54699 218.65826 217.80654
 217.05582 216.24310 215.34838 214.71966 214.17694 214.07074 213.66412 212.53654
 211.50775 210.87387 211.79137 214.07774 217.41531 221.71628 227.26129 232.04512
 235.93799 240.21146 244.59212 248.74522 252.45955 255.85988 259.17676 262.40891
 265.39389 268.05652 270.41806 272.48340 274.23489 275.88782 277.49890 278.86508
 280.64786 282.50092 284.33981 285.96497 287.37143 288.61575 289.75101 290.77951
 291.70450 292.52820 293.24780 294.16483
 366.78100 356.34405 345.78509 334.66014 323.07219 311.27523 299.15428 286.96633
 274.68737 262.59342 250.61147 239.92151 230.05256 221.16561 213.35665 206.36770
 200.21075 195.15779 191.74884 189.79989 188.84593 188.91898 189.76303 191.08007
 192.81412 194.91817 197.19021 199.55826 202.01231 204.50135 206.59840 208.44945
 210.08449 211.23854 211.47659 211.71363 211.65968 211.37373 211.01577 210.65482
 210.28087 209.99991 209.81696 209.69001 209.62705 209.96710 210.36215 210.76019
 211.56224 212.74929 214.00833 215.80038 217.73743 219.78947 221.89352 223.98557
 226.05461 228.14766 230.25371 232.36875 234.50680 236.68785 238.95289 241.33194
 243.96199 246.22203 248.23308 250.00713 251.43317 252.56522 253.39627 253.72131
 253.76736 253.55041 252.91945 251.87650 250.49155 248.66159 246.57964 244.42169
 242.22173 240.03478 237.86383 235.71187 233.58092 231.45697 229.49201 227.65806
 225.95011 224.43115 223.07020 221.85125 220.74229 219.71134 218.82439 217.97443
 217.22548 216.41453 215.52157 214.89462 214.35367 214.15845 213.60020 212.64754
 211.55566 210.84645 211.84521 214.10983 217.38058 221.68880 227.23802 232.00847
 235.89870 240.16815 244.53577 248.66965 252.38365 255.81409 259.16873 262.42471
 265.40015 267.99435 270.20166 272.11676 273.90970 275.77356 277.50592 278.97083
 280.77258 282.64227 284.46329 286.06229 287.44611 288.67038 289.78738 290.79932
 291.70941 292.51987 293.22787 294.13013
 366.78100 356.34626 345.78952 334.66677 323.08103 311.28629 299.16755 286.98180
 274.70506 262.61332 250.63358 239.94583 230.07909 221.19435 213.38761 206.40087
 200.24612 195.19538 191.78864 189.84190 188.89015 188.96541 189.81167 191.13093
 192.86718 194.97344 197.24770 199.61796 202.07422 204.56547 206.66473 208.51799
 210.15525 211.31150 211.55176 211.79102 211.73928 211.45553 211.09979 210.74105
 210.36931 210.09056 209.90982 209.78508 209.72434 210.06660 210.46385 210.86411
 211.66837 212.85763 214.11888 215.91314 217.85240 219.90666 222.01291 224.10717
 226.17843 228.27369 230.38195 232.49920 234.63946 236.82272 239.08998 241.47123
 244.10349 246.36575 248.37901 250.15526 251.58352 252.71778 253.55104 253.87830
 253.92655 253.71181 253.08307 252.04233 250.65958 248.83184 246.75210 244.59636
 242.39861 240.21387 238.04513 235.89539 233.76665 231.64490 229.68216 227.85042
 226.14468 224.62793 223.26919 222.05245 220.94571 219.91696 219.03222 218.18448
 217.43774 216.62900 215.73825 215.11351 214.57477 214.28542 213.53188 212.70839
 211.66051 210.83388 211.75446 214.11450 217.36957 221.58717 227.18530 231.99330
 235.88547 240.16141 244.52927 248.67496 252.41200 255.85684 259.20309 262.42749
 265.37912 267.94360 270.00854 271.66635 273.37799 275.29648 276.96951 279.00687
 281.25287 283.47537 285.39862 287.08734 288.54880 289.84180 291.02148 292.09018
 293.05136 293.90732 294.65503 295.60794
 366.78100 356.34789 345.79277 334.67166 323.08754 311.29443 299.17731 286.99320
 274.71808 262.62797 250.64985 239.96374 230.09862 221.21551 213.41039 206.42528
 200.27216 195.22305 191.81793 189.87282 188.92270 188.99959 189.84747 191.16836
 192.90624 195.01413 197.29001 199.66190 202.11979 204.61267 206.71356 208.56844
 210.20733 211.36521 211.60710 211.84798 211.79787 211.51575 211.16164 210.80452
 210.43441 210.15729 209.97818 209.85506 209.79595 210.13983 210.53872 210.94060
 211.74649 212.93737 214.20026 215.99614 217.93703 219.99291 222.10080 224.19669
 226.26957 228.36646 230.47634 232.59523 234.73711 236.92200 239.19088 241.57377
 244.20765 246.47154 248.48642 250.26431 251.69419 252.83008 253.66496 253.99385
 254.04373 253.83062 253.20350 252.16439 250.78327 248.95716 246.87904 244.72493
 242.52881 240.34570 238.17859 236.03047 233.90336 231.78324 229.82213 227.99201
 226.28790 224.77278 223.41567 222.20055 221.09544 220.06832 219.18521 218.33909
 217.59398 216.78686 215.89775 215.27463 214.73752 214.39294 213.50789 212.77856
 211.79723 210.67073 211.50682 214.03763 217.33871 221.61794 227.15393 232.00269
 235.90935 240.20123 244.58485 248.75395 252.53233 256.03482 259.39178 262.58902
 265.48856 267.94824 269.83835 271.29486 272.87811 274.47580 276.90714 279.62997
 282.27377 284.53989 286.50085 288.22272 289.71283 291.03122 292.23404 293.32370
 294.30374 295.17648 295.93887 296.91046
 366.78100 356.34558 345.78816 334.66475 323.07833 311.28291 299.16349 286.97708
 274.69966 262.60724 250.62682 239.93841 230.07099 221.18557 213.37815 206.39073
 200.23532 195.18390 191.77648 189.82906 188.87665 188.95123 189.79681 191.11539
 192.85098 194.95656 197.23014 199.59972 202.05531 204.54589 206.64447 208.49705
 210.13363 211.28922 211.52880 211.76738 211.71496 211.43055 211.07413 210.71471
 210.34229 210.06288 209.88146 209.75604 209.69462 210.03620 210.43279 210.83237
 211.63595 212.82453 214.08512 215.87870 217.81728 219.87086 221.97645 224.07003
 226.14061 228.23519 230.34277 232.45936 234.59894 236.78152 239.04810 241.42869
 244.06027 246.32185 248.33443 250.11002 251.53760 252.67118 253.50376 253.83035
 253.87793 253.66251 253.03309 251.99167 250.60826 248.77984 246.69942 244.54300
 242.34459 240.15917 237.98975 235.83933 233.70992 231.58750 229.62408 227.79166
 226.08524 224.56783 223.20841 221.99099 220.88357 219.85416 218.96874 218.12032
 217.37290 216.56349 215.67207 215.04665 214.50723 214.30173 213.62431 212.74837
 211.99130 210.82733 211.33543 213.81029 217.23952 221.54353 227.02473 231.90884
 235.84389 240.16452 244.56660 248.75414 252.58769 256.17084 259.60034 262.84863
 265.78320 268.27695 270.14713 271.39716 272.62076 274.60577 276.82239 279.61609
 282.29831 284.59738 286.58682 288.33374 289.84552 291.18304 292.40335 293.50888
 294.50314 295.38858 296.16205 297.14777
 366.78100 356.34324 345.78347 334.65771 323.06895 311.27118 299.14942 286.96066
 274.68089 262.58613 250.60337 239.91260 230.04284 221.15508 213.34531 206.35555
 200.19779 195.14402 191.73426 189.78450 188.82973 188.90197 189.74521 191.06144
 192.79468 194.89791 197.16915 199.53639 201.98962 204.47786 206.57410 208.42433
 210.05857 211.21181 211.44904 211.68528 211.63052 211.34375 210.98499 210.62323
 210.24846 209.96670 209.78294 209.65517 209.59141 209.93065 210.32488 210.72212
 211.52336 212.70959 213.96783 215.75907 217.69530 219.74654 221.84978 223.94101
 226.00925 228.10149 230.20672 232.32096 234.45820 236.63843 238.90267 241.28091
 243.91014 246.16938 248.17962 249.95285 251.37809 252.50932 253.33956 253.66380
 253.70903 253.49127 252.85951 251.81574 250.42998 248.59922 246.51645 244.35769
 242.15693 239.96916 237.79740 235.64464 233.51287 231.38811 229.42235 227.58758
 225.87882 224.35906 222.99729 221.77753 220.66777 219.63600 218.74824 217.89748
 217.14771 216.33595 215.44219 214.81442 214.27266 214.17735 213.76794 212.77675
 211.92844 211.09508 211.44110 213.80150 217.22572 221.48007 226.81827 231.72772
 235.64862 239.92670 244.25584 248.40027 252.26833 255.96114 259.54510 262.93015
 266.00891 268.68002 270.75098 272.21701 273.35580 274.64505 276.53940 278.98529
 281.48831 283.88318 285.95557 287.77524 289.35004 290.74332 292.01450 293.16608
 294.20178 295.12411 295.92984 296.95663
 366.78100 356.34289 345.78278 334.65667 323.06756 311.26945 299.14734 286.95824
 274.67813 262.58302 250.59991 239.90880 230.03869 221.15058 213.34047 206.35036
 200.19225 195.13814 191.72803 189.77793 188.82282 188.89471 189.73760 191.05349
 192.78638 194.88927 197.16016 199.52705 201.97994 204.46783 206.56372 208.41362
 210.04751 211.20040 211.43729 211.67318 211.61807 211.33096 210.97185 210.60974
 210.23463 209.95252 209.76841 209.64031 209.57620 209.91509 210.30898 210.70587
 211.50676 212.69265 213.95054 215.74143 217.67732 219.72821 221.83110 223.92200
 225.98989 228.08178 230.18667 232.30056 234.43745 236.61734 238.88123 241.25912
 243.88801 246.14690 248.15679 249.92969 251.35458 252.48547 253.31536 253.63925
 253.68414 253.46603 252.83392 251.78981 250.40370 248.57259 246.48948 244.33038
 242.12927 239.94116 237.76905 235.61594 233.48383 231.35872 229.39261 227.55750
 225.84839 224.32828 222.96617 221.74607 220.63596 219.60385 218.71574 217.86463
 217.11452 216.30241 215.40830 214.78019 214.23808 214.14276 213.81448 212.91391
 211.75862 210.99893 211.64503 213.88200 217.29922 221.60794 226.76161 231.75458
 235.63069 239.87379 244.13824 248.20158 251.98845 255.63127 259.19717 262.60190
 265.73431 268.50128 270.81546 272.59689 273.99490 275.43112 277.08133 279.07111
 281.21063 283.34995 285.40500 287.20947 288.77112 290.15274 291.41330 292.55524
 293.58231 294.49692 295.29590 296.31412
 366.78100 356.34306 345.78312 334.65718 323.06824 311.27031 299.14837 286.95943
 274.67949 262.58455 250.60161 239.91067 230.04073 221.15279 213.34286 206.35292
 200.19498 195.14104 191.73110 189.78116 188.82622 188.89828 189.74134 191.05741
 192.79047 194.89353 197.16459 199.53165 201.98471 204.47277 206.56883 208.41889
 210.05296 211.20602 211.44308 211.67914 211.62420 211.33726 210.97832 210.61638
 210.24144 209.95951 209.77557 209.64763 209.58369 209.92275 210.31681 210.71387
 211.51493 212.70099 213.95906 215.75012 217.68618 219.73724 221.84030 223.93136
 225.99942 228.09148 230.19654 232.31061 234.44767 236.62773 238.89179 241.26985
 243.89891 246.15797 248.16803 249.94109 251.36616 252.49722 253.32728 253.65134
 253.69640 253.47846 252.84652 251.80258 250.41664 248.58571 246.50277 244.34383
 242.14289 239.95495 237.78301 235.63007 233.49813 231.37319 229.40726 227.57232
 225.86338 224.34344 222.98150 221.76156 220.65162 219.61968 218.73174 217.88081
 217.13087 216.31893 215.42499 214.79705 214.25511 214.15469 213.83098 212.99686
 211.73668 210.81136 211.53368 213.89650 217.34200 221.63284 226.84795 231.79152
 235.70303 239.94801 244.22844 248.31622 252.10677 255.71039 259.18765 262.47101
 265.48676 268.13480 270.34824 272.14682 273.75983 275.48483 277.37497 279.54047
 281.71155 283.88086 285.85330 287.58527 289.08414 290.41025 291.62012 292.71619
 293.70197 294.57983 295.34671 296.32397
 366.78100 356.34581 345.78861 334.66542 323.07922 311.28403 299.16484 286.97864
 274.70145 262.60926 250.62906 239.94087 230.07367 221.18848 213.38129 206.39409
 200.23890 195.18770 191.78051 189.83332 188.88112 188.95593 189.80174 191.12054
 192.85635 194.96215 197.23596 199.60577 202.06157 204.55238 206.65119 208.50399
 210.14080 211.29660 211.53641 211.77522 211.72302 211.43883 211.08263 210.72344
 210.35125 210.07205 209.89086 209.76567 209.70447 210.04628 210.44308 210.84289
 211.64670 212.83550 214.09631 215.89011 217.82892 219.88273 221.98853 224.08234
 226.15315 228.24795 230.35576 232.47256 234.61237 236.79518 239.06198 241.44279
 244.07460 246.33640 248.34921 250.12501 251.55282 252.68663 253.51943 253.84624
 253.89404 253.67885 253.04966 252.00846 250.62527 248.79708 246.71688 244.56069
 242.36249 240.17730 238.00811 235.85791 233.72872 231.60652 229.64333 227.81114
 226.10494 224.58775 223.22856 222.01136 220.90417 219.87497 218.98978 218.14159
 217.39439 216.58520 215.69400 215.06881 214.52962 214.29590 213.74979 213.10448
 211.82130 210.74231 211.28609 213.85237 217.34041 221.58960 226.90047 231.78722
 235.72169 239.97945 244.28845 248.42200 252.24969 255.87517 259.33429 262.55746
 265.50262 268.06418 270.05737 271.62411 273.24786 275.21753 277.53323 280.00293
 282.36389 284.55817 286.45694 288.12421 289.56708 290.84366 292.00833 293.06345
 294.01242 294.85748 295.59570 296.53650
 366.78100 356.34785 345.79270 334.67155 323.08739 311.29424 299.17709 286.99294
 274.71779 262.62764 250.64948 239.96333 230.09818 221.21503 213.40988 206.42473
 200.27157 195.22242 191.81727 189.87212 188.92197 188.99882 189.84667 191.16751
 192.90536 195.01321 197.28906 199.66091 202.11876 204.61160 206.71245 208.56730
 210.20615 211.36400 211.60585 211.84669 211.79654 211.51439 211.16024 210.80309
 210.43294 210.15578 209.97663 209.85348 209.79433 210.13818 210.53703 210.93888
 211.74472 212.93557 214.19842 215.99427 217.93512 219.99097 222.09881 224.19466
 226.26751 228.36436 230.47421 232.59306 234.73490 236.91975 239.18860 241.57145
 244.20530 246.46915 248.48400 250.26184 251.69169 252.82754 253.66239 253.99124
 254.04109 253.82793 253.20078 252.16163 250.78048 248.95433 246.87618 244.72202
 242.52587 240.34272 238.17557 236.02742 233.90027 231.78011 229.81896 227.98881
 226.28466 224.76951 223.41236 222.19721 221.09205 220.06490 219.18175 218.33560
 217.59045 216.78330 215.89414 215.27099 214.73384 214.42401 213.72597 213.18391
 212.13466 210.53732 210.94746 213.75546 217.32312 221.57220 226.85703 231.75188
 235.69949 239.97516 244.30647 248.46777 252.33804 256.00339 259.48349 262.70508
 265.61884 268.12186 269.99930 271.34286 272.65851 274.71191 277.54709 280.36356
 282.97403 285.21161 287.14786 288.84802 290.31940 291.62115 292.80884 293.88477
 294.85248 295.71420 296.46701 297.42636
 366.78100 356.34569 345.78839 334.66508 323.07878 311.28347 299.16417 286.97786
 274.70056 262.60825 250.62794 239.93964 230.07233 221.18703 213.37972 206.39242
 200.23711 195.18581 191.77850 189.83120 188.87889 188.95358 189.79928 191.11797
 192.85367 194.95936 197.23306 199.60275 202.05845 204.54914 206.64783 208.50053
 210.13722 211.29292 211.53261 211.77131 211.71900 211.43470 211.07839 210.71908
 210.34678 210.06747 209.88617 209.76086 209.69956 210.04125 210.43795 210.83764
 211.64133 212.83003 214.09072 215.88442 217.82311 219.87681 221.98250 224.07620
 226.14689 228.24159 230.34928 232.46597 234.60567 236.78836 239.05506 241.43575
 244.06745 246.32914 248.34184 250.11753 251.54522 252.67892 253.51161 253.83831
 253.88600 253.67070 253.04139 252.00009 250.61678 248.78847 246.70817 244.55186
 242.35356 240.16825 237.99895 235.84864 233.71934 231.59703 229.63373 227.80142
 226.09511 224.57781 223.21850 222.00120 220.89389 219.86459 218.97928 218.13098
 217.38367 216.57436 215.68306 215.05775 214.51845 214.39722 213.83607 213.11026
 212.38678 210.65671 211.00056 213.57588 217.02173 221.44806 226.72493 231.61436
 235.55861 239.84605 244.21295 248.42175 252.39223 256.17233 259.74847 263.03140
 265.96152 268.34332 270.08322 271.29239 272.80914 275.90292 279.35397 282.43320
 285.10583 287.39670 289.37906 291.11972 292.62610 293.95889 295.17484 296.27640
 297.26715 298.14938 298.92010 299.90231
 366.78100 356.34397 345.78494 334.65991 323.07188 311.27485 299.15382 286.96579
 274.68676 262.59273 250.61070 239.92067 230.05164 221.16461 213.35558 206.36655
 200.20952 195.15649 191.74746 189.79843 188.84440 188.91737 189.76134 191.07831
 192.81228 194.91625 197.18822 199.55619 202.01016 204.49913 206.59610 208.44707
 210.08204 211.23601 211.47398 211.71095 211.65692 211.37089 211.01286 210.65183
 210.27780 209.99677 209.81374 209.68671 209.62368 209.96365 210.35862 210.75659
 211.55856 212.74553 214.00450 215.79647 217.73344 219.78541 221.88938 223.98135
 226.05032 228.14329 230.24926 232.36423 234.50220 236.68318 238.94815 241.32712
 243.95709 246.21706 248.22803 250.00200 251.42797 252.55994 253.39091 253.71588
 253.76185 253.54482 252.91379 251.87076 250.48573 248.65570 246.57367 244.41564
 242.21561 240.02858 237.85755 235.70552 233.57449 231.45046 229.48543 227.65140
 225.94337 224.42434 223.06331 221.84428 220.73525 219.70422 218.81719 217.96716
 217.21813 216.40710 215.51407 214.88704 214.34601 214.34724 213.93326 212.93492
 212.20847 211.10825 211.30510 213.63098 217.06346 221.25587 226.56876 231.43748
 235.36508 239.62230 243.90604 248.02672 252.00172 255.93185 259.74146 263.32706
 266.61353 269.42667 271.47632 272.46399 273.40271 276.99390 280.67526 283.96002
 286.81104 289.25476 291.36945 293.22626 294.83319 296.25491 297.55200 298.72711
 299.78397 300.72510 301.54724 302.59500
 366.78100 356.34487 345.78674 334.66261 323.07548 311.27935 299.15922 286.97209
 274.69396 262.60083 250.61970 239.93057 230.06244 221.17631 213.36818 206.38005
 200.22392 195.17179 191.76366 189.81553 188.86240 188.93627 189.78114 191.09901
 192.83388 194.93875 197.21162 199.58049 202.03536 204.52523 206.62310 208.47497
 210.11084 211.26571 211.50458 211.74245 211.68932 211.40419 211.04706 210.68693
 210.31380 210.03367 209.85154 209.72541 209.66328 210.00415 210.40002 210.79889
 211.60175 212.78962 214.04949 215.84236 217.78023 219.83310 221.93797 224.03084
 226.10071 228.19458 230.30145 232.41732 234.55619 236.73806 239.00393 241.38380
 244.01467 246.27554 248.28741 250.06228 251.48915 252.62202 253.45389 253.77976
 253.82663 253.61050 252.98037 251.93824 250.55411 248.72498 246.64385 244.48672
 242.28759 240.10146 237.93133 235.78020 233.65007 231.52694 229.56281 227.72968
 226.02255 224.50442 223.14429 221.92616 220.81803 219.78790 218.90177 218.05264
 217.30451 216.49438 215.60225 214.97612 214.43599 214.33824 213.95740 213.01711
 211.92860 211.01149 211.57780 213.99408 217.47275 221.55844 226.70261 231.53362
 235.41656 239.60010 243.79587 247.81348 251.64090 255.39771 259.06961 262.54941
 265.77219 268.65714 271.15836 273.24014 275.03836 276.77930 278.85498 281.30237
 283.71304 285.78903 287.58545 289.16284 290.52795 291.73572 292.83762 293.83585
 294.73367 295.53317 296.23160 297.12167
 366.78100 356.34564 345.78829 334.66493 323.07858 311.28322 299.16387 286.97751
 274.70016 262.60780 250.62745 239.93909 230.07174 221.18638 213.37903 206.39167
 200.23632 195.18496 191.77761 189.83025 188.87790 188.95254 189.79819 191.11683
 192.85248 194.95812 197.23177 199.60141 202.05706 204.54770 206.64635 208.49899
 210.13564 211.29128 211.53093 211.76957 211.71722 211.43286 211.07651 210.71715
 210.34480 210.06544 209.88409 209.75873 209.69738 210.03902 210.43566 210.83531
 211.63895 212.82760 214.08824 215.88189 217.82053 219.87418 221.97982 224.07347
 226.14411 228.23876 230.34640 232.46305 234.60269 236.78534 239.05198 241.43263
 244.06427 246.32592 248.33856 250.11421 251.54185 252.67550 253.50814 253.83479
 253.88243 253.66708 253.03772 251.99637 250.61301 248.78466 246.70430 244.54795
 242.34959 240.16424 237.99488 235.84453 233.71517 231.59282 229.62946 227.79711
 226.09075 224.57340 223.21404 221.99668 220.88933 219.85997 218.97462 218.12626
 217.37891 216.56955 215.67820 215.05284 214.51349 214.34311 213.91014 213.24539
 212.02710 210.87276 211.33394 213.76714 217.31963 221.62363 226.56618 231.60379
 235.46051 239.68633 243.91953 247.99908 251.85153 255.56799 259.16727 262.54971
 265.65482 268.42514 270.78918 272.80353 274.63681 276.42664 278.24982 280.03360
 281.62543 283.11969 284.68445 286.18774 287.48874 288.63977 289.68991 290.64127
 291.49692 292.25885 292.92450 293.77277
 366.78100 356.34692 345.79085 334.66877 323.08370 311.28962 299.17155 286.98647
 274.71039 262.61932 250.64024 239.95317 230.08709 221.20301 213.39694 206.41086
 200.25679 195.20671 191.80064 189.85456 188.90348 188.97941 189.82633 191.14626
 192.88318 194.99010 197.26503 199.63595 202.09288 204.58480 206.68473 208.53865
 210.17657 211.33350 211.57442 211.81435 211.76327 211.48019 211.12512 210.76704
 210.39597 210.11789 209.93782 209.81374 209.75366 210.09659 210.49451 210.89544
 211.70036 212.89029 214.15221 215.94713 217.88706 219.94198 222.04891 224.14383
 226.21575 228.31168 230.42060 232.53853 234.67945 236.86338 239.13130 241.51322
 244.14615 246.40907 248.42300 250.19992 251.62884 252.76377 253.59769 253.92562
 253.97454 253.76047 253.13239 252.09231 250.71024 248.88316 246.80409 244.64901
 242.45193 240.26786 238.09978 235.95071 233.82263 231.70156 229.73948 227.90840
 226.20333 224.68725 223.32918 222.11310 221.00702 219.97895 219.09487 218.24780
 217.50172 216.69365 215.80357 215.17949 214.64142 214.41142 213.86993 213.33673
 212.16862 210.91318 211.16295 213.58147 217.16734 221.49307 226.48889 231.52422
 235.39481 239.63750 243.90323 248.03207 251.92885 255.69298 259.32755 262.71457
 265.80780 268.55603 270.87820 272.76035 274.47391 276.18628 278.02405 279.83029
 281.42722 282.77371 284.33243 285.87598 287.21176 288.39362 289.47186 290.44870
 291.32724 292.10959 292.79303 293.66400
 366.78100 356.34663 345.79026 334.66789 323.08252 311.28815 299.16978 286.98441
 274.70804 262.61667 250.63730 239.94993 230.08356 221.19919 213.39282 206.40645
 200.25208 195.20172 191.79535 189.84898 188.89761 188.97324 189.81987 191.13950
 192.87613 194.98276 197.25739 199.62802 202.08465 204.57628 206.67591 208.52954
 210.16717 211.32380 211.56443 211.80406 211.75269 211.46932 211.11395 210.75558
 210.38421 210.10584 209.92547 209.80110 209.74073 210.08336 210.48099 210.88162
 211.68625 212.87588 214.13752 215.93215 217.87178 219.92641 222.03304 224.12767
 226.19930 228.29493 230.40356 232.52119 234.66182 236.84545 239.11308 241.49471
 244.12734 246.38997 248.40360 250.18023 251.60886 252.74349 253.57712 253.90475
 253.95338 253.73901 253.11064 252.07027 250.68790 248.86053 246.78116 244.62579
 242.42842 240.24405 238.07568 235.92631 233.79795 231.67658 229.71421 227.88284
 226.17747 224.66110 223.30273 222.08636 220.97999 219.95162 219.06725 218.21988
 217.47351 216.66514 215.77477 215.15040 214.61203 214.41676 213.93172 213.30905
 212.20915 210.98811 211.18202 213.55292 217.14529 221.45352 226.43240 231.47769
 235.34702 239.58310 243.85307 247.99254 251.90370 255.69870 259.36215 262.75964
 265.86328 268.62332 270.92279 272.78873 274.47351 276.17627 277.97504 279.73810
 281.21600 282.86951 284.54065 286.07986 287.41190 288.59042 289.66565 290.63971
 291.51581 292.29593 292.97745 293.84598
 366.78100 356.34525 345.78750 334.66375 323.07700 311.28124 299.16149 286.97474
 274.69699 262.60424 250.62349 239.93474 230.06699 221.18124 213.37348 206.38573
 200.22998 195.17823 191.77048 189.82273 188.86998 188.94423 189.78948 191.10773
 192.84297 194.94822 197.22147 199.59072 202.04597 204.53622 206.63447 208.48672
 210.12297 211.27821 211.51746 211.75571 211.70296 211.41821 211.06146 210.70171
 210.32896 210.04921 209.86745 209.74170 209.67995 210.02120 210.41745 210.81670
 211.61995 212.80820 214.06845 215.86170 217.79994 219.85319 221.95844 224.05169
 226.12194 228.21619 230.32344 232.43969 234.57894 236.76118 239.02743 241.40768
 244.03893 246.30018 248.31243 250.08768 251.51493 252.64818 253.48042 253.80667
 253.85392 253.63817 253.00842 251.96667 250.58292 248.75417 246.67342 244.51666
 242.31791 240.13216 237.96241 235.81166 233.68191 231.55916 229.59541 227.76266
 226.05591 224.53815 223.17840 221.96065 220.85290 219.82315 218.93740 218.08865
 217.34090 216.53115 215.63939 215.01364 214.47389 214.36505 214.04619 213.31609
 212.19939 210.94817 211.20380 213.60927 217.14812 221.42516 226.42982 231.43518
 235.30995 239.53952 243.80571 247.93861 251.84140 255.64755 259.32904 262.73663
 265.85110 268.62100 270.95325 272.85059 274.56039 276.23593 277.99124 279.68076
 281.18790 282.96219 284.65756 286.26019 287.64713 288.87421 289.99374 291.00797
 291.92014 292.73242 293.44205 294.34634
 366.78100 356.34536 345.78772 334.66407 323.07743 311.28179 299.16215 286.97551
 274.69787 262.60522 250.62458 239.93594 230.06830 221.18266 213.37502 206.38737
 200.23173 195.18009 191.77245 189.82481 188.87217 188.94652 189.79188 191.11024
 192.84560 194.95096 197.22432 199.59367 202.04903 204.53939 206.63775 208.49011
 210.12647 211.28182 211.52118 211.75954 211.70690 211.42226 211.06562 210.70597
 210.33333 210.05369 209.87205 209.74641 209.68477 210.02612 210.42248 210.82184
 211.62520 212.81356 214.07392 215.86727 217.80563 219.85899 221.96435 224.05771
 226.12807 228.22242 230.32978 232.44614 234.58550 236.76786 239.03422 241.41457
 244.04593 246.30729 248.31965 250.09501 251.52237 252.65572 253.48808 253.81444
 253.86180 253.64616 253.01652 251.97487 250.59123 248.76259 246.68195 244.52531
 242.32667 240.14102 237.97138 235.82074 233.69110 231.56846 229.60482 227.77217
 226.06553 224.54789 223.18825 221.97061 220.86297 219.83332 218.94768 218.09904
 217.35140 216.54176 215.65012 215.02447 214.48483 214.37883 214.07944 213.39426
 212.24323 210.80171 211.16606 213.67491 217.15311 221.39464 226.44035 231.42438
 235.27925 239.50415 243.76451 247.89102 251.77589 255.58971 259.29135 262.70825
 265.83017 268.61002 270.97339 272.91962 274.62018 276.26874 277.95822 279.59479
 281.07263 282.80368 284.43674 285.92795 287.25903 288.43671 289.51117 290.48456
 291.36002 292.13959 292.82062 293.68854
 366.78100 356.34644 345.78988 334.66732 323.08176 311.28720 299.16864 286.98308
 274.70652 262.61496 250.63540 239.94784 230.08128 221.19672 213.39016 206.40360
 200.24904 195.19848 191.79192 189.84536 188.89380 188.96924 189.81568 191.13512
 192.87156 194.97800 197.25244 199.62288 202.07932 204.57076 206.67020 208.52364
 210.16108 211.31752 211.55796 211.79740 211.74584 211.46228 211.10672 210.74816
 210.37660 210.09804 209.91748 209.79292 209.73236 210.07480 210.47224 210.87268
 211.67712 212.86656 214.12800 215.92244 217.86188 219.91632 222.02276 224.11720
 226.18864 228.28408 230.39252 232.50996 234.65040 236.83384 239.10128 241.48272
 244.11516 246.37760 248.39104 250.16748 251.59592 252.73036 253.56380 253.89124
 253.93968 253.72512 253.09656 252.05600 250.67344 248.84588 246.76632 244.61076
 242.41320 240.22864 238.06008 235.91052 233.78196 231.66040 229.69784 227.86628
 226.16072 224.64416 223.28560 222.06904 220.96248 219.93392 219.04936 218.20180
 217.45524 216.64668 215.75612 215.13156 214.59300 214.45537 214.08263 213.42775
 212.34541 210.76476 211.14934 213.71875 217.13654 221.34711 226.42722 231.35008
 235.24553 239.46107 243.71591 247.83403 251.72339 255.54521 259.24850 262.67313
 265.80331 268.60400 271.02234 273.03180 274.73990 276.29507 277.87143 279.42014
 280.84827 282.61520 284.28165 285.87985 287.27487 288.50912 289.63516 290.65530
 291.57278 292.38983 293.10358 294.01315
 366.78100 356.34677 345.79054 334.66831 323.08308 311.28885 299.17062 286.98539
 274.70916 262.61793 250.63870 239.95147 230.08524 221.20101 213.39478 206.40855
 200.25432 195.20409 191.79786 189.85163 188.90040 188.97617 189.82294 191.14271
 192.87948 194.98625 197.26102 199.63179 202.08856 204.58033 206.68010 208.53387
 210.17164 211.32841 211.56918 211.80895 211.75772 211.47449 211.11926 210.76103
 210.38980 210.11157 209.93134 209.80711 209.74688 210.08965 210.48742 210.88819
 211.69296 212.88273 214.14450 215.93927 217.87904 219.93381 222.04058 224.13535
 226.20712 228.30289 230.41166 232.52943 234.67020 236.85397 239.12174 241.50351
 244.13628 246.39905 248.41282 250.18959 251.61836 252.75313 253.58690 253.91468
 253.96345 253.74922 253.12099 252.08076 250.69853 248.87130 246.79207 244.63684
 242.43961 240.25538 238.08715 235.93792 233.80969 231.68846 229.72623 227.89500
 226.18977 224.67354 223.31531 222.09908 220.99285 219.96462 219.08039 218.23316
 217.48693 216.67870 215.78847 215.16424 214.62601 214.50612 214.13646 213.38770
 212.36176 210.81335 211.17470 213.75185 217.10646 221.28764 226.42310 231.31438
 235.21828 239.42743 243.68423 247.80133 251.70592 255.53404 259.23285 262.65836
 265.79446 268.59534 271.03293 273.12885 274.90460 276.44202 277.91595 279.35321
 280.86877 282.72116 284.50406 286.09238 287.46692 288.68304 289.79257 290.79773
 291.70175 292.50681 293.21005 294.10629
 366.78100 356.34624 345.78947 334.66671 323.08095 311.28619 299.16742 286.98166
 274.70490 262.61314 250.63337 239.94561 230.07885 221.19408 213.38732 206.40056
 200.24580 195.19503 191.78827 189.84151 188.88974 188.96498 189.81122 191.13046
 192.86669 194.97293 197.24717 199.61741 202.07364 204.56488 206.66412 208.51735
 210.15459 211.31083 211.55107 211.79030 211.73854 211.45478 211.09901 210.74025
 210.36849 210.08973 209.90896 209.78420 209.72344 210.06568 210.46291 210.86315
 211.66739 212.85662 214.11786 215.91210 217.85134 219.90557 222.01181 224.10605
 226.17729 228.27252 230.38076 232.49800 234.63823 236.82147 239.08871 241.46995
 244.10218 246.36442 248.37766 250.15389 251.58213 252.71637 253.54961 253.87684
 253.92508 253.71032 253.08156 252.04079 250.65803 248.83027 246.75050 244.59474
 242.39698 240.21222 238.04345 235.89369 233.76493 231.64316 229.68040 227.84864
 226.14288 224.62611 223.26735 222.05059 220.94383 219.91506 219.03030 218.18254
 217.43577 216.62701 215.73625 215.11149 214.57272 214.48978 214.21573 213.39337
 212.27010 210.84741 211.14600 213.69727 217.10193 221.31404 226.45406 231.32573
 235.23965 239.45087 243.70206 247.80952 251.69304 255.50461 259.20428 262.63101
 265.75287 268.55762 271.04471 273.20682 274.99783 276.51733 277.95944 279.38519
 280.91327 282.68619 284.34183 285.89581 287.25150 288.45093 289.54523 290.53659
 291.42822 292.22220 292.91583 293.79974
 366.78100 356.34625 345.78951 334.66676 323.08102 311.28627 299.16753 286.98178
 274.70503 262.61329 250.63354 239.94580 230.07905 221.19431 213.38756 206.40081
 200.24607 195.19532 191.78858 189.84183 188.89009 188.96534 189.81160 191.13085
 192.86710 194.97336 197.24761 199.61787 202.07412 204.56538 206.66463 208.51788
 210.15514 211.31139 211.55165 211.79090 211.73916 211.45541 211.09966 210.74092
 210.36917 210.09043 209.90968 209.78494 209.72419 210.06644 210.46370 210.86395
 211.66821 212.85746 214.11872 215.91297 217.85222 219.90648 222.01273 224.10699
 226.17824 228.27350 230.38175 232.49901 234.63926 236.82251 239.08977 241.47102
 244.10328 246.36553 248.37879 250.15504 251.58329 252.71755 253.55080 253.87806
 253.92631 253.71157 253.08282 252.04207 250.65933 248.83158 246.75184 244.59609
 242.39835 240.21360 238.04485 235.89511 233.76636 231.64462 229.68187 227.85013
 226.14438 224.62763 223.26889 222.05214 220.94540 219.91665 219.03191 218.18416
 217.43742 216.62867 215.73792 215.11318 214.57443 214.48949 214.25381 213.52866
 212.22664 210.65858 210.93755 213.53244 217.01712 221.25844 226.48590 231.28320
 235.21471 239.41797 243.65422 247.75626 251.66121 255.47916 259.18262 262.62018
 265.74741 268.55826 271.05167 273.23343 275.04102 276.53641 277.91498 279.31107
 280.76605 282.40948 284.01218 285.42328 286.61136 287.68100 288.66461 289.55569
 290.35712 291.07080 291.69424 292.48877
 366.78100 356.34640 345.78980 334.66720 323.08160 311.28700 299.16841 286.98281
 274.70621 262.61461 250.63501 239.94741 230.08081 221.19621 213.38961 206.40301
 200.24842 195.19782 191.79122 189.84462 188.89302 188.96842 189.81482 191.13422
 192.87062 194.97702 197.25142 199.62183 202.07823 204.56963 206.66903 208.52243
 210.15983 211.31623 211.55663 211.79603 211.74443 211.46084 211.10524 210.74664
 210.37504 210.09644 209.91584 209.79124 209.73064 210.07304 210.47044 210.87085
 211.67525 212.86465 214.12605 215.92045 217.85985 219.91425 222.02065 224.11505
 226.18645 228.28185 230.39026 232.50766 234.64806 236.83146 239.09886 241.48026
 244.11266 246.37506 248.38846 250.16486 251.59327 252.72767 253.56107 253.88847
 253.93687 253.72227 253.09367 252.05307 250.67047 248.84287 246.76327 244.60768
 242.41008 240.22548 238.05688 235.90728 233.77868 231.65708 229.69448 227.86288
 226.15728 224.64069 223.28209 222.06549 220.95889 219.93029 219.04569 218.19809
 217.45149 216.64289 215.75229 215.12770 214.58910 214.51338 214.30222 213.55818
 212.26875 210.61212 210.85013 213.45689 216.94867 221.20135 226.45901 231.23621
 235.17627 239.37808 243.61826 247.72707 251.64012 255.46741 259.17798 262.61966
 265.74493 268.56400 271.08392 273.33453 275.17038 276.62686 277.93839 279.25092
 280.67773 282.09949 283.49597 284.90030 286.13907 287.19983 288.20172 289.10934
 289.92569 290.65262 291.28766 292.09695
 366.78100 356.34630 345.78960 334.66690 323.08121 311.28651 299.16781 286.98211
 274.70541 262.61371 250.63401 239.94631 230.07962 221.19492 213.38822 206.40152
 200.24682 195.19612 191.78942 189.84273 188.89103 188.96633 189.81263 191.13193
 192.86823 194.97453 197.24883 199.61914 202.07544 204.56674 206.66604 208.51934
 210.15664 211.31294 211.55324 211.79255 211.74085 211.45715 211.10145 210.74275
 210.37105 210.09235 209.91166 209.78696 209.72626 210.06856 210.46586 210.86616
 211.67046 212.85976 214.12107 215.91537 217.85467 219.90897 222.01527 224.10957
 226.18087 228.27618 230.38448 232.50178 234.64208 236.82538 239.09268 241.47398
 244.10628 246.36859 248.38189 250.15819 251.58649 252.72079 253.55409 253.88139
 253.92970 253.71500 253.08630 252.04560 250.66290 248.83520 246.75550 244.59980
 242.40211 240.21741 238.04871 235.89901 233.77031 231.64861 229.68591 227.85421
 226.14852 224.63182 223.27312 222.05642 220.94972 219.92102 219.03632 218.18863
 217.44193 216.63323 215.74253 215.11783 214.57913 214.52498 214.36737 213.58583
 212.18819 210.53067 210.81265 213.43771 216.94020 221.19675 226.47519 231.22635
 235.17265 239.37314 243.61423 247.72484 251.63885 255.46150 259.17078 262.61411
 265.73553 268.55307 271.09741 273.40579 275.25940 276.68851 277.94803 279.23349
 280.62009 281.97702 283.17328 284.54919 285.76428 286.76468 287.75092 288.66074
 289.47903 290.20773 290.84430 291.65552
 366.78100 356.34650 345.79000 334.66749 323.08199 311.28749 299.16899 286.98349
 274.70698 262.61548 250.63598 239.94848 230.08198 221.19747 213.39097 206.40447
 200.24997 195.19947 191.79296 189.84646 188.89496 188.97046 189.81696 191.13645
 192.87295 194.97945 197.25395 199.62445 202.08094 204.57244 206.67194 208.52544
 210.16294 211.31943 211.55993 211.79943 211.74793 211.46443 211.10892 210.75042
 210.37892 210.10042 209.91992 209.79541 209.73491 210.07741 210.47491 210.87541
 211.67990 212.86940 214.13090 215.92540 217.86490 219.91939 222.02589 224.12039
 226.19189 228.28739 230.39588 232.51338 234.65388 236.83738 239.10488 241.48637
 244.11887 246.38137 248.39487 250.17137 251.59986 252.73436 253.56786 253.89536
 253.94386 253.72935 253.10085 252.06035 250.67785 248.85035 246.77084 244.61534
 242.41784 240.23334 238.06484 235.91533 233.78683 231.66533 229.70283 227.87133
 226.16582 224.64932 223.29082 222.07432 220.96782 219.93931 219.05481 218.20731
 217.46081 216.65231 215.76180 215.13730 214.59880 214.55135 214.41582 213.62935
 212.26686 210.50294 210.73695 213.38354 216.90387 221.17081 226.47408 231.20134
 235.15916 239.35559 243.59465 247.70288 251.61584 255.43375 259.14536 262.59189
 265.71207 268.52975 271.09543 273.42358 275.30911 276.75531 277.96820 279.21552
 280.56006 281.88803 283.06339 284.29355 285.48459 286.27896 287.17343 288.10242
 288.93793 289.68198 290.33194 291.16025
 366.78100 356.34740 345.79180 334.67019 323.08559 311.29199 299.17439 286.98979
 274.71418 262.62358 250.64498 239.95838 230.09278 221.20917 213.40357 206.41797
 200.26437 195.21477 191.80916 189.86356 188.91296 188.98936 189.83676 191.15715
 192.89455 195.00195 197.27735 199.64875 202.10614 204.59854 206.69894 208.55334
 210.19174 211.34913 211.59053 211.83093 211.78033 211.49772 211.14312 210.78552
 210.41492 210.13732 209.95771 209.83411 209.77451 210.11791 210.51631 210.91770
 211.72310 212.91350 214.17590 215.97130 217.91169 219.96709 222.07449 224.16989
 226.24229 228.33868 230.44808 232.56648 234.70788 236.89228 239.16067 241.54307
 244.17647 246.43987 248.45427 250.23166 251.66106 252.79646 253.63086 253.95926
 254.00865 253.79505 253.16745 252.12785 250.74625 248.91964 246.84104 244.68644
 242.48984 240.30624 238.13863 235.99003 233.86243 231.74183 229.78023 227.94962
 226.24502 224.72942 223.37182 222.15622 221.05061 220.02301 219.13941 218.29281
 217.54721 216.73960 215.85000 215.22640 214.68880 214.61894 214.42873 213.66698
 212.27046 210.44130 210.69388 213.35020 216.87852 221.15257 226.44643 231.19550
 235.13629 239.33665 243.57918 247.69011 251.60283 255.42206 259.13245 262.57996
 265.69913 268.51395 271.09262 273.45303 275.35284 276.80762 278.01965 279.21759
 280.49130 281.75146 282.84125 283.94171 285.11545 286.16068 287.13760 288.04285
 288.85699 289.58203 290.21536 291.02252
 366.78100 356.34881 345.79461 334.67442 323.09123 311.29903 299.18284 286.99965
 274.72545 262.63626 250.65907 239.97387 230.10968 221.22748 213.42329 206.43910
 200.28690 195.23871 191.83452 189.89032 188.94113 189.01894 189.86774 191.18955
 192.92836 195.03716 197.31397 199.68678 202.14558 204.63939 206.74120 208.59700
 210.23681 211.39561 211.63842 211.88023 211.83103 211.54984 211.19665 210.84045
 210.47126 210.19507 210.01687 209.89468 209.83649 210.18129 210.58110 210.98391
 211.79071 212.98252 214.24633 216.04313 217.98494 220.04174 222.15055 224.24736
 226.32116 228.41897 230.52978 232.64958 234.79239 236.97820 239.24800 241.63181
 244.26662 246.53142 248.54723 250.32604 251.75684 252.89365 253.72946 254.05926
 254.11007 253.89788 253.27168 252.23349 250.85329 249.02810 246.95091 244.79771
 242.60252 240.42033 238.25413 236.10694 233.98075 231.86155 229.90136 228.07217
 226.36897 224.85478 223.49859 222.28439 221.18020 220.15401 219.27181 218.42662
 217.68242 216.87623 215.98804 215.36584 214.82965 214.70395 214.39452 213.77319
 212.28445 210.37665 210.62666 213.30847 216.86055 221.15016 226.46036 231.19742
 235.14290 239.34505 243.58757 247.69669 251.60487 255.41335 259.11865 262.56580
 265.68100 268.49319 271.08023 273.44504 275.37518 276.86914 278.07516 279.25220
 280.48932 281.68469 282.68668 283.51407 284.64215 285.71082 286.67850 287.58524
 288.40076 289.12698 289.76141 290.56992
 366.78100 356.34952 345.79604 334.67656 323.09408 311.30260 299.18712 287.00464
 274.73116 262.64268 250.66620 239.98172 230.11823 221.23675 213.43327 206.44979
 200.29831 195.25083 191.84735 189.90387 188.95539 189.03391 189.88343 191.20595
 192.94547 195.05499 197.33251 199.70603 202.16555 204.66007 206.76259 208.61911
 210.25963 211.41915 211.66266 211.90518 211.85670 211.57622 211.22374 210.86826
 210.49978 210.22430 210.04682 209.92534 209.86786 210.21338 210.61390 211.01742
 211.82494 213.01746 214.28198 216.07950 218.02202 220.07954 222.18906 224.28658
 226.36109 228.45961 230.57113 232.69165 234.83517 237.02169 239.29221 241.67673
 244.31225 246.57777 248.59429 250.37381 251.80533 252.94285 253.77937 254.10989
 254.16141 253.94993 253.32445 252.28697 250.90749 249.08301 247.00653 244.85404
 242.65956 240.47808 238.31260 236.16612 234.04064 231.92216 229.96268 228.13420
 226.43172 224.91824 223.56276 222.34928 221.24580 220.22032 219.33884 218.49436
 217.75088 216.94540 216.05792 215.43644 214.90096 214.75018 214.39006 213.84413
 212.41290 210.39020 210.49249 213.20921 216.80417 221.11827 226.47446 231.17235
 235.14606 239.34546 243.58569 247.69048 251.59315 255.38725 259.08878 262.53818
 265.65454 268.47000 271.05692 273.40472 275.34979 276.87793 278.12317 279.27982
 280.49512 281.62268 282.54758 283.25272 284.08719 285.16193 286.11649 286.93753
 287.74445 288.46301 289.09076 289.89072
 366.78100 356.34980 345.79661 334.67741 323.09522 311.30402 299.18883 287.00663
 274.73343 262.64524 250.66904 239.98485 230.12165 221.24046 213.43726 206.45406
 200.30287 195.25567 191.85248 189.90928 188.96109 189.03989 189.88969 191.21250
 192.95230 195.06211 197.33991 199.71372 202.17352 204.66832 206.77113 208.62793
 210.26874 211.42854 211.67235 211.91515 211.86695 211.58676 211.23456 210.87937
 210.51117 210.23598 210.05878 209.93758 209.88039 210.22619 210.62700 211.03080
 211.83861 213.03141 214.29621 216.09402 218.03682 220.09463 222.20443 224.30224
 226.37704 228.47584 230.58765 232.70845 234.85226 237.03906 239.30987 241.69467
 244.33047 246.59628 248.61308 250.39289 251.82469 252.96250 253.79930 254.13010
 254.18191 253.97071 253.34552 252.30832 250.92913 249.10493 247.02873 244.87654
 242.68234 240.50115 238.33595 236.18976 234.06456 231.94636 229.98717 228.15897
 226.45678 224.94358 223.58839 222.37519 221.27199 220.24680 219.36560 218.52141
 217.77821 216.97302 216.08582 215.46462 214.92943 214.77705 214.41704 213.85617
 212.52255 210.43031 210.38959 213.09438 216.73105 221.07677 226.46661 231.13977
 235.13644 239.33705 243.58113 247.68652 251.58289 255.36736 259.06750 262.52405
 265.64252 268.45712 271.03934 273.38367 275.34219 276.87912 278.14676 279.31512
 280.48621 281.54877 282.37753 283.05954 283.85446 284.92575 285.90759 286.44205
 287.18292 287.92181 288.56732 289.38992
 366.78100 356.34987 345.79673 334.67760 323.09546 311.30433 299.18919 287.00706
 274.73392 262.64579 250.66966 239.98552 230.12239 221.24125 213.43812 206.45498
 200.30385 195.25672 191.85358 189.91045 188.96231 189.04118 189.89104 191.21391
 192.95377 195.06364 197.34151 199.71537 202.17524 204.67010 206.77297 208.62983
 210.27070 211.43057 211.67443 211.91730 211.86916 211.58903 211.23689 210.88176
 210.51362 210.23849 210.06136 209.94022 209.88309 210.22895 210.62982 211.03368
 211.84155 213.03442 214.29928 216.09715 218.04001 220.09788 222.20774 224.30561
 226.38047 228.47934 230.59121 232.71207 234.85594 237.04280 239.31367 241.69853
 244.33440 246.60027 248.61713 250.39700 251.82886 252.96673 253.80359 254.13446
 254.18632 253.97519 253.35006 252.31292 250.93379 249.10965 247.03352 244.88138
 242.68725 240.50612 238.34098 236.19485 234.06971 231.95158 229.99244 228.16431
 226.46217 224.94904 223.59391 222.38077 221.27764 220.25250 219.37137 218.52723
 217.78410 216.97897 216.09183 215.47070 214.93556 214.79604 214.46640 213.79433
 212.69492 210.44611 210.23782 212.97478 216.69031 221.05379 226.44868 231.12312
 235.12646 239.33006 243.58022 247.68977 251.58247 255.36049 259.05676 262.51880
 265.63611 268.44489 271.01895 273.35803 275.31970 276.87204 278.15564 279.33127
 280.47336 281.47186 282.20251 282.81244 283.61917 284.69897 285.70850 286.34958
 286.97037 287.70370 288.34872 289.17072
 366.78100 356.34957 345.79614 334.67671 323.09428 311.30285 299.18742 287.00499
 274.73155 262.64312 250.66669 239.98226 230.11883 221.23740 213.43397 206.45054
 200.29911 195.25168 191.84825 189.90482 188.95639 189.03496 189.88452 191.20709
 192.94666 195.05623 197.33380 199.70737 202.16694 204.66151 206.76408 208.62065
 210.26122 211.42079 211.66436 211.90693 211.85849 211.57806 211.22563 210.87020
 210.50177 210.22634 210.04891 209.92748 209.87005 210.21562 210.61619 211.01976
 211.82733 213.01990 214.28446 216.08203 218.02460 220.08217 222.19174 224.28931
 226.36388 228.46245 230.57402 232.69459 234.83816 237.02473 239.29530 241.67987
 244.31543 246.58100 248.59757 250.37714 251.80871 252.94628 253.78285 254.11342
 254.16499 253.95356 253.32813 252.29070 250.91127 249.08684 247.01041 244.85797
 242.66354 240.48211 238.31668 236.17025 234.04482 231.92639 229.96696 228.13853
 226.43610 224.92267 223.56724 222.35381 221.25038 220.22494 219.34351 218.49908
 217.75565 216.95022 216.06279 215.44136 214.90593 214.79886 214.54588 213.71342
 212.78027 210.45351 210.11961 212.90688 216.69441 221.05920 226.43556 231.12967
 235.11359 239.32469 243.57857 247.69157 251.58461 255.35692 259.04391 262.50571
 265.61981 268.42154 270.98657 273.31149 275.27277 276.85547 278.17288 279.36606
 280.48486 281.41226 282.01422 282.51727 283.35349 284.42249 285.42078 286.32446
 287.12424 287.85547 288.49423 289.30826
 366.78100 356.34960 345.79620 334.67679 323.09439 311.30299 299.18759 287.00518
 274.73178 262.64338 250.66698 239.98257 230.11917 221.23777 213.43437 206.45097
 200.29956 195.25216 191.84876 189.90536 188.95695 189.03555 189.88515 191.20775
 192.94734 195.05694 197.33454 199.70814 202.16773 204.66233 206.76493 208.62153
 210.26213 211.42172 211.66532 211.90792 211.85952 211.57911 211.22671 210.87131
 210.50291 210.22750 210.05010 209.92870 209.87130 210.21690 210.61749 211.02109
 211.82869 213.02129 214.28588 216.08348 218.02608 220.08368 222.19327 224.29087
 226.36547 228.46407 230.57567 232.69626 234.83986 237.02646 239.29706 241.68165
 244.31725 246.58285 248.59945 250.37904 251.81064 252.94824 253.78484 254.11544
 254.16703 253.95563 253.33023 252.29283 250.91342 249.08902 247.01262 244.86022
 242.66581 240.48441 238.31901 236.17261 234.04720 231.92880 229.96940 228.14100
 226.43860 224.92519 223.56979 222.35639 221.25299 220.22758 219.34618 218.50178
 217.75838 216.95297 216.06557 215.44417 214.90877 214.81273 214.58585 213.69557
 212.79803 210.44063 210.04463 212.86584 216.71025 221.06407 226.42819 231.12291
 235.10393 239.31894 243.57675 247.69237 251.58226 255.34714 259.02774 262.49319
 265.60330 268.39523 270.94382 273.24924 275.21637 276.84076 278.20328 279.41922
 280.52560 281.39282 281.87152 282.25766 282.97867 284.01001 284.99359 285.89624
 286.69986 287.43536 288.07874 288.89862
 366.78100 356.35035 345.79770 334.67905 323.09739 311.30674 299.19209 287.01044
 274.73779 262.65014 250.67449 239.99084 230.12818 221.24753 213.44488 206.46223
 200.31158 195.26493 191.86228 189.91963 188.97197 189.05132 189.90167 191.22502
 192.96537 195.07572 197.35407 199.72842 202.18876 204.68411 206.78746 208.64481
 210.28616 211.44651 211.69086 211.93421 211.88655 211.60690 211.25525 210.90060
 210.53295 210.25830 210.08165 209.96099 209.90434 210.25069 210.65204 211.05639
 211.86474 213.05809 214.32344 216.12178 218.06513 220.12348 222.23383 224.33218
 226.40753 228.50688 230.61923 232.74057 234.88492 237.07227 239.34362 241.72897
 244.36532 246.63167 248.64902 250.42936 251.86171 253.00006 253.83741 254.16876
 254.22111 254.01046 253.38580 252.34915 250.97050 249.14685 247.07120 244.91955
 242.72590 240.54525 238.38059 236.23494 234.11029 231.99264 230.03399 228.20634
 226.50469 224.99204 223.63738 222.42473 221.32208 220.29743 219.41678 218.57313
 217.83048 217.02583 216.13917 215.51852 214.98387 214.85722 214.55798 213.74150
 212.79092 210.45042 209.97028 212.81514 216.69075 221.03442 226.40941 231.08824
 235.08633 239.30521 243.56859 247.68567 251.57027 255.32906 259.00967 262.48608
 265.59497 268.37643 270.90256 273.18549 275.15494 276.81351 278.21118 279.43585
 280.52060 281.31790 281.78351 282.20041 282.83597 283.47656 284.33081 285.23776
 286.11066 286.83795 287.49567 288.33386
 366.78100 356.35111 345.79921 334.68132 323.10042 311.31053 299.19663 287.01574
 274.74384 262.65695 250.68206 239.99916 230.13727 221.25737 213.45548 206.47358
 200.32369 195.27779 191.87590 189.93401 188.98711 189.06722 189.91832 191.24243
 192.98353 195.09464 197.37374 199.74885 202.20996 204.70606 206.81017 208.66827
 210.31038 211.47148 211.71659 211.96069 211.91380 211.63491 211.28401 210.93012
 210.56322 210.28933 210.11343 209.99354 209.93764 210.28475 210.68686 211.09196
 211.90107 213.09517 214.36128 216.16038 218.10449 220.16359 222.27470 224.37381
 226.44991 228.55002 230.66312 232.78523 234.93033 237.11844 239.39054 241.77665
 244.41376 246.68086 248.69897 250.48007 251.91318 253.05228 253.89039 254.22249
 254.27560 254.06571 253.44181 252.40592 251.02802 249.20513 247.13023 244.97934
 242.78644 240.60655 238.44266 236.29776 234.17387 232.05697 230.09908 228.27218
 226.57129 225.05939 223.70550 222.49361 221.39171 220.36782 219.48792 218.64503
 217.90313 217.09924 216.21334 215.59345 215.05956 214.90375 214.53566 213.77153
 212.80774 210.47897 209.95288 212.77725 216.64832 220.98547 226.36800 231.04909
 235.05858 239.28519 243.55687 247.67766 251.55827 255.31149 258.99152 262.47934
 265.58789 268.36301 270.87219 273.12723 275.08902 276.76871 278.18893 279.41666
 280.47968 281.19684 281.60349 282.00760 282.63657 283.36966 284.23322 285.12939
 285.97607 286.70325 287.35471 288.18750
 366.78100 356.35133 345.79966 334.68199 323.10133 311.31166 299.19799 287.01732
 274.74565 262.65898 250.68431 240.00165 230.13998 221.26031 213.45864 206.47697
 200.32730 195.28163 191.87996 189.93830 188.99163 189.07196 189.92329 191.24762
 192.98895 195.10028 197.37962 199.75495 202.21628 204.71261 206.81694 208.67527
 210.31760 211.47894 211.72427 211.96860 211.92193 211.64326 211.29259 210.93892
 210.57226 210.29859 210.12292 210.00325 209.94758 210.29491 210.69724 211.10257
 211.91191 213.10624 214.37257 216.17190 218.11623 220.17556 222.28689 224.38623
 226.46256 228.56289 230.67622 232.79855 234.94388 237.13221 239.40455 241.79088
 244.42821 246.69554 248.71387 250.49520 251.92853 253.06787 253.90620 254.23853
 254.29186 254.08219 253.45852 252.42285 251.04518 249.22252 247.14785 244.99718
 242.80451 240.62484 238.46117 236.31650 234.19284 232.07617 230.11850 228.29183
 226.59116 225.07949 223.72582 222.51416 221.41249 220.38882 219.50915 218.66648
 217.92481 217.12114 216.23548 215.61581 215.08214 214.92462 214.55249 213.76443
 212.81760 210.47971 209.92482 212.76135 216.60486 220.94473 226.32568 231.03075
 235.03546 239.27525 243.55528 247.68024 251.55972 255.30640 258.97836 262.46869
 265.57593 268.34363 270.83356 273.05231 275.00247 276.70343 278.15610 279.39685
 280.42575 281.10574 281.50610 281.89725 282.48288 283.21875 284.10739 284.99124
 285.81561 286.55853 287.19781 288.01251
 366.78100 356.35126 345.79951 334.68177 323.10102 311.31128 299.19754 287.01679
 274.74505 262.65830 250.68356 240.00082 230.13907 221.25933 213.45758 206.47584
 200.32610 195.28035 191.87861 189.93686 188.99012 189.07038 189.92163 191.24589
 192.98714 195.09840 197.37766 199.75291 202.21417 204.71042 206.81468 208.67294
 210.31519 211.47645 211.72170 211.96596 211.91922 211.64047 211.28973 210.93598
 210.56924 210.29550 210.11975 210.00001 209.94426 210.29152 210.69378 211.09903
 211.90829 213.10254 214.36880 216.16806 218.11231 220.17157 222.28282 224.38208
 226.45834 228.55859 230.67185 232.79410 234.93936 237.12762 239.39987 241.78613
 244.42338 246.69064 248.70890 250.49015 251.92341 253.06266 253.90092 254.23318
 254.28643 254.07669 253.45294 252.41720 251.03946 249.21671 247.14197 244.99122
 242.79848 240.61874 238.45499 236.31025 234.18650 232.06976 230.11202 228.28527
 226.58453 225.07278 223.71904 222.50730 221.40555 220.38181 219.50206 218.65932
 217.91758 217.11383 216.22809 215.60834 215.07460 214.92813 214.58206 213.75246
 212.82747 210.47368 209.91406 212.74278 216.56068 220.90935 226.29358 231.01877
 235.02159 239.27313 243.55988 247.68622 251.56070 255.29889 258.96475 262.45859
 265.56134 268.31607 270.78009 272.96393 274.90820 276.63168 278.11240 279.36288
 280.37335 281.04431 281.41623 281.76102 282.33542 283.09943 284.01215 284.89038
 285.70227 286.44540 287.10727 287.95074
 366.78100 356.35120 345.79941 334.68161 323.10082 311.31102 299.19723 287.01643
 274.74464 262.65784 250.68305 240.00025 230.13846 221.25866 213.45687 206.47507
 200.32528 195.27948 191.87769 189.93589 188.98910 189.06930 189.92051 191.24471
 192.98592 195.09712 197.37633 199.75153 202.21274 204.70894 206.81315 208.67135
 210.31356 211.47476 211.71997 211.96417 211.91738 211.63858 211.28779 210.93399
 210.56720 210.29340 210.11761 209.99781 209.94201 210.28922 210.69142 211.09663
 211.90583 213.10004 214.36624 216.16545 218.10965 220.16886 222.28006 224.37927
 226.45547 228.55568 230.66888 232.79109 234.93629 237.12450 239.39670 241.78291
 244.42011 246.68732 248.70552 250.48673 251.91993 253.05914 253.89734 254.22955
 254.28275 254.07296 253.44916 252.41337 251.03557 249.21278 247.13798 244.98719
 242.79439 240.61460 238.45080 236.30601 234.18221 232.06542 230.10762 228.28083
 226.58003 225.06823 223.71444 222.50264 221.40085 220.37705 219.49726 218.65446
 217.91267 217.10887 216.22308 215.60328 215.06949 214.93214 214.60767 213.74934
 212.84814 210.46681 209.90161 212.71719 216.51344 220.87292 226.26045 231.00517
 235.00354 239.26566 243.55727 247.68192 251.55112 255.28430 258.94803 262.44647
 265.54800 268.29028 270.72906 272.88193 274.81760 276.55249 278.04947 279.30539
 280.30386 280.96844 281.31915 281.66556 282.25558 283.01801 283.95883 284.84494
 285.66605 286.43579 287.12726 288.00845
 366.78100 356.35123 345.79946 334.68169 323.10092 311.31115 299.19738 287.01661
 274.74485 262.65808 250.68331 240.00054 230.13877 221.25900 213.45723 206.47546
 200.32569 195.27992 191.87815 189.93638 188.98961 189.06984 189.92107 191.24531
 192.98654 195.09777 197.37700 199.75223 202.21346 204.70969 206.81392 208.67215
 210.31438 211.47561 211.72084 211.96507 211.91830 211.63953 211.28877 210.93500
 210.56823 210.29446 210.11869 209.99892 209.94315 210.29038 210.69261 211.09784
 211.90707 213.10130 214.36753 216.16676 218.11099 220.17023 222.28146 224.38069
 226.45692 228.55715 230.67038 232.79261 234.93784 237.12607 239.39830 241.78453
 244.42176 246.68899 248.70722 250.48846 251.92169 253.06092 253.89915 254.23138
 254.28461 254.07484 253.45107 252.41530 251.03753 249.21476 247.13999 244.98922
 242.79645 240.61668 238.45292 236.30815 234.18438 232.06761 230.10984 228.28307
 226.58230 225.07053 223.71676 222.50499 221.40322 220.37945 219.49968 218.65691
 217.91514 217.11138 216.22561 215.60584 215.07207 214.94006 214.62819 213.74959
 212.86389 210.46834 209.91006 212.69194 216.46938 220.83786 226.22617 230.99319
 234.97952 239.25322 243.54935 247.67291 251.54091 255.27251 258.93735 262.43768
 265.53967 268.26883 270.67978 272.80148 274.72375 276.46472 277.97552 279.24268
 280.23172 280.89496 281.22803 281.57364 282.20660 283.02338 283.98972 284.88373
 285.72678 286.52209 287.21954 288.10831
 366.78100 356.35124 345.79948 334.68172 323.10097 311.31121 299.19745 287.01669
 274.74493 262.65817 250.68342 240.00066 230.13890 221.25914 213.45738 206.47562
 200.32587 195.28011 191.87835 189.93659 188.98983 189.07007 189.92132 191.24556
 192.98680 195.09804 197.37728 199.75252 202.21377 204.71001 206.81425 208.67249
 210.31473 211.47597 211.72122 211.96546 211.91870 211.63994 211.28918 210.93542
 210.56867 210.29491 210.11915 209.99939 209.94363 210.29087 210.69312 211.09836
 211.90760 213.10184 214.36808 216.16732 218.11157 220.17081 222.28205 224.38129
 226.45753 228.55777 230.67102 232.79326 234.93850 237.12674 239.39898 241.78522
 244.42247 246.68971 248.70795 250.48919 251.92243 253.06167 253.89992 254.23216
 254.28540 254.07564 253.45188 252.41612 251.03837 249.21561 247.14085 244.99009
 242.79733 240.61757 238.45382 236.30906 234.18530 232.06854 230.11078 228.28402
 226.58327 225.07151 223.71775 222.50599 221.40423 220.38047 219.50072 218.65796
 217.91620 217.11244 216.22668 215.60692 215.07317 214.94629 214.64656 213.75287
 212.86163 210.48312 209.92709 212.66743 216.43016 220.80319 226.19231 230.97691
 234.95409 239.23871 243.54062 247.66405 251.53197 255.26378 258.93198 262.43607
 265.53696 268.24808 270.62463 272.71320 274.62216 276.37219 277.90091 279.18271
 280.16635 280.82404 281.14017 281.52695 282.18112 283.04153 284.00403 284.90057
 285.76855 286.57227 287.27438 288.16916
 366.78100 356.35105 345.79910 334.68115 323.10020 311.31025 299.19630 287.01535
 274.74340 262.65645 250.68150 239.99855 230.13660 221.25665 213.45470 206.47275
 200.32280 195.27685 191.87490 189.93295 188.98600 189.06605 189.91710 191.24115
 192.98220 195.09325 197.37230 199.74735 202.20840 204.70445 206.80850 208.66655
 210.30860 211.46965 211.71470 211.95875 211.91180 211.63285 211.28190 210.92795
 210.56100 210.28705 210.11110 209.99115 209.93520 210.28225 210.68430 211.08935
 211.89840 213.09245 214.35850 216.15755 218.10160 220.16065 222.27170 224.37075
 226.44680 228.54685 230.65990 232.78195 234.92700 237.11505 239.38710 241.77315
 244.41020 246.67725 248.69530 250.47635 251.90940 253.04845 253.88650 254.21855
 254.27160 254.06165 253.43770 252.40175 251.02380 249.20085 247.12590 244.97495
 242.78200 240.60205 238.43810 236.29315 234.16920 232.05225 230.09430 228.26735
 226.56640 225.05445 223.70050 222.48855 221.38660 220.36265 219.48270 218.63975
 217.89780 217.09385 216.20790 215.58795 215.05400 214.94006 214.67059 213.75383
 212.86174 210.49582 209.92976 212.64368 216.39212 220.76463 226.15768 230.94937
 234.92667 239.22075 243.52983 247.65459 251.52161 255.25571 258.93091 262.44266
 265.54120 268.22928 270.56787 272.62253 274.51782 276.27448 277.81747 279.09894
 280.05176 280.67776 281.00354 281.46762 282.17899 283.10077 284.06769 284.97736
 285.85580 286.66034 287.36319 288.25885
 366.78100 356.35095 345.79889 334.68084 323.09979 311.30973 299.19568 287.01463
 274.74257 262.65552 250.68047 239.99742 230.13536 221.25531 213.45326 206.47120
 200.32115 195.27510 191.87304 189.93099 188.98394 189.06388 189.91483 191.23878
 192.97972 195.09067 197.36962 199.74457 202.20551 204.70146 206.80541 208.66335
 210.30530 211.46625 211.71119 211.95514 211.90809 211.62903 211.27798 210.92393
 210.55687 210.28282 210.10677 209.98671 209.93066 210.27761 210.67956 211.08450
 211.89345 213.08740 214.35334 216.15229 218.09624 220.15518 222.26613 224.36508
 226.44102 228.54097 230.65392 232.77586 234.92081 237.10876 239.38071 241.76665
 244.40360 246.67055 248.68849 250.46944 251.90239 253.04133 253.87928 254.21123
 254.26417 254.05412 253.43007 252.39401 251.01596 249.19291 247.11786 244.96680
 242.77375 240.59370 238.42964 236.28459 234.16054 232.04348 230.08543 228.25838
 226.55732 225.04527 223.69122 222.47916 221.37711 220.35306 219.47300 218.62995
 217.88790 217.08385 216.19779 215.57774 215.04369 214.93613 214.68190 213.77054
 212.87286 210.51357 209.92389 212.61264 216.34848 220.71646 226.11975 230.91246
 234.89476 239.20018 243.51825 247.64406 251.50949 255.24631 258.93088 262.45361
 265.54922 268.21384 270.51666 272.53958 274.41766 276.17282 277.71912 278.98032
 279.89236 280.50705 280.90033 281.45181 282.22589 283.16705 284.13818 285.04889
 285.92892 286.72604 287.42242 288.30984
 366.78100 356.35101 345.79902 334.68102 323.10003 311.31004 299.19605 287.01506
 274.74306 262.65607 250.68108 239.99809 230.13609 221.25610 213.45411 206.47212
 200.32213 195.27613 191.87414 189.93215 188.98516 189.06517 189.91617 191.24018
 192.98119 195.09220 197.37121 199.74621 202.20722 204.70323 206.80724 208.66524
 210.30725 211.46826 211.71327 211.95728 211.91028 211.63129 211.28030 210.92631
 210.55932 210.28532 210.10933 209.98934 209.93335 210.28036 210.68236 211.08737
 211.89638 213.09039 214.35639 216.15540 218.09941 220.15842 222.26943 224.36843
 226.44444 228.54445 230.65746 232.77947 234.92447 237.11248 239.38449 241.77050
 244.40751 246.67451 248.69252 250.47353 251.90654 253.04554 253.88355 254.21556
 254.26857 254.05858 253.43458 252.39859 251.02060 249.19761 247.12262 244.97162
 242.77863 240.59864 238.43465 236.28966 234.16566 232.04867 230.09068 228.26369
 226.56269 225.05070 223.69671 222.48472 221.38273 220.35873 219.47874 218.63575
 217.89376 217.08977 216.20377 215.58378 215.04979 214.94046 214.68184 213.79305
 212.89932 210.52480 209.91861 212.57997 216.30508 220.67079 226.07962 230.87189
 234.85951 239.17497 243.50172 247.62910 251.49382 255.23663 258.93259 262.46613
 265.56183 268.20825 270.47668 272.46274 274.31549 276.06256 277.60446 278.84103
 279.73383 280.39011 280.88254 281.50803 282.31915 283.27063 284.24252 285.15530
 286.02795 286.81235 287.49759 288.37085
 366.78100 356.35102 345.79904 334.68105 323.10007 311.31009 299.19611 287.01512
 274.74314 262.65616 250.68118 239.99819 230.13621 221.25623 213.45425 206.47226
 200.32228 195.27630 191.87432 189.93234 188.98535 189.06537 189.91639 191.24041
 192.98142 195.09244 197.37146 199.74648 202.20749 204.70351 206.80753 208.66555
 210.30757 211.46858 211.71360 211.95762 211.91064 211.63165 211.28067 210.92669
 210.55971 210.28572 210.10974 209.98976 209.93378 210.28079 210.68281 211.08783
 211.89685 213.09087 214.35688 216.15590 218.09992 220.15894 222.26995 224.36897
 226.44499 228.54501 230.65802 232.78004 234.92506 237.11308 239.38509 241.77111
 244.40813 246.67515 248.69317 250.47418 251.90720 253.04622 253.88424 254.21625
 254.26927 254.05929 253.43531 252.39932 251.02134 249.19836 247.12338 244.97240
 242.77941 240.59943 238.43545 236.29047 234.16648 232.04950 230.09152 228.26454
 226.56355 225.05157 223.69759 222.48561 221.38362 220.35964 219.47966 218.63668
 217.89470 217.09071 216.20473 215.58475 215.05077 214.94363 214.68820 213.79239
 212.95235 210.54674 209.90553 212.55090 216.25510 220.60864 226.02760 230.82683
 234.82011 239.15199 243.49287 247.62535 251.49086 255.23740 258.94495 262.48471
 265.57327 268.19177 270.42197 272.37854 274.21646 275.95792 277.49585 278.72165
 279.62344 280.32068 280.87369 281.53326 282.46088 283.49857 284.49225 285.40149
 286.24545 287.00467 287.66791 288.51312
 366.78100 356.35061 345.79823 334.67984 323.09845 311.30806 299.19368 287.01229
 274.73990 262.65252 250.67713 239.99374 230.13135 221.25097 213.44858 206.46619
 200.31581 195.26942 191.86703 189.92464 188.97726 189.05687 189.90748 191.23110
 192.97171 195.08232 197.36093 199.73555 202.19616 204.69177 206.79539 208.65300
 210.29461 211.45522 211.69984 211.94345 211.89606 211.61668 211.26529 210.91090
 210.54351 210.26913 210.09274 209.97235 209.91597 210.26258 210.66419 211.06880
 211.87742 213.07103 214.33664 216.13526 218.07887 220.13748 222.24809 224.34671
 226.42232 228.52193 230.63454 232.75616 234.90077 237.08838 239.36000 241.74561
 244.38222 246.64883 248.66645 250.44706 251.87967 253.01829 253.85590 254.18751
 254.24012 254.02974 253.40535 252.36896 250.99058 249.16719 247.09180 244.94041
 242.74703 240.56664 238.40225 236.25687 234.13248 232.01509 230.05670 228.22932
 226.52793 225.01554 223.66116 222.44877 221.34638 220.32199 219.44161 218.59822
 217.85583 217.05145 216.16506 215.54467 215.01028 214.92723 214.72481 213.75786
 212.99657 210.64195 209.90331 212.44035 216.16153 220.55331 225.98544 230.79697
 234.79457 239.13965 243.49120 247.62994 251.49992 255.24985 258.96048 262.49481
 265.57663 268.17520 270.37042 272.29266 274.10684 275.83890 277.37875 278.61526
 279.55023 280.29181 280.93652 281.66806 282.53082 283.57037 284.55832 285.46857
 286.31378 287.06644 287.72397 288.56189
 366.78100 356.35014 345.79729 334.67843 323.09657 311.30572 299.19086 287.00901
 274.73615 262.64829 250.67244 239.98858 230.12572 221.24487 213.44201 206.45915
 200.30830 195.26144 191.85859 189.91573 188.96787 189.04702 189.89716 191.22030
 192.96045 195.07059 197.34873 199.72288 202.18302 204.67817 206.78131 208.63845
 210.27960 211.43974 211.68388 211.92703 211.87917 211.59931 211.24746 210.89260
 210.52475 210.24989 210.07303 209.95218 209.89532 210.24146 210.64261 211.04675
 211.85489 213.04804 214.31318 216.11133 218.05447 220.11261 222.22276 224.32090
 226.39604 228.49519 230.60733 232.72847 234.87262 237.05976 239.33091 241.71605
 244.35219 246.61834 248.63548 250.41562 251.84777 252.98591 253.82305 254.15420
 254.20634 253.99549 253.37063 252.33377 250.95492 249.13106 247.05520 244.90335
 242.70949 240.52863 238.36378 236.21792 234.09307 231.97521 230.01635 228.18850
 226.48664 224.97378 223.61893 222.40607 221.30321 220.27836 219.39750 218.55365
 217.81079 217.00593 216.11908 215.49822 214.96336 214.90730 214.76262 213.75214
 212.93631 210.74452 209.96312 212.26562 216.10464 220.58128 225.97719 230.78001
 234.76430 239.12386 243.48265 247.60715 251.45909 255.21484 258.96460 262.52869
 265.61154 268.17941 270.32562 272.19608 273.97665 275.69492 277.26080 278.55551
 279.48880 280.26755 280.96487 281.74820 282.76562 283.84433 284.87405 285.80396
 286.63791 287.38055 288.02930 288.85608
 366.78100 356.34937 345.79574 334.67612 323.09349 311.30186 299.18623 287.00361
 274.72998 262.64135 250.66472 239.98010 230.11647 221.23484 213.43121 206.44758
 200.29596 195.24833 191.84470 189.90107 188.95245 189.03082 189.88019 191.20256
 192.94194 195.05131 197.32868 199.70205 202.16142 204.65580 206.75817 208.61454
 210.25491 211.41429 211.65766 211.90003 211.85140 211.57078 211.21815 210.86252
 210.49389 210.21826 210.04064 209.91901 209.86138 210.20675 210.60713 211.01050
 211.81787 213.01024 214.27462 216.07199 218.01436 220.07173 222.18110 224.27848
 226.35285 228.45122 230.56259 232.68297 234.82634 237.01271 239.28308 241.66746
 244.30283 246.56820 248.58457 250.36394 251.79532 252.93269 253.76906 254.09943
 254.15081 253.93918 253.31355 252.27592 250.89630 249.07167 246.99504 244.84241
 242.64778 240.46616 238.30053 236.15390 234.02827 231.90965 229.95002 228.12139
 226.41876 224.90514 223.54951 222.33588 221.23225 220.20662 219.32500 218.48037
 217.73674 216.93111 216.04349 215.42186 214.88623 214.84436 214.72768 213.78096
 212.89311 210.81520 210.03944 212.12659 216.08073 220.62860 225.96964 230.75175
 234.72702 239.10509 243.47433 247.58197 251.41386 255.17879 258.97308 262.56528
 265.64404 268.17993 270.28513 272.11295 273.86053 275.55594 277.15024 278.46072
 279.40829 280.21188 280.97101 281.87375 282.93387 284.02664 285.07916 286.03076
 286.88596 287.64752 288.31281 289.16061
 366.78100 356.34843 345.79385 334.67328 323.08971 311.29713 299.18056 286.99699
 274.72241 262.63284 250.65527 239.96970 230.10512 221.22255 213.41798 206.43340
 200.28083 195.23226 191.82768 189.88311 188.93354 189.01096 189.85939 191.18082
 192.91924 195.02767 197.30410 199.67653 202.13495 204.62838 206.72981 208.58523
 210.22466 211.38309 211.62551 211.86694 211.81737 211.53579 211.18222 210.82565
 210.45607 210.17950 210.00093 209.87836 209.81978 210.16421 210.56364 210.96606
 211.77249 212.96392 214.22734 216.02377 217.96520 220.02162 222.13005 224.22648
 226.29990 228.39733 230.50776 232.62719 234.76961 236.95504 239.22447 241.60789
 244.24232 246.50675 248.52217 250.30060 251.73103 252.86745 253.70288 254.03231
 254.08273 253.87016 253.24359 252.20502 250.82444 248.99887 246.92130 244.76772
 242.57215 240.38958 238.22300 236.07543 233.94886 231.82928 229.86871 228.03914
 226.33556 224.82099 223.46442 222.24985 221.14527 220.11870 219.23613 218.39055
 217.64598 216.83941 215.95083 215.32826 214.79169 214.75822 214.65961 213.81448
 212.90536 210.87489 210.09593 212.04626 216.05933 220.64058 225.94652 230.71320
 234.69218 239.09026 243.47237 247.57047 251.38849 255.16191 258.98514 262.59229
 265.66467 268.17853 270.25479 272.05081 273.76767 275.44144 277.04626 278.36108
 279.31876 280.14651 280.99557 281.97870 283.08545 284.20203 285.24609 286.10709
 286.88147 287.57104 288.17343 288.94113
 366.78100 356.34723 345.79147 334.66970 323.08494 311.29117 299.17340 286.98864
 274.71287 262.62211 250.64334 239.95657 230.09081 221.20704 213.40128 206.41551
 200.26175 195.21198 191.80621 189.86045 188.90968 188.98592 189.83315 191.15338
 192.89062 194.99785 197.27309 199.64432 202.10155 204.59379 206.69402 208.54826
 210.18649 211.34372 211.58496 211.82519 211.77443 211.49166 211.13690 210.77913
 210.40836 210.13060 209.95083 209.82707 209.76730 210.11053 210.50877 210.91000
 211.71524 212.90547 214.16770 215.96294 217.90317 219.95841 222.06564 224.16087
 226.23311 228.32934 230.43858 232.55681 234.69805 236.88228 239.15051 241.53275
 244.16598 246.42922 248.44345 250.22068 251.64992 252.78515 253.61939 253.94762
 253.99685 253.78309 253.15532 252.11556 250.73379 248.90702 246.82826 244.67349
 242.47673 240.29296 238.12520 235.97643 233.84866 231.72790 229.76613 227.93537
 226.23060 224.71483 223.35707 222.14130 221.03554 220.00777 219.12400 218.27724
 217.53147 216.72371 215.83394 215.21017 214.67241 214.64316 214.55711 213.87462
 213.02534 210.97258 210.15201 212.03983 216.07576 220.65665 225.93225 230.68318
 234.66338 239.08496 243.47856 247.56496 251.36833 255.15164 258.99936 262.61630
 265.68256 268.17917 270.23615 272.01086 273.70081 275.35364 276.96185 278.28113
 279.24716 280.10251 281.03122 282.08331 283.22345 284.40729 285.49173 286.10898
 286.66412 287.15848 287.59036 288.14072
 354.97500 345.04800 334.58700 324.11500 313.32600 302.53700 291.65000 280.76700
 269.93100 259.19300 248.62200 238.61700 229.08700 220.35500 212.54000 205.53500
 199.46400 194.49300 191.14300 189.19000 188.08900 188.01400 188.72400 189.90600
 191.46900 193.38200 195.40300 197.55600 199.80700 202.06000 204.28800 206.47900
 208.55200 210.37800 212.02500 213.65900 214.99800 216.11800 217.17200 218.25900
 219.49400 220.64500 221.67900 222.61400 223.54500 224.98200 226.57100 228.19000
 229.79700 231.81100 233.86500 235.97200 238.24200 240.55300 242.89900 245.25300
 247.48800 249.53500 251.36600 252.84800 254.09800 255.16700 256.02700 256.25300
 256.09500 255.54300 253.93500 252.56600 251.38400 250.24500 249.05200 247.70100
 246.01600 243.99600 241.78400 239.39300 236.81300 234.22300 231.65800 229.14400
 226.74000 224.47300 222.33500 220.32500 218.44000 216.67700 214.96200 213.47200
 212.20000 211.10800 210.26000 209.63900 209.24400 209.03100 209.05800 209.33300
 209.78400 210.62600 211.33100 212.39100 213.62500 214.84668 217.72949 219.47640
 220.32566 220.86828 220.88710 220.27371 219.43733 218.84250 219.04934 220.86203
 222.60583 225.72206 229.03064 232.61777 236.12270 239.51333 242.70767 245.68587
 248.41061 250.90679 253.19353 254.91714 256.48655 257.94920 259.39966 260.69384
 261.81714 262.77997 263.71679 264.54570 265.26305 265.89772 266.47676 267.00133
 267.47312 267.89325 268.26027 268.72800
