|-------------------------------------------------------------------------|
|   File Name : in_temp.dat
|   Subject   : temperature profiles used for initial guess atmosphere
|   File Type : input of gmtr
|   Data Type : atmospherical data
|   Author/s  : WRF-Chem
|   Date      : Fri Jul 26 15:39:24 2024
|-------------------------------------------------------------------------|

 WRF-Chem temperature
#
 values of T (K)    (8f10.5)
#
 354.97500 345.04800 334.58700 324.11500 313.32600 302.53700 291.65000 280.76700
 269.93100 259.19300 248.62200 238.61700 229.08700 220.35500 212.54000 205.53500
 199.46400 194.49300 191.14300 189.19000 188.08900 188.01400 188.72400 189.90600
 191.46900 193.38200 195.40300 197.55600 199.80700 202.06000 204.28800 206.47900
 208.55200 210.37800 212.02500 213.65900 214.99800 216.11800 217.17200 218.25900
 219.49400 220.64500 221.67900 222.61400 223.54500 224.98200 226.57100 228.19000
 229.79700 231.81100 233.86500 235.97200 238.24200 240.55300 242.89900 245.25300
 247.48800 249.53500 251.36600 252.84800 254.09800 255.16700 256.02700 256.25300
 256.09500 255.54300 253.93500 252.56600 251.38400 250.24500 249.05200 247.70100
 246.01600 243.99600 241.78400 239.39300 236.81300 234.22300 231.65800 229.14400
 226.74000 224.47300 222.33500 220.32500 218.44000 216.67700 214.96200 213.47200
 212.20000 211.10800 210.26000 209.63900 209.24400 209.03100 209.05800 209.33300
 209.78400 210.62600 211.33100 212.39100 213.62500 214.84668 217.72949 219.47640
 220.32566 220.86828 220.88710 220.27371 219.43733 218.84250 219.04934 220.86203
 222.60583 225.72206 229.03064 232.61777 236.12270 239.51333 242.70767 245.68587
 248.41061 250.90679 253.19353 254.91714 256.48655 257.94920 259.39966 260.69384
 261.81714 262.77997 263.71679 264.54570 265.26305 265.89772 266.47676 267.00133
 267.47312 267.89325 268.26027 268.72800
 366.78100 356.33500 345.76700 334.63300 323.03600 311.23000 299.10000 286.90300
 274.61500 262.51200 250.52100 239.82200 229.94400 221.04800 213.23000 206.23200
 200.06600 195.00400 191.58600 189.62800 188.66500 188.72900 189.56400 190.87200
 192.59700 194.69200 196.95500 199.31400 201.75900 204.23900 206.32700 208.16900
 209.79500 210.94000 211.16900 211.39700 211.33400 211.03900 210.67200 210.30200
 209.91900 209.62900 209.43700 209.30100 209.22900 209.56000 209.94600 210.33500
 211.12800 212.30600 213.55600 215.33900 217.26700 219.31000 221.40500 223.48800
 225.54800 227.63200 229.72900 231.83500 233.96400 236.13600 238.39200 240.76200
 243.38300 245.63400 247.63600 249.40100 250.81800 251.94100 252.76300 253.07900
 253.11600 252.89000 252.25000 251.19800 249.80400 247.96500 245.87400 243.70700
 241.49800 239.30200 237.12200 234.96100 232.82100 230.68800 228.71400 226.87100
 225.15400 223.62600 222.25600 221.02800 219.91000 218.87000 217.97400 217.11500
 216.35700 215.53700 214.63500 213.99900 213.44900 212.85855 212.01316 212.61654
 214.26826 216.08686 218.14273 220.53346 223.40855 226.78828 231.49734 235.90155
 239.42278 243.28576 247.23140 251.11907 254.80144 258.23331 261.38913 264.27520
 266.89312 269.26852 271.44504 273.08845 274.58484 275.98591 277.39845 278.65879
 279.75272 280.69038 281.56708 282.34086 283.01050 283.60295 284.14348 284.63317
 285.07358 285.46577 285.80838 286.24500
 381.81900 372.39900 361.20600 349.77600 337.62200 324.85300 311.81000 298.35300
 284.86000 271.32400 258.56100 246.30400 236.08700 226.79600 218.44800 211.29000
 205.52200 200.89400 197.38100 194.84800 193.01500 192.31500 192.25000 192.43100
 192.91200 193.53700 194.13600 194.71200 195.26200 195.83100 196.39300 196.97600
 197.60400 198.14900 198.58400 199.05700 199.69500 200.37800 201.05400 201.70800
 202.31300 202.85700 203.35500 203.86200 204.56900 205.29700 206.02600 206.98700
 208.19300 209.44100 210.96900 212.57600 214.46200 216.51300 218.63000 220.85300
 223.34100 225.96200 228.73900 231.69700 234.70600 237.70600 240.69200 243.65700
 246.73700 249.69900 252.52100 255.06300 257.29000 259.23300 260.63300 261.68000
 262.46100 262.79800 262.69100 262.22400 261.06900 259.52500 257.70700 255.50700
 253.00100 250.30200 247.39800 244.45200 241.65400 239.05400 236.73300 234.59000
 232.59500 230.72500 228.83400 226.82600 224.66600 222.38700 220.10400 217.71500
 215.45900 213.06600 210.54600 208.09300 205.35400 202.08130 196.05959 200.71215
 209.01611 216.90438 223.84126 229.78593 235.00632 240.20838 245.98943 250.68668
 254.32982 257.93487 261.55666 264.96801 268.15192 271.06452 273.76717 276.25691
 278.57680 280.74479 282.77456 284.60533 286.27232 287.81705 289.31715 290.65561
 291.81734 292.81312 293.70701 294.49387 295.17482 295.77730 296.32696 296.82492
 297.27278 297.67160 298.02000 298.46400
 399.33000 389.90700 379.81300 368.66800 357.52200 345.30100 333.07400 320.22700
 307.21600 293.84800 280.37600 267.29600 254.61000 242.98700 232.15100 221.97700
 212.67200 204.28600 197.66900 192.82100 189.48600 187.45200 186.81400 187.08900
 187.78100 189.05400 190.64800 192.54200 194.63000 196.75200 198.67100 200.15800
 201.53500 202.48700 202.97500 203.34000 203.53900 203.49700 203.38500 203.24700
 203.00500 202.78600 202.60300 202.43700 202.42600 202.88800 203.42000 203.95100
 204.89500 205.99200 207.30100 208.95800 210.73800 213.10000 215.56400 218.18000
 220.96600 223.91800 226.96100 230.09200 233.29300 236.55700 239.95500 243.53700
 246.84500 249.39000 251.54200 253.47400 255.19500 256.48400 257.43100 258.05900
 258.21200 258.04000 257.58200 256.64300 255.23900 253.50700 251.40800 249.05600
 246.57600 243.99400 241.38900 238.83000 236.34400 233.98600 231.96900 230.11800
 228.42300 226.89900 225.54800 224.29700 223.10500 221.96500 220.95800 220.11300
 219.49000 218.92000 218.32500 217.88100 217.42300 216.96366 216.35568 216.80261
 217.73415 218.28582 218.64258 219.10077 220.44626 222.53987 226.38451 230.35736
 233.59734 237.39164 241.29814 245.22796 248.98002 252.51130 255.78595 258.80109
 261.54781 264.05210 266.34239 268.04198 269.58951 271.01303 272.35754 273.55718
 274.59842 275.49092 276.28989 276.99307 277.60161 278.14001 278.63122 279.07623
 279.47646 279.83287 280.14422 280.54100
 399.73800 389.78500 379.66200 368.15100 356.64100 344.35000 331.79200 318.88800
 305.72600 292.49300 279.20900 266.73800 254.69600 244.21100 234.45700 225.43300
 217.56900 210.45100 204.30000 199.30600 195.45800 192.57600 191.02700 190.38600
 190.23900 190.53400 191.16600 191.92500 192.79500 193.76600 194.73200 195.31200
 195.80000 196.05200 196.11500 196.11500 196.03900 195.72300 195.34000 194.98900
 194.75100 194.79200 195.13300 195.59800 196.50600 198.13600 199.85800 201.56600
 204.17900 206.82300 209.89300 213.28400 216.82800 220.60500 224.38700 228.20900
 232.03200 235.82500 239.56000 243.25800 246.84500 250.20100 253.70900 257.46800
 261.53000 264.22100 266.60100 268.68100 270.32900 271.74100 272.83600 273.47400
 273.89800 274.00200 273.75700 273.28800 272.37100 271.10000 269.58900 267.77900
 265.81600 263.72100 261.39300 258.91600 256.29800 253.42300 250.33100 247.11400
 243.83700 240.52900 237.24900 233.99900 230.72800 227.51500 224.25400 220.95200
 217.62700 213.65600 210.12100 206.78900 204.01000 201.99491 199.07309 198.76551
 199.40006 200.48994 201.46112 202.31912 203.45100 204.96110 207.47502 210.85391
 213.70530 217.29629 220.99574 224.72316 228.28753 231.64854 234.68024 237.40893
 239.70644 241.60899 243.46854 245.67368 247.68154 249.52395 251.24767 252.78566
 254.12057 255.26479 256.23740 257.09036 257.82852 258.48160 259.07744 259.61723
 260.10271 260.53504 260.91270 261.39400
 399.73800 389.78500 379.66200 368.15100 356.64100 344.35000 331.79200 318.88800
 305.72600 292.49300 279.20900 266.73800 254.69600 244.21100 234.45700 225.43300
 217.56900 210.45100 204.30000 199.30600 195.45800 192.57600 191.02700 190.38600
 190.23900 190.53400 191.16600 191.92500 192.79500 193.76600 194.73200 195.31200
 195.80000 196.05200 196.11500 196.11500 196.03900 195.72300 195.34000 194.98900
 194.75100 194.79200 195.13300 195.59800 196.50600 198.13600 199.85800 201.56600
 204.17900 206.82300 209.89300 213.28400 216.82800 220.60500 224.38700 228.20900
 232.03200 235.82500 239.56000 243.25800 246.84500 250.20100 253.70900 257.46800
 261.53000 264.22100 266.60100 268.68100 270.32900 271.74100 272.83600 273.47400
 273.89800 274.00200 273.75700 273.28800 272.37100 271.10000 269.58900 267.77900
 265.81600 263.72100 261.39300 258.91600 256.29800 253.42300 250.33100 247.11400
 243.83700 240.52900 237.24900 233.99900 230.72800 227.51500 224.25400 220.95200
 217.62700 213.65600 210.12100 206.78900 204.01000 201.99491 199.07309 198.76551
 199.40006 200.48994 201.46112 202.31912 203.45100 204.96110 207.47502 210.85391
 213.70530 217.29629 220.99574 224.72316 228.28753 231.64854 234.68024 237.40893
 239.70644 241.60899 243.46854 245.67368 247.68154 249.52395 251.24767 252.78566
 254.12057 255.26479 256.23740 257.09036 257.82852 258.48160 259.07744 259.61723
 260.10271 260.53504 260.91270 261.39400
 399.33000 389.90700 379.81300 368.66800 357.52200 345.30100 333.07400 320.22700
 307.21600 293.84800 280.37600 267.29600 254.61000 242.98700 232.15100 221.97700
 212.67200 204.28600 197.66900 192.82100 189.48600 187.45200 186.81400 187.08900
 187.78100 189.05400 190.64800 192.54200 194.63000 196.75200 198.67100 200.15800
 201.53500 202.48700 202.97500 203.34000 203.53900 203.49700 203.38500 203.24700
 203.00500 202.78600 202.60300 202.43700 202.42600 202.88800 203.42000 203.95100
 204.89500 205.99200 207.30100 208.95800 210.73800 213.10000 215.56400 218.18000
 220.96600 223.91800 226.96100 230.09200 233.29300 236.55700 239.95500 243.53700
 246.84500 249.39000 251.54200 253.47400 255.19500 256.48400 257.43100 258.05900
 258.21200 258.04000 257.58200 256.64300 255.23900 253.50700 251.40800 249.05600
 246.57600 243.99400 241.38900 238.83000 236.34400 233.98600 231.96900 230.11800
 228.42300 226.89900 225.54800 224.29700 223.10500 221.96500 220.95800 220.11300
 219.49000 218.92000 218.32500 217.88100 217.42300 216.96366 216.35568 216.80261
 217.73415 218.28582 218.64258 219.10077 220.44626 222.53987 226.38451 230.35736
 233.59734 237.39164 241.29814 245.22796 248.98002 252.51130 255.78595 258.80109
 261.54781 264.05210 266.34239 268.04198 269.58951 271.01303 272.35754 273.55718
 274.59842 275.49092 276.28989 276.99307 277.60161 278.14001 278.63122 279.07623
 279.47646 279.83287 280.14422 280.54100
 381.81900 372.39900 361.20600 349.77600 337.62200 324.85300 311.81000 298.35300
 284.86000 271.32400 258.56100 246.30400 236.08700 226.79600 218.44800 211.29000
 205.52200 200.89400 197.38100 194.84800 193.01500 192.31500 192.25000 192.43100
 192.91200 193.53700 194.13600 194.71200 195.26200 195.83100 196.39300 196.97600
 197.60400 198.14900 198.58400 199.05700 199.69500 200.37800 201.05400 201.70800
 202.31300 202.85700 203.35500 203.86200 204.56900 205.29700 206.02600 206.98700
 208.19300 209.44100 210.96900 212.57600 214.46200 216.51300 218.63000 220.85300
 223.34100 225.96200 228.73900 231.69700 234.70600 237.70600 240.69200 243.65700
 246.73700 249.69900 252.52100 255.06300 257.29000 259.23300 260.63300 261.68000
 262.46100 262.79800 262.69100 262.22400 261.06900 259.52500 257.70700 255.50700
 253.00100 250.30200 247.39800 244.45200 241.65400 239.05400 236.73300 234.59000
 232.59500 230.72500 228.83400 226.82600 224.66600 222.38700 220.10400 217.71500
 215.45900 213.06600 210.54600 208.09300 205.35400 202.08130 196.05959 200.71215
 209.01611 216.90438 223.84126 229.78593 235.00632 240.20838 245.98943 250.68668
 254.32982 257.93487 261.55666 264.96801 268.15192 271.06452 273.76717 276.25691
 278.57680 280.74479 282.77456 284.60533 286.27232 287.81705 289.31715 290.65561
 291.81734 292.81312 293.70701 294.49387 295.17482 295.77730 296.32696 296.82492
 297.27278 297.67160 298.02000 298.46400
 366.78100 356.33773 345.77247 334.64120 323.04693 311.24366 299.11640 286.92213
 274.63686 262.53659 250.54833 239.85206 229.97679 221.08353 213.26826 206.27299
 200.10972 195.05046 191.63519 189.67992 188.71965 188.78639 189.62412 190.93485
 192.66259 194.76032 197.02605 199.38778 201.83552 204.31825 206.40898 208.25372
 209.88245 211.03018 211.26191 211.49265 211.43238 211.14011 210.77584 210.40858
 210.02831 209.74104 209.55178 209.41851 209.34924 209.68297 210.07171 210.46344
 211.25917 212.43990 213.69264 215.47837 217.40910 219.45484 221.55257 223.63830
 225.70103 227.78777 229.88750 231.99623 234.12796 236.30270 238.56143 240.93416
 243.55790 245.81163 247.81636 249.58409 251.00383 252.12956 252.95429 253.27303
 253.31276 253.08949 252.45222 251.40296 250.01169 248.17542 246.08715 243.92289
 241.71662 239.52335 237.34609 235.18782 233.05055 230.92028 228.94902 227.10875
 225.39448 223.86921 222.50195 221.27668 220.16141 219.12415 218.23088 217.37461
 216.61934 215.80208 214.90281 214.26954 213.72227 213.13101 211.74384 212.46873
 214.15009 216.02351 217.25307 217.63857 218.64659 222.80373 228.51010 233.34001
 237.12047 240.89203 244.65480 248.34383 251.86597 254.89484 257.48709 259.98584
 262.58606 265.13309 267.54227 269.66382 271.69916 273.65839 275.29153 276.87936
 278.54401 280.21255 281.74112 283.10248 284.28473 285.33377 286.29492 287.17255
 287.96323 288.67349 289.30011 290.13519
 366.78100 356.33722 345.77143 334.63965 323.04487 311.24109 299.11330 286.91852
 274.63274 262.53195 250.54317 239.84639 229.97061 221.07682 213.26104 206.26526
 200.10147 195.04169 191.62591 189.67013 188.70934 188.77556 189.61278 190.92299
 192.65021 194.74743 197.01265 199.37386 201.82108 204.30330 206.39351 208.23773
 209.86595 211.01317 211.24438 211.47460 211.41382 211.12103 210.75625 210.38847
 210.00769 209.71990 209.53012 209.39634 209.32655 209.65977 210.04799 210.43921
 211.23442 212.41464 213.66686 215.45207 217.38229 219.42751 221.52473 223.60994
 225.67216 227.75838 229.85759 231.96581 234.09703 236.27125 238.52946 240.90168
 243.52490 245.77811 247.78233 249.54955 250.96877 252.09398 252.91820 253.23642
 253.27564 253.05185 252.41407 251.36429 249.97250 248.13572 246.04694 243.88216
 241.67537 239.48159 237.30381 235.14502 233.00724 230.87646 228.90468 227.06389
 225.34911 223.82333 222.45554 221.22976 220.11398 219.07620 218.18241 217.32563
 216.56985 215.75206 214.85228 214.21850 213.67072 213.11444 211.80853 212.58867
 214.27774 216.14221 217.28395 217.73961 218.68724 222.83900 228.45137 233.24797
 237.02057 240.79637 244.56877 248.23691 251.67683 254.67404 257.32199 259.89194
 262.43234 264.93509 267.38229 269.54471 271.58856 273.53680 275.16644 276.76276
 278.43027 280.09641 281.62640 282.98834 284.17151 285.22232 286.18387 287.05942
 287.85226 288.56277 289.18878 290.02637
 366.78100 356.33648 345.76996 334.63743 323.04191 311.23739 299.10887 286.91334
 274.62682 262.52530 250.53578 239.83825 229.96173 221.06721 213.25069 206.25416
 200.08964 195.02912 191.61260 189.65607 188.69455 188.76003 189.59651 190.90598
 192.63246 194.72894 196.99342 199.35389 201.80037 204.28185 206.37133 208.21480
 209.84228 210.98876 211.21924 211.44871 211.38719 211.09367 210.72815 210.35962
 209.97810 209.68958 209.49906 209.36454 209.29401 209.62649 210.01397 210.40445
 211.19892 212.37840 213.62988 215.41436 217.34383 219.38831 221.48479 223.56927
 225.63074 227.71622 229.81470 231.92218 234.05265 236.22613 238.48361 240.85509
 243.47756 245.73004 247.73352 249.50000 250.91847 252.04295 252.86643 253.18391
 253.22238 252.99786 252.35934 251.30882 249.91629 248.07877 245.98925 243.82373
 241.61620 239.42168 237.24316 235.08364 232.94512 230.81359 228.84107 226.99955
 225.28403 223.75750 222.38898 221.16246 220.04594 219.00741 218.11289 217.25537
 216.49885 215.68032 214.77980 214.14528 213.59676 213.08537 211.88412 212.72028
 214.40100 216.22993 217.33948 217.81920 218.77829 222.85469 228.40057 233.15971
 236.91588 240.69124 244.46921 248.11829 251.47681 254.44402 257.15311 259.79510
 262.27695 264.73788 267.20633 269.41068 271.47015 273.40585 275.02875 276.62674
 278.31198 279.99429 281.52841 282.89175 284.07535 285.12701 286.08862 286.96414
 287.75723 288.46774 289.09488 289.93167
 366.78100 356.33578 345.76857 334.63535 323.03913 311.23391 299.10470 286.90848
 274.62126 262.51905 250.52883 239.83061 229.95339 221.05818 213.24096 206.24374
 200.07853 195.01731 191.60009 189.64287 188.68066 188.74544 189.58122 190.89001
 192.61579 194.71157 196.97535 199.33514 201.78092 204.26170 206.35048 208.19327
 209.82005 210.96583 211.19562 211.42440 211.36218 211.06796 210.70175 210.33253
 209.95031 209.66110 209.46988 209.33466 209.26344 209.59523 209.98201 210.37179
 211.16558 212.34436 213.59514 215.37892 217.30771 219.35149 221.44727 223.53106
 225.59184 227.67662 229.77440 231.88119 234.01097 236.18375 238.44054 240.81132
 243.43310 245.68488 247.68767 249.45345 250.87123 251.99502 252.81780 253.13458
 253.17236 252.94715 252.30793 251.25671 249.86349 248.02528 245.93506 243.76884
 241.56063 239.36541 237.18619 235.02597 232.88676 230.75454 228.78132 226.93911
 225.22289 223.69567 222.32645 221.09924 219.98202 218.94280 218.04759 217.18937
 216.43215 215.61293 214.71172 214.07650 213.52728 213.05768 211.95386 212.86588
 214.50990 216.28423 217.41246 217.90744 218.92010 222.85178 228.35800 233.08083
 236.81068 240.58841 244.36777 247.99663 251.27361 254.20970 256.97913 259.68433
 262.11417 264.50037 267.01642 269.26404 271.34393 273.26974 274.90457 276.51404
 278.21237 279.87766 281.40970 282.77341 283.95697 285.00793 285.97055 286.84592
 287.63876 288.34970 288.97714 289.81277
 366.78100 356.33542 345.76783 334.63425 323.03766 311.23208 299.10250 286.90591
 274.61833 262.51574 250.52516 239.82658 229.94899 221.05341 213.23582 206.23824
 200.07266 195.01107 191.59349 189.63590 188.67332 188.73774 189.57315 190.88157
 192.60698 194.70240 196.96582 199.32523 201.77065 204.25106 206.33948 208.18190
 209.80831 210.95373 211.18314 211.41156 211.34898 211.05439 210.68781 210.31822
 209.93564 209.64606 209.45447 209.31889 209.24730 209.57872 209.96514 210.35455
 211.14797 212.32638 213.57680 215.36022 217.28863 219.33205 221.42746 223.51088
 225.57130 227.65571 229.75313 231.85954 233.98896 236.16138 238.41779 240.78821
 243.40962 245.66104 247.66346 249.42887 250.84629 251.96970 252.79212 253.10854
 253.14595 252.92037 252.28078 251.22920 249.83562 247.99703 245.90645 243.73986
 241.53128 239.33570 237.15611 234.99553 232.85594 230.72336 228.74978 226.90719
 225.19061 223.66302 222.29344 221.06586 219.94827 218.90869 218.01310 217.15452
 216.39694 215.57735 214.67577 214.04018 213.49060 213.04994 212.01312 212.97786
 214.61633 216.35677 217.49423 218.00735 219.06306 222.85713 228.32574 233.01094
 236.71577 240.48918 244.26862 247.87485 251.07610 253.98859 256.81860 259.58182
 261.95929 264.29248 266.83328 269.11490 271.21243 273.13370 274.78726 276.41183
 278.11450 279.77267 281.30640 282.66864 283.85385 284.90588 285.86780 286.74368
 287.53650 288.24768 288.87512 289.71167
 366.78100 356.33522 345.76743 334.63365 323.03687 311.23109 299.10130 286.90452
 274.61674 262.51395 250.52317 239.82439 229.94660 221.05082 213.23304 206.23526
 200.06947 195.00769 191.58991 189.63212 188.66934 188.73356 189.56877 190.87699
 192.60221 194.69743 196.96064 199.31986 201.76508 204.24529 206.33351 208.17573
 209.80194 210.94716 211.17638 211.40460 211.34181 211.04703 210.68025 210.31046
 209.92768 209.63790 209.44612 209.31033 209.23855 209.56977 209.95598 210.34520
 211.13842 212.31663 213.56685 215.35007 217.27829 219.32150 221.41672 223.49994
 225.56015 227.64437 229.74159 231.84780 233.97702 236.14924 238.40546 240.77567
 243.39689 245.64811 247.65032 249.41554 250.83276 251.95598 252.77819 253.09441
 253.13163 252.90584 252.26606 251.21428 249.82049 247.98171 245.89093 243.72415
 241.51536 239.31958 237.13980 234.97901 232.83923 230.70645 228.73266 226.88988
 225.17310 223.64532 222.27553 221.04775 219.92997 218.89018 217.99440 217.13562
 216.37783 215.55805 214.65627 214.02049 213.47070 213.05388 212.07191 213.07097
 214.71143 216.43948 217.58722 218.10478 219.18649 222.87000 228.30154 232.94383
 236.62697 240.39290 244.17258 247.75516 250.88609 253.77589 256.66238 259.49200
 261.82596 264.12445 266.66150 268.96869 271.08249 273.00821 274.66675 276.30005
 278.00970 279.68707 281.22388 282.58795 283.77267 284.82446 285.78641 286.66394
 287.45654 288.16949 288.79645 289.63446
 366.78100 356.33475 345.76649 334.63224 323.03498 311.22873 299.09848 286.90122
 274.61297 262.50972 250.51846 239.81921 229.94095 221.04470 213.22645 206.22819
 200.06194 194.99968 191.58143 189.62318 188.65992 188.72367 189.55842 190.86616
 192.59091 194.68565 196.94840 199.30715 201.75189 204.23164 206.31938 208.16113
 209.78688 210.93162 211.16037 211.38812 211.32486 211.02961 210.66235 210.29210
 209.90885 209.61859 209.42634 209.29008 209.21783 209.54858 209.93432 210.32307
 211.11581 212.29356 213.54331 215.32605 217.25380 219.29655 221.39129 223.47404
 225.53378 227.61753 229.71428 231.82002 233.94877 236.12051 238.37626 240.74601
 243.36675 245.61750 247.61925 249.38399 250.80074 251.92348 252.74523 253.06098
 253.09772 252.87147 252.23121 251.17896 249.78471 247.94545 245.85420 243.68695
 241.47769 239.28144 237.10118 234.93993 232.79968 230.66642 228.69217 226.84891
 225.13166 223.60341 222.23315 221.00490 219.88665 218.84639 217.95014 217.09088
 216.33263 215.51238 214.61012 213.97387 213.42361 213.04289 212.14485 213.18423
 214.78918 216.50569 217.67702 218.19380 219.30748 222.87920 228.27808 232.87523
 236.53658 240.29794 244.07568 247.63014 250.69202 253.55154 256.48709 259.38501
 261.68896 263.95270 266.47620 268.80850 270.94662 272.88852 274.55258 276.19821
 277.91721 279.60886 281.14810 282.51407 283.70105 284.75244 285.71930 286.59845
 287.39929 288.11743 288.75058 289.59155
 366.78100 356.33402 345.76504 334.63006 323.03208 311.22510 299.09412 286.89614
 274.60716 262.50318 250.51120 239.81122 229.93224 221.03526 213.21628 206.21730
 200.05032 194.98734 191.56836 189.60938 188.64540 188.70842 189.54244 190.84946
 192.57348 194.66750 196.92952 199.28754 201.73156 204.21057 206.29759 208.13861
 209.76363 210.90765 211.13567 211.36269 211.29871 211.00273 210.63475 210.26377
 209.87979 209.58881 209.39583 209.25885 209.18587 209.51589 209.90091 210.28893
 211.08095 212.25797 213.50699 215.28901 217.21603 219.25805 221.35207 223.43409
 225.49311 227.57613 229.67215 231.77717 233.90519 236.07621 238.33123 240.70025
 243.32027 245.57029 247.57131 249.33533 250.75135 251.87337 252.69439 253.00941
 253.04543 252.81845 252.17747 251.12449 249.72951 247.88953 245.79755 243.62957
 241.41959 239.22261 237.04163 234.87965 232.73867 230.60469 228.62971 226.78572
 225.06774 223.53876 222.16778 220.93880 219.81982 218.77884 217.88186 217.02188
 216.26290 215.44192 214.53894 213.90196 213.35098 213.01797 212.23137 213.30893
 214.86168 216.56592 217.75940 218.27243 219.44472 222.88435 228.25839 232.81042
 236.44751 240.20827 243.98099 247.50211 250.49576 253.32536 256.30325 259.26053
 261.54291 263.77115 266.28455 268.63742 270.80179 272.76001 274.43784 276.09964
 277.82556 279.55032 281.09451 282.46082 283.64883 284.70157 285.66901 286.55249
 287.35501 288.07663 288.70996 289.55252
 366.78100 356.33329 345.76358 334.62787 323.02916 311.22145 299.08974 286.89103
 274.60132 262.49661 250.50390 239.80319 229.92348 221.02577 213.20606 206.20635
 200.03864 194.97493 191.55522 189.59551 188.63080 188.69309 189.52638 190.83267
 192.55596 194.64925 196.91054 199.26783 201.71112 204.18941 206.27570 208.11599
 209.74028 210.88357 211.11087 211.33716 211.27245 210.97574 210.60703 210.23532
 209.85061 209.55890 209.36519 209.22748 209.15377 209.48306 209.86735 210.25464
 211.04593 212.22222 213.47051 215.25180 217.17809 219.21938 221.31267 223.39396
 225.45225 227.53454 229.62983 231.73412 233.86141 236.03170 238.28599 240.65428
 243.27357 245.52286 247.52315 249.28644 250.70173 251.82302 252.64331 252.95760
 252.99289 252.76518 252.12347 251.06976 249.67405 247.83334 245.74063 243.57192
 241.36121 239.16350 236.98179 234.81908 232.67737 230.54266 228.56695 226.72224
 225.00353 223.47382 222.10211 220.87240 219.75269 218.71098 217.81327 216.95256
 216.19285 215.37114 214.46743 213.82972 213.27802 212.99329 212.32059 213.44041
 214.93167 216.61978 217.83641 218.34981 219.58757 222.89221 228.23431 232.74857
 236.36615 240.12822 243.89207 247.37503 250.30145 253.10207 256.11520 259.12210
 261.39557 263.59741 266.10229 268.47263 270.66486 272.64212 274.33682 276.00174
 277.74725 279.48599 281.03302 282.39920 283.58737 284.64197 285.61047 286.49393
 287.30078 288.02252 288.65640 289.50101
 366.78100 356.33256 345.76212 334.62568 323.02625 311.21781 299.08537 286.88593
 274.59549 262.49005 250.49661 239.79518 229.91474 221.01630 213.19586 206.19542
 200.02698 194.96254 191.54211 189.58167 188.61623 188.67779 189.51035 190.81591
 192.53847 194.63103 196.89160 199.24816 201.69072 204.16828 206.25384 208.09340
 209.71696 210.85953 211.08609 211.31165 211.24621 210.94877 210.57933 210.20689
 209.82146 209.52902 209.33458 209.19614 209.12170 209.45026 209.83382 210.22039
 211.01095 212.18651 213.43407 215.21463 217.14019 219.18075 221.27332 223.35388
 225.41144 227.49300 229.58756 231.69112 233.81768 235.98724 238.24081 240.60837
 243.22693 245.47549 247.47505 249.23761 250.65217 251.77274 252.59230 252.90586
 252.94042 252.71198 252.06954 251.01510 249.61867 247.77723 245.68379 243.51435
 241.30291 239.10447 236.92203 234.75860 232.61616 230.48072 228.50428 226.65884
 224.93940 223.40896 222.03653 220.80609 219.68565 218.64321 217.74477 216.88333
 216.12289 215.30045 214.39602 213.75758 213.20514 212.96898 212.41101 213.57545
 215.00267 216.66812 217.91663 218.41301 219.75273 222.88020 228.21613 232.69196
 236.28636 240.04973 243.80255 247.24532 250.10854 252.87961 255.92000 258.96750
 261.24496 263.43222 265.92807 268.31732 270.54117 272.54568 274.25766 275.92639
 277.67148 279.41330 280.96082 282.32788 283.51556 284.57321 285.54034 286.42426
 287.23355 287.95642 288.59167 289.43741
 366.78100 356.33190 345.76079 334.62369 323.02358 311.21448 299.08138 286.88127
 274.59017 262.48406 250.48996 239.78786 229.90675 221.00765 213.18655 206.18544
 200.01634 194.95123 191.53013 189.56903 188.60292 188.66382 189.49571 190.80061
 192.52251 194.61440 196.87430 199.23019 201.67209 204.14899 206.23388 208.07278
 209.69568 210.83757 211.06347 211.28836 211.22226 210.92416 210.55405 210.18095
 209.79484 209.50174 209.30664 209.16753 209.09243 209.42032 209.80322 210.18912
 210.97901 212.15391 213.40081 215.18070 217.10560 219.14549 221.23739 223.31729
 225.37418 227.45508 229.54897 231.65187 233.77777 235.94666 238.19956 240.56645
 243.18435 245.43225 247.43114 249.19304 250.60694 251.72683 252.54573 252.85862
 252.89252 252.66342 252.02031 250.96521 249.56810 247.72600 245.63190 243.46179
 241.24969 239.05058 236.86748 234.70338 232.56027 230.42417 228.44707 226.60096
 224.88086 223.34975 221.97665 220.74555 219.62444 218.58134 217.68223 216.82013
 216.05903 215.23592 214.33082 213.69171 213.13861 212.94833 212.49879 213.71590
 215.07274 216.71638 217.98790 218.49280 219.90836 222.89244 228.18243 232.62390
 236.20552 239.97740 243.71828 247.11685 249.91490 252.65331 255.71248 258.79056
 261.08661 263.27716 265.76422 268.17148 270.42734 272.46027 274.19119 275.86502
 277.59790 279.34146 280.89105 282.25851 283.44662 284.50443 285.47247 286.35806
 287.16666 287.89139 288.52921 289.37445
 366.78100 356.33177 345.76053 334.62330 323.02306 311.21383 299.08059 286.88036
 274.58913 262.48289 250.48866 239.78642 229.90519 221.00595 213.18472 206.18348
 200.01425 194.94902 191.52778 189.56655 188.60031 188.66108 189.49284 190.79761
 192.51938 194.61114 196.87091 199.22667 201.66844 204.14520 206.22997 208.06874
 209.69150 210.83327 211.05903 211.28380 211.21756 210.91933 210.54909 210.17586
 209.78963 209.49639 209.30116 209.16192 209.08669 209.41445 209.79722 210.18299
 210.97275 212.14752 213.39428 215.17405 217.09881 219.13858 221.23034 223.31011
 225.36688 227.44764 229.54141 231.64417 233.76994 235.93870 238.19147 240.55824
 243.17600 245.42377 247.42253 249.18430 250.59806 251.71783 252.53660 252.84936
 252.88313 252.65389 252.01066 250.95542 249.55819 247.71595 245.62172 243.45149
 241.23925 239.04002 236.85678 234.69255 232.54931 230.41308 228.43585 226.58961
 224.86938 223.33814 221.96491 220.73367 219.61244 218.56921 217.66997 216.80774
 216.04650 215.22327 214.31803 213.67880 213.12556 212.95604 212.55551 213.87674
 215.14409 216.73906 218.10320 218.56418 220.10812 222.86383 228.15974 232.57576
 236.13176 239.90845 243.62852 246.96944 249.69989 252.41313 255.49078 258.59619
 260.92960 263.13876 265.61563 268.03629 270.32190 272.38583 274.13419 275.80780
 277.52814 279.27359 280.82373 282.19186 283.38083 284.43832 285.40771 286.29523
 287.10568 287.83310 288.46902 289.31775
 366.78100 356.33128 345.75957 334.62185 323.02113 311.21142 299.07770 286.87698
 274.58526 262.47855 250.48383 239.78111 229.89940 220.99968 213.17796 206.17625
 200.00653 194.94081 191.51909 189.55738 188.59066 188.65094 189.48223 190.78651
 192.50779 194.59908 196.85836 199.21364 201.65492 204.13121 206.21549 208.05377
 209.67606 210.81734 211.04262 211.26691 211.20019 210.90147 210.53075 210.15704
 209.77032 209.47660 209.28089 209.14117 209.06545 209.39274 209.77502 210.16030
 210.94958 212.12387 213.37015 215.14943 217.07372 219.11300 221.20428 223.28357
 225.33985 227.42013 229.51341 231.61570 233.74098 235.90926 238.16155 240.52783
 243.14511 245.39240 247.39068 249.15196 250.56524 251.68453 252.50281 252.81509
 252.84838 252.61866 251.97494 250.91923 249.52151 247.67879 245.58407 243.41336
 241.20064 239.00092 236.81721 234.65249 232.50877 230.37206 228.39434 226.54762
 224.82690 223.29519 221.92147 220.68975 219.56804 218.52432 217.62460 216.76189
 216.00017 215.17645 214.27074 213.63102 213.07730 212.94925 212.64673 213.97893
 215.25624 216.76025 218.11690 218.74290 220.33525 222.88664 228.13390 232.51309
 236.04102 239.82178 243.52060 246.80443 249.47835 252.17566 255.26898 258.39914
 260.78394 263.01651 265.47787 267.90829 270.22214 272.31790 274.08389 275.75763
 277.45953 279.20059 280.75052 282.11884 283.30658 284.36124 285.32999 286.21533
 287.02365 287.74713 288.36795 289.20523
 366.78100 356.33067 345.75835 334.62002 323.01869 311.20837 299.07404 286.87271
 274.58039 262.47306 250.47773 239.77441 229.89208 220.99175 213.16943 206.16710
 199.99677 194.93045 191.50812 189.54580 188.57847 188.63814 189.46882 190.77249
 192.49316 194.58384 196.84251 199.19718 201.63786 204.11353 206.19720 208.03488
 209.65655 210.79722 211.02190 211.24557 211.17824 210.87892 210.50759 210.13326
 209.74594 209.45161 209.25528 209.11496 209.03863 209.36530 209.74698 210.13165
 210.92032 212.09400 213.33967 215.11834 217.04202 219.08069 221.17136 223.25004
 225.30571 227.38539 229.47806 231.57973 233.70441 235.87208 238.12375 240.48943
 243.10610 245.35277 247.35045 249.11112 250.52379 251.64247 252.46014 252.77181
 252.80449 252.57416 251.92983 250.87351 249.47518 247.63185 245.53653 243.36520
 241.15187 238.95155 236.76722 234.60189 232.45757 230.32024 228.34191 226.49459
 224.77326 223.24093 221.86661 220.63428 219.51195 218.46763 217.56730 216.70398
 215.94165 215.11732 214.21100 213.57067 213.01634 212.93745 212.75107 214.07410
 215.37854 216.82248 218.11787 218.89320 220.47690 223.00681 228.09206 232.41632
 235.92953 239.71893 243.40146 246.63559 249.26193 251.94461 255.04684 258.19458
 260.63498 262.89835 265.34573 267.78546 270.12762 272.25830 274.04391 275.71744
 277.40253 279.12543 280.67245 282.03943 283.22684 284.28232 285.24802 286.13269
 286.93973 287.66336 288.28238 289.11789
 366.78100 356.33042 345.75784 334.61927 323.01769 311.20711 299.07253 286.87096
 274.57838 262.47080 250.47522 239.77165 229.88907 220.98849 213.16591 206.16334
 199.99276 194.92618 191.50360 189.54103 188.57345 188.63287 189.46329 190.76672
 192.48714 194.57756 196.83598 199.19041 201.63083 204.10625 206.18967 208.02709
 209.64852 210.78894 211.01336 211.23678 211.16921 210.86963 210.49805 210.12347
 209.73590 209.44132 209.24474 209.10416 209.02759 209.35401 209.73543 210.11985
 210.90828 212.08170 213.32712 215.10554 217.02897 219.06739 221.15781 223.23623
 225.29166 227.37108 229.46350 231.56492 233.68934 235.85677 238.10819 240.47361
 243.09003 245.33646 247.33388 249.09430 250.50672 251.62515 252.44257 252.75399
 252.78641 252.55584 251.91126 250.85468 249.45610 247.61253 245.51695 243.34537
 241.13179 238.93122 236.74664 234.58106 232.43648 230.29891 228.32033 226.47275
 224.75117 223.21859 221.84402 220.61144 219.48886 218.44428 217.54371 216.68013
 215.91755 215.09297 214.18640 213.54582 212.99124 212.94525 212.83658 214.19009
 215.46936 216.89917 218.19618 219.04996 220.57857 223.16443 228.04482 232.31073
 235.81833 239.61780 243.28256 246.46642 249.04770 251.71797 254.82430 257.97949
 260.47754 262.77200 265.21826 267.66675 270.03345 272.19678 274.00293 275.68304
 277.36057 279.04980 280.59412 281.95996 283.14670 284.20032 285.16647 286.05106
 286.86017 287.57965 288.20044 289.03455
 366.78100 356.33077 345.75855 334.62032 323.01909 311.20886 299.07464 286.87341
 274.58118 262.47395 250.47873 239.77550 229.89327 220.99305 213.17082 206.16859
 199.99836 194.93214 191.50991 189.54768 188.58046 188.64023 189.47100 190.77477
 192.49555 194.58632 196.84509 199.19986 201.64064 204.11641 206.20018 208.03796
 209.65973 210.80050 211.02527 211.24905 211.18182 210.88259 210.51136 210.13714
 209.74991 209.45568 209.25946 209.11923 209.04300 209.36977 209.75155 210.13632
 210.92509 212.09887 213.34464 215.12341 217.04718 219.08596 221.17673 223.25550
 225.31127 227.39105 229.48382 231.58559 233.71037 235.87814 238.12991 240.49568
 243.11246 245.35923 247.35700 249.11777 250.53055 251.64932 252.46709 252.77887
 252.81164 252.58141 251.93718 250.88096 249.48273 247.63950 245.54427 243.37305
 241.15982 238.95959 236.77537 234.61014 232.46591 230.32868 228.35046 226.50323
 224.78200 223.24978 221.87555 220.64332 219.52109 218.47687 217.57664 216.71341
 215.95118 215.12696 214.22073 213.58050 213.02628 212.98912 212.91089 214.27217
 215.55040 216.97305 218.29813 219.17960 220.65120 223.25775 227.96269 232.21181
 235.70071 239.52039 243.16367 246.29189 248.80333 251.44748 254.57271 257.77139
 260.34381 262.67639 265.09244 267.55191 269.94699 272.14133 273.97455 275.64877
 277.31577 278.96851 280.51605 281.88257 283.06842 284.12042 285.08463 285.96512
 286.76547 287.48508 288.12778 288.94739
 366.78100 356.33149 345.75999 334.62248 323.02197 311.21246 299.07896 286.87845
 274.58694 262.48044 250.48593 239.78342 229.90191 221.00241 213.18090 206.17939
 200.00989 194.94438 191.52287 189.56136 188.59486 188.65535 189.48684 190.79133
 192.51283 194.60432 196.86381 199.21931 201.66080 204.13729 206.22178 208.06028
 209.68277 210.82426 211.04976 211.27425 211.20774 210.90923 210.53873 210.16522
 209.77871 209.48521 209.28970 209.15019 209.07468 209.40218 209.78467 210.17016
 210.95966 212.13415 213.38064 215.16013 217.08463 219.12412 221.21561 223.29511
 225.35160 227.43209 229.52558 231.62808 233.75357 235.92206 238.17455 240.54105
 243.15854 245.40603 247.40453 249.16602 250.57951 251.69900 252.51750 252.82999
 252.86348 252.63398 251.99047 250.93496 249.53745 247.69495 245.60044 243.42993
 241.21743 239.01792 236.83441 234.66990 232.52640 230.38989 228.41238 226.56588
 224.84537 223.31386 221.94035 220.70885 219.58734 218.54383 217.64432 216.78182
 216.02031 215.19680 214.29130 213.65179 213.09828 213.06706 213.05116 214.27396
 215.57022 216.96753 218.32262 219.32747 220.80681 223.41815 227.85504 232.13092
 235.56851 239.37726 242.97339 246.03912 248.59447 251.27632 254.37901 257.51108
 260.21112 262.65900 265.12317 267.55621 269.92487 272.08942 273.97131 275.65863
 277.30478 278.89719 280.41556 281.78482 282.97675 284.04333 285.03851 286.01633
 286.93997 287.76245 288.48099 289.39667
 366.78100 356.33215 345.76130 334.62446 323.02461 311.21576 299.08291 286.88307
 274.59222 262.48637 250.49252 239.79068 229.90983 221.01098 213.19013 206.18928
 200.02044 194.95559 191.53474 189.57389 188.60805 188.66920 189.50135 190.80650
 192.52866 194.62081 196.88096 199.23711 201.67926 204.15642 206.24157 208.08072
 209.70387 210.84603 211.07218 211.29733 211.23148 210.93364 210.56379 210.19094
 209.80509 209.51224 209.31740 209.17855 209.10370 209.43185 209.81501 210.20116
 210.99131 212.16646 213.41362 215.19377 217.11892 219.15907 221.25122 223.33138
 225.38853 227.46968 229.56383 231.66699 233.79314 235.96229 238.21544 240.58260
 243.20075 245.44890 247.44805 249.21020 250.62436 251.74451 252.56366 252.87681
 252.91097 252.68212 252.03927 250.98442 249.58758 247.74573 245.65188 243.48203
 241.27018 239.07134 236.88849 234.72464 232.58179 230.44595 228.46910 226.62325
 224.90340 223.37256 221.99971 220.76886 219.64801 218.60516 217.70632 216.84447
 216.08362 215.26077 214.35593 213.71708 213.16423 213.14003 213.17979 214.34439
 215.62837 216.99132 218.36769 219.48753 221.01340 223.60437 227.83504 232.04347
 235.47533 239.23706 242.77509 245.77968 248.37593 251.10994 254.21819 257.35776
 260.04251 262.58017 265.15527 267.60046 269.93881 272.06610 273.91629 275.56879
 277.17654 278.77960 280.33798 281.72321 282.94537 284.14169 285.31528 286.37845
 287.33466 288.18619 288.93005 289.87802
 366.78100 356.33214 345.76127 334.62441 323.02455 311.21569 299.08282 286.88296
 274.59210 262.48623 250.49237 239.79051 229.90964 221.01078 213.18992 206.18906
 200.02019 194.95533 191.53447 189.57360 188.60774 188.66888 189.50101 190.80615
 192.52829 194.62043 196.88056 199.23670 201.67884 204.15597 206.24111 208.08025
 209.70339 210.84552 211.07166 211.29680 211.23093 210.93307 210.56321 210.19034
 209.80448 209.51162 209.31676 209.17789 209.10303 209.43117 209.81430 210.20044
 210.99058 212.16572 213.41285 215.19299 217.11813 219.15826 221.25040 223.33054
 225.38767 227.46881 229.56295 231.66609 233.79222 235.96136 238.21450 240.58163
 243.19977 245.44791 247.44704 249.20918 250.62332 251.74346 252.56259 252.87573
 252.90987 252.68100 252.03814 250.98328 249.58642 247.74455 245.65069 243.48083
 241.26896 239.07010 236.88724 234.72337 232.58051 230.44465 228.46779 226.62192
 224.90206 223.37120 221.99833 220.76747 219.64661 218.60375 217.70488 216.84302
 216.08216 215.25929 214.35443 213.71557 213.16270 213.17067 213.28712 214.47334
 215.74057 217.04637 218.42157 219.59547 221.15083 223.69666 227.80669 231.95972
 235.36926 239.09218 242.57156 245.52702 248.11517 250.86903 253.99109 257.16492
 259.79608 262.60410 265.23169 267.63132 269.91650 272.01758 273.83524 275.48172
 277.08850 278.72028 280.27008 281.64929 282.86411 284.01810 285.10138 286.08273
 286.96536 287.75137 288.43799 289.31299
 366.78100 356.33051 345.75802 334.61952 323.01803 311.20754 299.07305 286.87155
 274.57906 262.47157 250.47608 239.77258 229.89009 220.98960 213.16711 206.16462
 199.99412 194.92763 191.50514 189.54265 188.57515 188.63466 189.46517 190.76868
 192.48919 194.57969 196.83820 199.19271 201.63322 204.10872 206.19223 208.02974
 209.65125 210.79175 211.01626 211.23977 211.17228 210.87279 210.50129 210.12680
 209.73931 209.44482 209.24832 209.10783 209.03134 209.35785 209.73935 210.12386
 210.91237 212.08588 213.33139 215.10989 217.03340 219.07191 221.16242 223.24092
 225.29643 227.37594 229.46845 231.56995 233.69446 235.86197 238.11348 240.47899
 243.09549 245.34200 247.33951 249.10002 250.51252 251.63103 252.44854 252.76005
 252.79256 252.56206 251.91757 250.86108 249.46259 247.61909 245.52360 243.35211
 241.13862 238.93812 236.75363 234.58814 232.44365 230.30616 228.32766 226.48017
 224.75868 223.22619 221.85169 220.61920 219.49671 218.45222 217.55172 216.68823
 215.92574 215.10125 214.19476 213.55426 212.99977 213.11673 213.46298 214.61206
 215.78522 217.05128 218.45119 219.67281 221.25696 223.75438 227.76289 231.88304
 235.25874 238.94775 242.36737 245.27473 247.84109 250.60728 253.76169 256.96854
 259.84277 262.47964 265.13727 267.56686 269.88077 272.01721 273.87006 275.49643
 277.11823 278.79947 280.35889 281.73538 282.94003 284.04636 285.13315 286.11771
 287.00323 287.79178 288.48062 289.35849
 366.78100 356.32834 345.75369 334.61303 323.00938 311.19672 299.06006 286.85641
 274.56175 262.45210 250.45444 239.74878 229.86413 220.96147 213.13682 206.13216
 199.95950 194.89085 191.46619 189.50154 188.53188 188.58922 189.41757 190.71891
 192.43726 194.52560 196.78194 199.13429 201.57263 204.04598 206.12732 207.96266
 209.58201 210.72035 210.94270 211.16404 211.09438 210.79273 210.41907 210.04242
 209.65276 209.35610 209.15745 209.01479 208.93614 209.26048 209.63982 210.02217
 210.80851 211.97986 213.22320 214.99954 216.92089 218.95723 221.04558 223.12192
 225.17526 227.25261 229.34295 231.44230 233.56464 235.72998 237.97933 240.34267
 242.95702 245.20136 247.19670 248.95505 250.36539 251.48174 252.29708 252.60643
 252.63677 252.40411 251.75746 250.69880 249.29815 247.45249 245.35483 243.18118
 240.96552 238.76287 236.57621 234.40855 232.26190 230.12224 228.14159 226.29193
 224.56827 223.03362 221.65696 220.42231 219.29765 218.25099 217.34834 216.48268
 215.71803 214.89137 213.98271 213.34006 212.78340 213.03485 213.67955 214.75439
 215.81061 217.04381 218.50069 219.81917 221.45155 223.88475 227.77171 231.83423
 235.17693 238.81140 242.16051 245.01703 247.58772 250.38924 253.58096 256.82764
 259.82437 262.51254 265.02533 267.43921 269.78735 271.96872 273.87927 275.57697
 277.21460 278.86011 280.41904 281.80032 283.01233 284.18298 285.32642 286.36227
 287.29395 288.12357 288.84833 289.77194
 366.78100 356.32850 345.75400 334.61351 323.01001 311.19751 299.06101 286.85752
 274.56302 262.45352 250.45602 239.75053 229.86603 220.96353 213.13903 206.13454
 199.96204 194.89354 191.46904 189.50455 188.53505 188.59255 189.42105 190.72256
 192.44106 194.52956 196.78606 199.13856 201.57707 204.05057 206.13207 207.96757
 209.58708 210.72558 210.94808 211.16958 211.10009 210.79859 210.42509 210.04859
 209.65910 209.36260 209.16410 209.02160 208.94311 209.26761 209.64711 210.02961
 210.81612 211.98762 213.23112 215.00762 216.92912 218.96563 221.05413 223.13063
 225.18413 227.26164 229.35214 231.45164 233.57414 235.73965 237.98915 240.35265
 242.96715 245.21166 247.20716 248.96566 250.37616 251.49267 252.30817 252.61767
 252.64817 252.41568 251.76918 250.71068 249.31018 247.46468 245.36719 243.19369
 240.97819 238.77569 236.58920 234.42170 232.27520 230.13570 228.15521 226.30571
 224.58221 223.04771 221.67122 220.43672 219.31222 218.26572 217.36323 216.49773
 215.73323 214.90673 213.99824 213.35574 212.79924 213.06633 213.75812 214.93292
 215.89566 217.02728 218.55400 219.98834 221.67487 224.03874 227.79378 231.79443
 235.09164 238.64603 241.89345 244.68463 247.26938 250.13493 253.38368 256.67664
 259.72714 262.47491 265.01917 267.46762 269.82791 272.02460 273.96838 275.69739
 277.30121 278.92496 280.48703 281.87732 283.11398 284.30276 285.44049 286.47116
 287.39813 288.22363 288.94476 289.86374
 366.78100 356.33001 345.75702 334.61803 323.01604 311.20505 299.07006 286.86807
 274.57508 262.46709 250.47110 239.76711 229.88412 220.98313 213.16014 206.15714
 199.98615 194.91916 191.49617 189.53318 188.56519 188.62420 189.45421 190.75722
 192.47723 194.56724 196.82525 199.17926 201.61927 204.09428 206.17729 208.01430
 209.63531 210.77532 210.99933 211.22234 211.15435 210.85436 210.48237 210.10738
 209.71939 209.42440 209.22741 209.08642 209.00943 209.33543 209.71644 210.10045
 210.88846 212.06147 213.30648 215.08449 217.00750 219.04551 221.13552 223.21353
 225.26854 227.34755 229.43956 231.54057 233.66458 235.83159 238.08260 240.44761
 243.06362 245.30963 247.30664 249.06665 250.47866 251.59667 252.41368 252.72469
 252.75670 252.52571 251.88072 250.82372 249.42473 247.58074 245.48475 243.31276
 241.09877 238.89778 236.71279 234.54680 232.40181 230.26382 228.28483 226.43684
 224.71485 223.18186 221.80687 220.57388 219.45089 218.40590 217.50491 216.64092
 215.87793 215.05294 214.14595 213.50496 212.94997 213.15990 213.72098 215.15511
 216.00833 217.02861 218.62337 220.08551 221.79033 224.09908 227.77655 231.71735
 234.97646 238.44283 241.55728 244.26761 246.86797 249.79854 253.11003 256.44843
 259.55661 262.39355 265.02780 267.52542 269.89966 272.12308 274.10986 275.87814
 277.51929 278.98657 280.53418 281.90665 283.10071 284.17551 285.22464 286.23404
 287.14188 287.95029 288.65652 289.55652
 366.78100 356.33050 345.75800 334.61950 323.01800 311.20750 299.07300 286.87150
 274.57900 262.47150 250.47601 239.77251 229.89001 220.98951 213.16701 206.16451
 199.99401 194.92751 191.50501 189.54251 188.57501 188.63451 189.46501 190.76851
 192.48901 194.57951 196.83801 199.19251 201.63302 204.10852 206.19202 208.02952
 209.65102 210.79152 211.01602 211.23952 211.17202 210.87252 210.50102 210.12652
 209.73902 209.44452 209.24802 209.10752 209.03102 209.35752 209.73902 210.12353
 210.91203 212.08553 213.33103 215.10953 217.03303 219.07153 221.16203 223.24053
 225.29603 227.37553 229.46803 231.56953 233.69403 235.86153 238.11303 240.47853
 243.09503 245.34154 247.33904 249.09954 250.51204 251.63054 252.44804 252.75954
 252.79204 252.56154 251.91704 250.86054 249.46204 247.61854 245.52304 243.35154
 241.13804 238.93754 236.75304 234.58754 232.44305 230.30555 228.32705 226.47955
 224.75805 223.22555 221.85105 220.61855 219.49605 218.45155 217.55105 216.68755
 215.92505 215.10055 214.19405 213.55355 212.99905 213.20177 213.71852 215.35518
 216.22615 217.25304 218.85088 220.26851 221.92192 224.11563 227.79535 231.59091
 234.86938 238.23053 241.19579 243.80161 246.41812 249.42288 252.81476 256.20819
 259.37433 262.28427 264.98203 267.52032 269.91223 272.14560 274.18723 276.02371
 277.69785 279.20758 280.59283 281.95840 283.14243 284.19763 285.17331 286.05997
 286.88995 287.64233 288.29956 289.13715
 366.78100 356.33061 345.75823 334.61984 323.01846 311.20807 299.07368 286.87230
 274.57991 262.47253 250.47714 239.77375 229.89137 220.99098 213.16860 206.16621
 199.99583 194.92944 191.50705 189.54467 188.57728 188.63690 189.46751 190.77112
 192.49174 194.58235 196.84097 199.19558 201.63619 204.11181 206.19542 208.03304
 209.65465 210.79526 211.01988 211.24349 211.17611 210.87672 210.50533 210.13095
 209.74356 209.44918 209.25279 209.11240 209.03602 209.36263 209.74425 210.12886
 210.91748 212.09109 213.33670 215.11532 217.03893 219.07755 221.16816 223.24677
 225.30239 227.38200 229.47462 231.57623 233.70084 235.86846 238.12007 240.48569
 243.10230 245.34891 247.34653 249.10714 250.51976 251.63837 252.45598 252.76760
 252.80021 252.56983 251.92544 250.86905 249.47067 247.62728 245.53190 243.36051
 241.14713 238.94674 236.76235 234.59697 232.45258 230.31520 228.33681 226.48942
 224.76804 223.23565 221.86127 220.62888 219.50649 218.46211 217.56172 216.69834
 215.93595 215.11156 214.20518 213.56479 213.01041 213.23302 213.79143 215.45181
 216.31093 217.44406 219.03827 220.42760 222.06381 224.21361 227.86934 231.53690
 234.79520 238.01904 240.83926 243.35892 246.02115 249.12572 252.59024 256.02966
 259.23831 262.18869 264.92300 267.48764 269.89313 272.13159 274.19690 276.07617
 277.78070 279.30408 280.69965 282.06348 283.24585 284.30078 285.27603 286.15610
 286.97937 287.73972 288.40396 289.25046
 366.78100 356.33108 345.75915 334.62123 323.02031 311.21038 299.07646 286.87553
 274.58361 262.47669 250.48176 239.77884 229.89692 220.99699 213.17507 206.17315
 200.00322 194.93730 191.51538 189.55345 188.58653 188.64660 189.47768 190.78176
 192.50283 194.59391 196.85299 199.20806 201.64914 204.12522 206.20929 208.04737
 209.66944 210.81052 211.03560 211.25967 211.19275 210.89383 210.52290 210.14898
 209.76206 209.46813 209.27221 209.13229 209.05636 209.38344 209.76551 210.15059
 210.93967 212.11374 213.35982 215.13890 217.06297 219.10205 221.19313 223.27220
 225.32828 227.40836 229.50143 231.60351 233.72858 235.89666 238.14874 240.51481
 243.13189 245.37897 247.37704 249.13812 250.55120 251.67027 252.48835 252.80042
 252.83350 252.60358 251.95965 250.90373 249.50581 247.66288 245.56796 243.39704
 241.18411 238.98419 236.80027 234.63534 232.49142 230.35449 228.37657 226.52965
 224.80872 223.27680 221.90288 220.67095 219.54903 218.50511 217.60518 216.74226
 215.98033 215.15641 214.25049 213.61056 213.05664 213.28993 213.88588 215.46019
 216.39633 217.60951 219.16225 220.53928 222.21494 224.38908 227.95943 231.57219
 234.73038 237.80183 240.48334 242.94687 245.66905 248.87766 252.40404 255.88258
 259.12631 262.11639 264.89432 267.49033 269.89569 272.11887 274.16888 276.03687
 277.75449 279.31253 280.78369 282.14603 283.32925 284.39044 285.37451 286.28445
 287.13672 287.89566 288.55869 289.40359
 366.78100 356.33283 345.76267 334.62650 323.02734 311.21917 299.08700 286.88784
 274.59767 262.49251 250.49934 239.79817 229.91801 221.01984 213.19967 206.19951
 200.03134 194.96718 191.54701 189.58684 188.62168 188.68351 189.51635 190.82218
 192.54501 194.63785 196.89868 199.25552 201.69835 204.17618 206.26202 208.10185
 209.72569 210.86852 211.09535 211.32119 211.25602 210.95885 210.58969 210.21752
 209.83236 209.54019 209.34602 209.20786 209.13369 209.46253 209.84636 210.23319
 211.02403 212.19986 213.44770 215.22853 217.15436 219.19520 221.28803 223.36887
 225.42670 227.50853 229.60337 231.70720 233.83403 236.00387 238.25770 240.62554
 243.24437 245.49320 247.49304 249.25587 250.67071 251.79154 252.61137 252.92521
 252.96004 252.73188 252.08971 251.03554 249.63938 247.79821 245.70505 243.53588
 241.32471 239.12655 236.94438 234.78121 232.63905 230.50388 228.52772 226.68255
 224.96338 223.43322 222.06105 220.83089 219.71072 218.66855 217.77039 216.90922
 216.14906 215.32689 214.42272 213.78456 213.23239 213.41112 213.89305 215.53256
 216.62247 217.66135 219.15128 220.71451 222.44739 224.60098 228.03284 231.57751
 234.63005 237.53851 240.06145 242.48260 245.28360 248.60304 252.19942 255.72607
 259.00601 262.04572 264.87454 267.49417 269.88531 272.07391 274.10696 275.99405
 277.75363 279.33203 280.78979 282.14651 283.33014 284.39450 285.38947 286.32663
 287.18491 287.94922 288.61688 289.46777
 366.78100 356.33249 345.76197 334.62546 323.02594 311.21743 299.08492 286.88540
 274.59489 262.48938 250.49586 239.79435 229.91383 221.01532 213.19481 206.19429
 200.02578 194.96126 191.54075 189.58024 188.61472 188.67621 189.50870 190.81418
 192.53667 194.62915 196.88964 199.24613 201.68861 204.16610 206.25158 208.09107
 209.71456 210.85704 211.08353 211.30902 211.24350 210.94599 210.57647 210.20396
 209.81845 209.52593 209.33142 209.19291 209.11839 209.44688 209.83036 210.21685
 211.00734 212.18282 213.43031 215.21079 217.13628 219.17677 221.26925 223.34974
 225.40723 227.48871 229.58320 231.68668 233.81317 235.98266 238.23614 240.60363
 243.22211 245.47060 247.47009 249.23257 250.64706 251.76755 252.58703 252.90052
 252.93500 252.70649 252.06398 251.00946 249.61295 247.77143 245.67792 243.50841
 241.29689 239.09838 236.91587 234.75235 232.60984 230.47432 228.49781 226.65230
 224.93278 223.40227 222.02975 220.79924 219.67873 218.63621 217.73770 216.87619
 216.11567 215.29316 214.38864 213.75013 213.19762 213.42656 214.03943 215.58971
 216.59598 217.68834 219.28082 220.88522 222.67133 224.81789 228.07430 231.62984
 234.54962 237.31133 239.68277 242.04611 244.91037 248.33696 252.00449 255.56599
 258.87814 261.96277 264.84073 267.47897 269.85144 272.00089 274.02631 275.94162
 277.73370 279.38297 280.93546 282.30524 283.50351 284.58643 285.62231 286.57800
 287.43753 288.20294 288.87161 289.72372
 366.78100 356.33157 345.76014 334.62271 323.02228 311.21285 299.07942 286.87899
 274.58757 262.48114 250.48671 239.78428 229.90285 221.00342 213.18199 206.18056
 200.01113 194.94570 191.52427 189.56284 188.59641 188.65698 189.48855 190.79312
 192.51470 194.60627 196.86584 199.22141 201.66298 204.13955 206.22412 208.06269
 209.68526 210.82683 211.05240 211.27697 211.21054 210.91211 210.54168 210.16825
 209.78183 209.48840 209.29297 209.15354 209.07811 209.40568 209.78825 210.17382
 210.96339 212.13796 213.38453 215.16410 217.08867 219.12824 221.21981 223.29939
 225.35596 227.43653 229.53010 231.63267 233.75824 235.92681 238.17938 240.54595
 243.16352 245.41109 247.40966 249.17123 250.58480 251.70437 252.52294 252.83552
 252.86909 252.63966 251.99623 250.94080 249.54337 247.70094 245.60651 243.43608
 241.22365 239.02422 236.84079 234.67636 232.53293 230.39650 228.41907 226.57265
 224.85222 223.32079 221.94736 220.71593 219.59450 218.55107 217.65164 216.78921
 216.02778 215.20435 214.29892 213.65949 213.10606 213.41188 214.22707 215.64967
 216.64890 217.93159 219.57820 221.13268 222.86668 224.97737 228.16330 231.70439
 234.47540 237.08310 239.33417 241.67224 244.59886 248.09698 251.83118 255.44011
 258.78857 261.90997 264.80908 267.44473 269.79092 271.92041 273.94241 275.88336
 277.78683 279.58496 281.15479 282.55688 283.83191 285.01346 286.09143 287.06802
 287.94632 288.72849 289.41174 290.28250
 366.78100 356.33198 345.76095 334.62393 323.02390 311.21488 299.08186 286.88183
 274.59081 262.48479 250.49076 239.78874 229.90771 221.00869 213.18767 206.18664
 200.01762 194.95260 191.53157 189.57055 188.60452 188.66550 189.49748 190.80245
 192.52443 194.61641 196.87638 199.23236 201.67433 204.15131 206.23629 208.07526
 209.69824 210.84022 211.06619 211.29117 211.22514 210.92712 210.55710 210.18407
 209.79805 209.50502 209.31000 209.17098 209.09595 209.42393 209.80691 210.19288
 210.98286 212.15783 213.40481 215.18479 217.10976 219.14974 221.24172 223.32169
 225.37867 227.45964 229.55362 231.65660 233.78257 235.95155 238.20453 240.57150
 243.18948 245.43745 247.43643 249.19841 250.61238 251.73236 252.55134 252.86431
 252.89829 252.66926 252.02624 250.97122 249.57419 247.73217 245.63814 243.46812
 241.25610 239.05707 236.87405 234.71003 232.56700 230.43098 228.45395 226.60793
 224.88791 223.35688 221.98386 220.75284 219.63181 218.58879 217.68976 216.82774
 216.06672 215.24369 214.33867 213.69965 213.14662 213.45801 214.33963 215.76797
 216.81764 218.20660 219.80785 221.32133 222.98717 224.98701 228.24660 231.69472
 234.44238 236.88730 238.97986 241.21796 244.23808 247.85243 251.71291 255.36911
 258.73236 261.87357 264.80301 267.45187 269.78394 271.86597 273.84433 275.91833
 278.01895 279.86212 281.55106 283.13074 284.49780 285.70731 286.81079 287.81046
 288.70956 289.51022 290.20966 291.10101
 366.78100 356.33512 345.76725 334.63337 323.03650 311.23062 299.10075 286.90387
 274.61600 262.51312 250.52225 239.82337 229.94550 221.04962 213.23175 206.23387
 200.06800 195.00612 191.58825 189.63037 188.66750 188.73162 189.56675 190.87487
 192.60000 194.69512 196.95825 199.31737 201.76250 204.24262 206.33075 208.17287
 209.79900 210.94412 211.17325 211.40137 211.33850 211.04362 210.67674 210.30687
 209.92399 209.63412 209.44224 209.30637 209.23449 209.56562 209.95174 210.34087
 211.13399 212.31212 213.56224 215.34537 217.27349 219.31662 221.41174 223.49487
 225.55499 227.63912 229.73624 231.84237 233.97149 236.14362 238.39974 240.76987
 243.39099 245.64212 247.64424 249.40937 250.82649 251.94962 252.77174 253.08787
 253.12499 252.89912 252.25924 251.20737 249.81349 247.97461 245.88374 243.71686
 241.50799 239.31211 237.13224 234.97136 232.83149 230.69861 228.72474 226.88186
 225.16499 223.63711 222.26724 221.03936 219.92149 218.88161 217.98574 217.12686
 216.36899 215.54911 214.64724 214.01136 213.46149 213.62941 214.35081 215.98599
 217.04897 218.36879 219.84863 221.38632 223.06776 224.86035 228.31537 231.58888
 234.24170 236.61263 238.64607 240.91859 243.95293 247.69611 251.66374 255.34576
 258.73727 261.87695 264.80853 267.45187 269.73810 271.70038 273.85764 276.28485
 278.53925 280.67615 282.52530 284.14896 285.55411 286.79730 287.93155 288.95908
 289.88324 290.70621 291.42511 292.34131
 366.78100 356.33602 345.76904 334.63607 323.04009 311.23511 299.10613 286.91015
 274.62317 262.52120 250.53122 239.83324 229.95626 221.06128 213.24430 206.24733
 200.08235 195.02137 191.60439 189.64741 188.68544 188.75046 189.58648 190.89550
 192.62152 194.71754 196.98157 199.34159 201.78761 204.26863 206.35765 208.20068
 209.82770 210.97372 211.20374 211.43276 211.37078 211.07681 210.71083 210.34185
 209.95987 209.67089 209.47991 209.34494 209.27396 209.60598 209.99300 210.38302
 211.17705 212.35607 213.60709 215.39111 217.32013 219.36415 221.46018 223.54420
 225.60522 227.69024 229.78826 231.89529 234.02531 236.19833 238.45535 240.82637
 243.44839 245.70042 247.70344 249.46946 250.88748 252.01150 252.83452 253.15155
 253.18957 252.96459 252.32561 251.27463 249.88166 248.04368 245.95370 243.78772
 241.57974 239.38476 237.20579 235.04581 232.90683 230.77485 228.80187 226.95989
 225.24392 223.71694 222.34796 221.12098 220.00400 218.96503 218.07005 217.21207
 216.45509 215.63611 214.73513 214.10016 213.55118 213.68047 214.38649 216.16087
 217.20917 218.51572 219.93745 221.42313 222.92184 224.90822 228.30800 231.62735
 234.18671 236.35233 238.21530 240.45271 243.57007 247.56812 251.59128 255.32407
 258.73343 261.90179 264.84717 267.42154 269.55725 271.49393 273.87039 276.30844
 278.66748 280.96997 282.96237 284.71185 286.22586 287.56537 288.78748 289.89465
 290.89041 291.77713 292.55176 293.53891
 366.78100 356.33355 345.76411 334.62866 323.03021 311.22277 299.09132 286.89287
 274.60343 262.49898 250.50654 239.80609 229.92664 221.02920 213.20975 206.21030
 200.04286 194.97941 191.55996 189.60052 188.63607 188.69862 189.53218 190.83873
 192.56228 194.65584 196.91739 199.27494 201.71850 204.19705 206.28361 208.12416
 209.74871 210.89227 211.11982 211.34637 211.28193 210.98548 210.61703 210.24559
 209.86114 209.56969 209.37625 209.23880 209.16535 209.49491 209.87946 210.26702
 211.05857 212.23512 213.48368 215.26523 217.19178 219.23334 221.32689 223.40844
 225.46700 227.54955 229.64510 231.74966 233.87721 236.04776 238.30232 240.67087
 243.29043 245.53998 247.54053 249.30409 250.71964 251.84119 252.66175 252.97630
 253.01185 252.78441 252.14296 251.08951 249.69407 247.85362 245.76117 243.59273
 241.38228 239.18483 237.00339 234.84094 232.69950 230.56505 228.58960 226.74516
 225.02671 223.49726 222.12582 220.89637 219.77692 218.73548 217.83803 216.97758
 216.21814 215.39669 214.49324 213.85580 213.30435 213.55461 214.37958 216.40723
 217.24864 218.25368 220.11169 221.58603 223.05614 225.17860 228.34781 231.55832
 233.97466 236.03604 237.88850 240.17468 243.39389 247.33270 251.45369 255.26137
 258.73169 261.91989 264.85876 267.43552 269.65277 271.70630 273.74295 275.87747
 277.92639 279.73056 281.32614 282.80121 284.10751 285.26328 286.31772 287.27298
 288.13214 288.89722 289.56555 290.41730
 366.78100 356.32961 345.75621 334.61682 323.01443 311.20303 299.06764 286.86525
 274.57185 262.46346 250.46707 239.76268 229.87928 220.97789 213.15450 206.15110
 199.97971 194.91232 191.48892 189.52553 188.55714 188.61574 189.44535 190.74796
 192.46756 194.55717 196.81478 199.16838 201.60799 204.08260 206.16520 208.00181
 209.62242 210.76203 210.98563 211.20824 211.13985 210.83945 210.46706 210.09167
 209.70327 209.40788 209.21049 209.06909 208.99170 209.31731 209.69791 210.08152
 210.86913 212.04173 213.28634 215.06395 216.98656 219.02416 221.11377 223.19138
 225.24598 227.32459 229.41620 231.51680 233.64041 235.80702 238.05762 240.42223
 243.03784 245.28344 247.28005 249.03966 250.45126 251.56887 252.38548 252.69609
 252.72769 252.49630 251.85091 250.79351 249.39412 247.54973 245.45333 243.28094
 241.06655 238.86515 236.67976 234.51337 232.36797 230.22958 228.25019 226.40179
 224.67940 223.14601 221.77061 220.53722 219.41383 218.36844 217.46704 216.60265
 215.83926 215.01386 214.10647 213.46508 212.90968 213.36124 214.46246 216.47981
 217.54764 218.11774 220.08571 221.66245 223.08063 225.07823 228.45671 231.29579
 233.90247 235.81929 237.51486 239.78088 243.10762 247.15324 251.28354 255.16302
 258.67981 261.90189 264.87335 267.50720 269.78629 271.84833 273.86707 275.85269
 277.71484 279.40189 280.87054 282.19443 283.37308 284.10321 284.92456 285.80185
 286.64862 287.41385 288.08237 288.93430
 366.78100 356.32789 345.75278 334.61167 323.00756 311.19445 299.05734 286.85323
 274.55812 262.44801 250.44990 239.74379 229.85868 220.95557 213.13046 206.12535
 199.95224 194.88313 191.45802 189.49291 188.52280 188.57969 189.40758 190.70847
 192.42636 194.51425 196.77014 199.12203 201.55992 204.03281 206.11370 207.94859
 209.56748 210.70537 210.92726 211.14815 211.07804 210.77593 210.40182 210.02471
 209.63460 209.33749 209.13838 208.99527 208.91616 209.24005 209.61894 210.00083
 210.78672 211.95761 213.20050 214.97639 216.89728 218.93317 221.02106 223.09695
 225.14984 227.22673 229.31662 231.41551 233.53740 235.70229 237.95118 240.31407
 242.92796 245.17185 247.16674 248.92463 250.33452 251.45041 252.26530 252.57419
 252.60408 252.37097 251.72386 250.66475 249.26365 247.41754 245.31943 243.14532
 240.92921 238.72610 236.53899 234.37088 232.22377 230.08366 228.10255 226.25244
 224.52833 222.99322 221.61611 220.38100 219.25589 218.20878 217.30567 216.43956
 215.67445 214.84734 213.93823 213.29512 212.73801 213.27911 214.55754 216.61188
 217.73857 218.46672 220.14856 221.78511 223.24045 225.23796 228.47716 231.32031
 233.65300 235.54370 237.18663 239.45691 242.90031 247.05034 251.22981 255.12970
 258.65302 261.88928 264.88666 267.53833 269.81067 271.82883 273.82031 275.78955
 277.68207 279.37238 280.82144 282.07019 283.24539 284.25668 285.02066 285.47058
 286.19870 286.89511 287.52856 288.40274
 366.78100 356.32817 345.75333 334.61250 323.00867 311.19583 299.05900 286.85517
 274.56033 262.45050 250.45267 239.74683 229.86200 220.95917 213.13433 206.12950
 199.95666 194.88783 191.46300 189.49816 188.52833 188.58550 189.41366 190.71483
 192.43300 194.52116 196.77733 199.12950 201.56766 204.04083 206.12200 207.95716
 209.57633 210.71450 210.93666 211.15783 211.08800 210.78616 210.41233 210.03550
 209.64566 209.34883 209.15000 209.00716 208.92833 209.25249 209.63166 210.01383
 210.79999 211.97116 213.21433 214.99049 216.91166 218.94783 221.03599 223.11216
 225.16533 227.24249 229.33266 231.43183 233.55399 235.71916 237.96833 240.33149
 242.94566 245.18983 247.18499 248.94316 250.35333 251.46949 252.28466 252.59383
 252.62399 252.39116 251.74433 250.68549 249.28466 247.43882 245.34099 243.16716
 240.95132 238.74849 236.56166 234.39382 232.24699 230.10716 228.12632 226.27649
 224.55266 223.01782 221.64099 220.40616 219.28132 218.23449 217.33166 216.46582
 215.70099 214.87416 213.96532 213.32249 212.76566 213.30392 214.57565 216.75139
 217.88171 218.59222 220.23062 221.93973 223.39905 225.33209 228.44421 231.26761
 233.45204 235.18936 236.79585 239.12553 242.70844 246.94208 251.14780 255.08282
 258.63501 261.89090 264.88583 267.53537 269.80487 271.82156 273.80054 275.74359
 277.62283 279.31638 280.77512 282.02551 283.10684 284.12762 284.98224 285.48962
 286.23410 286.93320 287.56378 288.43930
 366.78100 356.32836 345.75372 334.61309 323.00945 311.19681 299.06017 286.85653
 274.56190 262.45226 250.45462 239.74898 229.86434 220.96171 213.13707 206.13243
 199.95979 194.89115 191.46652 189.50188 188.53224 188.58960 189.41796 190.71933
 192.43769 194.52605 196.78241 199.13477 201.57314 204.04650 206.12786 207.96322
 209.58258 210.72095 210.94331 211.16467 211.09503 210.79339 210.41976 210.04312
 209.65348 209.35684 209.15820 209.01557 208.93693 209.26129 209.64065 210.02301
 210.80938 211.98074 213.22410 215.00046 216.92183 218.95819 221.04655 223.12291
 225.17627 227.25364 229.34400 231.44336 233.56572 235.73108 237.98045 240.34381
 242.95817 245.20253 247.19789 248.95626 250.36662 251.48298 252.29834 252.60770
 252.63807 252.40543 251.75879 250.70015 249.29951 247.45388 245.35624 243.18260
 240.96696 238.76432 236.57769 234.41005 232.26341 230.12377 228.14313 226.29350
 224.56986 223.03522 221.65858 220.42394 219.29931 218.25267 217.35003 216.48439
 215.71975 214.89312 213.98448 213.34184 212.78520 213.32629 214.60466 216.86469
 218.03931 218.69191 220.37498 222.12865 223.54008 225.43977 228.46384 231.16637
 233.18959 234.77458 236.38264 238.83990 242.53870 246.82309 251.05923 255.04228
 258.63358 261.90164 264.89078 267.53406 269.80545 271.81998 273.76282 275.66068
 277.52429 279.22211 280.69711 281.94925 282.96838 283.99658 284.95316 285.52142
 286.27042 286.97345 287.60678 288.47598
 366.78100 356.32909 345.75519 334.61528 323.01237 311.20046 299.06456 286.86165
 274.56774 262.45884 250.46193 239.75702 229.87311 220.97121 213.14730 206.14339
 199.97149 194.90358 191.47967 189.51577 188.54686 188.60495 189.43404 190.73614
 192.45523 194.54432 196.80142 199.15451 201.59360 204.06769 206.14979 207.98588
 209.60597 210.74507 210.96816 211.19025 211.12134 210.82044 210.44753 210.07162
 209.68272 209.38681 209.18890 209.04700 208.96909 209.29418 209.67427 210.05737
 210.84446 212.01655 213.26065 215.03774 216.95983 218.99692 221.08602 223.16311
 225.21720 227.29530 229.38639 231.48648 233.60957 235.77567 238.02576 240.38985
 243.00495 245.25004 247.24613 249.00523 250.41632 251.53341 252.34950 252.65960
 252.69069 252.45878 251.81288 250.75497 249.35506 247.51015 245.41325 243.24034
 241.02543 238.82353 236.63762 234.47071 232.32480 230.18590 228.20599 226.35708
 224.63418 223.10027 221.72436 220.49046 219.36655 218.32064 217.41873 216.55383
 215.78992 214.96401 214.05611 213.41420 212.85829 213.37660 214.60118 216.98561
 218.20445 218.79388 220.53261 222.31801 223.71953 225.52544 228.43629 231.00883
 232.89151 234.36296 235.99887 238.58684 242.38887 246.71642 250.98834 255.00847
 258.63004 261.91006 264.89105 267.52505 269.79715 271.80923 273.71085 275.56433
 277.41895 279.11954 280.59497 281.84338 282.90436 283.93857 284.90646 285.57242
 286.32855 287.03024 287.66373 288.52765
 366.78100 356.32888 345.75476 334.61464 323.01151 311.19939 299.06327 286.86015
 274.56603 262.45691 250.45979 239.75467 229.87054 220.96842 213.14430 206.14018
 199.96806 194.89994 191.47582 189.51169 188.54257 188.60045 189.42933 190.73121
 192.45009 194.53897 196.79585 199.14872 201.58760 204.06148 206.14336 207.97924
 209.59912 210.73800 210.96088 211.18275 211.11363 210.81251 210.43939 210.06327
 209.67415 209.37803 209.17990 209.03778 208.95966 209.28454 209.66442 210.04730
 210.83418 212.00606 213.24993 215.02681 216.94869 218.98557 221.07445 223.15133
 225.20521 227.28308 229.37396 231.47384 233.59672 235.76260 238.01248 240.37636
 242.99124 245.23611 247.23199 248.99087 250.40175 251.51863 252.33451 252.64439
 252.67527 252.44314 251.79702 250.73890 249.33878 247.49366 245.39654 243.22342
 241.00829 238.80617 236.62005 234.45293 232.30681 230.16769 228.18757 226.33845
 224.61532 223.08120 221.70508 220.47096 219.34684 218.30072 217.39860 216.53347
 215.76935 214.94323 214.03511 213.39299 212.83687 213.38335 214.67445 216.97543
 218.44096 218.97324 220.67436 222.46593 223.80063 225.58734 228.45676 230.89636
 232.61374 233.95584 235.61320 238.34674 242.25726 246.62175 250.93053 254.97864
 258.62265 261.91162 264.88528 267.50632 269.77728 271.78656 273.64667 275.45059
 277.29913 278.99905 280.46130 281.74466 282.88538 283.92773 284.89276 285.72943
 286.48941 287.18524 287.81277 288.66602
 366.78100 356.32815 345.75330 334.61244 323.00859 311.19574 299.05889 286.85504
 274.56019 262.45033 250.45248 239.74663 229.86178 220.95893 213.13408 206.12922
 199.95637 194.88752 191.46267 189.49782 188.52796 188.58511 189.41326 190.71441
 192.43256 194.52071 196.77685 199.12900 201.56715 204.04030 206.12145 207.95660
 209.57574 210.71389 210.93604 211.15719 211.08734 210.78549 210.41163 210.03478
 209.64493 209.34808 209.14923 209.00637 208.92752 209.25167 209.63082 210.01297
 210.79912 211.97026 213.21341 214.98956 216.91071 218.94686 221.03501 223.11115
 225.16430 227.24145 229.33160 231.43075 233.55289 235.71804 237.96719 240.33034
 242.94449 245.18864 247.18378 248.94193 250.35208 251.46823 252.28338 252.59253
 252.62267 252.38982 251.74297 250.68412 249.28327 247.43741 245.33956 243.16571
 240.94986 238.74701 236.56016 234.39230 232.24545 230.10560 228.12475 226.27490
 224.55105 223.01619 221.63934 220.40449 219.27964 218.23279 217.32993 216.46408
 215.69923 214.87238 213.96353 213.32068 212.76382 213.36462 214.78412 216.92888
 218.58452 219.33957 220.84058 222.50867 223.83276 225.67996 228.51013 230.78255
 232.28404 233.49603 235.20586 238.13904 242.15782 246.54520 250.87950 254.95010
 258.61581 261.91345 264.87653 267.48080 269.74838 271.75549 273.56866 275.34821
 277.17706 278.86148 280.37045 281.72656 282.90576 283.95718 284.92914 285.81180
 286.59262 287.28760 287.90497 288.74045
 366.78100 356.32848 345.75397 334.61345 323.00994 311.19742 299.06091 286.85739
 274.56288 262.45336 250.45585 239.75033 229.86582 220.96330 213.13879 206.13427
 199.96176 194.89324 191.46872 189.50421 188.53469 188.59218 189.42066 190.72215
 192.44063 194.52912 196.78560 199.13809 201.57657 204.05006 206.13154 207.96703
 209.58651 210.72500 210.94748 211.16896 211.09945 210.79793 210.42442 210.04790
 209.65839 209.36187 209.16336 209.02084 208.94233 209.26681 209.64630 210.02878
 210.81527 211.98675 213.23024 215.00672 216.92820 218.96469 221.05317 223.12966
 225.18314 227.26063 229.35111 231.45060 233.57308 235.73857 237.98805 240.35154
 242.96602 245.21051 247.20599 248.96447 250.37496 251.49144 252.30693 252.61641
 252.64690 252.41438 251.76787 250.70935 249.30884 247.46332 245.36581 243.19229
 240.97678 238.77426 236.58775 234.42023 232.27371 230.13420 228.15368 226.30417
 224.58065 223.04614 221.66962 220.43511 219.31059 218.26408 217.36156 216.49605
 215.73153 214.90502 213.99650 213.35399 212.79747 213.39728 214.81442 216.98656
 218.65570 219.62582 221.01094 222.56664 223.92610 225.79855 228.56606 230.71140
 231.91483 232.95276 234.84619 237.98351 242.06798 246.47823 250.82620 254.91771
 258.60672 261.91245 264.86240 267.44617 269.71481 271.74146 273.56110 275.28671
 277.09866 278.75235 280.29614 281.66205 282.84610 283.90253 284.88504 285.77490
 286.56885 287.26709 287.89008 288.73480
 366.78100 356.32925 345.75549 334.61574 323.01299 311.20123 299.06548 286.86273
 274.56898 262.46022 250.46347 239.75872 229.87496 220.97321 213.14946 206.14570
 199.97395 194.90620 191.48244 189.51869 188.54994 188.60818 189.43743 190.73968
 192.45893 194.54817 196.80542 199.15867 201.59791 204.07216 206.15441 207.99065
 209.61090 210.75015 210.97339 211.19564 211.12689 210.82613 210.45338 210.07763
 209.68888 209.39312 209.19537 209.05362 208.97586 209.30111 209.68136 210.06460
 210.85185 212.02410 213.26834 215.04559 216.96784 219.00508 221.09433 223.17158
 225.22583 227.30407 229.39532 231.49557 233.61881 235.78506 238.03531 240.39955
 243.01480 245.26005 247.25629 249.01554 250.42679 251.54403 252.36028 252.67053
 252.70178 252.47002 251.82427 250.76652 249.36676 247.52201 245.42526 243.25250
 241.03775 238.83600 236.65024 234.48349 232.33774 230.19898 228.21923 226.37048
 224.64773 223.11397 221.73822 220.50447 219.38071 218.33496 217.43321 216.56845
 215.80470 214.97895 214.07119 213.42944 212.87369 213.45111 214.81535 217.07506
 218.71494 219.86670 221.22011 222.67047 224.03859 225.86572 228.59325 230.64264
 231.55455 232.41643 234.54311 237.85226 241.97786 246.41246 250.76862 254.87733
 258.58615 261.89819 264.83975 267.41394 269.69400 271.73996 273.52579 275.26065
 276.99411 278.63705 280.17770 281.54132 282.72357 283.77133 284.72690 285.61252
 286.44083 287.16443 287.78815 288.64642
 366.78100 356.32984 345.75668 334.61752 323.01536 311.20420 299.06904 286.86688
 274.57372 262.46555 250.46939 239.76523 229.88207 220.98091 213.15775 206.15459
 199.98343 194.91627 191.49311 189.52995 188.56179 188.62063 189.45047 190.75331
 192.47315 194.56298 196.82082 199.17466 201.61450 204.08934 206.17218 208.00902
 209.62986 210.76970 210.99354 211.21638 211.14822 210.84806 210.47590 210.10074
 209.71258 209.41741 209.22025 209.07909 209.00193 209.32777 209.70861 210.09245
 210.88029 212.05313 213.29797 215.07581 216.99865 219.03649 221.12633 223.20417
 225.25901 227.33784 229.42968 231.53052 233.65436 235.82120 238.07204 240.43688
 243.05272 245.29856 247.29540 249.05524 250.46708 251.58492 252.40176 252.71260
 252.74444 252.51327 251.86811 250.81095 249.41179 247.56763 245.47147 243.29931
 241.08515 238.88399 236.69883 234.53267 232.38751 230.24935 228.27019 226.42203
 224.69987 223.16670 221.79154 220.55838 219.43522 218.39006 217.48890 216.62474
 215.86158 215.03642 214.12926 213.48810 212.93294 213.49782 214.83243 217.13971
 218.78055 220.07710 221.45540 222.82964 224.16396 225.88974 228.58041 230.53334
 231.21915 231.94745 234.26010 237.72516 241.90247 246.35457 250.71722 254.83559
 258.55469 261.86542 264.79404 267.35846 269.64920 271.71924 273.49738 275.14029
 276.86832 278.57022 280.11737 281.48376 282.66891 283.71875 284.67847 285.56372
 286.38663 287.12912 287.75555 288.61771
 366.78100 356.33021 345.75741 334.61862 323.01683 311.20603 299.07124 286.86945
 274.57665 262.46886 250.47307 239.76927 229.88648 220.98568 213.16289 206.16010
 199.98930 194.92251 191.49972 189.53692 188.56913 188.62834 189.45854 190.76175
 192.48196 194.57216 196.83037 199.18458 201.62478 204.09999 206.18320 208.02040
 209.64161 210.78181 211.00602 211.22923 211.16143 210.86164 210.48985 210.11505
 209.72726 209.43247 209.23567 209.09488 209.01809 209.34429 209.72550 210.10971
 210.89791 212.07112 213.31633 215.09453 217.01774 219.05594 221.14615 223.22436
 225.27956 227.35877 229.45098 231.55218 233.67639 235.84360 238.09480 240.46001
 243.07622 245.32242 247.31963 249.07984 250.49204 251.61025 252.42746 252.73866
 252.77087 252.54007 251.89528 250.83849 249.43969 247.59590 245.50011 243.32831
 241.11452 238.91373 236.72893 234.56314 232.41835 230.28055 228.30176 226.45397
 224.73217 223.19938 221.82459 220.59179 219.46900 218.42420 217.52341 216.65962
 215.89682 215.07203 214.16524 213.52444 212.96965 213.53459 214.86934 217.17708
 218.85158 220.25014 221.68680 223.03491 224.31870 225.91731 228.53807 230.37303
 230.89659 231.54793 233.98854 237.59700 241.83580 246.29816 250.66551 254.78979
 258.51712 261.82889 264.75223 267.30890 269.60727 271.70032 273.47961 274.80817
 276.76459 278.54718 280.09695 281.46335 282.64722 283.69797 284.66061 285.54480
 286.35754 287.09372 287.72751 288.59399
 366.78100 356.33051 345.75803 334.61954 323.01806 311.20757 299.07308 286.87160
 274.57911 262.47163 250.47614 239.77265 229.89017 220.98968 213.16720 206.16471
 199.99422 194.92774 191.50525 189.54277 188.57528 188.63479 189.46531 190.76882
 192.48934 194.57985 196.83836 199.19288 201.63339 204.10891 206.19242 208.02993
 209.65145 210.79196 211.01647 211.23999 211.17250 210.87302 210.50153 210.12704
 209.73956 209.44507 209.24859 209.10810 209.03161 209.35813 209.73964 210.12416
 210.91267 212.08618 213.33170 215.11021 217.03373 219.07224 221.16275 223.24127
 225.29678 227.37630 229.46881 231.57032 233.69484 235.86235 238.11387 240.47938
 243.09589 245.34241 247.33992 249.10044 250.51295 251.63146 252.44898 252.76049
 252.79301 252.56252 251.91803 250.86155 249.46306 247.61958 245.52409 243.35260
 241.13912 238.93863 236.75415 234.58866 232.44417 230.30669 228.32820 226.48072
 224.75923 223.22674 221.85226 220.61977 219.49728 218.45280 217.55231 216.68883
 215.92634 215.10185 214.19537 213.55488 213.00040 213.56932 214.91350 217.19760
 218.93172 220.40552 221.89786 223.24863 224.48964 225.96729 228.47894 230.17490
 230.58966 231.20576 233.73305 237.47504 241.76990 246.23843 250.60442 254.72998
 258.46118 261.77432 264.69339 267.24097 269.54007 271.63751 273.37042 274.81995
 276.67090 278.45905 280.02231 281.39685 282.58948 283.64609 284.61417 285.50238
 286.31238 287.04703 287.69199 288.58493
 366.78100 356.33091 345.75883 334.62074 323.01965 311.20957 299.07548 286.87439
 274.58231 262.47522 250.48013 239.77704 229.89496 220.99487 213.17278 206.17070
 200.00061 194.93452 191.51244 189.55035 188.58326 188.64318 189.47409 190.77800
 192.49892 194.58983 196.84874 199.20365 201.64457 204.12048 206.20439 208.04231
 209.66422 210.80513 211.03005 211.25396 211.18687 210.88779 210.51670 210.14261
 209.75553 209.46144 209.26535 209.12526 209.04918 209.37609 209.75800 210.14292
 210.93183 212.10574 213.35166 215.13057 217.05448 219.09340 221.18431 223.26322
 225.31914 227.39905 229.49196 231.59388 233.71879 235.88670 238.13861 240.50453
 243.12144 245.36835 247.36627 249.12718 250.54009 251.65901 252.47692 252.78883
 252.82175 252.59166 251.94757 250.89149 249.49340 247.65031 245.55522 243.38414
 241.17105 238.97096 236.78688 234.62179 232.47770 230.34062 228.36253 226.51544
 224.79436 223.26227 221.88818 220.65610 219.53401 218.48992 217.58983 216.72675
 215.96466 215.14057 214.23449 213.59440 213.04031 213.60965 214.95480 217.20532
 219.01004 220.56387 222.09798 223.44998 224.65991 226.03714 228.41777 229.95560
 230.29767 230.90781 233.49661 237.36324 241.70697 246.17758 250.53809 254.65962
 258.38980 261.70193 264.61871 267.16528 269.47556 271.58368 273.25858 274.80945
 276.60214 278.38510 279.95212 281.32895 282.52417 283.58365 284.55331 285.43942
 286.24744 286.97650 287.61942 288.51996
 366.78100 356.33136 345.75971 334.62207 323.02142 311.21178 299.07813 286.87749
 274.58584 262.47920 250.48455 239.78191 229.90026 221.00062 213.17897 206.17733
 200.00768 194.94204 191.52039 189.55875 188.59210 188.65246 189.48381 190.78817
 192.50952 194.60088 196.86023 199.21559 201.65695 204.13330 206.21766 208.05601
 209.67837 210.81972 211.04508 211.26943 211.20279 210.90414 210.53350 210.15985
 209.77321 209.47956 209.28392 209.14427 209.06863 209.39598 209.77834 210.16369
 210.95305 212.12740 213.37376 215.15311 217.07747 219.11682 221.20818 223.28754
 225.34389 227.42425 229.51760 231.61996 233.74531 235.91367 238.16602 240.53238
 243.14973 245.39709 247.39544 249.15680 250.57015 251.68951 252.50786 252.82022
 252.85357 252.62393 251.98028 250.92464 249.52699 247.68435 245.58970 243.41906
 241.20641 239.00677 236.82313 234.65848 232.51484 230.37819 228.40055 226.55390
 224.83326 223.30161 221.92797 220.69632 219.57468 218.53103 217.63139 216.76874
 216.00710 215.18345 214.27781 213.63816 213.08452 213.65283 214.99551 217.20909
 219.07353 220.72012 222.29236 223.63811 224.82126 226.11430 228.36584 229.73685
 230.02019 230.64366 233.28197 237.25940 241.64766 246.11607 250.46878 254.58121
 258.30441 261.61258 264.52893 267.07962 269.40750 271.52957 273.16049 274.77600
 276.55228 278.33304 279.90137 281.27997 282.47549 283.53458 284.50543 285.39288
 286.20129 286.93015 287.57428 288.47342
 366.78100 356.33185 345.76071 334.62356 323.02342 311.21427 299.08113 286.88098
 274.58984 262.48369 250.48955 239.78740 229.90626 221.00711 213.18597 206.18482
 200.01568 194.95053 191.52939 189.56824 188.60210 188.66295 189.49480 190.79966
 192.52151 194.61337 196.87322 199.22908 201.67093 204.14779 206.23264 208.07150
 209.69435 210.83621 211.06206 211.28692 211.22077 210.92263 210.55248 210.17934
 209.79319 209.50005 209.30490 209.16575 209.09061 209.41846 209.80132 210.18717
 210.97703 212.15188 213.39874 215.17859 217.10345 219.14330 221.23516 223.31501
 225.37187 227.45272 229.54658 231.64943 233.77529 235.94414 238.19699 240.56385
 243.18170 245.42956 247.42841 249.19027 250.60412 251.72398 252.54283 252.85569
 252.88954 252.66040 252.01725 250.96211 249.56496 247.72282 245.62867 243.45853
 241.24638 239.04724 236.86409 234.69994 232.55680 230.42065 228.44351 226.59736
 224.87722 223.34607 221.97293 220.74178 219.62064 218.57749 217.67835 216.81620
 216.05506 215.23191 214.32677 213.68762 213.13448 213.70078 215.03873 217.20673
 219.12341 220.86981 222.48396 223.82256 224.97324 226.19064 228.31979 229.51794
 229.74493 230.40379 233.09312 237.16815 241.59616 246.05823 250.39981 254.49635
 258.20523 261.50562 264.41907 266.97885 269.33142 271.46826 273.08911 274.73984
 276.51669 278.29599 279.86502 281.24438 282.43973 283.50168 284.47351 285.36203
 286.17322 286.90329 287.54706 288.45117
 366.78100 356.33241 345.76183 334.62524 323.02566 311.21707 299.08449 286.88490
 274.59431 262.48873 250.49514 239.79356 229.91297 221.01439 213.19380 206.19321
 200.02463 194.96004 191.53946 189.57887 188.61329 188.67470 189.50711 190.81253
 192.53494 194.62736 196.88777 199.24419 201.68660 204.16401 206.24943 208.08884
 209.71226 210.85467 211.08109 211.30650 211.24091 210.94333 210.57374 210.20116
 209.81557 209.52299 209.32840 209.18981 209.11523 209.44364 209.82706 210.21347
 211.00389 212.17930 213.42671 215.20713 217.13254 219.17296 221.26537 223.34579
 225.40320 227.48461 229.57903 231.68244 233.80886 235.97827 238.23169 240.59910
 243.21751 245.46593 247.46534 249.22776 250.64217 251.76259 252.58200 252.89542
 252.92983 252.70124 252.05866 251.00407 249.60749 247.76590 245.67232 243.50273
 241.29114 239.09256 236.90997 234.74639 232.60380 230.46822 228.49163 226.64604
 224.92646 223.39587 222.02329 220.79270 219.67212 218.62953 217.73094 216.86936
 216.10877 215.28619 214.38160 213.74302 213.19043 213.75351 215.08386 217.19994
 219.16862 221.00734 222.67026 224.00890 225.11836 226.26698 228.28151 229.30243
 229.47052 230.18687 232.93095 237.08763 241.54712 245.99983 250.32736 254.40289
 258.09253 261.38483 264.29971 266.87436 269.24741 271.37576 273.00232 274.72574
 276.48782 278.26636 279.83713 281.21765 282.41617 283.47943 284.45056 285.34149
 286.15369 286.88599 287.53073 288.43594
 366.78100 356.33290 345.76280 334.62670 323.02760 311.21950 299.08740 286.88830
 274.59819 262.49309 250.49999 239.79889 229.91879 221.02069 213.20059 206.20049
 200.03239 194.96829 191.54819 189.58809 188.62299 188.68489 189.51779 190.82369
 192.54658 194.63948 196.90038 199.25728 201.70018 204.17808 206.26398 208.10388
 209.72778 210.87068 211.09758 211.32348 211.25838 210.96128 210.59218 210.22008
 209.83497 209.54287 209.34877 209.21067 209.13657 209.46547 209.84937 210.23627
 211.02717 212.20307 213.45097 215.23187 217.15777 219.19867 221.29157 223.37247
 225.43036 227.51226 229.60716 231.71106 233.83796 236.00786 238.26176 240.62966
 243.24856 245.49746 247.49736 249.26026 250.67516 251.79606 252.61596 252.92986
 252.96475 252.73665 252.09455 251.04045 249.64435 247.80325 245.71015 243.54105
 241.32995 239.13185 236.94975 234.78665 232.64455 230.50945 228.53335 226.68825
 224.96914 223.43904 222.06694 220.83684 219.71674 218.67464 217.77654 216.91544
 216.15534 215.33324 214.42914 213.79104 213.23894 213.80161 215.13095 217.19667
 219.21684 221.13156 222.84169 224.18933 225.26273 226.34531 228.23421 229.08305
 229.20351 229.99437 232.79599 237.02145 241.50380 245.94653 250.25679 254.30713
 257.97568 261.25845 264.17859 266.77194 269.15787 271.26535 272.89713 274.71234
 276.47491 278.25388 279.82550 281.20795 282.40659 283.47058 284.44376 285.33542
 286.14789 286.88138 287.52707 288.43051
 366.78100 356.33347 345.76394 334.62840 323.02987 311.22234 299.09081 286.89228
 274.60274 262.49821 250.50568 239.80515 229.92561 221.02808 213.20855 206.20902
 200.04149 194.97795 191.55842 189.59889 188.63436 188.69683 189.53029 190.83676
 192.56023 194.65370 196.91517 199.27263 201.71610 204.19457 206.28104 208.12151
 209.74597 210.88944 211.11691 211.34338 211.27884 210.98231 210.61378 210.24225
 209.85772 209.56618 209.37265 209.23512 209.16159 209.49106 209.87552 210.26299
 211.05446 212.23093 213.47940 215.26086 217.18733 219.22880 221.32227 223.40374
 225.46220 227.54467 229.64014 231.74461 233.87207 236.04254 238.29701 240.66548
 243.28495 245.53441 247.53488 249.29835 250.71382 251.83529 252.65575 252.97022
 253.00569 252.77816 252.13663 251.08309 249.68756 247.84703 245.75450 243.58597
 241.37543 239.17790 236.99637 234.83384 232.69230 230.55777 228.58224 226.73771
 225.01918 223.48964 222.11811 220.88858 219.76905 218.72752 217.82998 216.96945
 216.20992 215.38839 214.48486 213.84732 213.29579 213.85573 215.17862 217.18289
 219.26082 221.24347 223.00975 224.36714 225.40710 226.43900 228.20427 228.86531
 228.92905 229.82274 232.68661 236.96133 241.45793 245.88983 250.18062 254.20146
 257.84662 261.12143 264.04922 266.66803 269.06995 271.15421 272.77893 274.67773
 276.48309 278.26382 279.83395 281.21469 282.41260 283.47607 284.44971 285.33908
 286.15375 286.88745 287.53122 288.43625
 366.78100 356.33382 345.76463 334.62945 323.03127 311.22408 299.09290 286.89472
 274.60553 262.50135 250.50917 239.80898 229.92980 221.03262 213.21343 206.21425
 200.04707 194.98388 191.56470 189.60552 188.64133 188.70415 189.53796 190.84478
 192.56860 194.66241 196.92423 199.28205 201.72586 204.20468 206.29150 208.13231
 209.75713 210.90095 211.12876 211.35558 211.29140 210.99521 210.62703 210.25585
 209.87166 209.58048 209.38730 209.25011 209.17693 209.50675 209.89156 210.27938
 211.07120 212.24801 213.49683 215.27865 217.20546 219.24728 221.34110 223.42291
 225.48173 227.56455 229.66036 231.76518 233.89299 236.06381 238.31863 240.68744
 243.30726 245.55708 247.55789 249.32171 250.73753 251.85934 252.68016 252.99498
 253.03079 252.80361 252.16243 251.10924 249.71406 247.87388 245.78169 243.61351
 241.40333 239.20614 237.02496 234.86278 232.72159 230.58741 228.61223 226.76804
 225.04986 223.52068 222.14949 220.92031 219.80113 218.75994 217.86276 217.00258
 216.24339 215.42221 214.51902 213.88184 213.33066 213.89714 215.23553 217.16583
 219.27771 221.34599 223.17725 224.55194 225.56664 226.53590 228.15602 228.65556
 228.68414 229.67236 232.59416 236.91208 241.41905 245.83791 250.10559 254.09343
 257.71332 260.97891 263.91409 266.55505 268.94916 270.98868 272.67142 274.65796
 276.49631 278.27658 279.84479 281.22491 282.42188 283.48520 284.45795 285.34952
 286.16315 286.89935 287.54498 288.44116
 366.78100 356.33364 345.76429 334.62893 323.03057 311.22322 299.09186 286.89350
 274.60414 262.49979 250.50743 239.80707 229.92772 221.03036 213.21100 206.21165
 200.04429 194.98093 191.56158 189.60222 188.63786 188.70050 189.53415 190.84079
 192.56443 194.65808 196.91972 199.27736 201.72101 204.19965 206.28629 208.12694
 209.75158 210.89522 211.12286 211.34951 211.28515 210.98879 210.62044 210.24908
 209.86472 209.57337 209.38001 209.24265 209.16930 209.49894 209.88358 210.27123
 211.06287 212.23951 213.48815 215.26980 217.19644 219.23808 221.33173 223.41337
 225.47201 227.55466 229.65030 231.75494 233.88259 236.05323 238.30787 240.67651
 243.29616 245.54580 247.54644 249.31009 250.72573 251.84737 252.66802 252.98266
 253.01830 252.79095 252.14959 251.09623 249.70087 247.86052 245.76816 243.59980
 241.38945 239.19209 237.01073 234.84838 232.70702 230.57266 228.59731 226.75295
 225.03459 223.50523 222.13388 220.90452 219.78516 218.74381 217.84645 216.98609
 216.22674 215.40538 214.50202 213.86467 213.31331 213.91035 215.32095 217.17107
 219.27435 221.40401 223.31842 224.72267 225.72765 226.65465 228.13560 228.44478
 228.42975 229.54967 232.53091 236.86983 241.37680 245.77814 250.01982 253.97250
 257.56818 260.82965 263.78314 266.45868 268.86880 270.90872 272.52405 274.55600
 276.52554 278.31018 279.86908 281.24280 282.43628 283.49731 284.46893 285.35892
 286.17285 286.90881 287.55524 288.44843
 366.78100 356.33350 345.76399 334.62849 323.02999 311.22249 299.09098 286.89248
 274.60298 262.49847 250.50597 239.80547 229.92596 221.02846 213.20896 206.20946
 200.04195 194.97845 191.55895 189.59944 188.63494 188.69744 189.53094 190.83743
 192.56093 194.65443 196.91592 199.27342 201.71692 204.19541 206.28191 208.12241
 209.74691 210.89040 211.11790 211.34440 211.27989 210.98339 210.61489 210.24339
 209.85888 209.56738 209.37388 209.23637 209.16287 209.49237 209.87686 210.26436
 211.05586 212.23236 213.48085 215.26235 217.18885 219.23034 221.32384 223.40534
 225.46384 227.54633 229.64183 231.74633 233.87382 236.04432 238.29882 240.66731
 243.28681 245.53631 247.53681 249.30030 250.71580 251.83730 252.65779 252.97229
 253.00779 252.78029 252.13878 251.08528 249.68978 247.84927 245.75677 243.58827
 241.37776 239.18026 236.99876 234.83626 232.69475 230.56025 228.58475 226.74024
 225.02174 223.49224 222.12074 220.89123 219.77173 218.73023 217.83272 216.97222
 216.21272 215.39121 214.48771 213.85021 213.29871 213.92413 215.40175 217.19231
 219.27998 221.44656 223.42891 224.85735 225.84254 226.79764 228.16161 228.26590
 228.17906 229.42329 232.47575 236.83246 241.33891 245.72377 249.93941 253.85590
 257.42227 260.66888 263.62363 266.30756 268.68320 270.67160 272.69781 274.57684
 276.59583 278.36588 279.91287 281.27838 282.46677 283.52350 284.49213 285.37903
 286.19186 286.92447 287.57047 288.45728
 366.78100 356.33374 345.76448 334.62923 323.03097 311.22371 299.09245 286.89419
 274.60494 262.50068 250.50842 239.80816 229.92890 221.03165 213.21239 206.21313
 200.04587 194.98261 191.56336 189.60410 188.63984 188.70258 189.53632 190.84307
 192.56681 194.66055 196.92229 199.28003 201.72377 204.20252 206.28926 208.13000
 209.75474 210.89848 211.12623 211.35297 211.28871 210.99245 210.62419 210.25294
 209.86868 209.57742 209.38416 209.24690 209.17365 209.50339 209.88813 210.27587
 211.06761 212.24436 213.49310 215.27484 217.20158 219.24332 221.33707 223.41881
 225.47755 227.56029 229.65603 231.76078 233.88852 236.05926 238.31400 240.68274
 243.30249 245.55223 247.55297 249.31671 250.73245 251.85420 252.67494 252.98968
 253.02542 252.79816 252.15691 251.10365 249.70839 247.86813 245.77587 243.60762
 241.39736 239.20010 237.01884 234.85658 232.71532 230.58107 228.60581 226.76155
 225.04329 223.51403 222.14278 220.91352 219.79426 218.75300 217.85574 216.99549
 216.23623 215.41497 214.51171 213.87445 213.32320 213.95662 215.45319 217.22583
 219.29845 221.50565 223.52081 224.96651 225.91817 226.88152 228.16635 228.16580
 228.02338 229.31320 232.42480 236.80641 241.31093 245.67793 249.86578 253.74663
 257.28699 260.52670 263.49426 266.19138 268.52655 270.47974 272.70407 274.57657
 276.59628 278.37448 279.92319 281.28992 282.47595 283.53238 284.49985 285.38428
 286.19568 286.92773 287.56900 288.45370
 366.78100 356.33427 345.76554 334.63082 323.03309 311.22636 299.09563 286.89790
 274.60918 262.50545 250.51372 239.81399 229.93526 221.03853 213.21981 206.22108
 200.05435 194.99162 191.57289 189.61417 188.65044 188.71371 189.54798 190.85525
 192.57953 194.67380 196.93607 199.29434 201.73861 204.21789 206.30516 208.14643
 209.77170 210.91597 211.14424 211.37152 211.30779 211.01206 210.64433 210.27360
 209.88988 209.59915 209.40642 209.26969 209.19696 209.52724 209.91251 210.30078
 211.09305 212.27032 213.51960 215.30187 217.22914 219.27141 221.36568 223.44795
 225.50723 227.59050 229.68677 231.79204 233.92031 236.09159 238.34686 240.71613
 243.33640 245.58667 247.58795 249.35222 250.76849 251.89076 252.71203 253.02731
 253.06358 252.83685 252.19612 251.14339 249.74866 247.90894 245.81721 243.64948
 241.43975 239.24302 237.06230 234.90057 232.75984 230.62611 228.65138 226.80766
 225.08993 223.56120 222.19047 220.96174 219.84301 218.80229 217.90556 217.04583
 216.28710 215.46637 214.56365 213.92692 213.37619 214.00255 215.48239 217.26855
 219.32776 221.57436 223.60944 225.06668 225.98885 226.93069 228.13338 228.07639
 227.90514 229.21515 232.38611 236.79320 241.29202 245.64082 249.80235 253.65031
 257.16861 260.40277 263.37714 266.06805 268.35760 270.32266 272.67453 274.55881
 276.58014 278.36258 279.91217 281.27890 282.46603 283.52213 284.48950 285.37350
 286.17950 286.91110 287.55359 288.42917
 366.78100 356.33452 345.76604 334.63155 323.03407 311.22759 299.09711 286.89963
 274.61115 262.50766 250.51618 239.81670 229.93822 221.04174 213.22326 206.22477
 200.05829 194.99581 191.57733 189.61885 188.65537 188.71888 189.55340 190.86092
 192.58544 194.67996 196.94248 199.30099 201.74551 204.22503 206.31255 208.15407
 209.77959 210.92410 211.15262 211.38014 211.31666 211.02118 210.65370 210.28321
 209.89973 209.60925 209.41677 209.28029 209.20781 209.53832 209.92384 210.31236
 211.10488 212.28240 213.53192 215.31443 217.24195 219.28447 221.37899 223.46151
 225.52103 227.60454 229.70106 231.80658 233.93510 236.10662 238.36214 240.73165
 243.35217 245.60269 247.60421 249.36873 250.78525 251.90776 252.72928 253.04480
 253.08132 252.85484 252.21436 251.16187 249.76739 247.92791 245.83643 243.66895
 241.45947 239.26298 237.08250 234.92102 232.78054 230.64706 228.67258 226.82909
 225.11161 223.58313 222.21265 220.98417 219.86569 218.82520 217.92872 217.06924
 216.31076 215.49028 214.58780 213.95131 213.40083 214.03284 215.52597 217.31944
 219.35207 221.61559 223.67393 225.15540 226.07060 226.98848 228.10245 227.99895
 227.80156 229.13017 232.36368 236.78561 241.27162 245.60150 249.73795 253.55881
 257.05914 260.29022 263.27084 265.96017 268.23239 270.17355 272.48080 274.58563
 276.57510 278.34018 279.88922 281.25604 282.44510 283.49991 284.46515 285.34970
 286.15454 286.88403 287.52179 288.39520
 366.78100 356.33424 345.76549 334.63073 323.03298 311.22622 299.09546 286.89771
 274.60895 262.50520 250.51344 239.81368 229.93493 221.03817 213.21942 206.22066
 200.05390 194.99115 191.57239 189.61364 188.64988 188.71312 189.54737 190.85461
 192.57886 194.67310 196.93534 199.29359 201.73783 204.21708 206.30432 208.14556
 209.77081 210.91505 211.14330 211.37054 211.30678 211.01103 210.64327 210.27252
 209.88876 209.59800 209.40525 209.26849 209.19574 209.52598 209.91122 210.29947
 211.09171 212.26895 213.51820 215.30044 217.22769 219.26993 221.36417 223.44642
 225.50566 227.58891 229.68515 231.79039 233.91864 236.08988 238.34513 240.71437
 243.33461 245.58486 247.58610 249.35035 250.76659 251.88883 252.71008 253.02532
 253.06157 252.83481 252.19405 251.14130 249.74654 247.90679 245.81503 243.64727
 241.43752 239.24076 237.06001 234.89825 232.75749 230.62374 228.64898 226.80523
 225.08747 223.55871 222.18796 220.95920 219.84045 218.79969 217.90293 217.04318
 216.28442 215.46367 214.56091 213.92415 213.37340 214.03157 215.58659 217.38878
 219.38164 221.62041 223.68718 225.20859 226.15733 227.06621 228.08598 227.94354
 227.71918 229.06488 232.35788 236.78487 241.25447 245.56416 249.67464 253.46754
 256.94849 260.17142 263.14468 265.80338 268.03986 270.20917 272.49152 274.54739
 276.54834 278.30896 279.85718 281.22409 282.41141 283.46600 284.43109 285.31366
 286.11722 286.84464 287.48398 288.35019
 366.78100 356.33392 345.76484 334.62976 323.03168 311.22459 299.09351 286.89543
 274.60635 262.50227 250.51019 239.81011 229.93103 221.03395 213.21487 206.21578
 200.04870 194.98562 191.56654 189.60746 188.64338 188.70630 189.54022 190.84714
 192.57106 194.66497 196.92689 199.28481 201.72873 204.20765 206.29457 208.13549
 209.76041 210.90433 211.13224 211.35916 211.29508 210.99900 210.63092 210.25984
 209.87576 209.58468 209.39160 209.25452 209.18143 209.51135 209.89627 210.28419
 211.07611 212.25303 213.50195 215.28387 217.21079 219.25271 221.34662 223.42854
 225.48746 227.57038 229.66630 231.77122 233.89914 236.07006 238.32498 240.69389
 243.31381 245.56373 247.56465 249.32857 250.74449 251.86641 252.68733 253.00225
 253.03817 252.81108 252.17000 251.11692 249.72184 247.88176 245.78968 243.62160
 241.41152 239.21444 237.03336 234.87127 232.73019 230.59611 228.62103 226.77695
 225.05887 223.52979 222.15871 220.92963 219.81054 218.76946 217.87238 217.01230
 216.25322 215.43214 214.52906 213.89198 213.34090 214.02579 215.64392 217.47723
 219.43640 221.61949 223.66565 225.21770 226.21573 227.13445 228.07158 227.89735
 227.64990 229.01419 232.36389 236.79259 241.24794 245.53989 249.62906 253.39816
 256.86118 260.07251 263.03357 265.67007 267.90012 270.15042 272.47299 274.54669
 276.51337 278.26855 279.81595 281.18158 282.36746 283.42151 284.38391 285.26373
 286.06705 286.78946 287.42691 288.29065
 366.78100 356.33380 345.76461 334.62941 323.03121 311.22401 299.09282 286.89462
 274.60542 262.50123 250.50903 239.80883 229.92963 221.03244 213.21324 206.21404
 200.04685 194.98365 191.56445 189.60525 188.64106 188.70386 189.53766 190.84447
 192.56827 194.66207 196.92387 199.28168 201.72548 204.20428 206.29109 208.13189
 209.75669 210.90049 211.12830 211.35510 211.29090 210.99471 210.62651 210.25531
 209.87111 209.57992 209.38672 209.24952 209.17633 209.50613 209.89093 210.27873
 211.07054 212.24734 213.49614 215.27795 217.20475 219.24655 221.34035 223.42216
 225.48096 227.56376 229.65957 231.76437 233.89217 236.06297 238.31778 240.68658
 243.30638 245.55619 247.55699 249.32079 250.73659 251.85840 252.67920 252.99400
 253.02980 252.80261 252.16141 251.10821 249.71302 247.87282 245.78062 243.61242
 241.40223 239.20503 237.02383 234.86164 232.72044 230.58624 228.61104 226.76685
 225.04865 223.51945 222.14826 220.91906 219.79986 218.75866 217.86147 217.00127
 216.24207 215.42088 214.51768 213.88048 213.32928 214.02943 215.68361 217.57516
 219.51532 221.63266 223.62643 225.18944 226.24252 227.18481 228.05359 227.85857
 227.59602 228.97430 232.37210 236.80356 241.24745 245.52443 249.59560 253.34396
 256.78903 259.98737 262.93451 265.55392 267.79541 270.08154 272.43686 274.53516
 276.46878 278.21841 279.76251 281.12796 282.31122 283.36383 284.32437 285.20279
 286.00293 286.72687 287.36121 288.21805
 366.78100 356.33383 345.76466 334.62949 323.03132 311.22415 299.09298 286.89481
 274.60564 262.50148 250.50931 239.80914 229.92997 221.03280 213.21363 206.21446
 200.04729 194.98412 191.56495 189.60578 188.64161 188.70444 189.53827 190.84510
 192.56893 194.66277 196.92460 199.28243 201.72626 204.20509 206.29192 208.13275
 209.75758 210.90141 211.12924 211.35607 211.29190 210.99573 210.62756 210.25639
 209.87222 209.58106 209.38789 209.25072 209.17755 209.50738 209.89221 210.28004
 211.07187 212.24870 213.49753 215.27936 217.20619 219.24802 221.34185 223.42368
 225.48251 227.56535 229.66118 231.76601 233.89384 236.06467 238.31950 240.68833
 243.30816 245.55799 247.55882 249.32265 250.73848 251.86031 252.68114 252.99597
 253.03180 252.80464 252.16347 251.11030 249.71513 247.87496 245.78279 243.61462
 241.40445 239.20728 237.02611 234.86394 232.72277 230.58860 228.61343 226.76926
 225.05109 223.52192 222.15076 220.92159 219.80242 218.76125 217.86408 217.00391
 216.24474 215.42357 214.52040 213.88323 213.33206 214.03864 215.70799 217.68181
 219.61563 221.66501 223.57686 225.12886 226.24359 227.21455 228.01932 227.81592
 227.55717 228.95288 232.38887 236.82372 241.26131 245.52632 249.58211 253.31233
 256.73761 259.91611 262.83551 265.42307 267.67206 270.07010 272.37067 274.50467
 276.41531 278.15897 279.70132 281.06427 282.24969 283.29974 284.26062 285.13913
 285.94287 286.66721 287.30713 288.16174
 366.78100 356.33392 345.76484 334.62977 323.03169 311.22461 299.09353 286.89545
 274.60637 262.50230 250.51022 239.81014 229.93106 221.03398 213.21491 206.21583
 200.04875 194.98567 191.56659 189.60752 188.64344 188.70636 189.54028 190.84720
 192.57112 194.66505 196.92697 199.28489 201.72881 204.20773 206.29466 208.13558
 209.76050 210.90442 211.13234 211.35927 211.29519 210.99911 210.63103 210.25995
 209.87587 209.58480 209.39172 209.25464 209.18156 209.51148 209.89641 210.28433
 211.07625 212.25317 213.50209 215.28402 217.21094 219.25286 221.34678 223.42870
 225.48762 227.57055 229.66647 231.77139 233.89931 236.07023 238.32516 240.69408
 243.31400 245.56392 247.56484 249.32876 250.74469 251.86661 252.68753 253.00245
 253.03837 252.81130 252.17022 251.11714 249.72206 247.88198 245.78991 243.62183
 241.41175 239.21467 237.03359 234.87151 232.73044 230.59636 228.62128 226.77720
 225.05912 223.53005 222.15897 220.92989 219.81081 218.76973 217.87266 217.01258
 216.25350 215.43242 214.52934 213.89226 213.34119 214.04968 215.72362 217.78935
 219.73264 221.71460 223.52640 225.04878 226.22209 227.22029 227.96193 227.75504
 227.51608 228.94092 232.41289 236.85347 241.28877 245.54456 249.58855 253.30421
 256.70999 259.86264 262.75061 265.31522 267.57745 270.03421 272.30872 274.44199
 276.34216 278.07758 279.61304 280.97354 282.15509 283.20248 284.15955 285.03613
 285.83774 286.56616 287.19748 288.02798
 366.78100 356.33397 345.76494 334.62991 323.03188 311.22486 299.09383 286.89580
 274.60677 262.50274 250.51071 239.81068 229.93165 221.03462 213.21560 206.21657
 200.04954 194.98651 191.56748 189.60845 188.64442 188.70739 189.54137 190.84834
 192.57231 194.66628 196.92825 199.28622 201.73019 204.20916 206.29613 208.13711
 209.76208 210.90605 211.13402 211.36099 211.29696 211.00093 210.63290 210.26187
 209.87785 209.58682 209.39379 209.25676 209.18373 209.51370 209.89867 210.28664
 211.07862 212.25559 213.50456 215.28653 217.21350 219.25547 221.34944 223.43141
 225.49038 227.57336 229.66933 231.77430 233.90227 236.07324 238.32821 240.69718
 243.31715 245.56712 247.56810 249.33207 250.74804 251.87001 252.69098 253.00595
 253.04192 252.81489 252.17387 251.12084 249.72581 247.88578 245.79375 243.62572
 241.41569 239.21866 237.03763 234.87561 232.73458 230.60055 228.62552 226.78149
 225.06346 223.53443 222.16340 220.93437 219.81535 218.77432 217.87729 217.01726
 216.25823 215.43720 214.53417 213.89714 213.34612 214.05647 215.73482 217.89706
 219.86380 221.77261 223.47369 224.95792 226.18773 227.21240 227.89241 227.68263
 227.47144 228.93430 232.44081 236.88982 241.32642 245.57185 249.60432 253.30836
 256.69492 259.82150 262.68600 265.24817 267.52963 269.98776 272.25275 274.35577
 276.24695 277.97748 279.50565 280.86200 282.04013 283.08578 284.03879 284.91388
 285.71753 286.44623 287.06799 287.89505
 366.78100 356.33403 345.76507 334.63010 323.03213 311.22517 299.09420 286.89624
 274.60727 262.50330 250.51134 239.81137 229.93240 221.03544 213.21647 206.21751
 200.05054 194.98757 191.56861 189.60964 188.64567 188.70871 189.54274 190.84978
 192.57381 194.66784 196.92988 199.28791 201.73194 204.21098 206.29801 208.13905
 209.76408 210.90811 211.13615 211.36318 211.29921 211.00325 210.63528 210.26431
 209.88035 209.58938 209.39642 209.25945 209.18648 209.51652 209.90155 210.28958
 211.08162 212.25865 213.50769 215.28972 217.21675 219.25879 221.35282 223.43485
 225.49389 227.57692 229.67296 231.77799 233.90602 236.07706 238.33209 240.70112
 243.32116 245.57119 247.57223 249.33626 250.75229 251.87433 252.69536 253.01039
 253.04643 252.81946 252.17849 251.12553 249.73056 247.89060 245.79863 243.63066
 241.42070 239.22373 237.04276 234.88080 232.73983 230.60587 228.63090 226.78693
 225.06897 223.54000 222.16903 220.94007 219.82110 218.78014 217.88317 217.02320
 216.26424 215.44327 214.54030 213.90334 213.35237 214.06125 215.73604 218.00972
 220.01768 221.83913 223.42352 224.85962 226.12370 227.17476 227.81248 227.60172
 227.42259 228.93169 232.47479 236.93605 241.37746 245.61311 249.63356 253.32611
 256.69580 259.80124 262.65036 265.21338 267.49344 269.94348 272.19412 274.26346
 276.14429 277.86234 279.38162 280.73355 281.90689 282.94937 283.90118 284.77304
 285.57956 286.30911 286.92957 287.75424
 366.78100 356.33414 345.76528 334.63043 323.03257 311.22571 299.09485 286.89699
 274.60814 262.50428 250.51242 239.81256 229.93370 221.03684 213.21799 206.21913
 200.05227 194.98941 191.57055 189.61170 188.64784 188.71098 189.54512 190.85226
 192.57641 194.67055 196.93269 199.29083 201.73497 204.21412 206.30126 208.14240
 209.76754 210.91168 211.13982 211.36697 211.30311 211.00725 210.63939 210.26853
 209.88468 209.59382 209.40096 209.26410 209.19124 209.52139 209.90653 210.29467
 211.08681 212.26395 213.51309 215.29524 217.22238 219.26452 221.35866 223.44080
 225.49995 227.58309 229.67923 231.78437 233.91251 236.08366 238.33880 240.70794
 243.32808 245.57822 247.57937 249.34351 250.75965 251.88179 252.70293 253.01807
 253.05422 252.82736 252.18650 251.13364 249.73878 247.89893 245.80707 243.63921
 241.42935 239.23249 237.05164 234.88978 232.74892 230.61506 228.64020 226.79635
 225.07849 223.54963 222.17877 220.94991 219.83105 218.79020 217.89334 217.03348
 216.27462 215.45376 214.55091 213.91405 213.36319 214.06651 215.72818 218.12596
 220.19720 221.92537 223.36943 224.74911 226.05699 227.12053 227.68463 227.46387
 227.34781 228.94229 232.52515 236.99863 241.45003 245.67644 249.68364 253.36673
 256.71939 259.80399 262.64276 265.21347 267.45590 269.87759 272.12305 274.17377
 276.03873 277.73834 279.24496 280.58038 281.73520 282.76291 283.70435 284.57465
 285.38870 286.11511 286.73203 287.56146
 366.78100 356.33511 345.76722 334.63333 323.03644 311.23055 299.10066 286.90377
 274.61588 262.51299 250.52209 239.82320 229.94531 221.04942 213.23153 206.23364
 200.06775 195.00586 191.58797 189.63008 188.66719 188.73130 189.56641 190.87452
 192.59963 194.69474 196.95785 199.31696 201.76206 204.24217 206.33028 208.17239
 209.79850 210.94361 211.17272 211.40083 211.33794 211.04305 210.67616 210.30627
 209.92338 209.63349 209.44160 209.30571 209.23382 209.56493 209.95104 210.34014
 211.13325 212.31136 213.56147 215.34458 217.27269 219.31580 221.41091 223.49402
 225.55413 227.63824 229.73535 231.84146 233.97057 236.14268 238.39879 240.76890
 243.39001 245.64111 247.64322 249.40833 250.82544 251.94855 252.77066 253.08677
 253.12388 252.89799 252.25810 251.20621 249.81232 247.97343 245.88254 243.71565
 241.50676 239.31087 237.13098 234.97008 232.83019 230.69730 228.72341 226.88052
 225.16363 223.63574 222.26585 221.03796 219.92007 218.88018 217.98429 217.12540
 216.36751 215.54762 214.64573 214.00984 213.45995 214.11856 215.67461 218.23563
 220.41907 222.04570 223.35579 224.65033 225.91687 226.97156 227.53947 227.32684
 227.26439 228.94591 232.57753 237.06830 241.53246 245.76042 249.76039 253.43822
 256.77432 259.82864 262.63205 265.17505 267.41779 269.91577 272.01291 274.07874
 275.91663 277.60696 279.10678 280.43661 281.59912 282.63953 283.60086 284.47653
 285.27142 285.96964 286.58203 287.40561
 366.78100 356.33611 345.76922 334.63633 323.04044 311.23555 299.10666 286.91076
 274.62387 262.52198 250.53209 239.83420 229.95731 221.06242 213.24553 206.24864
 200.08375 195.02286 191.60597 189.64908 188.68718 188.75229 189.58840 190.89751
 192.62362 194.71973 196.98384 199.34395 201.79006 204.27117 206.36028 208.20339
 209.83049 210.97660 211.20671 211.43582 211.37393 211.08004 210.71415 210.34526
 209.96337 209.67448 209.48359 209.34870 209.27781 209.60991 209.99702 210.38713
 211.18124 212.36035 213.61146 215.39557 217.32468 219.36879 221.46490 223.54901
 225.61012 227.69523 229.79333 231.90044 234.03055 236.20366 238.46077 240.83188
 243.45399 245.70610 247.70921 249.47532 250.89343 252.01754 252.84064 253.15775
 253.19586 252.97097 252.33208 251.28119 249.88830 248.05041 245.96052 243.79463
 241.58674 239.39185 237.21296 235.05306 232.91417 230.78228 228.80939 226.96750
 225.25161 223.72472 222.35583 221.12894 220.01205 218.97316 218.07827 217.22038
 216.46348 215.64459 214.74370 214.10881 213.55992 214.17612 215.63196 218.26379
 220.67415 222.26968 223.38086 224.48236 225.73378 226.81152 227.33797 227.15504
 227.20004 228.98647 232.64627 237.14822 241.63049 245.85127 249.83495 253.50757
 256.82837 259.85156 262.64148 265.22342 267.42929 269.86838 271.93680 274.01251
 275.82434 277.47656 278.93945 280.23776 281.37646 282.41385 283.37265 284.24759
 285.03458 285.72961 286.34262 287.16174
 366.78100 356.33628 345.76955 334.63683 323.04110 311.23638 299.10765 286.91193
 274.62520 262.52348 250.53375 239.83603 229.95930 221.06458 213.24785 206.25113
 200.08640 195.02568 191.60895 189.65223 188.69050 188.75578 189.59205 190.90133
 192.62760 194.72388 196.98815 199.34843 201.79470 204.27598 206.36525 208.20853
 209.83580 210.98208 211.21235 211.44163 211.37990 211.08618 210.72045 210.35173
 209.97000 209.68128 209.49055 209.35583 209.28510 209.61738 210.00465 210.39493
 211.18920 212.36848 213.61975 215.40403 217.33330 219.37758 221.47385 223.55813
 225.61940 227.70468 229.80295 231.91023 234.04050 236.21378 238.47105 240.84233
 243.46460 245.71688 247.72015 249.48643 250.90471 252.02898 252.85226 253.16953
 253.20781 252.98308 252.34436 251.29363 249.90091 248.06318 245.97346 243.80773
 241.60001 239.40528 237.22656 235.06683 232.92811 230.79638 228.82366 226.98193
 225.26621 223.73948 222.37076 221.14403 220.02731 218.98858 218.09386 217.23613
 216.47941 215.66068 214.75996 214.12523 213.57651 214.19458 215.65482 218.24269
 220.83794 222.45676 223.43208 224.39551 225.62560 226.68918 227.13319 226.92461
 227.00282 228.94890 232.70032 237.23083 241.73262 245.96960 249.95158 253.61978
 256.92856 259.91818 262.66635 265.26285 267.41125 269.95041 271.79465 273.85083
 275.66031 277.33597 278.83926 280.18134 281.35516 282.40265 283.36774 284.24094
 285.01675 285.72269 286.37402 287.20471
 366.78100 356.33651 345.77003 334.63754 323.04205 311.23757 299.10908 286.91359
 274.62711 262.52562 250.53613 239.83865 229.96216 221.06767 213.25119 206.25470
 200.09021 195.02973 191.61324 189.65675 188.69527 188.76078 189.59730 190.90681
 192.63332 194.72984 196.99435 199.35486 201.80138 204.28289 206.37240 208.21592
 209.84343 210.98994 211.22046 211.44997 211.38848 211.09500 210.72951 210.36102
 209.97954 209.69105 209.50056 209.36608 209.29559 209.62810 210.01562 210.40613
 211.20064 212.38016 213.63167 215.41618 217.34570 219.39021 221.48672 223.57124
 225.63275 227.71826 229.81678 231.92429 234.05481 236.22832 238.48583 240.85735
 243.47986 245.73237 247.73589 249.50240 250.92091 252.04543 252.86894 253.18645
 253.22497 253.00048 252.36199 251.31151 249.91902 248.08153 245.99205 243.82656
 241.61907 239.42459 237.24610 235.08661 232.94813 230.81664 228.84415 227.00267
 225.28718 223.76069 222.39221 221.16572 220.04923 219.01075 218.11626 217.25877
 216.50229 215.68380 214.78331 214.14883 213.60034 214.21324 215.70119 218.34152
 220.73015 222.39981 223.60376 224.43799 225.56477 226.66432 226.97881 226.78305
 226.62558 228.75066 232.61682 237.24167 241.81087 246.06892 250.04654 253.71481
 257.01477 259.98129 262.70474 265.11774 267.53937 269.81247 271.87665 273.82050
 275.56476 277.15668 278.62582 279.93457 281.05991 282.07239 283.01730 283.84958
 284.55826 285.18933 285.74063 286.44321
 366.78100 356.33526 345.76752 334.63378 323.03704 311.23129 299.10155 286.90481
 274.61707 262.51433 250.52359 239.82485 229.94711 221.05136 213.23362 206.23588
 200.07014 195.00840 191.59066 189.63292 188.67018 188.73444 189.56969 190.87795
 192.60321 194.69847 196.96173 199.32099 201.76625 204.24651 206.33477 208.17702
 209.80328 210.94854 211.17780 211.40606 211.34332 211.04858 210.68184 210.31209
 209.92935 209.63961 209.44787 209.31213 209.24039 209.57165 209.95791 210.34717
 211.14042 212.31868 213.56894 215.35220 217.28046 219.32372 221.41898 223.50224
 225.56250 227.64675 229.74401 231.85027 233.97953 236.15179 238.40805 240.77831
 243.39957 245.65082 247.65308 249.41834 250.83560 251.95886 252.78112 253.09738
 253.13464 252.90890 252.26915 251.21741 249.82367 247.98493 245.89419 243.72745
 241.51871 239.32297 237.14322 234.98248 232.84274 230.71000 228.73626 226.89352
 225.17678 223.64904 222.27930 221.05155 219.93381 218.89407 217.99833 217.13959
 216.38185 215.56211 214.66037 214.02463 213.47488 214.15248 215.81146 218.37926
 220.72664 222.41718 223.65088 224.43216 225.48953 226.63968 226.96230 226.66083
 226.36412 228.64955 232.61198 237.25121 241.82826 246.10715 250.11165 253.81154
 257.13721 260.10675 262.84503 265.28778 267.37927 269.63068 271.87424 273.76471
 275.39499 276.95090 278.32016 279.54733 280.61621 281.62491 282.57910 283.45282
 284.23865 284.93842 285.54971 286.32874
 366.78100 356.33535 345.76770 334.63406 323.03741 311.23176 299.10211 286.90547
 274.61782 262.51517 250.52452 239.82588 229.94823 221.05258 213.23493 206.23729
 200.07164 195.00999 191.59234 189.63470 188.67205 188.73640 189.57175 190.88010
 192.60546 194.70081 196.96416 199.32351 201.76887 204.24922 206.33757 208.17992
 209.80628 210.95163 211.18098 211.40933 211.34669 211.05204 210.68539 210.31574
 209.93310 209.64345 209.45180 209.31615 209.24450 209.57586 209.96221 210.35156
 211.14491 212.32327 213.57362 215.35697 217.28532 219.32868 221.42403 223.50738
 225.56773 227.65209 229.74944 231.85579 233.98514 236.15749 238.41385 240.78420
 243.40555 245.65690 247.65926 249.42461 250.84196 251.96531 252.78767 253.10402
 253.14137 252.91572 252.27608 251.22443 249.83078 247.99213 245.90149 243.73484
 241.52619 239.33054 237.15089 234.99025 232.85060 230.71795 228.74430 226.90166
 225.18501 223.65736 222.28771 221.06007 219.94242 218.90277 218.00712 217.14848
 216.39083 215.57118 214.66953 214.03389 213.48424 214.16710 215.86090 218.37950
 220.92354 222.49728 223.50899 224.39397 225.46469 226.53116 226.91722 226.85147
 226.60252 228.75186 232.65219 237.27066 241.84894 246.13303 250.13081 253.82988
 257.17584 260.12503 262.84192 265.43332 267.23309 269.58997 271.79105 273.72421
 275.19934 276.59622 277.92642 279.10574 280.23801 281.29028 282.27008 283.15771
 283.95602 284.66693 285.28796 286.07941
 366.78100 356.33863 345.77427 334.64390 323.05053 311.24816 299.12180 286.92843
 274.64406 262.54469 250.55733 239.86196 229.98759 221.09522 213.28086 206.28649
 200.12412 195.06575 191.65139 189.69702 188.73765 188.80528 189.64392 190.95555
 192.68418 194.78281 197.04945 199.41208 201.86071 204.34434 206.43598 208.28161
 209.91124 211.05987 211.29251 211.52414 211.46477 211.17340 210.81004 210.44367
 210.06430 209.77793 209.58957 209.45720 209.38883 209.72347 210.11310 210.50573
 211.30236 212.48400 213.73763 215.52426 217.45589 219.50253 221.60116 223.68779
 225.75142 227.83906 229.93969 232.04932 234.18195 236.35759 238.61722 240.99085
 243.61548 245.87012 247.87575 249.64438 251.06501 252.19165 253.01728 253.33691
 253.37754 253.15518 252.51881 251.47044 250.08007 248.24471 246.15734 243.99397
 241.78860 239.59624 237.41987 235.26250 233.12613 230.99677 229.02640 227.18703
 225.47367 223.94930 222.58293 221.35856 220.24420 219.20783 218.31546 217.46009
 216.70573 215.88936 214.99099 214.35862 213.81226 214.35518 215.79332 218.39099
 221.13855 222.75232 223.66959 224.47464 225.44864 226.33534 226.73903 226.72778
 226.77483 228.92427 232.76350 237.32927 241.89444 246.18927 250.20872 253.92859
 257.29199 260.22879 262.93716 265.35944 267.24304 269.72977 271.83850 273.66248
 275.02130 276.36456 277.68924 279.02658 280.27298 281.38193 282.39368 283.31024
 284.13461 284.86868 285.50998 286.32724
 366.78100 356.33909 345.77518 334.64528 323.05237 311.25046 299.12455 286.93164
 274.64774 262.54883 250.56192 239.86701 229.99310 221.10120 213.28729 206.29338
 200.13147 195.07356 191.65966 189.70575 188.74684 188.81493 189.65402 190.96612
 192.69521 194.79430 197.06139 199.42448 201.87358 204.35767 206.44976 208.29585
 209.92594 211.07504 211.30813 211.54022 211.48131 211.19040 210.82750 210.46159
 210.08268 209.79677 209.60886 209.47696 209.40905 209.74414 210.13423 210.52732
 211.32442 212.50651 213.76060 215.54769 217.47978 219.52688 221.62597 223.71306
 225.77715 227.86524 229.96634 232.07643 234.20952 236.38561 238.64570 241.01980
 243.64489 245.89998 247.90607 249.67516 251.09626 252.22335 253.04944 253.36953
 253.41062 253.18872 252.55281 251.50490 250.11499 248.28008 246.19318 244.03027
 241.82536 239.63345 237.45754 235.30064 233.16473 231.03582 229.06591 227.22700
 225.51410 223.99019 222.62428 221.40037 220.28646 219.25056 218.35865 217.50374
 216.74983 215.93392 215.03602 214.40411 213.85820 214.40123 215.82785 218.31839
 221.18849 223.00682 223.90857 224.56810 225.41969 226.22685 226.53885 226.30717
 226.47589 228.79974 232.78294 237.41972 242.00784 246.32811 250.36055 254.09148
 257.49399 260.47440 263.14749 265.64542 267.50906 269.66379 271.69128 273.51138
 275.05652 276.44559 277.82260 279.20386 280.52823 281.70322 282.77521 283.74634
 284.61978 285.39761 286.07709 286.94299
 366.78100 356.33646 345.76993 334.63739 323.04186 311.23732 299.10879 286.91325
 274.62672 262.52518 250.53564 239.83811 229.96157 221.06704 213.25050 206.25397
 200.08943 195.02890 191.61236 189.65582 188.69429 188.75975 189.59622 190.90568
 192.63215 194.72861 196.99308 199.35354 201.80000 204.28147 206.37093 208.21440
 209.84186 210.98833 211.21879 211.44826 211.38672 211.09318 210.72765 210.35911
 209.97758 209.68904 209.49851 209.36397 209.29344 209.62590 210.01336 210.40383
 211.19829 212.37776 213.62922 215.41369 217.34315 219.38762 221.48408 223.56854
 225.63001 227.71547 229.81394 231.92140 234.05187 236.22533 238.48280 240.85426
 243.47672 245.72919 247.73265 249.49912 250.91758 252.04205 252.86551 253.18298
 253.22144 252.99690 252.35837 251.30783 249.91530 248.07776 245.98823 243.82269
 241.61515 239.42062 237.24208 235.08255 232.94401 230.81248 228.83994 226.99841
 225.28287 223.75633 222.38780 221.16126 220.04473 219.00619 218.11166 217.25412
 216.49759 215.67905 214.77851 214.14398 213.59544 214.27287 215.94284 218.34520
 220.99066 222.89215 223.94359 224.68750 225.52707 226.34915 226.58128 225.89165
 226.04852 228.51575 232.67540 237.34082 241.95273 246.29248 250.34438 254.09052
 257.50311 260.52185 263.23306 265.83606 267.99896 269.69424 271.55881 273.58505
 275.28128 276.65854 277.91391 279.15884 280.34708 281.45828 282.57602 283.58859
 284.49933 285.31030 286.01880 286.92166
 366.78100 356.33621 345.76942 334.63663 323.04084 311.23604 299.10725 286.91146
 274.62467 262.52288 250.53309 239.83530 229.95851 221.06372 213.24692 206.25013
 200.08534 195.02455 191.60776 189.65097 188.68918 188.75439 189.59059 190.89980
 192.62601 194.72222 196.98643 199.34664 201.79285 204.27406 206.36327 208.20647
 209.83368 210.97989 211.21010 211.43931 211.37752 211.08373 210.71794 210.34915
 209.96735 209.67856 209.48777 209.35298 209.28219 209.61440 210.00161 210.39182
 211.18602 212.36523 213.61644 215.40065 217.32986 219.37407 221.47028 223.55449
 225.61570 227.70090 229.79911 231.90632 234.03653 236.20974 238.46695 240.83816
 243.46037 245.71258 247.71578 249.48199 250.90020 252.02441 252.84762 253.16483
 253.20304 252.97825 252.33946 251.28866 249.89587 248.05808 245.96829 243.80250
 241.59471 239.39992 237.22113 235.06133 232.92254 230.79075 228.81796 226.97617
 225.26038 223.73359 222.36480 221.13801 220.02121 218.98242 218.08763 217.22984
 216.47305 215.65426 214.75347 214.11868 213.56989 214.25781 215.93187 218.52977
 221.01306 222.80974 223.89648 224.65909 225.57152 226.45039 226.72333 225.80626
 225.85081 228.31660 232.59424 237.27878 241.88365 246.20256 250.23795 253.96753
 257.35831 260.37592 263.11276 265.71155 268.01373 269.84113 271.59372 273.54620
 275.30389 276.75592 277.99817 279.19177 280.33929 281.39606 282.37955 283.34146
 284.21268 284.98849 285.66620 286.52991
 366.78100 356.33820 345.77340 334.64259 323.04879 311.24599 299.11919 286.92538
 274.64058 262.54078 250.55298 239.85718 229.98237 221.08957 213.27477 206.27997
 200.11717 195.05836 191.64356 189.68876 188.72896 188.79615 189.63435 190.94555
 192.67375 194.77195 197.03814 199.40034 201.84854 204.33174 206.42294 208.26813
 209.89733 211.04553 211.27773 211.50892 211.44912 211.15732 210.79352 210.42672
 210.04691 209.76011 209.57131 209.43851 209.36970 209.70390 210.09310 210.48530
 211.28150 212.46269 213.71589 215.50209 217.43329 219.47949 221.57768 223.66388
 225.72708 227.81428 229.91447 232.02367 234.15587 236.33107 238.59027 240.96346
 243.58766 245.84186 247.84706 249.61525 251.03545 252.16165 252.98685 253.30605
 253.34624 253.12344 252.48664 251.43784 250.04704 248.21123 246.12343 243.95963
 241.75383 239.56102 237.38422 235.22642 233.08962 230.95982 228.98901 227.14921
 225.43541 223.91061 222.54381 221.31900 220.20420 219.16740 218.27460 217.41879
 216.66399 215.84719 214.94839 214.31559 213.76878 214.37144 215.86523 218.59065
 221.18478 222.78499 223.77191 224.50264 225.46533 226.47021 226.72092 225.92354
 225.81955 228.34105 232.59193 237.26913 241.86600 246.17018 250.21979 253.97145
 257.37827 260.38202 263.07886 265.68741 268.03232 269.84723 271.59616 273.51917
 275.21497 276.62949 277.80035 279.03540 280.20667 281.25986 282.25964 283.20126
 284.04816 284.80231 285.46112 286.30069
 366.78100 356.33877 345.77454 334.64430 323.05107 311.24884 299.12261 286.92937
 274.64514 262.54591 250.55868 239.86344 229.98921 221.09698 213.28275 206.28851
 200.12628 195.06805 191.65382 189.69958 188.74035 188.80812 189.64689 190.95865
 192.68742 194.78619 197.05296 199.41573 201.86449 204.34826 206.44003 208.28580
 209.91556 211.06433 211.29710 211.52887 211.46963 211.17840 210.81517 210.44894
 210.06970 209.78347 209.59524 209.46301 209.39477 209.72954 210.11931 210.51208
 211.30884 212.49061 213.74438 215.53115 217.46292 219.50968 221.60845 223.69522
 225.75899 227.84675 229.94752 232.05729 234.19006 236.36582 238.62559 240.99936
 243.62413 245.87889 247.88466 249.65343 251.07420 252.20096 253.02673 253.34650
 253.38727 253.16503 252.52880 251.48057 250.09034 248.25511 246.16787 244.00464
 241.79941 239.60718 237.43094 235.27371 233.13748 231.00825 229.03801 227.19878
 225.48555 223.96132 222.59508 221.37085 220.25662 219.22039 218.32815 217.47292
 216.71869 215.90246 215.00422 214.37199 213.82576 214.42026 215.92529 218.56708
 221.22548 222.82048 223.85272 224.67461 225.57613 226.41292 226.51968 225.90179
 225.88277 228.40721 232.61021 237.27458 241.86703 246.21066 250.29565 254.07809
 257.51315 260.54828 263.21783 265.75769 268.06500 269.92294 271.63724 273.36163
 275.02179 276.41214 277.64801 278.96609 280.16510 281.30557 282.41406 283.41824
 284.32141 285.12570 285.82828 286.72366
 366.78100 356.33772 345.77245 334.64117 323.04689 311.24362 299.11634 286.92206
 274.63679 262.53651 250.54823 239.85196 229.97668 221.08340 213.26813 206.27285
 200.10958 195.05030 191.63502 189.67975 188.71947 188.78619 189.62392 190.93464
 192.66236 194.76009 197.02581 199.38753 201.83526 204.31798 206.40870 208.25343
 209.88215 211.02987 211.26160 211.49232 211.43204 211.13977 210.77549 210.40821
 210.02794 209.74066 209.55138 209.41811 209.34883 209.68255 210.07128 210.46300
 211.25873 212.43945 213.69217 215.47790 217.40862 219.45434 221.55207 223.63779
 225.70051 227.78724 229.88696 231.99568 234.12741 236.30213 238.56085 240.93358
 243.55730 245.81102 247.81575 249.58347 251.00319 252.12892 252.95364 253.27236
 253.31209 253.08881 252.45153 251.40226 250.01098 248.17470 246.08643 243.92215
 241.71588 239.52260 237.34532 235.18705 233.04977 230.91949 228.94822 227.10794
 225.39366 223.86839 222.50111 221.27583 220.16056 219.12328 218.23000 217.37373
 216.61845 215.80117 214.90190 214.26862 213.72134 214.39072 216.08372 218.53122
 221.17592 222.97125 224.10300 224.87881 225.65399 226.31989 226.26389 225.81403
 225.96582 228.44066 232.58057 237.24422 241.84181 246.21367 250.34134 254.15941
 257.63638 260.67429 263.41565 265.94867 268.20001 270.07657 271.75476 273.38959
 274.90286 276.24442 277.66077 279.05902 280.42081 281.68146 282.83160 283.87354
 284.81067 285.64517 286.37418 287.30319
 366.78100 356.33944 345.77588 334.64633 323.05377 311.25221 299.12665 286.93409
 274.65054 262.55198 250.56542 239.87086 229.99730 221.10574 213.29219 206.29863
 200.13707 195.07951 191.66595 189.71240 188.75384 188.82228 189.66172 190.97416
 192.70361 194.80305 197.07049 199.43393 201.88337 204.36781 206.46026 208.30670
 209.93714 211.08658 211.32002 211.55247 211.49391 211.20335 210.84079 210.47523
 210.09668 209.81112 209.62356 209.49200 209.42444 209.75988 210.15033 210.54377
 211.34121 212.52365 213.77809 215.56554 217.49798 219.54542 221.64486 223.73230
 225.79675 227.88519 229.98663 232.09707 234.23051 236.40695 238.66740 241.04184
 243.66728 245.92272 247.92916 249.69861 251.12005 252.24749 253.07393 253.39437
 253.43582 253.21426 252.57870 251.53114 250.14158 248.30703 246.22047 244.05791
 241.85335 239.66179 237.48623 235.32968 233.19412 231.06556 229.09600 227.25744
 225.54489 224.02133 222.65577 221.43221 220.31865 219.28310 218.39154 217.53698
 216.78342 215.96786 215.07030 214.43875 213.89319 214.50673 216.09242 218.50964
 221.24957 223.19162 224.19203 224.79446 225.51498 226.17807 226.32648 225.88321
 226.04620 228.45190 232.53619 237.16153 241.73816 246.12717 250.26393 254.10318
 257.58234 260.68820 263.48480 266.05536 268.34338 270.24078 271.90939 273.46857
 274.90097 276.38538 277.93680 279.46878 280.92554 282.21439 283.39026 284.45551
 285.41360 286.26678 287.01208 287.96191
 366.78100 356.34191 345.78083 334.65374 323.06366 311.26457 299.14148 286.95140
 274.67031 262.57422 250.59014 239.89805 230.02697 221.13788 213.32679 206.33571
 200.17662 195.12153 191.71045 189.75936 188.80328 188.87419 189.71610 191.03102
 192.76293 194.86485 197.13476 199.50067 201.95259 204.43950 206.53441 208.38333
 210.01624 211.16816 211.40407 211.63898 211.58290 211.29481 210.93472 210.57164
 210.19555 209.91247 209.72738 209.59829 209.53321 209.87112 210.26404 210.65995
 211.45986 212.64478 213.90169 215.69160 217.62652 219.67643 221.77835 223.86826
 225.93517 228.02609 230.13000 232.24291 234.37883 236.55774 238.82066 241.19757
 243.82548 246.08340 248.09231 249.86423 251.28814 252.41805 253.24697 253.56988
 253.61379 253.39471 252.76162 251.71654 250.32945 248.49736 246.41328 244.25319
 242.05110 239.86202 237.68893 235.53485 233.40176 231.27567 229.30859 227.47250
 225.76242 224.24133 222.87824 221.65716 220.54607 219.51298 218.62390 217.77181
 217.02073 216.20764 215.31255 214.68347 214.14038 214.65744 216.03497 218.48891
 221.27296 223.32646 224.25760 224.72501 225.43842 226.20737 226.29697 225.75540
 226.04401 228.46983 232.55559 237.17215 241.71179 246.08237 250.21413 254.05371
 257.53354 260.66968 263.52383 266.14929 268.50888 270.49506 272.22433 273.75366
 275.14880 276.69302 278.27225 279.80133 281.28812 282.60355 283.80365 284.89090
 285.86874 286.73950 287.50018 288.46960
 366.78100 356.34172 345.78044 334.65316 323.06288 311.26360 299.14033 286.95005
 274.66877 262.57249 250.58821 239.89593 230.02465 221.13537 213.32409 206.33281
 200.17353 195.11826 191.70698 189.75570 188.79942 188.87014 189.71186 191.02658
 192.75830 194.86002 197.12974 199.49547 201.94719 204.43391 206.52863 208.37735
 210.01007 211.16179 211.39751 211.63223 211.57595 211.28767 210.92740 210.56412
 210.18784 209.90456 209.71928 209.59000 209.52472 209.86244 210.25516 210.65088
 211.45060 212.63533 213.89205 215.68177 217.61649 219.66621 221.76793 223.85765
 225.92437 228.01509 230.11881 232.23154 234.36726 236.54598 238.80870 241.18542
 243.81314 246.07086 248.07958 249.85130 251.27502 252.40474 253.23347 253.55619
 253.59991 253.38063 252.74735 251.70207 250.31479 248.48251 246.39823 244.23795
 242.03567 239.84640 237.67312 235.51884 233.38556 231.25928 229.29200 227.45572
 225.74544 224.22416 222.86088 221.63961 220.52833 219.49505 218.60577 217.75349
 217.00221 216.18893 215.29365 214.66437 214.12109 214.66760 216.09196 218.46620
 221.14394 223.31990 224.39597 224.84921 225.43781 226.16946 226.23436 225.55930
 225.94177 228.40840 232.53871 237.16908 241.72263 246.09340 250.24387 254.11362
 257.61337 260.75089 263.59158 266.20782 268.57120 270.61481 272.40677 273.98480
 275.35849 276.92245 278.49472 279.94037 281.37988 282.66382 283.83524 284.89642
 285.85086 286.70081 287.44327 288.38950
 366.78100 356.34053 345.77806 334.64958 323.05811 311.25764 299.13317 286.94170
 274.65923 262.56175 250.57628 239.88281 230.01034 221.11987 213.30739 206.31492
 200.15445 195.09798 191.68551 189.73304 188.77556 188.84509 189.68562 190.99915
 192.72968 194.83020 197.09873 199.46326 201.91379 204.39932 206.49284 208.34037
 209.97190 211.12243 211.35696 211.59049 211.53301 211.24354 210.88207 210.51760
 210.14013 209.85565 209.66918 209.53871 209.47224 209.80877 210.20030 210.59482
 211.39335 212.57688 213.83241 215.62094 217.55446 219.60299 221.70352 223.79205
 225.85758 227.94711 230.04963 232.16116 234.29569 236.47322 238.73475 241.11027
 243.73680 245.99333 248.00086 249.77139 251.19391 252.32244 253.14997 253.47150
 253.51403 253.29356 252.65908 251.61261 250.22414 248.39067 246.30520 244.14372
 241.94025 239.74978 237.57531 235.41984 233.28537 231.15789 229.18942 227.35195
 225.64048 224.11801 222.75353 221.53106 220.41859 219.38412 218.49365 217.64018
 216.88770 216.07323 215.17676 214.54629 214.00182 214.62576 216.20502 218.45979
 221.00348 223.22777 224.50200 225.01730 225.46007 226.12253 226.25549 225.47501
 225.83023 228.29810 232.47208 237.11925 241.69321 246.08257 250.26213 254.17104
 257.72119 260.88382 263.71298 266.29459 268.62863 270.66974 272.47217 274.09247
 275.50864 277.05344 278.61490 280.04245 281.47653 282.78458 283.97797 285.05908
 286.03143 286.89734 287.65375 288.61771
 366.78100 356.34031 345.77761 334.64892 323.05723 311.25653 299.13184 286.94015
 274.65745 262.55976 250.57406 239.88037 230.00768 221.11698 213.30429 206.31160
 200.15090 195.09421 191.68152 189.72882 188.77113 188.84044 189.68074 190.99405
 192.72435 194.82466 197.09297 199.45727 201.90758 204.39289 206.48619 208.33350
 209.96481 211.11511 211.34942 211.58273 211.52503 211.23534 210.87365 210.50895
 210.13126 209.84656 209.65987 209.52918 209.46248 209.79879 210.19010 210.58440
 211.38271 212.56602 213.82132 215.60963 217.54294 219.59124 221.69155 223.77985
 225.84516 227.93447 230.03677 232.14808 234.28239 236.45969 238.72100 241.09631
 243.72261 245.97892 247.98623 249.75653 251.17884 252.30714 253.13445 253.45576
 253.49806 253.27737 252.64268 251.59598 250.20729 248.37360 246.28790 244.12621
 241.92252 239.73182 237.55713 235.40144 233.26674 231.13905 229.17035 227.33266
 225.62097 224.09827 222.73358 221.51089 220.39819 219.36350 218.47281 217.61911
 216.86642 216.05173 215.15503 214.52434 213.97964 214.63164 216.25714 218.49139
 220.86656 223.05330 224.53142 225.15741 225.49493 226.10104 226.38139 225.36836
 225.68159 228.13948 232.37544 237.04349 241.64281 246.06398 250.28381 254.23932
 257.85196 261.08511 263.94305 266.52026 268.85089 270.90234 272.69412 274.30719
 275.75024 277.13635 278.63614 280.02136 281.28784 282.53616 283.67505 284.70682
 285.63477 286.46112 287.18301 288.10297
 366.78100 356.34001 345.77701 334.64802 323.05602 311.25503 299.13004 286.93804
 274.65505 262.55705 250.57106 239.87707 230.00407 221.11308 213.30008 206.30709
 200.14610 195.08910 191.67611 189.72311 188.76512 188.83413 189.67413 190.98714
 192.71714 194.81715 197.08516 199.44916 201.89917 204.38417 206.47718 208.32419
 209.95519 211.10520 211.33920 211.57221 211.51422 211.22422 210.86223 210.49723
 210.11924 209.83425 209.64725 209.51626 209.44926 209.78527 210.17628 210.57028
 211.36829 212.55129 213.80630 215.59431 217.52731 219.57532 221.67532 223.76333
 225.82834 227.91734 230.01935 232.13035 234.26436 236.44137 238.70237 241.07738
 243.70338 245.95939 247.96640 249.73640 251.15841 252.28641 253.11342 253.43443
 253.47643 253.25544 252.62044 251.57345 250.18446 248.35046 246.26447 244.10247
 241.89848 239.70749 237.53249 235.37650 233.24150 231.11351 229.14452 227.30652
 225.59453 224.07153 222.70654 221.48355 220.37055 219.33556 218.44456 217.59057
 216.83758 216.02258 215.12559 214.49459 213.94960 214.63235 216.31229 218.54622
 220.72577 222.85704 224.50047 225.23686 225.54851 226.13100 226.58780 225.28059
 225.50900 227.95551 232.24680 236.91946 241.52744 245.97394 250.23880 254.24626
 257.90344 261.19122 264.11862 266.72046 269.06842 271.14218 272.93771 274.51950
 275.94888 277.24438 278.70352 280.07648 281.30365 282.49091 283.64227 284.68536
 285.62350 286.45892 287.18872 288.11877
 366.78100 356.33943 345.77586 334.64630 323.05373 311.25216 299.12659 286.93403
 274.65046 262.55189 250.56532 239.87075 229.99719 221.10562 213.29205 206.29848
 200.13692 195.07935 191.66578 189.71221 188.75365 188.82208 189.66151 190.97394
 192.70337 194.80281 197.07024 199.43367 201.88310 204.36754 206.45997 208.30640
 209.93683 211.08626 211.31970 211.55213 211.49356 211.20299 210.84043 210.47486
 210.09629 209.81072 209.62316 209.49159 209.42402 209.75945 210.14988 210.54332
 211.34075 212.52318 213.77761 215.56505 217.49748 219.54491 221.64434 223.73177
 225.79621 227.88464 229.98607 232.09650 234.22994 236.40637 238.66680 241.04123
 243.66667 245.92210 247.92853 249.69796 251.11939 252.24683 253.07326 253.39369
 253.43512 253.21356 252.57799 251.53042 250.14085 248.30628 246.21972 244.05715
 241.85258 239.66101 237.48545 235.32888 233.19331 231.06474 229.09518 227.25661
 225.54404 224.02047 222.65490 221.43134 220.31777 219.28220 218.39063 217.53607
 216.78250 215.96693 215.06936 214.43779 213.89223 214.60928 216.35327 218.64194
 220.62064 222.55861 224.34004 225.24222 225.63309 226.27130 226.90764 225.29210
 225.37595 227.79109 232.11607 236.76413 241.35832 245.81639 250.11656 254.15710
 257.84622 261.17560 264.16452 266.81949 269.20462 271.32547 273.15872 274.75018
 276.15628 277.42987 278.74039 280.08502 281.27466 282.35971 283.45340 284.48398
 285.41086 286.23627 286.95731 287.87619
 366.78100 356.33999 345.77697 334.64796 323.05595 311.25493 299.12992 286.93791
 274.65489 262.55688 250.57087 239.87685 230.00384 221.11283 213.29981 206.30680
 200.14579 195.08877 191.67576 189.72275 188.76473 188.83372 189.67371 190.98669
 192.71668 194.81667 197.08465 199.44864 201.89863 204.38361 206.47660 208.32359
 209.95457 211.10456 211.33855 211.57153 211.51352 211.22351 210.86149 210.49648
 210.11846 209.83345 209.64644 209.51542 209.44841 209.78440 210.17538 210.56937
 211.36736 212.55034 213.80533 215.59332 217.52630 219.57429 221.67428 223.76226
 225.82725 227.91624 230.01822 232.12921 234.26320 236.44018 238.70117 241.07616
 243.70214 245.95813 247.96512 249.73510 251.15709 252.28508 253.11206 253.43305
 253.47504 253.25402 252.61901 251.57200 250.18298 248.34897 246.26296 244.10094
 241.89693 239.70592 237.53090 235.37489 233.23988 231.11186 229.14285 227.30484
 225.59282 224.06981 222.70480 221.48178 220.36877 219.33376 218.44274 217.58873
 216.83572 216.02070 215.12369 214.49268 213.94766 214.64253 216.30768 218.70572
 220.78142 222.56209 224.20854 225.11688 225.64856 226.39568 227.00949 225.50369
 225.48920 227.77240 232.01688 236.63094 241.21123 245.66911 249.97823 254.02388
 257.72818 261.09061 264.13806 266.86066 269.29367 271.47784 273.39160 275.03790
 276.45596 277.70715 278.86075 280.07803 281.24796 282.31760 283.34158 284.31073
 285.21338 286.01718 286.71939 287.61426
 366.78100 356.34173 345.78047 334.65320 323.06293 311.26366 299.14040 286.95013
 274.66886 262.57260 250.58833 239.89606 230.02480 221.13553 213.32426 206.33299
 200.17373 195.11846 191.70719 189.75593 188.79966 188.87039 189.71213 191.02686
 192.75859 194.86032 197.13006 199.49579 201.94752 204.43426 206.52899 208.37772
 210.01046 211.16219 211.39792 211.63265 211.57639 211.28812 210.92785 210.56459
 210.18832 209.90505 209.71979 209.59052 209.52525 209.86298 210.25572 210.65145
 211.45118 212.63592 213.89265 215.68238 217.61712 219.66685 221.76858 223.85831
 225.92505 228.01578 230.11951 232.23225 234.36798 236.54671 238.80945 241.18618
 243.81391 246.07164 248.08038 249.85211 251.27584 252.40558 253.23431 253.55704
 253.60078 253.38151 252.74824 251.70297 250.31571 248.48344 246.39917 244.23891
 242.03664 239.84737 237.67411 235.51984 233.38657 231.26030 229.29304 227.45677
 225.74650 224.22524 222.86197 221.64070 220.52944 219.49617 218.60690 217.75463
 217.00337 216.19010 215.29483 214.66557 214.12230 214.74521 216.21687 218.73241
 220.91023 222.69398 224.18073 224.94693 225.49641 226.33969 227.03778 225.76689
 225.65096 227.89391 231.99194 236.57462 241.14508 245.60510 249.91315 253.95647
 257.65259 261.01459 264.08179 266.83105 269.29398 271.51999 273.49298 275.19885
 276.66510 277.93173 279.05103 280.11523 281.24615 282.30472 283.31219 284.23679
 285.03821 285.80414 286.48911 287.36197
 366.78100 356.34284 345.78268 334.65652 323.06737 311.26921 299.14705 286.95789
 274.67773 262.58257 250.59942 239.90826 230.03810 221.14994 213.33978 206.34962
 200.19146 195.13731 191.72715 189.77699 188.82183 188.89367 189.73651 191.05236
 192.78520 194.88804 197.15888 199.52572 201.97856 204.46640 206.56225 208.41209
 210.04593 211.19877 211.43561 211.67145 211.61630 211.32914 210.96998 210.60782
 210.23266 209.95050 209.76634 209.63819 209.57403 209.91287 210.30671 210.70355
 211.50439 212.69024 213.94808 215.73892 217.67476 219.72560 221.82844 223.91928
 225.98713 228.07897 230.18381 232.29765 234.43449 236.61433 238.87818 241.25602
 243.88486 246.14370 248.15354 249.92638 251.35122 252.48207 253.31191 253.63575
 253.68059 253.46243 252.83027 251.78612 250.39996 248.56880 246.48564 244.32648
 242.12532 239.93716 237.76501 235.61185 233.47969 231.35453 229.38837 227.55321
 225.84406 224.32390 222.96174 221.74158 220.63142 219.59926 218.71111 217.85995
 217.10979 216.29763 215.40347 214.77531 214.23315 214.81798 216.19966 218.74132
 220.93124 222.76721 224.24088 224.86737 225.32344 226.16240 226.97589 225.94458
 225.76314 227.97873 232.00146 236.57187 241.14221 245.60979 249.91933 253.96153
 257.65158 261.00214 264.05640 266.78900 269.23798 271.46368 273.45383 275.19955
 276.71451 278.01648 279.15533 280.20255 281.25357 282.30798 283.30972 284.21820
 284.95737 285.63510 286.26376 287.06900
 366.78100 356.34254 345.78208 334.65562 323.06616 311.26769 299.14523 286.95577
 274.67531 262.57985 250.59639 239.90493 230.03447 221.14600 213.33554 206.34508
 200.18662 195.13216 191.72170 189.77124 188.81578 188.88731 189.72985 191.04539
 192.77793 194.88047 197.15101 199.51755 201.97009 204.45763 206.55316 208.40270
 210.03624 211.18878 211.42532 211.66086 211.60540 211.31794 210.95847 210.59601
 210.22055 209.93809 209.75363 209.62517 209.56071 209.89925 210.29279 210.68932
 211.48986 212.67540 213.93294 215.72348 217.65902 219.70956 221.81210 223.90263
 225.97017 228.06171 230.16625 232.27979 234.41633 236.59587 238.85941 241.23694
 243.86548 246.12402 248.13356 249.90610 251.33064 252.46118 253.29072 253.61426
 253.65879 253.44033 252.80787 251.76341 250.37695 248.54549 246.46203 244.30257
 242.10110 239.91264 237.74018 235.58672 233.45426 231.32880 229.36234 227.52688
 225.81742 224.29695 222.93449 221.71403 220.60357 219.57111 218.68265 217.83119
 217.08073 216.26826 215.37380 214.74534 214.20288 214.81569 216.26350 218.69977
 220.93991 222.79027 224.26154 224.86311 225.25285 226.00894 226.85512 226.02328
 225.83513 228.04723 232.02675 236.58575 241.15442 245.63074 249.94878 253.99838
 257.68927 261.02914 264.06284 266.76727 269.18954 271.38464 273.35818 275.11597
 276.66028 277.99451 279.16049 280.21265 281.23825 282.29269 283.29056 284.19553
 284.93387 285.61490 286.24451 287.09738
 366.78100 356.34192 345.78084 334.65376 323.06368 311.26460 299.14152 286.95144
 274.67036 262.57428 250.59020 239.89812 230.02704 221.13796 213.32689 206.33581
 200.17673 195.12165 191.71057 189.75949 188.80341 188.87433 189.71625 191.03117
 192.76309 194.86501 197.13493 199.50085 201.95277 204.43969 206.53461 208.38353
 210.01645 211.16837 211.40429 211.63921 211.58313 211.29505 210.93497 210.57189
 210.19581 209.91274 209.72766 209.59858 209.53350 209.87142 210.26434 210.66026
 211.46018 212.64510 213.90202 215.69194 217.62686 219.67678 221.77870 223.86862
 225.93554 228.02646 230.13038 232.24330 234.37922 236.55814 238.82106 241.19798
 243.82590 246.08382 248.09274 249.86466 251.28859 252.41851 253.24743 253.57035
 253.61427 253.39519 252.76211 251.71703 250.32995 248.49787 246.41379 244.25371
 242.05163 239.86255 237.68947 235.53539 233.40231 231.27623 229.30915 227.47307
 225.76299 224.24191 222.87883 221.65775 220.54667 219.51359 218.62451 217.77244
 217.02136 216.20828 215.31320 214.68412 214.14104 214.79501 216.34013 218.65718
 220.94247 222.78320 224.20622 224.85069 225.26074 225.95161 226.74792 226.03665
 225.88109 228.09467 232.04808 236.59381 241.16228 245.64915 249.97647 254.03246
 257.72479 261.05829 264.07745 266.76624 269.17416 271.34814 273.29849 275.03946
 276.57587 277.91937 279.10568 280.17505 281.23224 282.27106 283.26950 284.19003
 284.98672 285.68369 286.29935 287.11569
 366.78100 356.34198 345.78095 334.65393 323.06391 311.26489 299.14186 286.95184
 274.67082 262.57480 250.59077 239.89875 230.02773 221.13870 213.32768 206.33666
 200.17764 195.12261 191.71159 189.76057 188.80455 188.87552 189.71750 191.03248
 192.76445 194.86643 197.13641 199.50239 201.95436 204.44134 206.53632 208.38530
 210.01827 211.17025 211.40623 211.64120 211.58518 211.29716 210.93714 210.57411
 210.19809 209.91507 209.73005 209.60102 209.53600 209.87398 210.26696 210.66293
 211.46291 212.64789 213.90486 215.69484 217.62982 219.67980 221.78177 223.87175
 225.93873 228.02971 230.13368 232.24666 234.38264 236.56161 238.82459 241.20157
 243.82955 246.08752 248.09650 249.86848 251.29246 252.42243 253.25141 253.57439
 253.61836 253.39934 252.76632 251.72130 250.33427 248.50225 246.41823 244.25821
 242.05618 239.86716 237.69414 235.54011 233.40709 231.28107 229.31405 227.47802
 225.76800 224.24698 222.88396 221.66293 220.55191 219.51889 218.62986 217.77784
 217.02682 216.21380 215.31877 214.68975 214.14673 214.80807 216.37059 218.66498
 220.91156 222.75540 224.14542 224.80916 225.24200 225.92128 226.68680 226.04257
 225.93526 228.14157 232.06862 236.59616 241.16786 245.66522 249.99886 254.05507
 257.74313 261.07019 264.08298 266.76779 269.17648 271.34729 273.28494 275.00806
 276.52094 277.85287 279.04160 280.11084 281.22714 282.27792 283.27634 284.19604
 285.00580 285.70584 286.32086 287.13962
 366.78100 356.34243 345.78186 334.65529 323.06573 311.26716 299.14459 286.95502
 274.67445 262.57888 250.59532 239.90375 230.03318 221.14461 213.33404 206.34347
 200.18490 195.13034 191.71977 189.76920 188.81363 188.88506 189.72749 191.04293
 192.77536 194.87779 197.14822 199.51465 201.96708 204.45451 206.54995 208.39938
 210.03281 211.18524 211.42167 211.65710 211.60154 211.31397 210.95440 210.59183
 210.21626 209.93369 209.74912 209.62056 209.55599 209.89442 210.28785 210.68428
 211.48471 212.67015 213.92758 215.71801 217.65344 219.70387 221.80630 223.89673
 225.96417 228.05560 230.16003 232.27346 234.40989 236.58932 238.85276 241.23019
 243.85862 246.11705 248.12648 249.89891 251.32334 252.45378 253.28321 253.60664
 253.65107 253.43250 252.79993 251.75537 250.36880 248.53723 246.45366 244.29409
 242.09252 239.90395 237.73139 235.57782 233.44525 231.31968 229.35311 227.51754
 225.80798 224.28741 222.92484 221.70427 220.59370 219.56113 218.67256 217.82100
 217.07043 216.25786 215.36329 214.73472 214.19215 214.84221 216.37805 218.68269
 220.88885 222.73936 224.10008 224.74557 225.17209 225.85425 226.61644 226.08592
 226.03801 228.20233 232.09233 236.60555 241.18109 245.68646 250.02110 254.06941
 257.74713 261.06659 264.07550 266.76221 269.17462 271.34988 273.28336 274.99811
 276.49384 277.81198 278.99902 280.07513 281.21582 282.27112 283.26761 284.17905
 284.98175 285.68344 286.29712 287.11185
 366.78100 356.34242 345.78184 334.65526 323.06568 311.26710 299.14452 286.95494
 274.67436 262.57878 250.59520 239.90362 230.03304 221.14446 213.33388 206.34330
 200.18472 195.13014 191.71956 189.76898 188.81340 188.88482 189.72724 191.04266
 192.77507 194.87749 197.14791 199.51433 201.96675 204.45417 206.54959 208.39901
 210.03243 211.18485 211.42127 211.65669 211.60111 211.31353 210.95395 210.59137
 210.21579 209.93321 209.74863 209.62005 209.55547 209.89389 210.28731 210.68373
 211.48415 212.66957 213.92699 215.71741 217.65283 219.70325 221.80567 223.89609
 225.96351 228.05493 230.15935 232.27277 234.40919 236.58861 238.85203 241.22945
 243.85787 246.11629 248.12571 249.89813 251.32255 252.45297 253.28239 253.60581
 253.65022 253.43164 252.79906 251.75448 250.36790 248.53632 246.45274 244.29316
 242.09158 239.90300 237.73042 235.57684 233.44426 231.31868 229.35210 227.51652
 225.80694 224.28636 222.92378 221.70320 220.59262 219.56004 218.67146 217.81988
 217.06930 216.25672 215.36214 214.73356 214.19098 214.85249 216.41541 218.66135
 220.89056 222.74921 224.05579 224.67024 225.07329 225.76265 226.54010 226.09470
 226.12544 228.29628 232.13322 236.62108 241.20326 245.71719 250.05162 254.08969
 257.75436 261.06226 264.06134 266.74722 269.16342 271.34122 273.27310 274.98251
 276.46918 277.78162 278.97067 280.07053 281.21649 282.27469 283.26990 284.18298
 284.99643 285.70312 286.31995 287.13364
 366.78100 356.34204 345.78107 334.65411 323.06415 311.26518 299.14222 286.95226
 274.67129 262.57533 250.59137 239.89940 230.02844 221.13948 213.32851 206.33755
 200.17859 195.12362 191.71266 189.76170 188.80573 188.87677 189.71881 191.03384
 192.76588 194.86792 197.13795 199.50399 201.95603 204.44306 206.53810 208.38714
 210.02017 211.17221 211.40825 211.64328 211.58732 211.29936 210.93939 210.57643
 210.20047 209.91750 209.73254 209.60358 209.53861 209.87665 210.26969 210.66572
 211.46576 212.65080 213.90783 215.69787 217.63291 219.68294 221.78498 223.87502
 225.94205 228.03309 230.13713 232.25016 234.38620 236.56524 238.82827 241.20531
 243.83335 246.09138 248.10042 249.87246 251.29649 252.42653 253.25556 253.57860
 253.62264 253.40367 252.77071 251.72575 250.33878 248.50682 246.42286 244.26289
 242.06093 239.87197 237.69900 235.54504 233.41208 231.28611 229.31915 227.48319
 225.77322 224.25226 222.88930 221.66833 220.55737 219.52441 218.63544 217.78348
 217.03252 216.21955 215.32459 214.69563 214.15266 214.84300 216.47398 218.62355
 220.88196 222.78561 224.02809 224.60713 224.96317 225.60789 226.41489 226.19417
 226.28889 228.34677 232.15327 236.64636 241.23672 245.76065 250.09650 254.12495
 257.77603 261.06821 264.04944 266.72766 269.14590 271.33069 273.26135 274.96445
 276.44061 277.74988 278.94418 280.04736 281.19266 282.24451 283.20551 284.09518
 284.92188 285.68280 286.30576 287.12589
 366.78100 356.34185 345.78071 334.65356 323.06342 311.26427 299.14112 286.95098
 274.66983 262.57369 250.58954 239.89740 230.02625 221.13710 213.32596 206.33481
 200.17567 195.12052 191.70937 189.75823 188.80208 188.87294 189.71479 191.02965
 192.76150 194.86335 197.13321 199.49906 201.95092 204.43777 206.53262 208.38148
 210.01433 211.16619 211.40204 211.63690 211.58075 211.29260 210.93246 210.56931
 210.19317 209.91002 209.72487 209.59573 209.53058 209.86844 210.26129 210.65714
 211.45700 212.64185 213.89871 215.68856 217.62342 219.67327 221.77512 223.86498
 225.93183 228.02269 230.12654 232.23939 234.37525 236.55410 238.81696 241.19381
 243.82167 246.07952 248.08837 249.86023 251.28408 252.41394 253.24279 253.56564
 253.60950 253.39035 252.75721 251.71206 250.32492 248.49277 246.40862 244.24848
 242.04633 239.85719 237.68404 235.52989 233.39675 231.27060 229.30346 227.46731
 225.75716 224.23602 222.87287 221.65173 220.54058 219.50744 218.61829 217.76614
 217.01500 216.20185 215.30671 214.67756 214.13441 214.84377 216.51967 218.60677
 220.84023 222.82700 224.03795 224.56914 224.85463 225.41542 226.24356 226.27473
 226.45541 228.40463 232.17848 236.67911 241.28160 245.81906 250.15845 254.17595
 257.81049 261.07993 264.03519 266.70276 269.12488 271.32007 273.25580 274.95578
 276.42209 277.72845 278.92664 280.03308 281.17093 282.21664 283.17294 284.05701
 284.87775 285.64102 286.27747 287.09949
 366.78100 356.34195 345.78090 334.65386 323.06381 311.26476 299.14171 286.95167
 274.67062 262.57457 250.59052 239.89847 230.02743 221.13838 213.32733 206.33628
 200.17724 195.12219 191.71114 189.76009 188.80405 188.87500 189.71695 191.03190
 192.76385 194.86581 197.13576 199.50171 201.95366 204.44062 206.53557 208.38452
 210.01747 211.16942 211.40538 211.64033 211.58428 211.29623 210.93619 210.57314
 210.19709 209.91404 209.72899 209.59995 209.53490 209.87285 210.26580 210.66176
 211.46171 212.64666 213.90361 215.69357 217.62852 219.67847 221.78042 223.87037
 225.93733 228.02828 230.13223 232.24518 234.38114 236.56009 238.82304 241.19999
 243.82794 246.08590 248.09485 249.86680 251.29075 252.42071 253.24966 253.57261
 253.61656 253.39752 252.76447 251.71942 250.33237 248.50032 246.41628 244.25623
 242.05418 239.86513 237.69209 235.53804 233.40499 231.27894 229.31189 227.47585
 225.76580 224.24475 222.88170 221.66066 220.54961 219.51656 218.62751 217.77546
 217.02442 216.21137 215.31632 214.68727 214.14423 214.85921 216.54845 218.60941
 220.78456 222.84888 224.07658 224.54558 224.73988 225.20297 226.05098 226.31836
 226.60394 228.48268 232.21996 236.72131 241.33771 245.89084 250.23320 254.23848
 257.85266 261.09381 264.01910 266.67368 269.10190 271.30844 273.25098 274.95114
 276.41168 277.71716 278.92136 280.04605 281.17780 282.21783 283.17609 284.05844
 284.87283 285.62476 286.27026 287.09607
 366.78100 356.34207 345.78113 334.65420 323.06426 311.26533 299.14239 286.95246
 274.67153 262.57559 250.59166 239.89972 230.02879 221.13986 213.32892 206.33799
 200.17905 195.12412 191.71318 189.76225 188.80632 188.87738 189.71945 191.03451
 192.76658 194.86864 197.13871 199.50478 201.95684 204.44391 206.53897 208.38804
 210.02111 211.17317 211.40924 211.64430 211.58837 211.30043 210.94050 210.57757
 210.20163 209.91870 209.73376 209.60483 209.53989 209.87796 210.27103 210.66709
 211.46716 212.65222 213.90929 215.69936 217.63442 219.68449 221.78655 223.87662
 225.94368 228.03475 230.13882 232.25188 234.38795 236.56701 238.83008 241.20714
 243.83521 246.09328 248.10234 249.87441 251.29847 252.42854 253.25761 253.58067
 253.62474 253.40580 252.77287 251.72793 250.34100 248.50907 246.42513 244.26520
 242.06326 239.87433 237.70139 235.54746 233.41453 231.28859 229.32166 227.48572
 225.77579 224.25485 222.89192 221.67099 220.56005 219.52712 218.63818 217.78625
 217.03532 216.22238 215.32745 214.69851 214.15558 214.87550 216.57642 218.61098
 220.73784 222.84645 224.12279 224.52760 224.62029 224.98682 225.85533 226.33023
 226.72998 228.57440 232.27371 236.77103 241.40175 245.97067 250.31659 254.30800
 257.90015 261.11118 264.00522 266.64966 269.08377 271.30130 273.24829 274.94843
 276.40448 277.71027 278.91919 280.05551 281.20483 282.25299 283.21445 284.09659
 284.90726 285.65158 286.30200 287.12665
 366.78100 356.34209 345.78117 334.65426 323.06435 311.26544 299.14252 286.95261
 274.67170 262.57579 250.59187 239.89996 230.02905 221.14014 213.32922 206.33831
 200.17940 195.12449 191.71357 189.76266 188.80675 188.87784 189.71992 191.03501
 192.76710 194.86919 197.13927 199.50536 201.95745 204.44454 206.53962 208.38871
 210.02180 211.17389 211.40997 211.64506 211.58915 211.30124 210.94132 210.57841
 210.20250 209.91959 209.73467 209.60576 209.54085 209.87894 210.27202 210.66811
 211.46820 212.65329 213.91037 215.70046 217.63555 219.68564 221.78772 223.87781
 225.94490 228.03598 230.14007 232.25316 234.38925 236.56833 238.83142 241.20851
 243.83660 246.09468 248.10377 249.87586 251.29995 252.43003 253.25912 253.58221
 253.62630 253.40738 252.77447 251.72956 250.34265 248.51073 246.42682 244.26691
 242.06500 239.87608 237.70317 235.54926 233.41635 231.29043 229.32352 227.48761
 225.77770 224.25678 222.89387 221.67296 220.56205 219.52913 218.64022 217.78831
 217.03740 216.22448 215.32957 214.70066 214.15775 214.88701 216.61000 218.60590
 220.70299 222.82770 224.16089 224.50949 224.50247 224.77885 225.66415 226.31137
 226.82884 228.67204 232.33440 236.82588 241.47144 246.05591 250.40591 254.38229
 257.95120 261.13248 263.99878 266.63507 269.07635 271.30176 273.25195 274.95032
 276.40082 277.70816 278.92700 280.08533 281.24469 282.29807 283.26205 284.14471
 284.95221 285.68741 286.33875 287.16382
 366.78100 356.34211 345.78122 334.65433 323.06444 311.26555 299.14266 286.95277
 274.67188 262.57599 250.59210 239.90021 230.02931 221.14042 213.32953 206.33864
 200.17975 195.12486 191.71397 189.76308 188.80719 188.87830 189.72041 191.03552
 192.76763 194.86974 197.13985 199.50596 201.95807 204.44518 206.54029 208.38940
 210.02251 211.17462 211.41073 211.64584 211.58994 211.30205 210.94216 210.57927
 210.20338 209.92049 209.73560 209.60671 209.54182 209.87993 210.27304 210.66915
 211.46926 212.65437 213.91148 215.70159 217.63670 219.68681 221.78892 223.87903
 225.94614 228.03725 230.14136 232.25447 234.39057 236.56968 238.83279 241.20990
 243.83801 246.09612 248.10523 249.87734 251.30145 252.43156 253.26067 253.58378
 253.62789 253.40900 252.77611 251.73122 250.34433 248.51244 246.42855 244.26866
 242.06677 239.87788 237.70499 235.55110 233.41820 231.29231 229.32542 227.48953
 225.77964 224.25875 222.89586 221.67497 220.56408 219.53119 218.64230 217.79041
 217.03952 216.22663 215.33174 214.70285 214.15996 214.89836 216.64291 218.60077
 220.67371 222.79982 224.18323 224.48576 224.39099 224.58746 225.48199 226.26419
 226.89699 228.76735 232.40067 236.88640 241.54614 246.14539 250.49844 254.46022
 258.00613 261.15988 264.00064 266.63199 269.07837 271.31107 273.26132 274.95596
 276.40018 277.70999 278.93103 280.13422 281.30261 282.35501 283.32123 284.20505
 285.01102 285.74115 286.38718 287.21680
 366.78100 356.34223 345.78146 334.65469 323.06493 311.26616 299.14339 286.95362
 274.67285 262.57708 250.59332 239.90155 230.03078 221.14201 213.33124 206.34047
 200.18171 195.12694 191.71617 189.76540 188.80963 188.88086 189.72310 191.03833
 192.77056 194.87279 197.14302 199.50925 201.96149 204.44872 206.54395 208.39318
 210.02641 211.17864 211.41488 211.65011 211.59434 211.30657 210.94680 210.58403
 210.20827 209.92550 209.74073 209.61196 209.54719 209.88542 210.27866 210.67489
 211.47512 212.66035 213.91758 215.70781 217.64305 219.69328 221.79551 223.88574
 225.95297 228.04420 230.14844 232.26167 234.39790 236.57713 238.84036 241.21759
 243.84583 246.10406 248.11329 249.88552 251.30975 252.43998 253.26922 253.59245
 253.63668 253.41791 252.78514 251.74037 250.35361 248.52184 246.43807 244.27830
 242.07653 239.88776 237.71500 235.56123 233.42846 231.30269 229.33592 227.50015
 225.79039 224.26962 222.90685 221.68608 220.57531 219.54254 218.65378 217.80201
 217.05124 216.23847 215.34370 214.71493 214.17216 214.91537 216.67131 218.60167
 220.64449 222.76596 224.18794 224.45189 224.28493 224.41608 225.31238 226.19775
 226.93903 228.85518 232.47050 236.95276 241.62497 246.23717 250.59203 254.53957
 258.06381 261.19376 264.01389 266.64117 269.09204 271.32919 273.27859 274.96768
 276.40475 277.71600 278.96164 280.18530 281.35602 282.40982 283.37564 284.25781
 285.06003 285.78842 286.42786 287.25543
 366.78100 356.34247 345.78194 334.65540 323.06587 311.26734 299.14481 286.95528
 274.67475 262.57921 250.59568 239.90415 230.03362 221.14509 213.33455 206.34402
 200.18549 195.13096 191.72043 189.76990 188.81436 188.88583 189.72830 191.04377
 192.77624 194.87870 197.14917 199.51564 201.96811 204.45558 206.55104 208.40051
 210.03398 211.18645 211.42292 211.65839 211.60285 211.31532 210.95579 210.59326
 210.21773 209.93519 209.75066 209.62213 209.55760 209.89607 210.28954 210.68600
 211.48647 212.67194 213.92941 215.71988 217.65534 219.70581 221.80828 223.89875
 225.96622 228.05769 230.16215 232.27562 234.41209 236.59156 238.85503 241.23249
 243.86096 246.11943 248.12890 249.90137 251.32583 252.45630 253.28577 253.60924
 253.65371 253.43518 252.80264 251.75811 250.37158 248.54005 246.45652 244.29698
 242.09545 239.90692 237.73439 235.58086 233.44833 231.32279 229.35626 227.52073
 225.81120 224.29067 222.92813 221.70760 220.59707 219.56454 218.67601 217.82448
 217.07394 216.26141 215.36688 214.73835 214.19582 214.93910 216.69518 218.60762
 220.61401 222.72578 224.17426 224.40494 224.17986 224.25958 225.15619 226.12375
 226.96275 228.93391 232.54265 237.02504 241.70876 246.32986 250.68356 254.61729
 258.12177 261.23285 264.03745 266.66260 269.11606 271.35599 273.30313 274.98431
 276.41473 277.72858 278.93738 280.24701 281.42880 282.47940 283.44296 284.32236
 285.12265 285.84711 286.48639 287.31241
 366.78100 356.34276 345.78251 334.65627 323.06703 311.26879 299.14654 286.95730
 274.67706 262.58182 250.59857 239.90733 230.03709 221.14885 213.33860 206.34836
 200.19012 195.13587 191.72563 189.77539 188.82015 188.89190 189.73466 191.05042
 192.78318 194.88593 197.15669 199.52345 201.97620 204.46396 206.55972 208.40948
 210.04323 211.19599 211.43275 211.66851 211.61326 211.32602 210.96678 210.60454
 210.22929 209.94705 209.76281 209.63456 209.57032 209.90908 210.30284 210.69959
 211.50035 212.68611 213.94387 215.73462 217.67038 219.72114 221.82389 223.91465
 225.98241 228.07417 230.17892 232.29268 234.42944 236.60920 238.87295 241.25071
 243.87947 246.13823 248.14798 249.92074 251.34550 252.47625 253.30601 253.62977
 253.67453 253.45628 252.82404 251.77980 250.39356 248.56231 246.47907 244.31983
 242.11859 239.93034 237.75810 235.60486 233.47261 231.34737 229.38113 227.54589
 225.83664 224.31640 222.95416 221.73392 220.62367 219.59143 218.70319 217.85194
 217.10170 216.28946 215.39522 214.76697 214.22473 214.96619 216.71799 218.61325
 220.58298 222.68430 224.14604 224.34550 224.07336 224.11346 225.00851 226.04689
 226.97429 229.00333 232.61772 237.10489 241.79745 246.42296 250.77231 254.69174
 258.17752 261.27341 264.06863 266.69284 269.14722 271.38626 273.32773 275.00031
 276.42722 277.74622 278.97339 280.29974 281.48694 282.54105 283.50580 284.38712
 285.18793 285.91290 286.55151 287.38257
 366.78100 356.34308 345.78316 334.65723 323.06831 311.27039 299.14847 286.95955
 274.67962 262.58470 250.60178 239.91086 230.04093 221.15301 213.34309 206.35317
 200.19525 195.14132 191.73140 189.78148 188.82656 188.89864 189.74171 191.05779
 192.79087 194.89395 197.16503 199.53210 201.98518 204.47326 206.56934 208.41941
 210.05349 211.20657 211.44365 211.67973 211.62480 211.33788 210.97896 210.61704
 210.24212 209.96019 209.77627 209.64835 209.58443 209.92351 210.31758 210.71466
 211.51574 212.70182 213.95990 215.75097 217.68705 219.73813 221.84121 223.93228
 226.00036 228.09244 230.19752 232.31160 234.44867 236.62875 238.89283 241.27091
 243.89999 246.15906 248.16914 249.94222 251.36730 252.49838 253.32845 253.65253
 253.69761 253.47969 252.84776 251.80384 250.41792 248.58700 246.50408 244.34515
 242.14423 239.95631 237.78439 235.63147 233.49954 231.37462 229.40870 227.57378
 225.86486 224.34493 222.98301 221.76309 220.65317 219.62124 218.73332 217.88240
 217.13248 216.32056 215.42663 214.79871 214.25679 214.99471 216.73810 218.61992
 220.55200 222.64140 224.10995 224.28053 223.96494 223.96886 224.86526 225.97032
 226.97589 229.06355 232.69557 237.19260 241.89175 246.51743 250.85838 254.76251
 258.22980 261.31363 264.10559 266.72968 269.18295 271.41779 273.35010 275.01239
 276.44034 277.76923 279.02911 280.36215 281.55014 282.60672 283.57199 284.45563
 285.25699 285.98145 286.62323 287.44980
 366.78100 356.34344 345.78387 334.65831 323.06975 311.27218 299.15062 286.96206
 274.68249 262.58793 250.60536 239.91480 230.04524 221.15767 213.34811 206.35855
 200.20098 195.14742 191.73786 189.78829 188.83373 188.90617 189.74960 191.06604
 192.79948 194.90291 197.17435 199.54179 201.99522 204.48366 206.58009 208.43053
 210.06497 211.21840 211.45584 211.69228 211.63771 211.35115 210.99259 210.63102
 210.25646 209.97490 209.79133 209.66377 209.60021 209.93964 210.33408 210.73151
 211.53295 212.71939 213.97782 215.76926 217.70570 219.75713 221.86057 223.95201
 226.02044 228.11288 230.21832 232.33275 234.47019 236.65063 238.91506 241.29350
 243.92293 246.18237 248.19281 249.96624 251.39168 252.52312 253.35355 253.67799
 253.72343 253.50586 252.87430 251.83074 250.44517 248.61461 246.53205 244.37348
 242.17292 239.98536 237.81379 235.66123 233.52966 231.40510 229.43954 227.60497
 225.89641 224.37685 223.01528 221.79572 220.68616 219.65459 218.76703 217.91647
 217.16690 216.35534 215.46178 214.83421 214.29265 215.02458 216.75385 218.62758
 220.52678 222.59436 224.06107 224.21405 223.86482 223.83008 224.71335 225.88858
 226.97311 229.11629 232.77641 237.29076 241.99390 246.61288 250.94109 254.82852
 258.27756 261.35284 264.14670 266.77277 269.22263 271.44775 273.36664 275.01801
 276.45135 277.79395 279.09180 280.43182 281.62088 282.67813 283.64493 284.52808
 285.33008 286.05563 286.69287 287.52408
 366.78100 356.34377 345.78454 334.65932 323.07109 311.27386 299.15263 286.96440
 274.68518 262.59095 250.60872 239.91849 230.04926 221.16204 213.35281 206.36358
 200.20635 195.15312 191.74390 189.79467 188.84044 188.91321 189.75698 191.07376
 192.80753 194.91130 197.18307 199.55084 202.00462 204.49339 206.59016 208.44093
 210.07570 211.22948 211.46725 211.70402 211.64979 211.36356 211.00534 210.64411
 210.26988 209.98865 209.80543 209.67820 209.61497 209.95474 210.34951 210.74729
 211.54906 212.73583 213.99460 215.78637 217.72315 219.77492 221.87869 223.97046
 226.03923 228.13201 230.23778 232.35255 234.49032 236.67109 238.93587 241.31464
 243.94441 246.20418 248.21495 249.98873 251.41450 252.54627 253.37704 253.70181
 253.74759 253.53036 252.89913 251.85590 250.47067 248.64045 246.55822 244.39999
 242.19976 240.01253 237.84131 235.68908 233.55785 231.43362 229.46839 227.63417
 225.92594 224.40671 223.04548 221.82625 220.71703 219.68580 218.79857 217.94834
 217.19911 216.38789 215.49466 214.86743 214.32620 215.05368 216.77242 218.62944
 220.50462 222.55330 224.00226 224.13579 223.76373 223.70016 224.56973 225.79314
 226.95129 229.16617 232.86493 237.39922 242.10190 246.70680 251.01839 254.88873
 258.32077 261.39108 264.19321 266.82120 269.26382 271.47461 273.37570 275.01447
 276.46045 277.82303 279.15900 280.50464 281.69449 282.75168 283.72028 284.60400
 285.40472 286.13416 286.77115 287.60178
 366.78100 356.34412 345.78523 334.66035 323.07247 311.27558 299.15470 286.96681
 274.68793 262.59405 250.61216 239.92228 230.05340 221.16651 213.35763 206.36874
 200.21186 195.15898 191.75009 189.80121 188.84733 188.92044 189.76456 191.08167
 192.81579 194.91991 197.19202 199.56014 202.01426 204.50337 206.60049 208.45160
 210.08672 211.24084 211.47895 211.71607 211.66219 211.37630 211.01842 210.65753
 210.28365 210.00277 209.81988 209.69300 209.63012 209.97023 210.36535 210.76346
 211.56558 212.75270 214.01181 215.80393 217.74105 219.79316 221.89728 223.98939
 226.05851 228.15163 230.25774 232.37286 234.51098 236.69209 238.95721 241.33632
 243.96644 246.22656 248.23767 250.01179 251.43791 252.57002 253.40114 253.72625
 253.77237 253.55549 252.92460 251.88172 250.49684 248.66695 246.58507 244.42718
 242.22730 240.04042 237.86953 235.71765 233.58677 231.46288 229.49800 227.66411
 225.95623 224.43735 223.07646 221.85758 220.74870 219.71781 218.83093 217.98104
 217.23216 216.42128 215.52839 214.90151 214.36063 215.08405 216.79320 218.62895
 220.47418 222.50996 223.95293 224.06560 223.65675 223.55177 224.40797 225.71690
 226.94714 229.20776 232.95618 237.51787 242.21486 246.79979 251.09140 254.94469
 258.36063 261.42871 264.24304 266.87271 269.30380 271.49548 273.37457 275.00101
 276.46225 277.84372 279.22888 280.58249 281.77267 282.82938 283.79944 284.68365
 285.48639 286.21387 286.85391 287.68387
 366.78100 356.34458 345.78616 334.66174 323.07432 311.27790 299.15748 286.97006
 274.69163 262.59821 250.61679 239.92737 230.05895 221.17253 213.36411 206.37569
 200.21927 195.16685 191.75843 189.81001 188.85659 188.93017 189.77475 191.09233
 192.82690 194.93148 197.20406 199.57264 202.02722 204.51680 206.61438 208.46596
 210.10154 211.25612 211.49470 211.73228 211.67886 211.39344 211.03602 210.67560
 210.30217 210.02175 209.83933 209.71291 209.65049 209.99107 210.38665 210.78523
 211.58781 212.77539 214.03497 215.82755 217.76513 219.81771 221.92229 224.01487
 226.08444 228.17802 230.28460 232.40018 234.53876 236.72034 238.98592 241.36550
 243.99608 246.25666 248.26824 250.04282 251.46940 252.60198 253.43356 253.75914
 253.80571 253.58929 252.95887 251.91645 250.53203 248.70261 246.62119 244.46377
 242.26435 240.07793 237.90751 235.75609 233.62567 231.50225 229.53783 227.70440
 225.99698 224.47856 223.11814 221.89972 220.79130 219.76088 218.87446 218.02504
 217.27662 216.46620 215.57378 214.94736 214.40694 215.12004 216.80479 218.63696
 220.44243 222.44661 223.89748 224.01886 223.58566 223.42357 224.22795 225.53372
 226.89397 229.29700 233.07457 237.64540 242.32983 246.89038 251.16110 254.99861
 258.39880 261.46646 264.29379 266.92178 269.33716 271.50775 273.36301 274.97900
 276.46268 277.87558 279.30243 280.65900 281.84930 282.90790 283.87845 284.76169
 285.56546 286.29373 286.93222 287.76660
 366.78100 356.34513 345.78725 334.66338 323.07650 311.28063 299.16075 286.97388
 274.69601 262.60313 250.62226 239.93338 230.06551 221.17963 213.37176 206.38388
 200.22801 195.17614 191.76826 189.82039 188.86751 188.94164 189.78676 191.10489
 192.84002 194.94514 197.21827 199.58739 202.04252 204.53264 206.63077 208.48289
 210.11902 211.27415 211.51327 211.75140 211.69852 211.41365 211.05677 210.69690
 210.32403 210.04415 209.86228 209.73640 209.67453 210.01565 210.41178 210.81090
 211.61403 212.80216 214.06228 215.85541 217.79353 219.84666 221.95178 224.04491
 226.11504 228.20916 230.31629 232.43241 234.57154 236.75366 239.01979 241.39991
 244.03104 246.29217 248.30429 250.07942 251.50654 252.63967 253.47179 253.79792
 253.84505 253.62917 252.99930 251.95742 250.57355 248.74467 246.66380 244.50692
 242.30805 240.12218 237.95230 235.80143 233.67155 231.54868 229.58480 227.75193
 226.04506 224.52718 223.16731 221.94943 220.84156 219.81168 218.92581 218.07693
 217.32906 216.51919 215.62731 215.00144 214.46156 215.15857 216.80531 218.65042
 220.42365 222.37279 223.81310 223.96068 223.53137 223.32465 224.06798 225.33461
 226.81075 229.37563 233.19711 237.77652 242.44383 246.97731 251.22835 255.05070
 258.43576 261.50412 264.34567 266.97055 269.36761 271.51007 273.33948 274.95193
 276.45581 277.87509 279.37936 280.74594 281.93488 282.99207 283.96051 284.84320
 285.64709 286.37466 287.01498 287.84671
 366.78100 356.34566 345.78832 334.66498 323.07864 311.28330 299.16396 286.97762
 274.70028 262.60794 250.62760 239.93926 230.07193 221.18659 213.37925 206.39191
 200.23657 195.18523 191.77789 189.83055 188.87821 188.95287 189.79853 191.11719
 192.85285 194.95851 197.23217 199.60183 202.05749 204.54815 206.64681 208.49947
 210.13613 211.29179 211.53146 211.77012 211.71778 211.43344 211.07710 210.71776
 210.34542 210.06608 209.88474 209.75940 209.69806 210.03972 210.43638 210.83604
 211.63970 212.82836 214.08902 215.88268 217.82134 219.87500 221.98066 224.07432
 226.14499 228.23965 230.34731 232.46397 234.60363 236.78629 239.05295 241.43361
 244.06527 246.32693 248.33959 250.11525 251.54291 252.67657 253.50923 253.83589
 253.88355 253.66821 253.03887 251.99753 250.61419 248.78585 246.70552 244.54918
 242.35084 240.16550 237.99616 235.84582 233.71648 231.59414 229.63080 227.79846
 226.09212 224.57478 223.21544 221.99810 220.89076 219.86142 218.97608 218.12774
 217.38040 216.57106 215.67972 215.05438 214.51505 215.19572 216.80391 218.65431
 220.41745 222.31145 223.71167 223.87640 223.46663 223.23636 223.92792 225.14850
 226.71304 229.43469 233.31885 237.91170 242.56052 247.06671 251.29984 255.10703
 258.47543 261.54117 264.39279 267.01007 269.38663 271.50211 273.30557 274.91318
 276.44879 277.92325 279.44507 280.81793 282.00876 283.06931 284.03851 284.92151
 285.72449 286.45245 287.09079 287.92621
 366.78100 356.34615 345.78931 334.66646 323.08062 311.28577 299.16693 286.98108
 274.70423 262.61239 250.63254 239.94470 230.07785 221.19300 213.38616 206.39931
 200.24447 195.19362 191.78678 189.83993 188.88808 188.96324 189.80939 191.12855
 192.86470 194.97086 197.24501 199.61516 202.07132 204.56247 206.66163 208.51478
 210.15194 211.30809 211.54824 211.78740 211.73555 211.45171 211.09586 210.73701
 210.36517 210.08632 209.90548 209.78063 209.71979 210.06194 210.45909 210.85925
 211.66340 212.85256 214.11371 215.90787 217.84702 219.90117 222.00733 224.10148
 226.17264 228.26779 230.37595 232.49310 234.63325 236.81641 239.08356 241.46472
 244.09687 246.35902 248.37218 250.14833 251.57649 252.71064 253.54380 253.87095
 253.91910 253.70426 253.07541 252.03457 250.65172 248.82388 246.74403 244.58818
 242.39034 240.20549 238.03665 235.88680 233.75795 231.63611 229.67326 227.84142
 226.13557 224.61873 223.25988 222.04303 220.93619 219.90734 219.02250 218.17465
 217.42781 216.61896 215.72811 215.10327 214.56442 215.23128 216.80679 218.64194
 220.41292 222.26895 223.61194 223.77188 223.37993 223.14064 223.79440 224.97794
 226.61751 229.48637 233.44447 238.05269 242.68156 247.16008 251.37459 255.16507
 258.51562 261.57932 264.44046 267.04681 269.39371 271.47122 273.25327 274.87399
 276.42136 277.97672 279.51099 280.88351 282.07574 283.13751 284.10663 284.99127
 285.79465 286.51965 287.15509 287.99417
 366.78100 356.34660 345.79019 334.66779 323.08239 311.28799 299.16958 286.98418
 274.70778 262.61637 250.63697 239.94957 230.08316 221.19876 213.39236 206.40596
 200.25155 195.20115 191.79475 189.84834 188.89694 188.97254 189.81913 191.13873
 192.87533 194.98193 197.25652 199.62712 202.08372 204.57531 206.67491 208.52851
 210.16611 211.32270 211.56330 211.80290 211.75149 211.46809 211.11269 210.75428
 210.38288 210.10448 209.92408 209.79967 209.73927 210.08187 210.47946 210.88006
 211.68466 212.87425 214.13585 215.93045 217.87005 219.92464 222.03124 224.12584
 226.19743 228.29303 230.40163 232.51923 234.65982 236.84342 239.11102 241.49261
 244.12521 246.38781 248.40140 250.17800 251.60660 252.74120 253.57479 253.90239
 253.95099 253.73658 253.10818 252.06778 250.68537 248.85797 246.77857 244.62317
 242.42576 240.24136 238.07296 235.92355 233.79515 231.67375 229.71135 227.87994
 226.17454 224.65814 223.29973 222.08333 220.97693 219.94852 219.06412 218.21672
 217.47032 216.66191 215.77151 215.14711 214.60870 215.26430 216.81319 218.62373
 220.40300 222.23447 223.52364 223.66191 223.27321 223.02536 223.65114 224.81606
 226.53287 229.54021 233.57758 238.20349 242.81265 247.26346 251.45834 255.22844
 258.55569 261.61002 264.47351 267.06689 269.39285 271.44360 273.19376 274.80417
 276.45798 278.03091 279.56656 280.94000 282.13275 283.19379 284.16425 285.04834
 285.85071 286.57867 287.21201 288.05255
 366.78100 356.34703 345.79106 334.66909 323.08412 311.29015 299.17218 286.98721
 274.71124 262.62027 250.64130 239.95433 230.08836 221.20439 213.39842 206.41245
 200.25848 195.20851 191.80254 189.85657 188.90560 188.98163 189.82867 191.14870
 192.88573 194.99276 197.26779 199.63882 202.09585 204.58788 206.68791 208.54194
 210.17997 211.33700 211.57803 211.81806 211.76709 211.48412 211.12915 210.77118
 210.40021 210.12224 209.94227 209.81830 209.75833 210.10136 210.49939 210.90042
 211.70545 212.89548 214.15751 215.95254 217.89257 219.94760 222.05463 224.14966
 226.22169 228.31772 230.42675 232.54478 234.68581 236.86984 239.13787 241.51990
 244.15293 246.41597 248.43000 250.20703 251.63606 252.77109 253.60512 253.93315
 253.98218 253.76821 253.14024 252.10027 250.71830 248.89133 246.81236 244.65739
 242.46042 240.27645 238.10848 235.95951 233.83154 231.71057 229.74860 227.91763
 226.21266 224.69669 223.33872 222.12275 221.01678 219.98881 219.10484 218.25787
 217.51190 216.70393 215.81396 215.18999 214.65202 215.29564 216.81624 218.61028
 220.38971 222.19585 223.44020 223.55795 223.16600 222.90230 223.49043 224.65109
 226.45274 229.59377 233.71510 238.36006 242.94899 247.37474 251.55199 255.30505
 258.61179 261.65463 264.51019 267.07104 269.34714 271.34760 273.10788 274.80362
 276.35556 278.08139 279.63538 281.00485 282.19501 283.25189 284.21826 285.10004
 285.89981 286.61893 287.25400 288.08978
 366.78100 356.34755 345.79210 334.67064 323.08619 311.29274 299.17529 286.99084
 274.71538 262.62493 250.64648 239.96003 230.09458 221.21112 213.40567 206.42022
 200.26677 195.21732 191.81186 189.86641 188.91596 188.99251 189.84006 191.16060
 192.89815 195.00570 197.28125 199.65280 202.11034 204.60289 206.70344 208.55799
 210.19653 211.35408 211.59563 211.83618 211.78573 211.50327 211.14882 210.79137
 210.42092 210.14347 209.96401 209.84056 209.78111 210.12466 210.52321 210.92475
 211.73030 212.92085 214.18340 215.97895 217.91949 219.97504 222.08259 224.17814
 226.25069 228.34723 230.45678 232.57533 234.71688 236.90143 239.16997 241.55252
 244.18607 246.44962 248.46417 250.24171 251.67126 252.80681 253.64136 253.96991
 254.01945 253.80600 253.17855 252.13910 250.75765 248.93119 246.85274 244.69829
 242.50184 240.31839 238.15093 236.00248 233.87503 231.75458 229.79312 227.96267
 226.25822 224.74277 223.38532 222.16986 221.06441 220.03696 219.15351 218.30706
 217.56160 216.75415 215.86470 215.24125 214.70380 215.32932 216.80721 218.59187
 220.38501 222.16466 223.35466 223.44225 223.04640 222.77448 223.32579 224.49886
 226.38779 229.65248 233.85657 238.51897 243.08548 247.48578 251.64066 255.36885
 258.65253 261.68658 264.53799 267.08435 269.34564 271.33459 273.04272 274.52774
 276.46149 278.13782 279.67798 281.04672 282.23453 283.29062 284.25452 285.13437
 285.93152 286.65201 287.28253 288.12213
 366.78100 356.34800 345.79300 334.67200 323.08800 311.29500 299.17799 286.99399
 274.71899 262.62899 250.65099 239.96499 230.09999 221.21699 213.41199 206.42699
 200.27399 195.22499 191.81998 189.87498 188.92498 189.00198 189.84998 191.17098
 192.90898 195.01698 197.29298 199.66498 202.12298 204.61598 206.71697 208.57197
 210.21097 211.36897 211.61097 211.85197 211.80197 211.51997 211.16597 210.80897
 210.43897 210.16197 209.98296 209.85996 209.80096 210.14496 210.54396 210.94596
 211.75196 212.94296 214.20596 216.00196 217.94296 219.99896 222.10695 224.20295
 226.27595 228.37295 230.48295 232.60195 234.74395 236.92895 239.19795 241.58095
 244.21495 246.47895 248.49394 250.27194 251.70194 252.83794 253.67294 254.00194
 254.05194 253.83894 253.21194 252.17294 250.79194 248.96594 246.88793 244.73393
 242.53793 240.35493 238.18793 236.03993 233.91293 231.79293 229.83193 228.00193
 226.29793 224.78293 223.42592 222.21092 221.10592 220.07892 219.19592 218.34992
 217.60492 216.79792 215.90892 215.28592 214.74892 215.35768 216.79593 218.56442
 220.38077 222.14670 223.27696 223.31131 222.89806 222.62547 223.15436 224.36662
 226.34604 229.72310 234.00223 238.68201 243.23094 247.61398 251.75510 255.45958
 258.70996 261.71658 264.54111 267.04309 269.24338 271.16736 272.87592 274.81491
 276.44580 278.16696 279.71509 281.07971 282.26450 283.31528 284.27740 285.15277
 285.95016 286.66556 287.29871 288.13651
 366.78100 356.34827 345.79353 334.67280 323.08906 311.29633 299.17959 286.99586
 274.72112 262.63139 250.65365 239.96792 230.10318 221.22045 213.41571 206.43098
 200.27824 195.22951 191.82477 189.88004 188.93030 189.00757 189.85583 191.17710
 192.91536 195.02363 197.29989 199.67216 202.13042 204.62369 206.72495 208.58022
 210.21948 211.37775 211.62001 211.86128 211.81154 211.52981 211.17607 210.81934
 210.44961 210.17287 209.99414 209.87140 209.81267 210.15693 210.55620 210.95846
 211.76473 212.95599 214.21926 216.01552 217.95679 220.01305 222.12132 224.21758
 226.29085 228.38811 230.49838 232.61764 234.75991 236.94517 239.21444 241.59770
 244.23197 246.49623 248.51150 250.28976 251.72003 252.85629 253.69156 254.02082
 254.07109 253.85835 253.23162 252.19288 250.81215 248.98641 246.90868 244.75495
 242.55921 240.37648 238.20974 236.06201 233.93527 231.81554 229.85480 228.02507
 226.32133 224.80660 223.44986 222.23513 221.13039 220.10366 219.22092 218.37519
 217.63045 216.82372 215.93498 215.31225 214.77551 215.37726 216.79897 218.53157
 220.36488 222.13678 223.21834 223.17870 222.72330 222.44180 222.97015 224.24689
 226.31924 229.80592 234.14882 238.84038 243.37761 247.75130 251.88712 255.57881
 258.80197 261.77621 264.56641 267.03586 269.22134 271.11615 272.69891 274.61356
 276.39258 278.15332 279.69904 281.06171 282.24533 283.29340 284.25488 285.13046
 285.92670 286.65289 287.28802 288.12466
 366.78100 356.34842 345.79385 334.67327 323.08970 311.29712 299.18055 286.99697
 274.72240 262.63282 250.65525 239.96967 230.10510 221.22252 213.41795 206.43337
 200.28080 195.23222 191.82765 189.88307 188.93350 189.01092 189.85935 191.18077
 192.91920 195.02762 197.30405 199.67647 202.13490 204.62832 206.72975 208.58517
 210.22460 211.38302 211.62545 211.86687 211.81730 211.53572 211.18215 210.82557
 210.45600 210.17942 210.00085 209.87827 209.81970 210.16412 210.56354 210.96597
 211.77239 212.96382 214.22724 216.02367 217.96509 220.02152 222.12994 224.22637
 226.29979 228.39722 230.50764 232.62707 234.76949 236.95492 239.22434 241.60777
 244.24219 246.50662 248.52204 250.30047 251.73089 252.86732 253.70274 254.03217
 254.08259 253.87002 253.24344 252.20487 250.82429 248.99872 246.92114 244.76757
 242.57199 240.38942 238.22284 236.07527 233.94869 231.82912 229.86854 228.03897
 226.33539 224.82081 223.46424 222.24966 221.14509 220.11851 219.23594 218.39036
 217.64579 216.83921 215.95064 215.32806 214.79149 215.39008 216.80428 218.49936
 220.34174 222.12750 223.17421 223.05307 222.53082 222.21590 222.76424 224.12962
 226.31554 229.91672 234.30737 239.00372 243.53258 247.89778 252.02220 255.69432
 258.89127 261.82388 264.55219 266.95584 269.06976 270.91580 272.84583 274.56039
 276.50372 278.15207 279.68515 281.04907 282.23120 283.28009 284.23911 285.11499
 285.91324 286.64133 287.27921 288.10181
 366.78100 356.34867 345.79434 334.67401 323.09069 311.29836 299.18203 286.99870
 274.72437 262.63504 250.65771 239.97239 230.10806 221.22573 213.42140 206.43707
 200.28474 195.23641 191.83209 189.88776 188.93843 189.01610 189.86477 191.18644
 192.92512 195.03379 197.31046 199.68313 202.14180 204.63547 206.73714 208.59282
 210.23249 211.39116 211.63383 211.87550 211.82617 211.54484 211.19152 210.83519
 210.46586 210.18953 210.01120 209.88887 209.83054 210.17522 210.57489 210.97756
 211.78423 212.97590 214.23957 216.03624 217.97792 220.03459 222.14326 224.23993
 226.31360 228.41127 230.52195 232.64162 234.78429 236.96996 239.23963 241.62330
 244.25797 246.52265 248.53832 250.31699 251.74766 252.88433 253.72000 254.04967
 254.10035 253.88802 253.26169 252.22336 250.84303 249.01770 246.94037 244.78705
 242.59172 240.40939 238.24306 236.09573 233.96940 231.85007 229.88975 228.06042
 226.35709 224.84276 223.48643 222.27210 221.16778 220.14145 219.25912 218.41379
 217.66946 216.86313 215.97480 215.35248 214.81615 215.40617 216.80019 218.46809
 220.31497 222.11594 223.14700 222.94522 222.33221 221.95595 222.52237 223.98944
 226.31046 230.04126 234.48302 239.18715 243.71829 248.07953 252.19029 255.84727
 259.03268 261.94260 264.62839 266.94122 268.85974 270.53589 272.84949 274.60416
 276.42380 278.04248 279.54199 280.88617 282.06000 283.10446 284.05713 284.93045
 285.73245 286.46771 287.09167 287.91290
 366.78100 356.34886 345.79473 334.67459 323.09146 311.29932 299.18319 287.00005
 274.72591 262.63678 250.65964 239.97451 230.11037 221.22824 213.42410 206.43997
 200.28783 195.23969 191.83556 189.89142 188.94229 189.02015 189.86902 191.19088
 192.92974 195.03861 197.31547 199.68834 202.14720 204.64107 206.74293 208.59879
 210.23866 211.39752 211.64039 211.88225 211.83312 211.55198 211.19884 210.84271
 210.47357 210.19744 210.01930 209.89717 209.83903 210.18390 210.58376 210.98662
 211.79349 212.98535 214.24922 216.04608 217.98795 220.04481 222.15367 224.25054
 226.32440 228.42227 230.53313 232.65300 234.79586 236.98172 239.25159 241.63545
 244.27032 246.53518 248.55105 250.32991 251.76078 252.89764 253.73350 254.06337
 254.11423 253.90210 253.27596 252.23783 250.85769 249.03255 246.95542 244.80228
 242.60715 240.42501 238.25888 236.11174 233.98560 231.86647 229.90633 228.07720
 226.37406 224.85993 223.50379 222.28965 221.18552 220.15938 219.27725 218.43211
 217.68798 216.88184 215.99371 215.37157 214.83543 215.41685 216.79051 218.44633
 220.28996 222.09308 223.11559 222.85600 222.15195 221.69209 222.24519 223.81667
 226.29773 230.17055 234.67224 239.38373 243.91011 248.26164 252.34659 255.97643
 259.15231 262.05545 264.73370 267.02783 268.87338 270.63300 272.91840 274.60974
 276.23810 277.82761 279.27554 280.60138 281.76208 282.79810 283.74640 284.61444
 285.41934 286.15253 286.77045 287.59808
 366.78100 356.34883 345.79467 334.67450 323.09133 311.29917 299.18300 286.99983
 274.72567 262.63650 250.65934 239.97417 230.11000 221.22784 213.42367 206.43950
 200.28734 195.23917 191.83500 189.89084 188.94167 189.01950 189.86834 191.19017
 192.92900 195.03784 197.31467 199.68750 202.14634 204.64017 206.74201 208.59784
 210.23767 211.39651 211.63934 211.88117 211.83201 211.55084 211.19767 210.84151
 210.47234 210.19617 210.01801 209.89584 209.83767 210.18251 210.58234 210.98518
 211.79201 212.98384 214.24768 216.04451 217.98634 220.04318 222.15201 224.24884
 226.32268 228.42051 230.53134 232.65118 234.79401 236.97984 239.24968 241.63351
 244.26835 246.53318 248.54901 250.32785 251.75868 252.89551 253.73135 254.06118
 254.11201 253.89985 253.27368 252.23551 250.85535 249.03018 246.95301 244.79985
 242.60468 240.42251 238.25635 236.10918 233.98302 231.86385 229.90368 228.07452
 226.37135 224.85718 223.50102 222.28685 221.18268 220.15652 219.27435 218.42918
 217.68502 216.87885 215.99068 215.36852 214.83235 215.41344 216.78633 218.43100
 220.26421 222.06543 223.07584 222.75858 221.97430 221.43457 221.99107 223.64255
 226.27232 230.29314 234.87064 239.58325 244.09612 248.43996 252.49867 256.09320
 259.24820 262.13757 264.81213 267.15158 269.11246 270.78726 272.75665 274.54379
 276.14542 277.65067 279.01288 280.28595 281.43692 282.47778 283.43991 284.31931
 285.11230 285.80945 286.42380 287.24545
 366.78100 356.34877 345.79454 334.67431 323.09108 311.29885 299.18262 286.99939
 274.72516 262.63593 250.65870 239.97348 230.10925 221.22702 213.42279 206.43856
 200.28633 195.23810 191.83387 189.88964 188.94041 189.01818 189.86695 191.18872
 192.92749 195.03626 197.31303 199.68580 202.14457 204.63834 206.74011 208.59589
 210.23566 211.39443 211.63720 211.87897 211.82974 211.54851 211.19528 210.83905
 210.46982 210.19359 210.01536 209.89313 209.83490 210.17967 210.57944 210.98221
 211.78898 212.98075 214.24452 216.04130 217.98307 220.03984 222.14861 224.24538
 226.31915 228.41692 230.52769 232.64746 234.79023 236.97600 239.24577 241.62954
 244.26431 246.52908 248.54485 250.32362 251.75439 252.89116 253.72693 254.05671
 254.10748 253.89525 253.26902 252.23079 250.85056 249.02533 246.94810 244.79487
 242.59964 240.41741 238.25118 236.10395 233.97772 231.85849 229.89826 228.06903
 226.36580 224.85157 223.49534 222.28112 221.17689 220.15066 219.26843 218.42320
 217.67897 216.87274 215.98451 215.36228 214.82605 215.40666 216.77844 218.42012
 220.23900 222.02002 223.04353 222.67419 221.81203 221.19481 221.68768 223.43350
 226.24562 230.42181 235.08209 239.79224 244.29727 248.63170 252.66826 256.22342
 259.33588 262.17923 264.81326 267.16727 269.24289 271.05142 272.73645 274.48877
 276.14005 277.57495 278.86758 280.05957 281.11072 282.12271 283.07391 283.94330
 284.71970 285.41107 286.02496 286.85025
 366.78100 356.34872 345.79445 334.67417 323.09090 311.29862 299.18234 286.99907
 274.72479 262.63552 250.65824 239.97296 230.10869 221.22641 213.42214 206.43786
 200.28558 195.23731 191.83303 189.88876 188.93948 189.01720 189.86593 191.18765
 192.92638 195.03510 197.31182 199.68455 202.14327 204.63699 206.73872 208.59444
 210.23417 211.39289 211.63561 211.87734 211.82806 211.54679 211.19351 210.83723
 210.46796 210.19168 210.01341 209.89113 209.83285 210.17758 210.57730 210.98003
 211.78675 212.97847 214.24220 216.03892 217.98065 220.03737 222.14609 224.24282
 226.31654 228.41427 230.52499 232.64471 234.78744 236.97316 239.24289 241.62661
 244.26133 246.52606 248.54178 250.32051 251.75123 252.88795 253.72368 254.05340
 254.10413 253.89185 253.26557 252.22730 250.84702 249.02174 246.94447 244.79119
 242.59592 240.41364 238.24736 236.10009 233.97381 231.85454 229.89426 228.06498
 226.36171 224.84743 223.49116 222.27688 221.17260 220.14633 219.26405 218.41878
 217.67450 216.86822 215.97995 215.35767 214.82140 215.39919 216.76427 218.40898
 220.23112 221.95860 222.96971 222.64754 221.70868 220.82382 221.35942 223.32036
 226.26331 230.55373 235.29639 240.01537 244.51768 248.84109 252.85326 256.37555
 259.45300 262.24075 264.80463 267.13065 269.24600 271.16162 272.86417 274.53949
 276.11884 277.49515 278.74661 279.91681 280.91211 281.80692 282.73334 283.58371
 284.24554 284.92645 285.55270 286.40332
 366.78100 356.34897 345.79493 334.67490 323.09186 311.29983 299.18380 287.00076
 274.72673 262.63770 250.66066 239.97563 230.11159 221.22956 213.42553 206.44149
 200.28946 195.24142 191.83739 189.89336 188.94432 189.02229 189.87125 191.19322
 192.93219 195.04115 197.31812 199.69109 202.15005 204.64402 206.74598 208.60195
 210.24192 211.40088 211.64385 211.88581 211.83678 211.55575 211.20271 210.84668
 210.47764 210.20161 210.02358 209.90154 209.84351 210.18848 210.58844 210.99141
 211.79837 212.99034 214.25431 216.05127 217.99324 220.05020 222.15917 224.25614
 226.33010 228.42807 230.53903 232.65900 234.80197 236.98793 239.25790 241.64187
 244.27683 246.54180 248.55776 250.33673 251.76770 252.90466 253.74063 254.07059
 254.12156 253.90953 253.28349 252.24546 250.86542 249.04039 246.96336 244.81032
 242.61529 240.43326 238.26722 236.12019 233.99415 231.87512 229.91509 228.08605
 226.38302 224.86898 223.51295 222.29892 221.19488 220.16885 219.28681 218.44178
 217.69775 216.89171 216.00368 215.38165 214.84561 215.40652 216.73174 218.41292
 220.21136 221.89238 222.89714 222.60490 221.64368 220.49089 221.05394 223.20348
 226.27469 230.65688 235.47244 240.22060 244.72948 249.02159 252.99292 256.48169
 259.53571 262.28906 264.80508 267.11850 269.23907 271.18518 272.95120 274.58063
 276.06555 277.38959 278.59647 279.73596 280.70312 281.56381 282.47626 283.29828
 283.93314 284.61069 285.23267 286.07745
 366.78100 356.34856 345.79411 334.67367 323.09022 311.29778 299.18133 286.99789
 274.72344 262.63400 250.65655 239.97111 230.10666 221.22422 213.41977 206.43533
 200.28289 195.23444 191.83000 189.88555 188.93611 189.01366 189.86222 191.18377
 192.92233 195.03088 197.30744 199.67999 202.13855 204.63211 206.73366 208.58922
 210.22877 211.38733 211.62988 211.87144 211.82199 211.54055 211.18710 210.83066
 210.46121 210.18477 210.00632 209.88388 209.82544 210.16999 210.56955 210.97210
 211.77866 212.97021 214.23377 216.03032 217.97188 220.02843 222.13699 224.23354
 226.30710 228.40465 230.51521 232.63477 234.77732 236.96288 239.23243 241.61599
 244.25054 246.51510 248.53065 250.30921 251.73976 252.87632 253.71187 254.04143
 254.09199 253.87954 253.25310 252.21465 250.83421 249.00876 246.93132 244.77787
 242.58243 240.39998 238.23354 236.08609 233.95965 231.84020 229.87976 228.05032
 226.34687 224.83243 223.47598 222.26154 221.15709 220.13065 219.24820 218.40276
 217.65831 216.85187 215.96342 215.34098 214.80453 215.38135 216.74413 218.37416
 220.20476 221.84755 222.75917 222.56143 221.58429 220.19104 220.79933 223.09592
 226.32674 230.77676 235.62126 240.39948 244.91316 249.17581 253.10143 256.56042
 259.58771 262.29935 264.77234 267.07788 269.21454 271.19235 273.00903 274.63461
 276.07175 277.36768 278.56824 279.70074 280.67197 281.54764 282.42801 283.17575
 283.83844 284.52405 285.14380 285.97961
 366.78100 356.34824 345.79349 334.67273 323.08898 311.29622 299.17947 286.99571
 274.72096 262.63120 250.65345 239.96769 230.10293 221.22018 213.41542 206.43067
 200.27791 195.22916 191.82440 189.87965 188.92989 189.00714 189.85538 191.17662
 192.91487 195.02311 197.29936 199.67160 202.12985 204.62309 206.72434 208.57958
 210.21882 211.37707 211.61931 211.86056 211.81080 211.52905 211.17529 210.81854
 210.44878 210.17203 209.99327 209.87051 209.81176 210.15600 210.55525 210.95749
 211.76374 212.95498 214.21823 216.01447 217.95572 220.01196 222.12020 224.21645
 226.28969 228.38694 230.49718 232.61643 234.75867 236.94392 239.21316 241.59641
 244.23065 246.49489 248.51014 250.28838 251.71863 252.85487 253.69012 254.01936
 254.06961 253.85685 253.23010 252.19134 250.81058 248.98483 246.90707 244.75332
 242.55756 240.37481 238.20805 236.06030 233.93354 231.81378 229.85303 228.02327
 226.31952 224.80476 223.44801 222.23325 221.12850 220.10174 219.21899 218.37323
 217.62847 216.82172 215.93296 215.31021 214.77345 215.36133 216.75027 218.34096
 220.18843 221.73552 222.59496 222.51999 221.47394 219.90891 220.59068 222.92212
 226.37593 230.89302 235.79570 240.59683 245.08734 249.30840 253.19592 256.65012
 259.67749 262.36835 264.79599 267.06345 269.18484 271.15643 272.96265 274.58008
 276.03003 277.34769 278.56110 279.66550 280.63403 281.51343 282.34161 283.14154
 283.90988 284.61240 285.25961 286.09027
 366.78100 356.34829 345.79358 334.67287 323.08917 311.29646 299.17975 286.99604
 274.72133 262.63162 250.65391 239.96821 230.10350 221.22079 213.41608 206.43137
 200.27866 195.22995 191.82524 189.88054 188.93083 189.00812 189.85641 191.17770
 192.91599 195.02428 197.30058 199.67287 202.13116 204.62445 206.72574 208.58103
 210.22032 211.37862 211.62091 211.86220 211.81249 211.53078 211.17707 210.82036
 210.45065 210.17395 209.99524 209.87253 209.81382 210.15811 210.55740 210.95969
 211.76599 212.95728 214.22057 216.01686 217.95815 220.01444 222.12273 224.21903
 226.29232 228.38961 230.49990 232.61919 234.76148 236.94677 239.21607 241.59936
 244.23365 246.49794 248.51323 250.29152 251.72181 252.85810 253.69340 254.02269
 254.07298 253.86027 253.23356 252.19485 250.81414 248.98844 246.91073 244.75702
 242.56131 240.37860 238.21189 236.06418 233.93748 231.81777 229.85706 228.02735
 226.32364 224.80893 223.45222 222.23751 221.13281 220.10610 219.22339 218.37768
 217.63297 216.82626 215.93755 215.31485 214.77814 215.35397 216.71446 218.34665
 220.22197 221.73033 222.45119 222.29416 221.14948 219.71667 220.51347 222.91264
 226.43466 231.03522 235.95511 240.78766 245.28317 249.46245 253.30385 256.75284
 259.80875 262.50638 264.90918 267.13278 269.22211 271.17444 272.97525 274.59763
 276.02972 277.28900 278.41016 279.40506 280.28015 281.09796 281.89444 282.68408
 283.44324 284.14206 284.77078 285.61298
 366.78100 356.34760 345.79219 334.67079 323.08638 311.29298 299.17557 286.99117
 274.71576 262.62536 250.64695 239.96055 230.09514 221.21174 213.40633 206.42093
 200.26752 195.21812 191.81271 189.86731 188.91690 188.99350 189.84109 191.16169
 192.89928 195.00688 197.28247 199.65407 202.11166 204.60426 206.70485 208.55945
 210.19804 211.35564 211.59723 211.83783 211.78742 211.50502 211.15061 210.79321
 210.42280 210.14540 209.96599 209.84259 209.78318 210.12678 210.52538 210.92697
 211.73257 212.92316 214.18576 215.98135 217.92195 219.97754 222.08514 224.18073
 226.25333 228.34992 230.45952 232.57811 234.71971 236.90430 239.17290 241.55549
 244.18909 246.45268 248.46728 250.24487 251.67447 252.81006 253.64466 253.97325
 254.02285 253.80944 253.18204 252.14263 250.76123 248.93482 246.85642 244.70201
 242.50561 240.32220 238.15480 236.00639 233.87899 231.75858 229.79718 227.96677
 226.26237 224.74697 223.38956 222.17416 221.06875 220.04135 219.15794 218.31154
 217.56613 216.75873 215.86932 215.24592 214.70851 215.30956 216.72957 218.31442
 220.21318 221.74562 222.38484 222.01251 220.73834 219.45161 220.35841 222.85460
 226.49496 231.18036 236.14072 241.02571 245.55544 249.71767 253.51744 256.91739
 259.94571 262.62088 264.97540 267.14835 269.21167 271.16330 272.98880 274.64417
 276.06104 277.24130 278.22806 279.04932 279.73950 280.40051 281.08820 281.86246
 282.63959 283.34869 283.99203 284.87845
 354.97500 345.04800 334.58700 324.11500 313.32600 302.53700 291.65000 280.76700
 269.93100 259.19300 248.62200 238.61700 229.08700 220.35500 212.54000 205.53500
 199.46400 194.49300 191.14300 189.19000 188.08900 188.01400 188.72400 189.90600
 191.46900 193.38200 195.40300 197.55600 199.80700 202.06000 204.28800 206.47900
 208.55200 210.37800 212.02500 213.65900 214.99800 216.11800 217.17200 218.25900
 219.49400 220.64500 221.67900 222.61400 223.54500 224.98200 226.57100 228.19000
 229.79700 231.81100 233.86500 235.97200 238.24200 240.55300 242.89900 245.25300
 247.48800 249.53500 251.36600 252.84800 254.09800 255.16700 256.02700 256.25300
 256.09500 255.54300 253.93500 252.56600 251.38400 250.24500 249.05200 247.70100
 246.01600 243.99600 241.78400 239.39300 236.81300 234.22300 231.65800 229.14400
 226.74000 224.47300 222.33500 220.32500 218.44000 216.67700 214.96200 213.47200
 212.20000 211.10800 210.26000 209.63900 209.24400 209.03100 209.05800 209.33300
 209.78400 210.62600 211.33100 212.39100 213.62500 214.84668 217.72949 219.47640
 220.32566 220.86828 220.88710 220.27371 219.43733 218.84250 219.04934 220.86203
 222.60583 225.72206 229.03064 232.61777 236.12270 239.51333 242.70767 245.68587
 248.41061 250.90679 253.19353 254.91714 256.48655 257.94920 259.39966 260.69384
 261.81714 262.77997 263.71679 264.54570 265.26305 265.89772 266.47676 267.00133
 267.47312 267.89325 268.26027 268.72800
