|-------------------------------------------------------------------------|
|   File Name : in_temp.dat
|   Subject   : temperature profiles used for initial guess atmosphere
|   File Type : input of gmtr
|   Data Type : atmospherical data
|   Author/s  : WRF-Chem
|   Date      : Fri Jul 26 15:39:24 2024
|-------------------------------------------------------------------------|

 WRF-Chem temperature
#
 values of T (K)    (8f10.5)
#
 354.97500 345.04800 334.58700 324.11500 313.32600 302.53700 291.65000 280.76700
 269.93100 259.19300 248.62200 238.61700 229.08700 220.35500 212.54000 205.53500
 199.46400 194.49300 191.14300 189.19000 188.08900 188.01400 188.72400 189.90600
 191.46900 193.38200 195.40300 197.55600 199.80700 202.06000 204.28800 206.47900
 208.55200 210.37800 212.02500 213.65900 214.99800 216.11800 217.17200 218.25900
 219.49400 220.64500 221.67900 222.61400 223.54500 224.98200 226.57100 228.19000
 229.79700 231.81100 233.86500 235.97200 238.24200 240.55300 242.89900 245.25300
 247.48800 249.53500 251.36600 252.84800 254.09800 255.16700 256.02700 256.25300
 256.09500 255.54300 253.93500 252.56600 251.38400 250.24500 249.05200 247.70100
 246.01600 243.99600 241.78400 239.39300 236.81300 234.22300 231.65800 229.14400
 226.74000 224.47300 222.33500 220.32500 218.44000 216.67700 214.96200 213.47200
 212.20000 211.10800 210.26000 209.63900 209.24400 209.03100 209.05800 209.33300
 209.78400 210.62600 211.33100 212.39100 213.62500 214.84668 217.72949 219.47640
 220.32566 220.86828 220.88710 220.27371 219.43733 218.84250 219.04934 220.86203
 222.60583 225.72206 229.03064 232.61777 236.12270 239.51333 242.70767 245.68587
 248.41061 250.90679 253.19353 254.91714 256.48655 257.94920 259.39966 260.69384
 261.81714 262.77997 263.71679 264.54570 265.26305 265.89772 266.47676 267.00133
 267.47312 267.89325 268.26027 268.72800
 366.78100 356.33500 345.76700 334.63300 323.03600 311.23000 299.10000 286.90300
 274.61500 262.51200 250.52100 239.82200 229.94400 221.04800 213.23000 206.23200
 200.06600 195.00400 191.58600 189.62800 188.66500 188.72900 189.56400 190.87200
 192.59700 194.69200 196.95500 199.31400 201.75900 204.23900 206.32700 208.16900
 209.79500 210.94000 211.16900 211.39700 211.33400 211.03900 210.67200 210.30200
 209.91900 209.62900 209.43700 209.30100 209.22900 209.56000 209.94600 210.33500
 211.12800 212.30600 213.55600 215.33900 217.26700 219.31000 221.40500 223.48800
 225.54800 227.63200 229.72900 231.83500 233.96400 236.13600 238.39200 240.76200
 243.38300 245.63400 247.63600 249.40100 250.81800 251.94100 252.76300 253.07900
 253.11600 252.89000 252.25000 251.19800 249.80400 247.96500 245.87400 243.70700
 241.49800 239.30200 237.12200 234.96100 232.82100 230.68800 228.71400 226.87100
 225.15400 223.62600 222.25600 221.02800 219.91000 218.87000 217.97400 217.11500
 216.35700 215.53700 214.63500 213.99900 213.44900 212.85855 212.01316 212.61654
 214.26826 216.08686 218.14273 220.53346 223.40855 226.78828 231.49734 235.90155
 239.42278 243.28576 247.23140 251.11907 254.80144 258.23331 261.38913 264.27520
 266.89312 269.26852 271.44504 273.08845 274.58484 275.98591 277.39845 278.65879
 279.75272 280.69038 281.56708 282.34086 283.01050 283.60295 284.14348 284.63317
 285.07358 285.46577 285.80838 286.24500
 381.81900 372.39900 361.20600 349.77600 337.62200 324.85300 311.81000 298.35300
 284.86000 271.32400 258.56100 246.30400 236.08700 226.79600 218.44800 211.29000
 205.52200 200.89400 197.38100 194.84800 193.01500 192.31500 192.25000 192.43100
 192.91200 193.53700 194.13600 194.71200 195.26200 195.83100 196.39300 196.97600
 197.60400 198.14900 198.58400 199.05700 199.69500 200.37800 201.05400 201.70800
 202.31300 202.85700 203.35500 203.86200 204.56900 205.29700 206.02600 206.98700
 208.19300 209.44100 210.96900 212.57600 214.46200 216.51300 218.63000 220.85300
 223.34100 225.96200 228.73900 231.69700 234.70600 237.70600 240.69200 243.65700
 246.73700 249.69900 252.52100 255.06300 257.29000 259.23300 260.63300 261.68000
 262.46100 262.79800 262.69100 262.22400 261.06900 259.52500 257.70700 255.50700
 253.00100 250.30200 247.39800 244.45200 241.65400 239.05400 236.73300 234.59000
 232.59500 230.72500 228.83400 226.82600 224.66600 222.38700 220.10400 217.71500
 215.45900 213.06600 210.54600 208.09300 205.35400 202.08130 196.05959 200.71215
 209.01611 216.90438 223.84126 229.78593 235.00632 240.20838 245.98943 250.68668
 254.32982 257.93487 261.55666 264.96801 268.15192 271.06452 273.76717 276.25691
 278.57680 280.74479 282.77456 284.60533 286.27232 287.81705 289.31715 290.65561
 291.81734 292.81312 293.70701 294.49387 295.17482 295.77730 296.32696 296.82492
 297.27278 297.67160 298.02000 298.46400
 399.33000 389.90700 379.81300 368.66800 357.52200 345.30100 333.07400 320.22700
 307.21600 293.84800 280.37600 267.29600 254.61000 242.98700 232.15100 221.97700
 212.67200 204.28600 197.66900 192.82100 189.48600 187.45200 186.81400 187.08900
 187.78100 189.05400 190.64800 192.54200 194.63000 196.75200 198.67100 200.15800
 201.53500 202.48700 202.97500 203.34000 203.53900 203.49700 203.38500 203.24700
 203.00500 202.78600 202.60300 202.43700 202.42600 202.88800 203.42000 203.95100
 204.89500 205.99200 207.30100 208.95800 210.73800 213.10000 215.56400 218.18000
 220.96600 223.91800 226.96100 230.09200 233.29300 236.55700 239.95500 243.53700
 246.84500 249.39000 251.54200 253.47400 255.19500 256.48400 257.43100 258.05900
 258.21200 258.04000 257.58200 256.64300 255.23900 253.50700 251.40800 249.05600
 246.57600 243.99400 241.38900 238.83000 236.34400 233.98600 231.96900 230.11800
 228.42300 226.89900 225.54800 224.29700 223.10500 221.96500 220.95800 220.11300
 219.49000 218.92000 218.32500 217.88100 217.42300 216.96366 216.35568 216.80261
 217.73415 218.28582 218.64258 219.10077 220.44626 222.53987 226.38451 230.35736
 233.59734 237.39164 241.29814 245.22796 248.98002 252.51130 255.78595 258.80109
 261.54781 264.05210 266.34239 268.04198 269.58951 271.01303 272.35754 273.55718
 274.59842 275.49092 276.28989 276.99307 277.60161 278.14001 278.63122 279.07623
 279.47646 279.83287 280.14422 280.54100
 399.73800 389.78500 379.66200 368.15100 356.64100 344.35000 331.79200 318.88800
 305.72600 292.49300 279.20900 266.73800 254.69600 244.21100 234.45700 225.43300
 217.56900 210.45100 204.30000 199.30600 195.45800 192.57600 191.02700 190.38600
 190.23900 190.53400 191.16600 191.92500 192.79500 193.76600 194.73200 195.31200
 195.80000 196.05200 196.11500 196.11500 196.03900 195.72300 195.34000 194.98900
 194.75100 194.79200 195.13300 195.59800 196.50600 198.13600 199.85800 201.56600
 204.17900 206.82300 209.89300 213.28400 216.82800 220.60500 224.38700 228.20900
 232.03200 235.82500 239.56000 243.25800 246.84500 250.20100 253.70900 257.46800
 261.53000 264.22100 266.60100 268.68100 270.32900 271.74100 272.83600 273.47400
 273.89800 274.00200 273.75700 273.28800 272.37100 271.10000 269.58900 267.77900
 265.81600 263.72100 261.39300 258.91600 256.29800 253.42300 250.33100 247.11400
 243.83700 240.52900 237.24900 233.99900 230.72800 227.51500 224.25400 220.95200
 217.62700 213.65600 210.12100 206.78900 204.01000 201.99491 199.07309 198.76551
 199.40006 200.48994 201.46112 202.31912 203.45100 204.96110 207.47502 210.85391
 213.70530 217.29629 220.99574 224.72316 228.28753 231.64854 234.68024 237.40893
 239.70644 241.60899 243.46854 245.67368 247.68154 249.52395 251.24767 252.78566
 254.12057 255.26479 256.23740 257.09036 257.82852 258.48160 259.07744 259.61723
 260.10271 260.53504 260.91270 261.39400
 399.73800 389.78500 379.66200 368.15100 356.64100 344.35000 331.79200 318.88800
 305.72600 292.49300 279.20900 266.73800 254.69600 244.21100 234.45700 225.43300
 217.56900 210.45100 204.30000 199.30600 195.45800 192.57600 191.02700 190.38600
 190.23900 190.53400 191.16600 191.92500 192.79500 193.76600 194.73200 195.31200
 195.80000 196.05200 196.11500 196.11500 196.03900 195.72300 195.34000 194.98900
 194.75100 194.79200 195.13300 195.59800 196.50600 198.13600 199.85800 201.56600
 204.17900 206.82300 209.89300 213.28400 216.82800 220.60500 224.38700 228.20900
 232.03200 235.82500 239.56000 243.25800 246.84500 250.20100 253.70900 257.46800
 261.53000 264.22100 266.60100 268.68100 270.32900 271.74100 272.83600 273.47400
 273.89800 274.00200 273.75700 273.28800 272.37100 271.10000 269.58900 267.77900
 265.81600 263.72100 261.39300 258.91600 256.29800 253.42300 250.33100 247.11400
 243.83700 240.52900 237.24900 233.99900 230.72800 227.51500 224.25400 220.95200
 217.62700 213.65600 210.12100 206.78900 204.01000 201.99491 199.07309 198.76551
 199.40006 200.48994 201.46112 202.31912 203.45100 204.96110 207.47502 210.85391
 213.70530 217.29629 220.99574 224.72316 228.28753 231.64854 234.68024 237.40893
 239.70644 241.60899 243.46854 245.67368 247.68154 249.52395 251.24767 252.78566
 254.12057 255.26479 256.23740 257.09036 257.82852 258.48160 259.07744 259.61723
 260.10271 260.53504 260.91270 261.39400
 399.33000 389.90700 379.81300 368.66800 357.52200 345.30100 333.07400 320.22700
 307.21600 293.84800 280.37600 267.29600 254.61000 242.98700 232.15100 221.97700
 212.67200 204.28600 197.66900 192.82100 189.48600 187.45200 186.81400 187.08900
 187.78100 189.05400 190.64800 192.54200 194.63000 196.75200 198.67100 200.15800
 201.53500 202.48700 202.97500 203.34000 203.53900 203.49700 203.38500 203.24700
 203.00500 202.78600 202.60300 202.43700 202.42600 202.88800 203.42000 203.95100
 204.89500 205.99200 207.30100 208.95800 210.73800 213.10000 215.56400 218.18000
 220.96600 223.91800 226.96100 230.09200 233.29300 236.55700 239.95500 243.53700
 246.84500 249.39000 251.54200 253.47400 255.19500 256.48400 257.43100 258.05900
 258.21200 258.04000 257.58200 256.64300 255.23900 253.50700 251.40800 249.05600
 246.57600 243.99400 241.38900 238.83000 236.34400 233.98600 231.96900 230.11800
 228.42300 226.89900 225.54800 224.29700 223.10500 221.96500 220.95800 220.11300
 219.49000 218.92000 218.32500 217.88100 217.42300 216.96366 216.35568 216.80261
 217.73415 218.28582 218.64258 219.10077 220.44626 222.53987 226.38451 230.35736
 233.59734 237.39164 241.29814 245.22796 248.98002 252.51130 255.78595 258.80109
 261.54781 264.05210 266.34239 268.04198 269.58951 271.01303 272.35754 273.55718
 274.59842 275.49092 276.28989 276.99307 277.60161 278.14001 278.63122 279.07623
 279.47646 279.83287 280.14422 280.54100
 381.81900 372.39900 361.20600 349.77600 337.62200 324.85300 311.81000 298.35300
 284.86000 271.32400 258.56100 246.30400 236.08700 226.79600 218.44800 211.29000
 205.52200 200.89400 197.38100 194.84800 193.01500 192.31500 192.25000 192.43100
 192.91200 193.53700 194.13600 194.71200 195.26200 195.83100 196.39300 196.97600
 197.60400 198.14900 198.58400 199.05700 199.69500 200.37800 201.05400 201.70800
 202.31300 202.85700 203.35500 203.86200 204.56900 205.29700 206.02600 206.98700
 208.19300 209.44100 210.96900 212.57600 214.46200 216.51300 218.63000 220.85300
 223.34100 225.96200 228.73900 231.69700 234.70600 237.70600 240.69200 243.65700
 246.73700 249.69900 252.52100 255.06300 257.29000 259.23300 260.63300 261.68000
 262.46100 262.79800 262.69100 262.22400 261.06900 259.52500 257.70700 255.50700
 253.00100 250.30200 247.39800 244.45200 241.65400 239.05400 236.73300 234.59000
 232.59500 230.72500 228.83400 226.82600 224.66600 222.38700 220.10400 217.71500
 215.45900 213.06600 210.54600 208.09300 205.35400 202.08130 196.05959 200.71215
 209.01611 216.90438 223.84126 229.78593 235.00632 240.20838 245.98943 250.68668
 254.32982 257.93487 261.55666 264.96801 268.15192 271.06452 273.76717 276.25691
 278.57680 280.74479 282.77456 284.60533 286.27232 287.81705 289.31715 290.65561
 291.81734 292.81312 293.70701 294.49387 295.17482 295.77730 296.32696 296.82492
 297.27278 297.67160 298.02000 298.46400
 366.78100 356.34253 345.78207 334.65560 323.06614 311.26767 299.14521 286.95574
 274.67528 262.57981 250.59634 239.90488 230.03441 221.14595 213.33548 206.34502
 200.18655 195.13208 191.72162 189.77115 188.81569 188.88722 189.72976 191.04529
 192.77783 194.88036 197.15089 199.51743 201.96996 204.45750 206.55303 208.40257
 210.03610 211.18863 211.42517 211.66070 211.60524 211.31777 210.95831 210.59584
 210.22038 209.93791 209.75344 209.62498 209.56051 209.89905 210.29258 210.68912
 211.48965 212.67518 213.93272 215.72325 217.65879 219.70932 221.81186 223.90239
 225.96993 228.06146 230.16599 232.27953 234.41606 236.59560 238.85913 241.23667
 243.86520 246.12373 248.13327 249.90580 251.33034 252.46087 253.29041 253.61394
 253.65848 253.44001 252.80754 251.76308 250.37661 248.54515 246.46168 244.30222
 242.10075 239.91229 237.73982 235.58635 233.45389 231.32842 229.36196 227.52649
 225.81703 224.29656 222.93409 221.71363 220.60316 219.57070 218.68223 217.83077
 217.08030 216.26784 215.37337 214.74490 214.20244 213.41237 211.54837 210.94708
 211.82231 213.69325 215.73586 216.99330 219.05157 223.07616 228.96977 234.03882
 237.87154 241.58731 245.28896 249.12874 253.15292 256.41342 259.01175 261.43427
 264.30325 267.04437 269.40302 271.41232 273.21292 274.92493 276.55814 278.23129
 279.95981 281.59686 283.08731 284.44092 285.62076 286.66669 287.62589 288.49756
 289.28824 289.99829 290.62311 291.45444
 366.78100 356.34075 345.77849 334.65024 323.05898 311.25873 299.13447 286.94322
 274.66096 262.56371 250.57845 239.88520 230.01294 221.12269 213.31043 206.31818
 200.15792 195.10167 191.68941 189.73716 188.77990 188.84965 189.69039 191.00414
 192.73488 194.83563 197.10437 199.46912 201.91986 204.40561 206.49935 208.34710
 209.97884 211.12959 211.36433 211.59808 211.54082 211.25157 210.89032 210.52606
 210.14881 209.86455 209.67830 209.54804 209.48179 209.81853 210.21028 210.60502
 211.40377 212.58751 213.84326 215.63200 217.56575 219.61449 221.71524 223.80398
 225.86973 227.95947 230.06222 232.17396 234.30871 236.48645 238.74820 241.12394
 243.75069 246.00743 248.01518 249.78592 251.20867 252.33741 253.16516 253.48690
 253.52965 253.30940 252.67514 251.62889 250.24063 248.40738 246.32212 244.16087
 241.95761 239.76736 237.59310 235.43785 233.30359 231.17634 229.20808 227.37083
 225.65957 224.13732 222.77306 221.55081 220.43855 219.40430 218.51404 217.66079
 216.90853 216.09428 215.19802 214.56777 214.02351 213.32547 211.67824 211.13287
 211.86256 213.77541 215.83739 217.04662 218.95932 222.98611 228.90532 233.95215
 237.77374 241.49538 245.21935 249.08379 253.12361 256.32950 258.87219 261.31183
 264.17676 266.93384 269.32159 271.32437 273.09494 274.78058 276.42441 278.11539
 279.84924 281.48907 282.98422 284.33984 285.51935 286.56656 287.52466 288.39807
 289.19009 289.89880 290.52667 291.35687
 366.78100 356.33872 345.77445 334.64417 323.05089 311.24862 299.12234 286.92907
 274.64479 262.54551 250.55824 239.86296 229.98868 221.09641 213.28213 206.28785
 200.12558 195.06730 191.65303 189.69875 188.73947 188.80720 189.64592 190.95764
 192.68637 194.78509 197.05181 199.41454 201.86326 204.34699 206.43871 208.28443
 209.91416 211.06288 211.29560 211.52733 211.46805 211.17678 210.81350 210.44722
 210.06795 209.78167 209.59339 209.46112 209.39284 209.72756 210.11729 210.51001
 211.30674 212.48846 213.74218 215.52891 217.46063 219.50735 221.60608 223.69280
 225.75652 227.84425 229.94497 232.05470 234.18742 236.36314 238.62287 240.99659
 243.62131 245.87604 247.88176 249.65048 251.07121 252.19793 253.02366 253.34338
 253.38410 253.16183 252.52555 251.47727 250.08700 248.25172 246.16444 244.00117
 241.79589 239.60362 237.42734 235.27006 233.13379 231.00451 229.03423 227.19496
 225.48168 223.95741 222.59113 221.36685 220.25258 219.21630 218.32402 217.46875
 216.71447 215.89819 214.99992 214.36764 213.82137 213.22676 211.82317 211.27481
 211.94244 213.87653 215.88586 217.10782 218.89294 222.90703 228.85104 233.87071
 237.67937 241.40279 245.14868 249.03822 253.08409 256.23837 258.72995 261.18750
 264.04565 266.81750 269.23563 271.23492 272.97751 274.63901 276.29276 278.00107
 279.74081 281.38492 282.88431 284.24081 285.42169 286.46921 287.42889 288.30289
 289.09195 289.80365 290.42999 291.26474
 366.78100 356.33677 345.77053 334.63830 323.04306 311.23883 299.11059 286.91536
 274.62913 262.52789 250.53866 239.84142 229.96519 221.07096 213.25472 206.25849
 200.09425 195.03402 191.61778 189.66155 188.70032 188.76608 189.60285 190.91261
 192.63938 194.73614 197.00091 199.36168 201.80844 204.29021 206.37997 208.22374
 209.85151 210.99827 211.22904 211.45880 211.39757 211.10433 210.73910 210.37087
 209.98963 209.70140 209.51116 209.37693 209.30670 209.63946 210.02723 210.41799
 211.21276 212.39252 213.64429 215.42906 217.35882 219.40359 221.50035 223.58512
 225.64688 227.73265 229.83142 231.93918 234.06995 236.24371 238.50148 240.87325
 243.49601 245.74878 247.75254 249.51931 250.93807 252.06284 252.88661 253.20437
 253.24314 253.01890 252.38067 251.33043 249.93820 248.10097 246.01173 243.84650
 241.63926 239.44503 237.26680 235.10756 232.96933 230.83809 228.86586 227.02462
 225.30939 223.78316 222.41492 221.18869 220.07245 219.03422 218.13999 217.28275
 216.52652 215.70828 214.80805 214.17381 213.62558 213.13023 211.96054 211.40573
 212.03804 213.98393 215.93037 217.15959 218.84584 222.83681 228.80164 233.78741
 237.58133 241.30692 245.07748 248.99124 253.03603 256.14322 258.59134 261.06625
 263.91150 266.69498 269.14185 271.13824 272.85812 274.50110 276.16870 277.89438
 279.63992 281.28452 282.79016 284.14709 285.32797 286.37604 287.33710 288.20886
 289.00235 289.71103 290.33936 291.17667
 366.78100 356.33515 345.76730 334.63345 323.03660 311.23075 299.10090 286.90404
 274.61619 262.51334 250.52249 239.82364 229.94579 221.04994 213.23209 206.23424
 200.06839 195.00654 191.58869 189.63084 188.66799 188.73213 189.56728 190.87543
 192.60058 194.69573 196.95888 199.31803 201.76318 204.24333 206.33148 208.17363
 209.79978 210.94493 211.17408 211.40222 211.33937 211.04452 210.67767 210.30782
 209.92497 209.63512 209.44327 209.30742 209.23557 209.56672 209.95287 210.34202
 211.13517 212.31331 213.56346 215.34661 217.27476 219.31791 221.41306 223.49621
 225.55636 227.64051 229.73766 231.84381 233.97296 236.14511 238.40126 240.77140
 243.39255 245.64370 247.64585 249.41100 250.82815 251.95130 252.77345 253.08960
 253.12675 252.90090 252.26105 251.20920 249.81535 247.97649 245.88564 243.71879
 241.50994 239.31409 237.13424 234.97339 232.83354 230.70069 228.72684 226.88399
 225.16714 223.63929 222.26944 221.04158 219.92373 218.88388 217.98803 217.12918
 216.37133 215.55148 214.64963 214.01378 213.46393 213.05000 212.07240 211.54373
 212.14331 214.08467 215.98238 217.20677 218.81200 222.77992 228.75314 233.70140
 237.48239 241.21429 245.01064 248.94405 252.97948 256.04282 258.45566 260.94559
 263.77368 266.56253 269.03531 271.03146 272.73715 274.37030 276.05219 277.79541
 279.54303 281.19153 282.70071 284.05875 285.23984 286.28903 287.24857 288.12320
 288.91422 289.62567 290.25427 291.09451
 366.78100 356.33388 345.76475 334.62963 323.03150 311.22438 299.09325 286.89513
 274.60600 262.50188 250.50975 239.80963 229.93050 221.03338 213.21425 206.21513
 200.04800 194.98488 191.56575 189.60663 188.64250 188.70538 189.53925 190.84613
 192.57000 194.66388 196.92575 199.28363 201.72750 204.20638 206.29325 208.13413
 209.75900 210.90288 211.13075 211.35763 211.29350 210.99738 210.62925 210.25813
 209.87400 209.58288 209.38975 209.25263 209.17950 209.50938 209.89425 210.28213
 211.07400 212.25088 213.49975 215.28163 217.20850 219.25038 221.34425 223.42613
 225.48500 227.56788 229.66375 231.76863 233.89650 236.06738 238.32225 240.69113
 243.31100 245.56088 247.56175 249.32563 250.74150 251.86338 252.68425 252.99913
 253.03500 252.80788 252.16675 251.11363 249.71850 247.87838 245.78625 243.61813
 241.40800 239.21088 237.02975 234.86763 232.72650 230.59238 228.61725 226.77313
 225.05500 223.52588 222.15475 220.92563 219.80650 218.76538 217.86825 217.00813
 216.24900 215.42788 214.52475 213.88763 213.33650 212.98653 212.15984 211.68524
 212.26086 214.17787 216.04131 217.25177 218.78723 222.73769 228.70473 233.61592
 237.38449 241.12822 244.95020 248.89761 252.91425 255.93645 258.32086 260.82462
 263.63013 266.41818 268.91229 270.91162 272.61646 274.25024 275.94632 277.70316
 279.45062 281.10260 282.61618 283.97461 285.15637 286.20432 287.16595 288.04071
 288.83356 289.54572 290.17377 291.01202
 366.78100 356.33286 345.76271 334.62657 323.02743 311.21929 299.08714 286.88800
 274.59786 262.49272 250.49957 239.79843 229.91829 221.02014 213.20000 206.19986
 200.03172 194.96757 191.54743 189.58729 188.62215 188.68400 189.51686 190.82272
 192.54557 194.63843 196.89929 199.25615 201.69900 204.17686 206.26272 208.10258
 209.72643 210.86929 211.09615 211.32200 211.25686 210.95972 210.59058 210.21843
 209.83329 209.54115 209.34700 209.20886 209.13472 209.46358 209.84743 210.23429
 211.02515 212.20101 213.44886 215.22972 217.15558 219.19643 221.28929 223.37015
 225.42801 227.50986 229.60472 231.70858 233.83544 236.00529 238.25915 240.62701
 243.24586 245.49472 247.49458 249.25744 250.67229 251.79315 252.61301 252.92687
 252.96172 252.73358 252.09144 251.03729 249.64115 247.80001 245.70687 243.53772
 241.32658 239.12844 236.94630 234.78315 232.64101 230.50587 228.52972 226.68458
 224.96544 223.43530 222.06315 220.83301 219.71287 218.67073 217.77258 216.91144
 216.15130 215.32915 214.42501 213.78687 213.23473 212.93590 212.22997 211.82576
 212.38504 214.27126 216.10811 217.28717 218.77792 222.70737 228.65315 233.53455
 237.29262 241.04860 244.89430 248.85056 252.83847 255.82556 258.18967 260.70535
 263.48260 266.26205 268.77121 270.77637 272.49213 274.14145 275.85312 277.61990
 279.36661 281.01892 282.53528 283.89502 285.07669 286.12607 287.08801 287.96289
 288.75644 289.46777 290.09753 290.93713
 366.78100 356.33199 345.76099 334.62398 323.02397 311.21496 299.08196 286.88195
 274.59094 262.48493 250.49093 239.78892 229.90791 221.00890 213.18790 206.18689
 200.01788 194.95287 191.53187 189.57086 188.60485 188.66584 189.49784 190.80283
 192.52482 194.61681 196.87681 199.23280 201.67479 204.15178 206.23678 208.07577
 209.69876 210.84075 211.06675 211.29174 211.22573 210.92772 210.55772 210.18471
 209.79870 209.50569 209.31069 209.17168 209.09667 209.42466 209.80766 210.19365
 210.98364 212.15863 213.40563 215.18562 217.11061 219.15060 221.24260 223.32259
 225.37958 227.46058 229.55457 231.65756 233.78355 235.95255 238.20554 240.57253
 243.19052 245.43852 247.43751 249.19950 250.61349 251.73349 252.55248 252.86547
 252.89946 252.67046 252.02745 250.97244 249.57543 247.73343 245.63942 243.46941
 241.25740 239.05840 236.87539 234.71138 232.56837 230.43237 228.45536 226.60935
 224.88934 223.35834 221.98533 220.75432 219.63331 218.59031 217.69130 216.82929
 216.06828 215.24528 214.34027 213.70126 213.14825 212.89355 212.29185 211.95757
 212.51398 214.36946 216.18184 217.31741 218.77600 222.69034 228.60300 233.45535
 237.20338 240.97089 244.84039 248.80234 252.75195 255.70982 258.06458 260.59052
 263.33331 266.09521 268.61224 270.62515 272.36374 274.04047 275.77103 277.54312
 279.28763 280.93991 282.46158 283.82156 285.00439 286.05405 287.01532 287.89191
 288.68655 289.39920 290.02856 290.87009
 366.78100 356.33124 345.75949 334.62173 323.02098 311.21122 299.07746 286.87671
 274.58495 262.47819 250.48344 239.78068 229.89893 220.99917 213.17741 206.17566
 200.00590 194.94014 191.51839 189.55663 188.58988 188.65012 189.48136 190.78561
 192.50685 194.59809 196.85734 199.21258 201.65383 204.13007 206.21431 208.05256
 209.67480 210.81605 211.04129 211.26553 211.19878 210.90002 210.52926 210.15551
 209.76875 209.47500 209.27924 209.13948 209.06373 209.39097 209.77321 210.15846
 210.94770 212.12195 213.36819 215.14743 217.07168 219.11092 221.20216 223.28141
 225.33765 227.41790 229.51114 231.61338 233.73863 235.90687 238.15912 240.52536
 243.14260 245.38985 247.38809 249.14933 250.56258 251.68182 252.50007 252.81231
 252.84555 252.61580 251.97204 250.91628 249.51853 247.67577 245.58102 243.41026
 241.19750 238.99775 236.81399 234.64923 232.50548 230.36872 228.39097 226.54421
 224.82345 223.29170 221.91794 220.68619 219.56443 218.52067 217.62092 216.75816
 215.99640 215.17265 214.26689 213.62714 213.07338 212.85823 212.34998 212.08025
 212.63857 214.48425 216.25648 217.33528 218.80460 222.68027 228.54652 233.37558
 237.11754 240.89790 244.79051 248.75439 252.65341 255.58501 257.94077 260.47849
 263.18314 265.91995 268.43954 270.46503 272.23730 273.95035 275.69907 277.47321
 279.21494 280.86633 282.39267 283.75412 284.93640 285.98788 286.94885 287.82715
 288.62146 289.33554 289.96320 290.80994
 366.78100 356.33081 345.75862 334.62043 323.01924 311.20904 299.07485 286.87366
 274.58147 262.47428 250.47909 239.77590 229.89371 220.99352 213.17132 206.16913
 199.99894 194.93275 191.51056 189.54837 188.58118 188.64099 189.47180 190.77561
 192.49641 194.58722 196.84603 199.20084 201.64165 204.11746 206.20127 208.03908
 209.66089 210.80169 211.02650 211.25031 211.18312 210.88393 210.51274 210.13855
 209.75136 209.45717 209.26097 209.12078 209.04459 209.37140 209.75321 210.13802
 210.92683 212.10064 213.34645 215.12525 217.04906 219.08787 221.17868 223.25749
 225.31330 227.39311 229.48592 231.58773 233.71254 235.88034 238.13215 240.49796
 243.11477 245.36158 247.35939 249.12020 250.53301 251.65182 252.46962 252.78143
 252.81424 252.58405 251.93986 250.88367 249.48548 247.64229 245.54710 243.37590
 241.16271 238.96252 236.77833 234.61314 232.46895 230.33176 228.35357 226.50638
 224.78518 223.25299 221.87880 220.64661 219.52442 218.48023 217.58004 216.71685
 215.95466 215.13047 214.22427 213.58408 213.02989 212.84029 212.39229 212.19911
 212.76704 214.58932 216.34708 217.36436 218.82161 222.68568 228.50232 233.30057
 237.03192 240.82372 244.74097 248.70451 252.54080 255.44832 257.81671 260.36826
 263.03290 265.73862 268.25650 270.30011 272.11646 273.87350 275.63763 277.40915
 279.14786 280.79764 282.32919 283.69119 284.87482 285.92526 286.88748 287.76660
 288.56036 289.27713 289.90720 290.75284
 366.78100 356.33037 345.75773 334.61910 323.01747 311.20684 299.07220 286.87057
 274.57794 262.47030 250.47467 239.77104 229.88841 220.98777 213.16514 206.16251
 199.99187 194.92524 191.50261 189.53998 188.57234 188.63171 189.46208 190.76545
 192.48581 194.57618 196.83455 199.18891 201.62928 204.10465 206.18802 208.02538
 209.64675 210.78712 211.01148 211.23485 211.16722 210.86759 210.49595 210.12132
 209.73369 209.43905 209.24242 209.10179 209.02516 209.35152 209.73289 210.11726
 210.90562 212.07899 213.32436 215.10273 217.02609 219.06446 221.15483 223.23319
 225.28856 227.36793 229.46030 231.56166 233.68603 235.85340 238.10477 240.47013
 243.08650 245.33287 247.33023 249.09060 250.50297 251.62134 252.43870 252.75007
 252.78244 252.55180 251.90717 250.85054 249.45191 247.60827 245.51264 243.34101
 241.12737 238.92674 236.74211 234.57648 232.43184 230.29421 228.31558 226.46794
 224.74631 223.21368 221.83905 220.60641 219.48378 218.43915 217.53851 216.67488
 215.91225 215.08762 214.18098 213.54035 212.98572 212.82527 212.44621 212.28383
 212.89334 214.72661 216.41330 217.40436 218.91032 222.69737 228.44730 233.21178
 236.93802 240.74873 244.69511 248.65825 252.42200 255.30530 257.69406 260.25873
 262.88202 265.55133 268.06271 270.12823 271.99899 273.80716 275.58264 277.34692
 279.08282 280.73254 282.26825 283.63162 284.81696 285.86783 286.83215 287.70880
 288.50742 289.22153 289.85248 290.70163
 366.78100 356.33095 345.75890 334.62084 323.01979 311.20974 299.07569 286.87464
 274.58258 262.47553 250.48048 239.77743 229.89538 220.99532 213.17327 206.17122
 200.00117 194.93511 191.51306 189.55101 188.58396 188.64391 189.47485 190.77880
 192.49975 194.59070 196.84965 199.20459 201.64554 204.12149 206.20544 208.04339
 209.66533 210.80628 211.03123 211.25518 211.18813 210.88907 210.51802 210.14397
 209.75692 209.46287 209.26681 209.12676 209.05071 209.37766 209.75960 210.14455
 210.93350 212.10745 213.35340 215.13234 217.05629 219.09524 221.18619 223.26514
 225.32108 227.40103 229.49398 231.59593 233.72088 235.88882 238.14077 240.50672
 243.12367 245.37062 247.36856 249.12951 250.54246 251.66141 252.47935 252.79130
 252.82425 252.59420 251.95015 250.89409 249.49604 247.65299 245.55794 243.38689
 241.17383 238.97378 236.78973 234.62468 232.48063 230.34357 228.36552 226.51847
 224.79742 223.26537 221.89131 220.65926 219.53721 218.49316 217.59311 216.73005
 215.96800 215.14395 214.23790 213.59784 213.04379 212.86829 212.45364 212.34465
 213.02757 214.88847 216.56351 217.42885 218.91951 222.71114 228.40761 233.13377
 236.85374 240.68279 244.65662 248.61388 252.29309 255.15074 257.56595 260.14716
 262.73190 265.36179 267.86157 269.95203 271.88144 273.74692 275.53430 277.28586
 279.01620 280.67249 282.21109 283.57535 284.75974 285.81207 286.77545 287.65536
 288.45242 289.16791 289.80066 290.65158
 366.78100 356.32969 345.75638 334.61708 323.01477 311.20346 299.06815 286.86584
 274.57253 262.46423 250.46792 239.76361 229.88030 220.97899 213.15568 206.15238
 199.98107 194.91376 191.49045 189.52714 188.55883 188.61753 189.44722 190.74991
 192.46960 194.55929 196.81698 199.17068 201.61037 204.08506 206.16775 208.00444
 209.62513 210.76483 210.98852 211.21121 211.14290 210.84259 210.47028 210.09498
 209.70667 209.41136 209.21405 209.07274 208.99543 209.32113 209.70182 210.08551
 210.87320 212.04589 213.29058 215.06828 216.99097 219.02866 221.11835 223.19604
 225.25073 227.32943 229.42112 231.52181 233.64550 235.81219 238.06288 240.42758
 243.04327 245.28896 247.28565 249.04534 250.45703 251.57473 252.39142 252.70211
 252.73380 252.50249 251.85718 250.79988 249.40057 247.55626 245.45995 243.28764
 241.07333 238.87203 236.68672 234.52041 232.37510 230.23679 228.25748 226.40918
 224.68687 223.15356 221.77825 220.54494 219.42163 218.37633 217.47502 216.61071
 215.84740 215.02209 214.11478 213.47348 212.91817 212.82680 212.61092 212.37180
 213.02736 215.01500 216.76259 217.54926 218.97331 222.69685 228.35773 233.04683
 236.75726 240.60690 244.61020 248.56061 252.15215 254.98784 257.43887 260.04028
 262.58963 265.17563 267.65805 269.77182 271.76254 273.68747 275.48578 277.22430
 278.94537 280.61877 282.15927 283.52441 284.71017 285.76263 286.72751 287.60709
 288.40457 289.12082 289.75171 290.61115
 366.78100 356.32994 345.75688 334.61783 323.01577 311.20471 299.06965 286.86759
 274.57453 262.46648 250.47042 239.76636 229.88330 220.98224 213.15918 206.15613
 199.98507 194.91801 191.49495 189.53189 188.56384 188.62278 189.45272 190.75566
 192.47560 194.56554 196.82349 199.17743 201.61737 204.09231 206.17525 208.01219
 209.63314 210.77308 210.99702 211.21996 211.15190 210.85185 210.47979 210.10473
 209.71667 209.42161 209.22455 209.08350 209.00644 209.33238 209.71332 210.09726
 210.88520 212.05815 213.30309 215.08103 217.00397 219.04191 221.13186 223.20980
 225.26474 227.34368 229.43562 231.53656 233.66051 235.82745 238.07839 240.44333
 243.05927 245.30521 247.30216 249.06210 250.47404 251.59198 252.40892 252.71987
 252.75181 252.52075 251.87569 250.81863 249.41957 247.57552 245.47946 243.30740
 241.09334 238.89228 236.70722 234.54117 232.39611 230.25805 228.27899 226.43093
 224.70888 223.17582 221.80076 220.56770 219.44464 218.39958 217.49853 216.63447
 215.87141 215.04635 214.13929 213.49823 212.94318 212.85686 212.65294 212.43217
 213.12035 215.10966 216.91817 217.68251 219.05147 222.69591 228.30173 232.95404
 236.65974 240.53307 244.56729 248.51064 252.01344 254.82890 257.31683 259.93491
 262.45038 264.98706 267.44720 269.58792 271.64294 273.63290 275.44260 277.16653
 278.87683 280.56580 282.10892 283.47485 284.66107 285.71417 286.68018 287.56079
 288.35849 289.07571 289.70776 290.56854
 366.78100 356.32961 345.75623 334.61684 323.01445 311.20307 299.06768 286.86529
 274.57191 262.46352 250.46713 239.76275 229.87936 220.97797 213.15459 206.15120
 199.97981 194.91243 191.48904 189.52565 188.55726 188.61588 189.44549 190.74810
 192.46772 194.55733 196.81494 199.16856 201.60817 204.08278 206.16540 208.00201
 209.62262 210.76224 210.98585 211.20846 211.14008 210.83969 210.46730 210.09192
 209.70353 209.40814 209.21076 209.06937 208.99198 209.31760 209.69821 210.08182
 210.86944 212.04205 213.28666 215.06428 216.98689 219.02450 221.11412 223.19173
 225.24634 227.32495 229.41657 231.51718 233.64079 235.80741 238.05802 240.42263
 243.03825 245.28386 247.28047 249.04009 250.45170 251.56931 252.38593 252.69654
 252.72815 252.49677 251.85138 250.79399 249.39461 247.55022 245.45383 243.28145
 241.06706 238.86567 236.68029 234.51390 232.36851 230.23013 228.25074 226.40235
 224.67997 223.14658 221.77119 220.53780 219.41442 218.36903 217.46764 216.60326
 215.83987 215.01448 214.10710 213.46571 212.91032 212.85890 212.73741 212.46410
 213.21500 215.21521 217.01671 217.79776 219.15465 222.70158 228.25887 232.87666
 236.57817 240.47685 244.53799 248.46899 251.87630 254.66362 257.18491 259.81805
 262.30167 264.79242 267.23145 269.40411 271.52859 273.58603 275.40933 277.11990
 278.81827 280.51373 282.05853 283.42560 284.61136 285.66562 286.63162 287.51346
 288.31036 289.02866 289.66156 290.51959
 366.78100 356.32924 345.75548 334.61573 323.01297 311.20121 299.06545 286.86270
 274.56894 262.46018 250.46342 239.75867 229.87491 220.97315 213.14939 206.14564
 199.97388 194.90612 191.48236 189.51861 188.54985 188.60809 189.43733 190.73958
 192.45882 194.54806 196.80530 199.15855 201.59779 204.07203 206.15427 207.99052
 209.61076 210.75000 210.97324 211.19549 211.12673 210.82597 210.45321 210.07746
 209.68870 209.39294 209.19518 209.05343 208.97567 209.30091 209.68115 210.06440
 210.85164 212.02388 213.26812 215.04537 216.96761 219.00485 221.09409 223.17133
 225.22558 227.30382 229.39506 231.49530 233.61855 235.78479 238.03503 240.39927
 243.01452 245.25976 247.25600 249.01524 250.42649 251.54373 252.35997 252.67021
 252.70146 252.46970 251.82394 250.76618 249.36643 247.52167 245.42491 243.25215
 241.03740 238.83564 236.64988 234.48312 232.33737 230.19861 228.21885 226.37009
 224.64734 223.11358 221.73782 220.50406 219.38031 218.33455 217.43279 216.56803
 215.80428 214.97852 214.07076 213.42900 212.87325 212.85982 212.82809 212.48987
 213.32097 215.32751 217.06992 217.89795 219.28214 222.71370 228.22688 232.81548
 236.51413 240.43503 244.51492 248.42398 251.72868 254.48079 257.03592 259.68777
 262.14951 264.60074 267.02322 269.23193 271.42459 273.54675 275.38211 277.08093
 278.76285 280.46167 282.00821 283.37402 284.56168 285.61694 286.58301 287.46426
 288.26422 288.98053 289.61514 290.47714
 366.78100 356.32938 345.75576 334.61614 323.01352 311.20190 299.06628 286.86366
 274.57004 262.46142 250.46480 239.76018 229.87656 220.97494 213.15132 206.14770
 199.97608 194.90846 191.48484 189.52122 188.55260 188.61098 189.44036 190.74274
 192.46212 194.55150 196.80888 199.16226 201.60164 204.07602 206.15840 207.99478
 209.61516 210.75454 210.97792 211.20030 211.13168 210.83106 210.45844 210.08282
 209.69420 209.39858 209.20096 209.05934 208.98172 209.30710 209.68748 210.07086
 210.85824 212.03062 213.27500 215.05238 216.97476 219.01214 221.10152 223.17890
 225.23328 227.31166 229.40304 231.50342 233.62680 235.79318 238.04356 240.40794
 243.02332 245.26870 247.26508 249.02446 250.43584 251.55322 252.36960 252.67998
 252.71136 252.47974 251.83412 250.77650 249.37687 247.53225 245.43563 243.26301
 241.04839 238.84677 236.66115 234.49453 232.34891 230.21029 228.23067 226.38205
 224.65943 223.12581 221.75019 220.51657 219.39295 218.34733 217.44571 216.58109
 215.81747 214.99185 214.08423 213.44261 212.88699 212.88806 212.89059 212.52332
 213.44096 215.44090 217.11580 217.99977 219.41393 222.73013 228.19890 232.76337
 236.45547 240.39336 244.48277 248.36070 251.56216 254.27971 256.87335 259.55124
 262.00247 264.42126 266.83057 269.07666 271.33325 273.51312 275.35812 277.04672
 278.71313 280.41071 281.95749 283.32388 284.51315 285.56760 286.53513 287.41714
 288.21640 288.93307 289.56702 290.43320
 366.78100 356.32981 345.75662 334.61743 323.01525 311.20406 299.06887 286.86668
 274.57349 262.46530 250.46911 239.76492 229.88174 220.98055 213.15736 206.15417
 199.98298 194.91579 191.49260 189.52941 188.56123 188.62004 189.44985 190.75266
 192.47247 194.56228 196.82009 199.17391 201.61372 204.08853 206.17134 208.00815
 209.62896 210.76877 210.99258 211.21540 211.14721 210.84702 210.47483 210.09964
 209.71145 209.41626 209.21907 209.07789 209.00070 209.32651 209.70732 210.09113
 210.87894 212.05175 213.29657 215.07438 216.99719 219.03500 221.12481 223.20262
 225.25743 227.33624 229.42806 231.52887 233.65268 235.81949 238.07030 240.43511
 243.05092 245.29673 247.29355 249.05336 250.46517 251.58298 252.39979 252.71060
 252.74241 252.51122 251.86604 250.80885 249.40966 247.56547 245.46928 243.29709
 241.08290 238.88172 236.69653 234.53034 232.38515 230.24696 228.26777 226.41958
 224.69739 223.16421 221.78902 220.55583 219.43264 218.38745 217.48626 216.62207
 215.85888 215.03370 214.12651 213.48532 212.93013 212.93237 212.93768 212.55898
 213.56364 215.55867 217.17058 218.11473 219.54726 222.74725 228.17499 232.71536
 236.39474 240.34224 244.43306 248.27423 251.37648 254.06429 256.70093 259.40970
 261.85950 264.25592 266.65637 268.94327 271.25763 273.48785 275.34015 277.01721
 278.66971 280.36261 281.90848 283.27618 284.46436 285.52036 286.48831 287.37076
 288.16827 288.88806 289.52322 290.38766
 366.78100 356.33021 345.75742 334.61863 323.01683 311.20604 299.07125 286.86946
 274.57667 262.46888 250.47308 239.76929 229.88650 220.98571 213.16292 206.16013
 199.98934 194.92254 191.49975 189.53696 188.56917 188.62838 189.45859 190.76180
 192.48200 194.57221 196.83042 199.18463 201.62484 204.10005 206.18325 208.02046
 209.64167 210.78188 211.00609 211.22930 211.16151 210.86171 210.48992 210.11513
 209.72734 209.43255 209.23576 209.09496 209.01817 209.34438 209.72559 210.10980
 210.89801 212.07122 213.31642 215.09463 217.01784 219.05605 221.14626 223.22447
 225.27968 227.35888 229.45109 231.55230 233.67651 235.84372 238.09493 240.46013
 243.07634 245.32255 247.31976 249.07997 250.49218 251.61039 252.42759 252.73880
 252.77101 252.54022 251.89543 250.83864 249.43984 247.59605 245.50026 243.32847
 241.11468 238.91389 236.72910 234.56330 232.41851 230.28072 228.30193 226.45414
 224.73235 223.19956 221.82476 220.59197 219.46918 218.42439 217.52360 216.65981
 215.89701 215.07222 214.16543 213.52464 212.96985 212.97572 212.98962 212.59145
 213.67719 215.68021 217.23558 218.24448 219.69109 222.76599 228.15512 232.66733
 236.32957 240.28348 244.36943 248.16895 251.17802 253.83937 256.51901 259.26016
 261.71893 264.10269 266.50171 268.83105 271.19608 273.46814 275.32730 276.99472
 278.64249 280.31412 281.85995 283.22742 284.41635 285.47223 286.44138 287.32199
 288.12439 288.84198 289.47623 290.34506
 366.78100 356.33049 345.75799 334.61948 323.01797 311.20747 299.07296 286.87145
 274.57894 262.47144 250.47593 239.77242 229.88992 220.98941 213.16690 206.16440
 199.99389 194.92738 191.50488 189.54237 188.57486 188.63435 189.46485 190.76834
 192.48883 194.57933 196.83782 199.19231 201.63281 204.10830 206.19179 208.02928
 209.65078 210.79127 211.01576 211.23926 211.17175 210.87224 210.50074 210.12623
 209.73872 209.44422 209.24771 209.10720 209.03069 209.35719 209.73868 210.12317
 210.91167 212.08516 213.33065 215.10915 217.03264 219.07113 221.16163 223.24012
 225.29561 227.37510 229.46760 231.56909 233.69358 235.86108 238.11257 240.47806
 243.09456 245.34105 247.33854 249.09904 250.51153 251.63002 252.44751 252.75901
 252.79150 252.56099 251.91649 250.85998 249.46147 247.61797 245.52246 243.35095
 241.13745 238.93694 236.75243 234.58692 232.44242 230.30491 228.32640 226.47890
 224.75739 223.22488 221.85038 220.61787 219.49536 218.45085 217.55035 216.68684
 215.92433 215.09983 214.19332 213.55281 212.99831 213.01349 213.04938 212.62381
 213.77950 215.79663 217.30838 218.38713 219.85060 222.78983 228.14099 232.61690
 236.26303 240.22304 244.29756 248.04890 250.96970 253.60330 256.32092 259.09497
 261.57224 263.95825 266.36676 268.74075 271.15094 273.45883 275.32852 276.98727
 278.64359 280.26099 281.80219 283.17130 284.35950 285.41580 286.38437 287.26666
 288.06583 288.78674 289.42093 290.28772
 366.78100 356.33070 345.75839 334.62009 323.01879 311.20848 299.07418 286.87288
 274.58057 262.47327 250.47797 239.77466 229.89236 220.99206 213.16975 206.16745
 199.99715 194.93085 191.50854 189.54624 188.57894 188.63863 189.46933 190.77303
 192.49372 194.58442 196.84312 199.19781 201.63851 204.11421 206.19790 208.03560
 209.65730 210.79799 211.02269 211.24639 211.17908 210.87978 210.50848 210.13417
 209.74687 209.45257 209.25626 209.11596 209.03966 209.36635 209.74805 210.13275
 210.92144 212.09514 213.34084 215.11954 217.04323 219.08193 221.17263 223.25132
 225.30702 227.38672 229.47941 231.58111 233.70581 235.87350 238.12520 240.49090
 243.10759 245.35429 247.35199 249.11268 250.52538 251.64408 252.46177 252.77347
 252.80617 252.57586 251.93156 250.87526 249.47695 247.63365 245.53835 243.36704
 241.15374 238.95344 236.76913 234.60383 232.45953 230.32223 228.34392 226.49662
 224.77532 223.24301 221.86871 220.63641 219.51410 218.46980 217.56950 216.70619
 215.94389 215.11959 214.21328 213.57298 213.01868 213.04697 213.11378 212.65952
 213.87714 215.89977 217.37874 218.53867 220.02596 222.82745 228.13312 232.57111
 236.20422 240.16982 244.22209 247.91339 250.74646 253.35255 256.10269 258.90826
 261.41443 263.81842 266.24973 268.67209 271.12024 273.45102 275.32288 276.97391
 278.62387 280.23093 281.77353 283.14294 284.33481 285.39346 286.36511 287.25104
 288.05936 288.78729 289.42410 290.29282
 366.78100 356.33079 345.75858 334.62037 323.01916 311.20895 299.07474 286.87353
 274.58132 262.47411 250.47890 239.77569 229.89348 220.99327 213.17106 206.16885
 199.99864 194.93243 191.51022 189.54801 188.58080 188.64059 189.47138 190.77517
 192.49596 194.58675 196.84554 199.20033 201.64112 204.11691 206.20070 208.03849
 209.66028 210.80106 211.02585 211.24964 211.18243 210.88322 210.51201 210.13780
 209.75059 209.45638 209.26017 209.11996 209.04375 209.37054 209.75233 210.13712
 210.92591 212.09970 213.34549 215.12428 217.04807 219.08686 221.17765 223.25644
 225.31223 227.39202 229.48481 231.58660 233.71139 235.87918 238.13097 240.49676
 243.11355 245.36034 247.35813 249.11892 250.53171 251.65050 252.46829 252.78008
 252.81287 252.58266 251.93845 250.88224 249.48403 247.64082 245.54561 243.37440
 241.16119 238.96098 236.77677 234.61156 232.46735 230.33014 228.35193 226.50472
 224.78351 223.25130 221.87709 220.64488 219.52267 218.47846 217.57825 216.71504
 215.95283 215.12862 214.22240 213.58219 213.02798 213.07349 213.18100 212.70358
 213.97246 215.98941 217.43518 218.68706 220.21648 222.88249 228.13203 232.53931
 236.15839 240.12596 244.14301 247.76067 250.50832 253.08939 255.86742 258.70245
 261.24707 263.68481 266.15219 268.62372 271.10400 273.44855 275.31876 276.95993
 278.59808 280.20938 281.75269 283.12332 284.31607 285.37552 286.34665 287.23401
 288.04272 288.77045 289.40939 290.27692
 366.78100 356.33081 345.75862 334.62044 323.01925 311.20906 299.07487 286.87369
 274.58150 262.47431 250.47912 239.77594 229.89375 220.99356 213.17137 206.16919
 199.99900 194.93281 191.51062 189.54844 188.58125 188.64106 189.47187 190.77569
 192.49650 194.58731 196.84612 199.20094 201.64175 204.11756 206.20137 208.03919
 209.66100 210.80181 211.02662 211.25044 211.18325 210.88406 210.51287 210.13868
 209.75150 209.45731 209.26112 209.12093 209.04475 209.37156 209.75337 210.13818
 210.92700 212.10081 213.34662 215.12543 217.04925 219.08806 221.17887 223.25768
 225.31350 227.39331 229.48612 231.58793 233.71275 235.88056 238.13237 240.49818
 243.11500 245.36181 247.35962 249.12043 250.53325 251.65206 252.46987 252.78168
 252.81449 252.58431 251.94012 250.88393 249.48574 247.64256 245.54737 243.37618
 241.16299 238.96281 236.77862 234.61343 232.46924 230.33206 228.35387 226.50668
 224.78549 223.25331 221.87912 220.64693 219.52474 218.48056 217.58037 216.71718
 215.95499 215.13081 214.22462 213.58443 213.03024 213.09431 213.24570 212.76352
 214.06747 216.06787 217.48332 218.82353 220.40433 222.95963 228.13370 232.52605
 236.12921 240.09547 244.06296 247.59212 250.25813 252.81720 255.61800 258.48099
 261.07288 263.55927 266.07285 268.59174 271.09784 273.44962 275.31622 276.95065
 278.58771 280.18765 281.72961 283.10068 284.29358 285.35342 286.32462 287.21170
 288.02118 288.74918 289.38855 290.25217
 366.78100 356.33049 345.75798 334.61947 323.01796 311.20746 299.07295 286.87144
 274.57893 262.47142 250.47591 239.77240 229.88989 220.98939 213.16688 206.16437
 199.99386 194.92735 191.50484 189.54233 188.57482 188.63432 189.46481 190.76830
 192.48879 194.57928 196.83777 199.19226 201.63275 204.10825 206.19174 208.02923
 209.65072 210.79121 211.01570 211.23919 211.17168 210.87218 210.50067 210.12616
 209.73865 209.44414 209.24763 209.10712 209.03061 209.35711 209.73860 210.12309
 210.91158 212.08507 213.33056 215.10905 217.03254 219.07104 221.16153 223.24002
 225.29551 227.37500 229.46749 231.56898 233.69347 235.86097 238.11246 240.47795
 243.09444 245.34093 247.33842 249.09891 250.51140 251.62989 252.44739 252.75888
 252.79137 252.56086 251.91635 250.85984 249.46133 247.61782 245.52232 243.35081
 241.13730 238.93679 236.75228 234.58677 232.44226 230.30475 228.32625 226.47874
 224.75723 223.22472 221.85021 220.61770 219.49519 218.45068 217.55018 216.68667
 215.92416 215.09965 214.19314 213.55263 212.99812 213.09480 213.32320 212.82602
 214.17049 216.15715 217.50793 218.93573 220.59470 223.04524 228.13913 232.53343
 236.11508 240.07349 243.97931 247.40897 250.00096 252.54060 255.35983 258.25043
 260.89658 263.44366 266.00659 268.57089 271.09729 273.44922 275.30853 276.93967
 278.58163 280.16705 281.70917 283.08096 284.27396 285.33362 286.30612 287.19287
 288.00391 288.73050 289.36850 290.23337
 366.78100 356.33042 345.75784 334.61926 323.01768 311.20709 299.07251 286.87093
 274.57835 262.47077 250.47519 239.77161 229.88903 220.98844 213.16586 206.16328
 199.99270 194.92612 191.50354 189.54096 188.57338 188.63279 189.46321 190.76663
 192.48705 194.57747 196.83589 199.19031 201.63073 204.10614 206.18956 208.02698
 209.64840 210.78882 211.01324 211.23666 211.16908 210.86949 210.49791 210.12333
 209.73575 209.44117 209.24459 209.10401 209.02743 209.35384 209.73526 210.11968
 210.90810 212.08152 213.32694 215.10536 217.02878 219.06719 221.15761 223.23603
 225.29145 227.37087 229.46329 231.56471 233.68913 235.85654 238.10796 240.47338
 243.08980 245.33622 247.33364 249.09406 250.50648 251.62489 252.44231 252.75373
 252.78615 252.55557 251.91099 250.85441 249.45583 247.61224 245.51666 243.34508
 241.13150 238.93092 236.74634 234.58076 232.43618 230.29859 228.32001 226.47243
 224.75085 223.21827 221.84369 220.61111 219.48853 218.44394 217.54336 216.67978
 215.91720 215.09262 214.18604 213.54546 212.99088 213.10269 213.36684 212.94821
 214.26715 216.22835 217.56046 219.01762 220.73169 223.13687 228.14275 232.54424
 236.11168 240.05902 243.89758 247.22087 249.74741 252.26669 255.09886 258.01382
 260.71875 263.33365 265.95145 268.55911 271.10400 273.45264 275.30350 276.93015
 278.57550 280.15002 281.69217 283.06335 284.25684 285.31744 286.28867 287.17477
 287.98520 288.71182 289.35233 290.21210
 366.78100 356.32974 345.75647 334.61721 323.01494 311.20368 299.06841 286.86615
 274.57288 262.46462 250.46835 239.76409 229.88082 220.97956 213.15629 206.15303
 199.98176 194.91450 191.49123 189.52797 188.55970 188.61844 189.44817 190.75091
 192.47064 194.56038 196.81811 199.17185 201.61158 204.08632 206.16905 208.00579
 209.62653 210.76626 210.99000 211.21273 211.14447 210.84420 210.47194 210.09667
 209.70841 209.41314 209.21588 209.07461 208.99735 209.32308 209.70382 210.08755
 210.87529 212.04802 213.29276 215.07049 216.99323 219.03096 221.12070 223.19843
 225.25317 227.33190 229.42364 231.52437 233.64811 235.81484 238.06558 240.43031
 243.04605 245.29179 247.28852 249.04826 250.45999 251.57773 252.39446 252.70520
 252.73693 252.50567 251.86040 250.80314 249.40387 247.55961 245.46334 243.29108
 241.07681 238.87555 236.69028 234.52402 232.37875 230.24049 228.26122 226.41296
 224.69069 223.15743 221.78216 220.54890 219.42563 218.38037 217.47910 216.61484
 215.85158 215.02631 214.11905 213.47778 212.92252 213.07310 213.42891 213.07570
 214.45235 216.29788 217.46416 219.04126 220.88344 223.20100 228.16165 232.58583
 236.13411 240.06404 243.82881 247.03783 249.49922 251.99190 254.82983 257.76752
 260.53943 263.23071 265.91028 268.56140 271.12131 273.46274 275.30191 276.92316
 278.56955 280.13318 281.67398 283.04803 284.24023 285.30151 286.27164 287.15997
 287.96713 288.69638 289.33328 290.19431
 366.78100 356.33295 345.76291 334.62686 323.02782 311.21977 299.08772 286.88868
 274.59863 262.49358 250.50054 239.79949 229.91945 221.02140 213.20135 206.20131
 200.03326 194.96922 191.54917 189.58912 188.62408 188.68603 189.51898 190.82494
 192.54789 194.64085 196.90180 199.25875 201.70171 204.17966 206.26562 208.10557
 209.72952 210.87248 211.09943 211.32538 211.26034 210.96329 210.59425 210.22220
 209.83715 209.54511 209.35106 209.21302 209.13897 209.46792 209.85188 210.23883
 211.02978 212.20574 213.45369 215.23465 217.16060 219.20155 221.29451 223.37546
 225.43342 227.51537 229.61032 231.71428 233.84123 236.01118 238.26514 240.63309
 243.25205 245.50100 247.50095 249.26391 250.67886 251.79982 252.61977 252.93372
 252.96868 252.74063 252.09858 251.04454 249.64849 247.80745 245.71440 243.54535
 241.33431 239.13626 236.95422 234.79117 232.64912 230.51408 228.53803 226.69298
 224.97394 223.44389 222.07185 220.84180 219.72175 218.67971 217.78166 216.92062
 216.16057 215.33852 214.43448 213.79643 213.24438 213.24176 213.23553 213.41217
 214.70042 216.06885 217.33047 219.09731 221.07722 223.42357 228.21188 232.62933
 236.17134 240.07976 243.76224 246.84325 249.23286 251.70082 254.54869 257.51553
 260.36356 263.14145 265.88339 268.57419 271.14166 273.46768 275.29053 276.90747
 278.55563 280.11511 281.65637 283.02930 284.22290 285.28320 286.25363 287.13959
 287.94904 288.67688 289.31519 290.16721
 366.78100 356.33496 345.76692 334.63288 323.03584 311.22980 299.09977 286.90273
 274.61469 262.51165 250.52061 239.82157 229.94353 221.04749 213.22945 206.23141
 200.06538 195.00334 191.58530 189.62726 188.66422 188.72818 189.56314 190.87110
 192.59606 194.69102 196.95399 199.31295 201.75791 204.23787 206.32583 208.16779
 209.79375 210.93871 211.16767 211.39563 211.33260 211.03756 210.67052 210.30048
 209.91744 209.62740 209.43536 209.29932 209.22728 209.55824 209.94421 210.33317
 211.12613 212.30409 213.55405 215.33701 217.26497 219.30793 221.40289 223.48585
 225.54582 227.62978 229.72674 231.83270 233.96166 236.13362 238.38958 240.75954
 243.38050 245.63146 247.63343 249.39839 250.81535 251.93831 252.76027 253.07623
 253.11319 252.88715 252.24711 251.19507 249.80104 247.96200 245.87096 243.70392
 241.49488 239.29884 237.11880 234.95776 232.81772 230.68468 228.71065 226.86761
 225.15057 223.62253 222.25249 221.02445 219.90641 218.86637 217.97033 217.11129
 216.35325 215.53322 214.63118 213.99514 213.44510 213.35468 213.14105 213.60300
 214.88266 215.98779 217.30780 219.14952 221.23438 223.64671 228.26462 232.65767
 236.20169 240.08940 243.68390 246.63316 248.95204 251.40393 254.26880 257.27081
 260.19867 263.06223 265.86160 268.58450 271.15491 273.46231 275.26862 276.88345
 278.53491 280.09326 281.63391 283.00757 284.20190 285.26309 286.23248 287.11691
 287.92694 288.65475 289.29269 290.14032
 366.78100 356.33546 345.76793 334.63439 323.03786 311.23232 299.10279 286.90625
 274.61872 262.51618 250.52565 239.82711 229.94958 221.05404 213.23651 206.23897
 200.07344 195.01190 191.59437 189.63683 188.67430 188.73876 189.57423 190.88269
 192.60816 194.70362 196.96709 199.32655 201.77202 204.25248 206.34095 208.18341
 209.80987 210.95534 211.18480 211.41327 211.35073 211.05620 210.68966 210.32013
 209.93759 209.64806 209.45652 209.32099 209.24945 209.58092 209.96738 210.35685
 211.15031 212.32878 213.57924 215.36271 217.29117 219.33464 221.43010 223.51357
 225.57403 227.65850 229.75596 231.86243 233.99189 236.16435 238.42082 240.79128
 243.41275 245.66421 247.66668 249.43214 250.84961 251.97307 252.79554 253.11200
 253.14947 252.92393 252.28440 251.23286 249.83933 248.00079 245.91026 243.74372
 241.53519 239.33965 237.16012 234.99958 232.86005 230.72751 228.75398 226.91144
 225.19491 223.66737 222.29784 221.07030 219.95276 218.91323 218.01769 217.15916
 216.40162 215.58209 214.68055 214.04502 213.49548 213.39008 213.14105 213.76820
 214.98676 215.99878 217.32179 219.18355 221.34122 223.82610 228.30849 232.67323
 236.22243 240.09064 243.59758 246.41986 248.67682 251.11987 254.00459 257.04294
 260.04807 262.99017 265.83899 268.59094 271.16336 273.45404 275.24747 276.86163
 278.51343 280.06277 281.60416 282.97681 284.17035 285.22989 286.19977 287.08395
 287.89136 288.62030 289.25705 290.09891
 366.78100 356.33512 345.76724 334.63336 323.03648 311.23060 299.10072 286.90384
 274.61596 262.51308 250.52220 239.82332 229.94544 221.04956 213.23168 206.23380
 200.06792 195.00604 191.58817 189.63029 188.66741 188.73153 189.56665 190.87477
 192.59989 194.69501 196.95813 199.31725 201.76237 204.24249 206.33061 208.17273
 209.79885 210.94397 211.17309 211.40121 211.33833 211.04345 210.67657 210.30669
 209.92381 209.63393 209.44205 209.30617 209.23429 209.56541 209.95153 210.34065
 211.13377 212.31189 213.56201 215.34513 217.27326 219.31638 221.41150 223.49462
 225.55474 227.63886 229.73598 231.84210 233.97122 236.14334 238.39946 240.76958
 243.39070 245.64182 247.64394 249.40906 250.82618 251.94930 252.77142 253.08754
 253.12466 252.89878 252.25890 251.20702 249.81314 247.97426 245.88338 243.71650
 241.50762 239.31174 237.13186 234.97098 232.83110 230.69822 228.72434 226.88147
 225.16459 223.63671 222.26683 221.03895 219.92107 218.88119 217.98531 217.12643
 216.36855 215.54867 214.64679 214.01091 213.46103 213.38297 213.19855 213.92302
 215.05634 216.01782 217.33958 219.22722 221.42389 223.97403 228.34555 232.68475
 236.23932 240.09009 243.51443 246.21725 248.41870 250.85568 253.75764 256.82925
 259.90552 262.91663 265.81134 268.59201 271.16641 273.43976 275.21790 276.83060
 278.48294 280.02963 281.56943 282.94385 284.13705 285.19461 286.16367 287.04904
 287.85617 288.58197 289.22104 290.06009
 366.78100 356.33428 345.76556 334.63084 323.03312 311.22641 299.09569 286.89797
 274.60925 262.50553 250.51381 239.81409 229.93537 221.03865 213.21993 206.22122
 200.05450 194.99178 191.57306 189.61434 188.65062 188.71390 189.54818 190.85546
 192.57975 194.67403 196.93631 199.29459 201.73887 204.21815 206.30543 208.14671
 209.77199 210.91627 211.14456 211.37184 211.30812 211.01240 210.64468 210.27396
 209.89024 209.59952 209.40680 209.27009 209.19737 209.52765 209.91293 210.30121
 211.09349 212.27077 213.52005 215.30233 217.22961 219.27190 221.36618 223.44846
 225.50774 227.59102 229.68730 231.79258 233.92086 236.09214 238.34743 240.71671
 243.33699 245.58727 247.58855 249.35283 250.76911 251.89139 252.71267 253.02796
 253.06424 252.83752 252.19680 251.14408 249.74936 247.90964 245.81792 243.65020
 241.44048 239.24377 237.06305 234.90133 232.76061 230.62689 228.65217 226.80845
 225.09073 223.56201 222.19130 220.96258 219.84386 218.80314 217.90642 217.04670
 216.28798 215.46726 214.56454 213.92782 213.37711 213.35251 213.29439 214.05806
 215.12761 216.02695 217.35738 219.27039 221.48210 224.10532 228.38432 232.70740
 236.26283 240.09477 243.43835 246.02625 248.17395 250.60402 253.52179 256.62317
 259.76263 262.83630 265.77618 268.58514 271.16180 273.41571 275.18137 276.79181
 278.43597 279.99533 281.53528 282.90881 284.10159 285.16000 286.12775 287.01230
 287.82077 288.54791 289.18488 290.02002
 366.78100 356.33376 345.76452 334.62927 323.03103 311.22379 299.09255 286.89431
 274.60507 262.50082 250.50858 239.80834 229.92910 221.03186 213.21262 206.21337
 200.04613 194.98289 191.56365 189.60441 188.64017 188.70292 189.53668 190.84344
 192.56720 194.66096 196.92272 199.28047 201.72423 204.20299 206.28975 208.13051
 209.75527 210.89902 211.12678 211.35354 211.28930 210.99306 210.62482 210.25357
 209.86933 209.57809 209.38485 209.24761 209.17436 209.50412 209.88888 210.27664
 211.06840 212.24516 213.49391 215.27567 217.20243 219.24419 221.33795 223.41971
 225.47846 227.56122 229.65698 231.76174 233.88950 236.06026 238.31501 240.68377
 243.30353 245.55329 247.55405 249.31781 250.73356 251.85532 252.67608 252.99084
 253.02660 252.79936 252.15811 251.10487 249.70963 247.86939 245.77715 243.60890
 241.39866 239.20142 237.02018 234.85794 232.71670 230.58245 228.60721 226.76297
 225.04473 223.51549 222.14425 220.91500 219.79576 218.75452 217.85728 216.99704
 216.23780 215.41655 214.51331 213.87607 213.32483 213.34117 213.37981 214.18530
 215.22746 216.05183 217.37511 219.28584 221.51553 224.22569 228.42996 232.74052
 236.28915 240.08794 243.34286 245.81570 247.91490 250.34850 253.29083 256.42749
 259.63217 262.76968 265.74799 268.57861 271.15469 273.39316 275.16092 276.77252
 278.40683 279.94373 281.48282 282.85443 284.04611 285.10349 286.06937 286.95346
 287.76080 288.48734 289.12372 289.95230
 366.78100 356.33364 345.76429 334.62893 323.03058 311.22322 299.09187 286.89351
 274.60416 262.49980 250.50744 239.80709 229.92773 221.03038 213.21102 206.21167
 200.04431 194.98096 191.56160 189.60224 188.63789 188.70053 189.53418 190.84082
 192.56447 194.65811 196.91976 199.27740 201.72104 204.19969 206.28633 208.12698
 209.75162 210.89527 211.12291 211.34956 211.28520 210.98885 210.62049 210.24913
 209.86478 209.57342 209.38007 209.24271 209.16936 209.49900 209.88365 210.27129
 211.06293 212.23958 213.48822 215.26987 217.19651 219.23816 221.33180 223.41345
 225.47209 227.55473 229.65038 231.75502 233.88267 236.05331 238.30796 240.67660
 243.29625 245.54589 247.54653 249.31018 250.72582 251.84747 252.66811 252.98276
 253.01840 252.79105 252.14969 251.09633 249.70098 247.86062 245.76827 243.59991
 241.38956 239.19220 237.01085 234.84849 232.70713 230.57278 228.59742 226.75307
 225.03471 223.50536 222.13400 220.90465 219.78529 218.74393 217.84658 216.98622
 216.22687 215.40551 214.50216 213.86480 213.31345 213.35294 213.44624 214.31303
 215.35086 216.08786 217.39723 219.30981 221.54970 224.32254 228.46716 232.76064
 236.29575 240.04752 243.20518 245.56879 247.63725 250.09698 253.07988 256.26331
 259.53745 262.73035 265.73370 268.57584 271.14795 273.37421 275.13797 276.74319
 278.36945 279.88907 281.42499 282.79749 283.98843 285.04456 286.00900 286.89246
 287.70126 288.42612 289.06201 289.89053
 366.78100 356.33342 345.76383 334.62825 323.02966 311.22208 299.09050 286.89191
 274.60233 262.49775 250.50516 239.80458 229.92499 221.02741 213.20783 206.20824
 200.04066 194.97708 191.55749 189.59791 188.63332 188.69574 189.52916 190.83557
 192.55899 194.65240 196.91382 199.27124 201.71465 204.19307 206.27949 208.11990
 209.74432 210.88773 211.11515 211.34157 211.27698 210.98040 210.61182 210.24023
 209.85565 209.56406 209.37048 209.23290 209.15931 209.48873 209.87314 210.26056
 211.05198 212.22839 213.47681 215.25823 217.18464 219.22606 221.31947 223.40089
 225.45931 227.54172 229.63714 231.74156 233.86897 236.03939 238.29380 240.66222
 243.28164 245.53105 247.53147 249.29488 250.71030 251.83172 252.65213 252.96655
 253.00197 252.77438 252.13280 251.07921 249.68363 247.84305 245.75046 243.58188
 241.37130 239.17371 236.99213 234.82954 232.68796 230.55338 228.57779 226.73321
 225.01462 223.48504 222.11346 220.88387 219.76429 218.72271 217.82512 216.96454
 216.20495 215.38337 214.47979 213.84220 213.29062 213.35966 213.52278 214.43207
 215.47464 216.12369 217.43848 219.38348 221.59311 224.38007 228.48335 232.76555
 236.27907 239.96999 243.02911 245.30232 247.36418 249.86900 252.90231 256.13708
 259.47095 262.70175 265.71890 268.57156 271.14771 273.36905 275.12360 276.69727
 278.28220 279.81464 281.34991 282.72009 283.91000 284.96716 285.93124 286.81467
 287.62192 288.34808 288.98138 289.81262
 366.78100 356.33316 345.76331 334.62747 323.02862 311.22078 299.08893 286.89009
 274.60024 262.49540 250.50255 239.80171 229.92186 221.02402 213.20418 206.20433
 200.03649 194.97264 191.55280 189.59295 188.62811 188.69026 189.52342 190.82957
 192.55273 194.64589 196.90704 199.26420 201.70735 204.18551 206.27166 208.11182
 209.73597 210.87913 211.10628 211.33244 211.26759 210.97075 210.60191 210.23006
 209.84522 209.55337 209.35953 209.22168 209.14784 209.47699 209.86115 210.24830
 211.03946 212.21562 213.46377 215.24493 217.17108 219.21224 221.30539 223.38655
 225.44470 227.52686 229.62201 231.72617 233.85332 236.02348 238.27764 240.64579
 243.26495 245.51410 247.51426 249.27741 250.69257 251.81372 252.63388 252.94803
 252.98319 252.75535 252.11350 251.05966 249.66381 247.82297 245.73012 243.56128
 241.35043 239.15259 236.97074 234.80790 232.66605 230.53121 228.55537 226.71052
 224.99168 223.46183 222.08999 220.86014 219.74030 218.69845 217.80061 216.93976
 216.17992 215.35808 214.45423 213.81639 213.26454 213.36569 213.60468 214.54837
 215.59102 216.17279 217.49861 219.47577 221.63695 224.41530 228.49809 232.76842
 236.24756 239.86267 242.82335 245.02850 247.10066 249.65224 252.73726 256.02487
 259.40869 262.66656 265.69684 268.56232 271.14896 273.38181 275.14966 276.69791
 278.23071 279.71069 281.23535 282.60358 283.79327 284.84818 285.81143 286.69370
 287.49976 288.22559 288.86090 289.68829
 366.78100 356.33311 345.76322 334.62734 323.02845 311.22056 299.08867 286.88979
 274.59990 262.49501 250.50212 239.80123 229.92135 221.02346 213.20357 206.20368
 200.03580 194.97191 191.55202 189.59213 188.62724 188.68936 189.52247 190.82858
 192.55169 194.64481 196.90592 199.26303 201.70614 204.18425 206.27037 208.11048
 209.73459 210.87770 211.10482 211.33093 211.26604 210.96915 210.60026 210.22838
 209.84349 209.55160 209.35771 209.21983 209.14594 209.47505 209.85916 210.24627
 211.03739 212.21350 213.46161 215.24272 217.16884 219.20995 221.30306 223.38417
 225.44229 227.52440 229.61951 231.72362 233.85073 236.02085 238.27496 240.64307
 243.26218 245.51130 247.51141 249.27452 250.68963 251.81074 252.63086 252.94497
 252.98008 252.75219 252.11031 251.05642 249.66053 247.81964 245.72675 243.55787
 241.34698 239.14909 236.96720 234.80432 232.66243 230.52754 228.55165 226.70676
 224.98788 223.45799 222.08610 220.85621 219.73633 218.69444 217.79655 216.93566
 216.17577 215.35389 214.45000 213.81211 213.26022 213.38348 213.67470 214.67032
 215.71918 216.23569 217.58037 219.53676 221.65794 224.43805 228.53781 232.77142
 236.20290 239.73007 242.59402 244.74382 246.83345 249.43137 252.57207 255.92070
 259.34845 262.62625 265.66733 268.54404 271.14627 273.39954 275.19315 276.74210
 278.24039 279.66367 281.09735 282.45520 283.64355 284.69846 285.66183 286.54385
 287.35034 288.07864 288.71378 289.54419
 366.78100 356.33323 345.76346 334.62770 323.02893 311.22116 299.08939 286.89062
 274.60086 262.49609 250.50332 239.80255 229.92278 221.02502 213.20525 206.20548
 200.03771 194.97394 191.55418 189.59441 188.62964 188.69187 189.52510 190.83134
 192.55457 194.64780 196.90903 199.26626 201.70950 204.18773 206.27396 208.11419
 209.73842 210.88166 211.10889 211.33512 211.27035 210.97358 210.60482 210.23305
 209.84828 209.55651 209.36274 209.22498 209.15121 209.48044 209.86467 210.25190
 211.04314 212.21937 213.46760 215.24883 217.17506 219.21630 221.30953 223.39076
 225.44899 227.53122 229.62646 231.73069 233.85792 236.02815 238.28238 240.65062
 243.26985 245.51908 247.51931 249.28255 250.69778 251.81901 252.63924 252.95347
 252.98871 252.76094 252.11917 251.06540 249.66963 247.82887 245.73610 243.56733
 241.35656 239.15879 236.97703 234.81426 232.67249 230.53772 228.56195 226.71719
 224.99842 223.46865 222.09688 220.86711 219.74735 218.70558 217.80781 216.94704
 216.18727 215.36551 214.46174 213.82397 213.27220 213.41127 213.73984 214.79077
 215.84824 216.31749 217.65692 219.59106 221.68990 224.46744 228.60001 232.75783
 236.14207 239.57884 242.34158 244.43373 246.54103 249.19971 252.41429 255.83212
 259.29996 262.59351 265.63620 268.51950 271.13190 273.40091 275.21680 276.78302
 278.27090 279.67288 280.98181 282.31793 283.50122 284.55487 285.51758 286.40070
 287.20847 287.93668 288.57889 289.40402
 366.78100 356.33391 345.76482 334.62973 323.03164 311.22455 299.09346 286.89537
 274.60628 262.50220 250.51011 239.81002 229.93093 221.03384 213.21475 206.21566
 200.04857 194.98548 191.56639 189.60730 188.64321 188.70612 189.54003 190.84694
 192.57085 194.66476 196.92667 199.28459 201.72850 204.20741 206.29432 208.13523
 209.76014 210.90405 211.13196 211.35887 211.29478 210.99869 210.63060 210.25951
 209.87542 209.58433 209.39124 209.25415 209.18107 209.51098 209.89589 210.28380
 211.07571 212.25262 213.50153 215.28344 217.21035 219.25226 221.34617 223.42808
 225.48699 227.56990 229.66581 231.77072 233.89863 236.06954 238.32446 240.69337
 243.31328 245.56319 247.56410 249.32801 250.74392 251.86583 252.68674 253.00165
 253.03756 252.81047 252.16938 251.11629 249.72120 247.88111 245.78902 243.62094
 241.41085 239.21376 237.03267 234.87058 232.72949 230.59540 228.62031 226.77622
 225.05813 223.52904 222.15795 220.92886 219.80977 218.76868 217.87159 217.01150
 216.25242 215.43133 214.52824 213.89115 213.34006 213.46971 213.77602 214.93962
 215.91988 216.39102 217.77426 219.72652 221.78296 224.52867 228.66043 232.67073
 236.05341 239.40167 242.06390 244.09811 246.23021 248.97145 252.27748 255.76970
 259.27237 262.56891 265.60120 268.48108 271.09967 273.38196 275.22025 276.80286
 278.27188 279.65198 280.94980 282.21588 283.39194 284.44373 285.40787 286.29221
 287.09970 287.83142 288.47006 289.30566
 366.78100 356.33519 345.76738 334.63357 323.03677 311.23096 299.10115 286.90434
 274.61653 262.51372 250.52291 239.82411 229.94630 221.05049 213.23268 206.23487
 200.06906 195.00725 191.58945 189.63164 188.66883 188.73302 189.56821 190.87640
 192.60159 194.69678 196.95998 199.31917 201.76436 204.24455 206.33274 208.17493
 209.80112 210.94632 211.17551 211.40370 211.34089 211.04608 210.67927 210.30946
 209.92666 209.63685 209.44504 209.30923 209.23742 209.56861 209.95480 210.34400
 211.13719 212.31538 213.56557 215.34876 217.27695 219.32014 221.41534 223.49853
 225.55872 227.64291 229.74010 231.84629 233.97548 236.14768 238.40387 240.77406
 243.39525 245.64644 247.64863 249.41382 250.83101 251.95421 252.77640 253.09259
 253.12978 252.90397 252.26416 251.21235 249.81855 247.97974 245.88893 243.72212
 241.51331 239.31750 237.13769 234.97689 232.83708 230.70427 228.73046 226.88765
 225.17084 223.64303 222.27323 221.04542 219.92761 218.88780 217.99199 217.13318
 216.37537 215.55557 214.65376 214.01795 213.46814 213.56598 213.79715 215.00307
 216.12553 216.46198 217.84113 219.86829 221.90421 224.61409 228.70322 232.55022
 235.92564 239.17653 241.75653 243.76009 245.94357 248.78674 252.18030 255.73296
 259.24908 262.53717 265.55844 268.43616 271.06650 273.35217 275.19125 276.75916
 278.21710 279.60022 280.88651 282.15201 283.32709 284.37991 285.34198 286.22461
 287.03165 287.75903 288.39929 289.22839
 366.78100 356.33502 345.76704 334.63305 323.03607 311.23009 299.10011 286.90313
 274.61515 262.51216 250.52118 239.82220 229.94422 221.04824 213.23025 206.23227
 200.06629 195.00431 191.58633 189.62835 188.66536 188.72938 189.56440 190.87242
 192.59744 194.69246 196.95547 199.31449 201.75951 204.23953 206.32755 208.16956
 209.79558 210.94060 211.16962 211.39764 211.33466 211.03967 210.67269 210.30271
 209.91973 209.62975 209.43776 209.30178 209.22980 209.56082 209.94684 210.33586
 211.12887 212.30689 213.55691 215.33993 217.26795 219.31097 221.40598 223.48900
 225.54902 227.63304 229.73006 231.83607 233.96509 236.13711 238.39313 240.76315
 243.38417 245.63518 247.63720 249.40222 250.81924 251.94226 252.76427 253.08029
 253.11731 252.89133 252.25135 251.19937 249.80538 247.96640 245.87542 243.70844
 241.49946 239.30347 237.12349 234.96251 232.82253 230.68955 228.71557 226.87258
 225.15560 223.62762 222.25764 221.02966 219.91168 218.87169 217.97571 217.11673
 216.35875 215.53877 214.63678 214.00080 213.45082 213.58899 213.91545 215.03725
 216.16229 216.62761 218.07358 219.98187 221.94617 224.65778 228.73561 232.47052
 235.77182 238.91966 241.44009 243.44839 245.69058 248.62228 252.09116 255.69644
 259.23157 262.52896 265.55508 268.41772 271.03531 273.30493 275.13678 276.68768
 278.11588 279.44406 280.71216 282.04907 283.23477 284.28815 285.25220 286.13266
 286.93716 287.65927 288.29648 289.11929
 366.78100 356.33438 345.76577 334.63115 323.03354 311.22692 299.09631 286.89869
 274.61008 262.50646 250.51485 239.81523 229.93661 221.04000 213.22138 206.22277
 200.05615 194.99354 191.57492 189.61631 188.65269 188.71607 189.55046 190.85784
 192.58223 194.67661 196.93900 199.29738 201.74177 204.22115 206.30854 208.14992
 209.77530 210.91969 211.14807 211.37546 211.31184 211.01623 210.64861 210.27800
 209.89438 209.60376 209.41115 209.27453 209.20192 209.53230 209.91769 210.30607
 211.09846 212.27584 213.52523 215.30761 217.23499 219.27738 221.37176 223.45415
 225.51353 227.59692 229.69330 231.79869 233.92707 236.09846 238.35384 240.72322
 243.34361 245.59399 247.59538 249.35976 250.77615 251.89853 252.71992 253.03530
 253.07168 252.84507 252.20445 251.15184 249.75722 247.91761 245.82599 243.65838
 241.44876 239.25215 237.07153 234.90991 232.76930 230.63568 228.66107 226.81745
 225.09984 223.57122 222.20061 220.97199 219.85338 218.81276 217.91614 217.05653
 216.29791 215.47730 214.57468 213.93807 213.38745 213.58498 214.05164 215.13109
 216.14526 216.85364 218.23773 219.94704 221.94870 224.71292 228.78981 232.43535
 235.63739 238.67561 241.13043 243.15324 245.44769 248.45517 252.01053 255.68657
 259.25345 262.55942 265.57413 268.39307 270.97528 273.23325 275.08157 276.65872
 278.08044 279.37881 280.59323 281.79578 282.96307 284.01450 284.97745 285.85837
 286.66299 287.38708 288.02454 288.85605
 366.78100 356.33333 345.76367 334.62800 323.02934 311.22167 299.09001 286.89134
 274.60168 262.49701 250.50435 239.80368 229.92402 221.02635 213.20669 206.20702
 200.03936 194.97569 191.55603 189.59636 188.63170 188.69403 189.52737 190.83370
 192.55704 194.65037 196.91171 199.26904 201.71238 204.19071 206.27705 208.11738
 209.74172 210.88505 211.11239 211.33872 211.27405 210.97739 210.60872 210.23706
 209.85239 209.56073 209.36706 209.22940 209.15573 209.48507 209.86940 210.25674
 211.04807 212.22441 213.47274 215.25408 217.18041 219.22175 221.31508 223.39642
 225.45475 227.53709 229.63242 231.73676 233.86409 236.03443 238.28876 240.65710
 243.27643 245.52577 247.52610 249.28944 250.70477 251.82611 252.64644 252.96078
 252.99611 252.76844 252.12678 251.07311 249.67745 247.83678 245.74412 243.57545
 241.36479 239.16712 236.98546 234.82279 232.68113 230.54646 228.57080 226.72613
 225.00747 223.47780 222.10614 220.87647 219.75681 218.71514 217.81748 216.95681
 216.19715 215.37548 214.47182 213.83415 213.28249 213.56146 214.22058 215.23354
 216.10930 217.06677 218.31458 219.88869 221.97675 224.78741 228.85733 232.40712
 235.52965 238.45020 240.82335 242.85809 245.21352 248.30328 251.94783 255.69666
 259.28098 262.56815 265.55618 268.34659 270.92111 273.19788 275.09174 276.70670
 278.10931 279.34476 280.48349 281.53525 282.65445 283.69977 284.66208 285.54227
 286.35059 287.08066 287.72113 288.56555
 366.78100 356.33302 345.76305 334.62707 323.02810 311.22012 299.08815 286.88917
 274.59919 262.49422 250.50124 239.80027 229.92029 221.02231 213.20234 206.20236
 200.03439 194.97041 191.55044 189.59046 188.62548 188.68751 189.52053 190.82656
 192.54958 194.64260 196.90363 199.26065 201.70368 204.18170 206.26773 208.10775
 209.73177 210.87480 211.10182 211.32785 211.26287 210.96590 210.59692 210.22494
 209.83997 209.54799 209.35402 209.21604 209.14206 209.47109 209.85511 210.24214
 211.03316 212.20919 213.45721 215.23823 217.16426 219.20528 221.29831 223.37933
 225.43735 227.51938 229.61440 231.71843 233.84545 236.01548 238.26950 240.63752
 243.25655 245.50557 247.50560 249.26862 250.68364 251.80467 252.62469 252.93872
 252.97374 252.74577 252.10379 251.04981 249.65384 247.81286 245.71989 243.55091
 241.33994 239.14196 236.95998 234.79701 232.65503 230.52006 228.54408 226.69910
 224.98013 223.45015 222.07818 220.84820 219.72823 218.68625 217.78827 216.92730
 216.16732 215.34535 214.44137 213.80339 213.25142 213.57652 214.34464 215.34430
 216.15442 217.19939 218.34732 219.88417 222.02374 224.85570 228.90346 232.40297
 235.43631 238.22769 240.50633 242.53992 244.96516 248.14929 251.87959 255.68391
 259.26791 262.54004 265.52759 268.34283 270.95792 273.27725 275.19791 276.78705
 278.10641 279.23764 280.28525 281.31461 282.45691 283.50800 284.47147 285.35648
 286.16382 286.89331 287.53091 288.37143
 366.78100 356.33439 345.76578 334.63116 323.03355 311.22694 299.09633 286.89872
 274.61011 262.50649 250.51488 239.81527 229.93666 221.04005 213.22143 206.22282
 200.05621 194.99360 191.57499 189.61638 188.65276 188.71615 189.55054 190.85793
 192.58232 194.67670 196.93909 199.29748 201.74187 204.22126 206.30865 208.15003
 209.77542 210.91981 211.14820 211.37559 211.31197 211.01636 210.64875 210.27814
 209.89453 209.60392 209.41130 209.27469 209.20208 209.53247 209.91786 210.30624
 211.09863 212.27602 213.52541 215.30780 217.23519 219.27757 221.37196 223.45435
 225.51374 227.59713 229.69351 231.79890 233.92729 236.09868 238.35407 240.72345
 243.34384 245.59423 247.59562 249.36001 250.77640 251.89878 252.72017 253.03556
 253.07195 252.84534 252.20472 251.15211 249.75750 247.91789 245.82628 243.65867
 241.44905 239.25244 237.07183 234.91022 232.76961 230.63599 228.66138 226.81777
 225.10016 223.57155 222.20094 220.97232 219.85371 218.81310 217.91649 217.05688
 216.29826 215.47765 214.57504 213.93843 213.38782 213.67670 214.35919 215.49760
 216.30344 217.22916 218.37320 219.95796 222.08646 224.89021 228.89938 232.39746
 235.33679 238.00581 240.19321 242.22717 244.72125 247.99295 251.79689 255.64549
 259.23712 262.51941 265.54242 268.39404 271.03873 273.38025 275.30576 276.86688
 278.13110 279.19821 280.17569 281.16156 282.29120 283.34164 284.30682 285.19049
 285.99857 286.73190 287.37207 288.21631
 366.78100 356.33260 345.76219 334.62579 323.02639 311.21799 299.08558 286.88618
 274.59578 262.49038 250.49697 239.79557 229.91517 221.01676 213.19636 206.19596
 200.02756 194.96315 191.54275 189.58235 188.61694 188.67854 189.51114 190.81674
 192.53933 194.63193 196.89253 199.24913 201.69172 204.16932 206.25492 208.09451
 209.71811 210.86071 211.08731 211.31290 211.24750 210.95010 210.58070 210.20829
 209.82289 209.53049 209.33608 209.19768 209.12328 209.45188 209.83547 210.22207
 211.01267 212.18827 213.43586 215.21646 217.14206 219.18265 221.27525 223.35585
 225.41345 227.49504 229.58964 231.69324 233.81983 235.98943 238.24303 240.61063
 243.22922 245.47782 247.47742 249.24002 250.65461 251.77521 252.59481 252.90840
 252.94300 252.71460 252.07220 251.01779 249.62139 247.77999 245.68659 243.51718
 241.30578 239.10738 236.92497 234.76157 232.61917 230.48377 228.50736 226.66196
 224.94256 223.41216 222.03975 220.80935 219.68895 218.64654 217.74814 216.88674
 216.12634 215.30393 214.39953 213.76113 213.20872 213.61197 214.56470 215.62460
 216.35460 217.26112 218.37595 219.95651 222.10394 224.91318 228.89981 232.41202
 235.26399 237.82907 239.93898 241.96761 244.50780 247.85123 251.73247 255.62128
 259.23471 262.54071 265.58865 268.46335 271.12170 273.47324 275.40991 276.96817
 278.20123 279.23657 280.17819 281.09860 282.21130 283.25946 284.22568 285.11215
 285.92203 286.65585 287.30841 288.16650
 366.78100 356.32932 345.75565 334.61597 323.01329 311.20161 299.06594 286.86326
 274.56958 262.46090 250.46423 239.75955 229.87587 220.97419 213.15052 206.14684
 199.97516 194.90748 191.48381 189.52013 188.55145 188.60977 189.43910 190.74142
 192.46074 194.55006 196.80739 199.16071 201.60003 204.07435 206.15668 207.99300
 209.61332 210.75264 210.97597 211.19829 211.12961 210.82893 210.45626 210.08058
 209.69190 209.39623 209.19855 209.05687 208.97919 209.30452 209.68484 210.06816
 210.85548 212.02781 213.27213 215.04945 216.97177 219.00910 221.09842 223.17574
 225.23006 227.30839 229.39971 231.50003 233.62335 235.78968 238.04000 240.40432
 243.01964 245.26497 247.26129 249.02061 250.43193 251.54926 252.36558 252.67590
 252.70722 252.47555 251.82987 250.77219 249.37251 247.52784 245.43116 243.25848
 241.04380 238.84213 236.65645 234.48977 232.34410 230.20542 228.22574 226.37706
 224.65439 223.12071 221.74503 220.51135 219.38768 218.34200 217.44032 216.57564
 215.81197 214.98629 214.07861 213.43693 212.88126 213.46977 214.85963 215.81392
 216.31201 216.94849 218.15984 219.91353 222.18811 224.97542 228.85045 232.50772
 235.27847 237.69576 239.69138 241.68303 244.25363 247.67815 251.65462 255.63147
 259.32755 262.69266 265.76120 268.60718 271.23355 273.59183 275.59949 277.21362
 278.47537 279.49731 280.42239 281.29001 282.24802 283.28867 284.26071 285.16153
 286.02115 286.91327 287.69257 288.68573
 366.78100 356.32488 345.74675 334.60263 322.99550 311.17938 299.03925 286.83213
 274.53400 262.42088 250.41975 239.71063 229.82250 220.91638 213.08826 206.08013
 199.90401 194.83188 191.40376 189.43563 188.46251 188.51638 189.34126 190.63913
 192.35401 194.43888 196.69176 199.04064 201.47551 203.94539 206.02326 207.85514
 209.47101 210.60589 210.82476 211.04264 210.96951 210.66439 210.28726 209.90714
 209.51402 209.21389 209.01177 208.86564 208.78352 209.10439 209.48027 209.85914
 210.64202 211.80989 213.04977 214.82264 216.74052 218.77340 220.85827 222.93115
 224.98102 227.05490 229.14177 231.23765 233.35652 235.51840 237.76427 240.12415
 242.73502 244.97590 246.96778 248.72265 250.12953 251.24240 252.05428 252.36015
 252.38703 252.15090 251.50078 250.43865 249.03453 247.18540 245.08428 242.90716
 240.68803 238.48191 236.29178 234.12066 231.97053 229.82741 227.84328 225.99016
 224.26303 222.72491 221.34478 220.10666 218.97854 217.92841 217.02229 216.15316
 215.38504 214.55491 213.64279 212.99666 212.43654 213.26968 215.20274 216.01823
 216.09180 216.62488 218.13329 220.04181 222.36250 225.13583 228.85159 232.48495
 235.04308 237.35573 239.36159 241.51436 244.27135 247.76672 251.72865 255.72102
 259.47577 262.90894 266.04346 268.92432 271.57535 273.96268 276.02927 277.73755
 279.06006 280.07761 280.76089 281.76990 282.94537 284.04211 285.18130 286.21664
 287.14783 287.97705 288.70145 289.62457
 366.78100 356.32419 345.74537 334.60056 322.99275 311.17593 299.03512 286.82731
 274.52849 262.41468 250.41287 239.70305 229.81424 220.90743 213.07861 206.06980
 199.89299 194.82017 191.39136 189.42255 188.44873 188.50192 189.32611 190.62329
 192.33748 194.42167 196.67385 199.02204 201.45622 203.92541 206.00260 207.83378
 209.44897 210.58316 210.80134 211.01853 210.94472 210.63890 210.26109 209.88028
 209.48646 209.18565 208.98284 208.83602 208.75321 209.07340 209.44858 209.82677
 210.60896 211.77614 213.01533 214.78752 216.70470 218.73689 220.82108 222.89326
 224.94245 227.01564 229.10182 231.19701 233.31520 235.47638 237.72157 240.08076
 242.69094 244.93113 246.92232 248.67650 250.08269 251.19488 252.00606 252.31125
 252.33744 252.10062 251.44981 250.38700 248.98218 247.13237 245.03056 242.85274
 240.63293 238.42612 236.23530 234.06349 231.91267 229.76886 227.78405 225.93023
 224.20242 222.66361 221.28279 220.04398 218.91517 217.86435 216.95754 216.08773
 215.31891 214.48810 213.57529 212.92847 212.36766 213.24500 215.29295 216.34570
 216.22235 216.84267 218.27362 220.06456 222.30975 225.13260 228.87498 232.28394
 234.73901 236.91425 238.89067 241.12447 244.02696 247.66716 251.71498 255.74843
 259.53604 263.03900 266.29251 269.29492 272.02249 274.46054 276.58173 278.34720
 279.71155 280.64227 281.52103 282.77573 283.93747 285.03391 286.03421 286.94040
 287.75543 288.48123 289.11526 289.92328
 366.78100 356.32920 345.75541 334.61561 323.01282 311.20102 299.06523 286.86243
 274.56863 262.45984 250.46304 239.75825 229.87445 220.97266 213.14886 206.14506
 199.97327 194.90547 191.48168 189.51788 188.54909 188.60729 189.43649 190.73870
 192.45790 194.54711 196.80431 199.15752 201.59672 204.07092 206.15313 207.98933
 209.60954 210.74874 210.97195 211.19415 211.12535 210.82456 210.45176 210.07597
 209.68717 209.39138 209.19358 209.05179 208.97399 209.29919 209.67940 210.06260
 210.84981 212.02201 213.26622 215.04342 216.96562 219.00283 221.09203 223.16924
 225.22344 227.30165 229.39285 231.49305 233.61626 235.78246 238.03267 240.39687
 243.01208 245.25728 247.25348 249.01269 250.42389 251.54110 252.35730 252.66751
 252.69871 252.46691 251.82112 250.76332 249.36353 247.51873 245.42194 243.24914
 241.03434 238.83255 236.64675 234.47996 232.33416 230.19537 228.21557 226.36677
 224.64398 223.11018 221.73439 220.50059 219.37680 218.33100 217.42920 216.56441
 215.80061 214.97482 214.06702 213.42523 212.86943 213.50459 215.05682 216.57332
 216.69806 217.30754 218.51231 220.05148 222.18079 225.05994 228.77583 231.95169
 234.34383 236.35240 238.25047 240.52910 243.58914 247.38327 251.51466 255.58191
 259.40839 262.99228 266.33545 269.40433 272.16214 274.61185 276.75052 278.52283
 279.90381 280.90994 281.76379 283.01004 284.08539 285.03864 285.91370 286.70645
 287.41943 288.05435 288.60901 289.31586
 366.78100 356.33623 345.76945 334.63668 323.04091 311.23614 299.10736 286.91159
 274.62482 262.52305 250.53327 239.83550 229.95873 221.06396 213.24718 206.25041
 200.08564 195.02487 191.60809 189.65132 188.68955 188.75478 189.59100 190.90023
 192.62646 194.72269 196.98691 199.34714 201.79337 204.27460 206.36382 208.20705
 209.83428 210.98051 211.21073 211.43996 211.37819 211.08442 210.71864 210.34987
 209.96810 209.67933 209.48855 209.35378 209.28301 209.61524 210.00246 210.39269
 211.18692 212.36615 213.61737 215.40160 217.33083 219.37506 221.47128 223.55551
 225.61674 227.70197 229.80019 231.90742 234.03765 236.21088 238.46810 240.83933
 243.46156 245.71379 247.71701 249.48324 250.90147 252.02570 252.84892 253.16615
 253.20438 252.97961 252.34083 251.29006 249.89729 248.05952 245.96974 243.80397
 241.59620 239.40142 237.22265 235.06288 232.92411 230.79233 228.81956 226.97779
 225.26202 223.73524 222.36647 221.13970 220.02293 218.98415 218.08938 217.23161
 216.47484 215.65606 214.75529 214.12052 213.57175 213.89864 214.78180 216.44507
 217.21651 217.98244 219.02306 220.25528 222.20741 225.04674 228.64888 231.69556
 233.96725 235.83342 237.67415 240.02637 243.23807 247.16949 251.37926 255.47934
 259.32227 262.92099 266.27765 269.34897 272.09851 274.52747 276.62201 278.32730
 279.60770 280.49881 281.60980 282.93628 284.07089 285.12280 286.08252 286.95197
 287.73392 288.43024 289.03857 289.81378
 366.78100 356.34352 345.78404 334.65856 323.07008 311.27260 299.15112 286.96263
 274.68315 262.58867 250.60619 239.91571 230.04623 221.15875 213.34927 206.35979
 200.20231 195.14883 191.73935 189.78986 188.83538 188.90790 189.75142 191.06794
 192.80146 194.90498 197.17650 199.54402 201.99754 204.48606 206.58258 208.43309
 210.06761 211.22113 211.45865 211.69517 211.64069 211.35421 210.99573 210.63425
 210.25977 209.97829 209.79481 209.66732 209.60384 209.94336 210.33788 210.73540
 211.53692 212.72344 213.98196 215.77348 217.71000 219.76152 221.86504 223.95656
 226.02507 228.11759 230.22311 232.33763 234.47515 236.65567 238.92019 241.29871
 243.92823 246.18775 248.19827 249.97179 251.39730 252.52882 253.35934 253.68386
 253.72938 253.51190 252.88042 251.83694 250.45146 248.62098 246.53850 244.38002
 242.17953 239.99205 237.82057 235.66809 233.53661 231.41213 229.44665 227.61217
 225.90369 224.38421 223.02273 221.80325 220.69377 219.66228 218.77480 217.92432
 217.17484 216.36336 215.46988 214.84240 214.30092 214.33057 214.57196 216.14038
 217.61046 218.63437 219.59911 220.57019 222.35202 225.09201 228.48413 231.50084
 233.58116 235.35602 237.18616 239.65698 243.02374 247.07501 251.35809 255.48972
 259.34442 262.94754 266.30478 269.36850 272.10071 274.48465 276.52917 278.14029
 279.24661 280.27701 281.80423 283.22491 284.59744 285.81183 286.91974 287.92343
 288.82614 289.63000 290.33228 291.22720
 366.78100 356.34880 345.79460 334.67440 323.09120 311.29900 299.18280 286.99960
 274.72540 262.63620 250.65900 239.97380 230.10960 221.22740 213.42320 206.43900
 200.28680 195.23860 191.83440 189.89020 188.94100 189.01880 189.86760 191.18940
 192.92820 195.03699 197.31379 199.68659 202.14539 204.63919 206.74099 208.59679
 210.23659 211.39539 211.63819 211.87999 211.83079 211.54959 211.19639 210.84019
 210.47099 210.19479 210.01659 209.89439 209.83619 210.18099 210.58079 210.98359
 211.79039 212.98219 214.24599 216.04279 217.98459 220.04139 222.15019 224.24699
 226.32079 228.41859 230.52939 232.64919 234.79199 236.97779 239.24759 241.63139
 244.26619 246.53099 248.54679 250.32559 251.75639 252.89319 253.72899 254.05879
 254.10959 253.89739 253.27118 252.23298 250.85278 249.02758 246.95038 244.79718
 242.60198 240.41978 238.25358 236.10638 233.98018 231.86098 229.90078 228.07158
 226.36838 224.85418 223.49798 222.28378 221.17958 220.15338 219.27118 218.42598
 217.68178 216.87558 215.98738 215.36518 214.82898 214.66939 214.44676 215.76961
 217.86551 219.22272 220.21094 220.93159 222.44847 225.07887 228.36218 231.23210
 233.19930 234.85803 236.67628 239.25768 242.77394 246.93944 251.27762 255.41751
 259.26620 262.86465 266.21957 269.27734 271.99918 274.36340 276.37735 277.94327
 279.07675 280.28922 281.81830 283.23712 284.63470 285.87122 286.99933 288.02133
 288.94052 289.75903 290.47409 291.38535
 366.78100 356.34604 345.78909 334.66613 323.08018 311.28522 299.16627 286.98031
 274.70336 262.61140 250.63145 239.94349 230.07653 221.19158 213.38462 206.39767
 200.24271 195.19176 191.78480 189.83785 188.88589 188.96093 189.80698 191.12602
 192.86207 194.96811 197.24216 199.61220 202.06825 204.55929 206.65834 208.51138
 210.14842 211.30447 211.54451 211.78356 211.73160 211.44765 211.09169 210.73274
 210.36078 210.08183 209.90087 209.77591 209.71496 210.05700 210.45405 210.85409
 211.65814 212.84718 214.10823 215.90227 217.84131 219.89536 222.00140 224.09545
 226.16649 228.26154 230.36958 232.48663 234.62667 236.80972 239.07676 241.45780
 244.08985 246.35189 248.36494 250.14098 251.56903 252.70307 253.53612 253.86316
 253.91121 253.69625 253.06729 252.02634 250.64338 248.81543 246.73547 244.57952
 242.38156 240.19661 238.02765 235.87769 233.74874 231.62678 229.66383 227.83187
 226.12592 224.60896 223.25001 222.03305 220.92610 219.89714 219.01218 218.16423
 217.41727 216.60832 215.71736 215.09241 214.55345 214.57915 214.67899 215.46686
 217.47865 219.40981 220.67688 221.23386 222.57449 225.17960 228.51260 230.98596
 233.06625 234.63304 236.44037 239.04018 242.61334 246.80594 251.12781 255.22966
 259.03021 262.57681 265.87604 268.88040 271.54471 273.87961 275.88333 277.52676
 278.81985 279.97195 281.25317 282.55954 283.71429 284.77966 285.82904 286.77969
 287.63470 288.39612 289.06125 289.90891
 366.78100 356.34128 345.77956 334.65184 323.06112 311.26140 299.13768 286.94696
 274.66524 262.56852 250.58380 239.89108 230.01936 221.12964 213.31792 206.32619
 200.16647 195.11075 191.69903 189.74731 188.79059 188.86087 189.70215 191.01643
 192.74771 194.84899 197.11827 199.48355 201.93483 204.42111 206.51539 208.36367
 209.99595 211.14723 211.38251 211.61679 211.56007 211.27135 210.91063 210.54691
 210.17019 209.88647 209.70075 209.57103 209.50530 209.84258 210.23486 210.63014
 211.42942 212.61370 213.86998 215.65926 217.59354 219.64282 221.74410 223.83338
 225.89966 227.98994 230.09322 232.20550 234.34078 236.51906 238.78134 241.15762
 243.78490 246.04218 248.05046 249.82174 251.24502 252.37430 253.20258 253.52486
 253.56814 253.34841 252.71469 251.66897 250.28125 248.44853 246.36381 244.20309
 242.00037 239.81065 237.63693 235.48221 233.34849 231.22177 229.25405 227.41733
 225.70661 224.18489 222.82117 221.59945 220.48773 219.45401 218.56429 217.71157
 216.95985 216.14613 215.25041 214.62069 214.07697 214.33418 214.94463 215.70326
 217.13300 219.06232 220.78781 221.61098 222.84482 225.28683 228.73300 230.94945
 233.04028 234.57068 236.34500 238.93736 242.53108 246.75720 251.10516 255.19611
 258.96085 262.45163 265.69257 268.63440 271.25104 273.55533 275.56165 277.25220
 278.62067 279.75290 280.77658 281.82071 282.89059 283.87433 284.78882 285.64011
 286.42722 287.17682 287.83163 288.66611
 366.78100 356.33984 345.77669 334.64753 323.05537 311.25422 299.12906 286.93690
 274.65374 262.55559 250.56943 239.87527 230.00212 221.11096 213.29780 206.30465
 200.14349 195.08633 191.67317 189.72002 188.76186 188.83070 189.67055 190.98339
 192.71323 194.81308 197.08092 199.44476 201.89461 204.37945 206.47229 208.31913
 209.94998 211.09982 211.33366 211.56651 211.50835 211.21819 210.85604 210.49088
 210.11272 209.82756 209.64041 209.50925 209.44209 209.77794 210.16878 210.56262
 211.36047 212.54331 213.79815 215.58599 217.51884 219.56668 221.66652 223.75437
 225.81921 227.90805 230.00990 232.12074 234.25458 236.43143 238.69227 241.06711
 243.69295 245.94880 247.95564 249.72548 251.14733 252.27517 253.10201 253.42286
 253.46470 253.24354 252.60838 251.56123 250.17207 248.33791 246.25176 244.08960
 241.88544 239.69429 237.51913 235.36297 233.22782 231.09966 229.13050 227.29234
 225.58019 224.05703 222.69187 221.46872 220.35556 219.32040 218.42925 217.57509
 216.82193 216.00677 215.10962 214.47846 213.93330 214.25230 215.00600 216.03729
 217.25476 218.87914 220.66197 221.80733 223.08289 225.29112 228.60524 230.84827
 232.72388 234.36174 236.21004 238.93893 242.59732 246.82494 251.17154 255.27701
 259.03851 262.50854 265.72128 268.63101 271.21375 273.47461 275.44043 277.09607
 278.41495 279.52985 280.54056 281.50525 282.37357 283.27628 284.20709 285.07819
 285.87976 286.61542 287.25101 288.09018
 366.78100 356.34073 345.77846 334.65019 323.05891 311.25864 299.13437 286.94310
 274.66083 262.56356 250.57828 239.88501 230.01274 221.12247 213.31020 206.31793
 200.15765 195.10138 191.68911 189.73684 188.77957 188.84930 189.69002 191.00375
 192.73448 194.83521 197.10394 199.46867 201.91939 204.40512 206.49885 208.34658
 209.97831 211.12904 211.36376 211.59749 211.54022 211.25095 210.88968 210.52541
 210.14813 209.86386 209.67759 209.54732 209.48105 209.81778 210.20950 210.60423
 211.40296 212.58669 213.84242 215.63115 217.56487 219.61360 221.71433 223.80306
 225.86879 227.95852 230.06124 232.17297 234.30770 236.48543 238.74716 241.12289
 243.74961 246.00634 248.01407 249.78480 251.20753 252.33626 253.16398 253.48571
 253.52844 253.30817 252.67390 251.62763 250.23935 248.40608 246.32081 244.15954
 241.95627 239.76600 237.59172 235.43645 233.30218 231.17491 229.20664 227.36937
 225.65810 224.13582 222.77155 221.54928 220.43701 219.40274 218.51247 217.65919
 216.90692 216.09265 215.19638 214.56611 214.02184 214.30595 214.97719 216.11909
 217.51042 218.96127 220.69655 221.96004 223.24400 225.27350 228.40596 230.60033
 232.37000 233.99197 235.92230 238.79811 242.56609 246.84250 251.21149 255.33231
 259.09393 262.55313 265.74954 268.64404 271.21298 273.45453 275.38934 277.01230
 278.26486 279.30475 280.26785 281.23581 282.08014 282.98395 283.92279 284.80069
 285.61584 286.35889 286.99829 287.84726
 366.78100 356.34247 345.78193 334.65540 323.06586 311.26733 299.14480 286.95526
 274.67473 262.57920 250.59566 239.90413 230.03359 221.14506 213.33453 206.34399
 200.18546 195.13093 191.72039 189.76986 188.81432 188.88579 189.72826 191.04372
 192.77619 194.87865 197.14912 199.51559 201.96805 204.45552 206.55099 208.40045
 210.03392 211.18638 211.42285 211.65832 211.60278 211.31525 210.95571 210.59318
 210.21765 209.93511 209.75058 209.62205 209.55751 209.89598 210.28944 210.68591
 211.48638 212.67184 213.92931 215.71978 217.65524 219.70571 221.80817 223.89864
 225.96611 228.05757 230.16204 232.27550 234.41197 236.59144 238.85490 241.23237
 243.86084 246.11930 248.12877 249.90123 251.32570 252.45617 253.28563 253.60910
 253.65356 253.43503 252.80250 251.75796 250.37143 248.53990 246.45636 244.29683
 242.09529 239.90676 237.73423 235.58069 233.44816 231.32263 229.35609 227.52056
 225.81102 224.29049 222.92796 221.70742 220.59689 219.56435 218.67582 217.82429
 217.07375 216.26122 215.36669 214.73815 214.19562 214.41095 214.91969 216.10159
 217.78159 219.16939 220.80867 222.11238 223.39964 225.31218 228.26758 230.36165
 232.02960 233.63416 235.63763 238.64439 242.50580 246.82643 251.21228 255.33862
 259.09210 262.54279 265.73407 268.62854 271.19971 273.44095 275.37192 276.98663
 278.20438 279.19312 280.11615 281.08383 281.93475 282.87076 283.81592 284.69580
 285.51605 286.25937 286.89920 287.74875
 366.78100 356.34134 345.77967 334.65201 323.06134 311.26168 299.13801 286.94735
 274.66568 262.56902 250.58436 239.89169 230.02003 221.13036 213.31870 206.32703
 200.16737 195.11170 191.70004 189.74837 188.79171 188.86205 189.70338 191.01772
 192.74905 194.85039 197.11972 199.48506 201.93639 204.42273 206.51707 208.36540
 209.99774 211.14907 211.38441 211.61874 211.56208 211.27341 210.91275 210.54908
 210.17242 209.88876 209.70309 209.57343 209.50776 209.84510 210.23743 210.63277
 211.43210 212.61644 213.87278 215.66211 217.59645 219.64578 221.74712 223.83645
 225.90279 227.99312 230.09646 232.20879 234.34413 236.52247 238.78480 241.16114
 243.78847 246.04581 248.05414 249.82548 251.24881 252.37815 253.20649 253.52882
 253.57216 253.35249 252.71883 251.67316 250.28550 248.45283 246.36817 244.20750
 242.00484 239.81518 237.64151 235.48685 233.35318 231.22652 229.25885 227.42219
 225.71152 224.18986 222.82620 221.60453 220.49287 219.45920 218.56954 217.71687
 216.96521 216.15154 215.25588 214.62621 214.08255 214.36305 215.02576 216.09563
 217.86110 219.31970 220.90738 222.27425 223.57947 225.42589 228.20871 230.14799
 231.71468 233.30052 235.37100 238.50172 242.44080 246.79886 251.19319 255.31389
 259.05267 262.49905 265.69662 268.59863 271.17197 273.41269 275.35229 276.98566
 278.21353 279.19760 280.10178 281.06186 281.91333 282.84482 283.79044 284.67184
 285.49146 286.23758 286.87555 287.72479
 366.78100 356.33796 345.77293 334.64189 323.04785 311.24482 299.11778 286.92374
 274.63871 262.53867 250.55063 239.85460 229.97956 221.08652 213.27149 206.27645
 200.11342 195.05438 191.63934 189.68431 188.72427 188.79123 189.62920 190.94016
 192.66812 194.76609 197.03205 199.39401 201.84198 204.32494 206.41590 208.26087
 209.88983 211.03779 211.26976 211.50072 211.44068 211.14865 210.78461 210.41757
 210.03754 209.75050 209.56147 209.42843 209.35939 209.69336 210.08232 210.47428
 211.27025 212.45121 213.70417 215.49014 217.42110 219.46706 221.56503 223.65099
 225.71395 227.80092 229.90088 232.00984 234.14181 236.31677 238.57573 240.94870
 243.57266 245.82662 247.83159 249.59955 251.01952 252.14548 252.97044 253.28941
 253.32937 253.10633 252.46930 251.42026 250.02922 248.19319 246.10515 243.94111
 241.73508 239.54204 237.36500 235.20697 233.06993 230.93989 228.96886 227.12882
 225.41478 223.88975 222.52271 221.29767 220.18264 219.14560 218.25257 217.39653
 216.64149 215.82446 214.92542 214.29238 213.74535 214.19458 215.25597 216.12576
 217.75354 219.31310 221.00320 222.50691 223.82651 225.62469 228.23297 229.99103
 231.45645 233.01105 235.14383 238.38290 242.37857 246.75850 251.14565 255.24364
 258.96405 262.41568 265.63385 268.54996 271.12723 273.36768 275.32858 277.00452
 278.27277 279.28036 280.18460 281.13086 281.99881 282.86569 283.80316 284.68552
 285.50717 286.25513 286.89017 287.73929
 366.78100 356.33652 345.77003 334.63755 323.04206 311.23758 299.10909 286.91361
 274.62712 262.52564 250.53615 239.83867 229.96218 221.06770 213.25121 206.25473
 200.09024 195.02976 191.61327 189.65679 188.69530 188.76082 189.59734 190.90685
 192.63337 194.72988 196.99440 199.35491 201.80143 204.28294 206.37246 208.21597
 209.84349 210.99000 211.22052 211.45003 211.38855 211.09506 210.72958 210.36109
 209.97961 209.69113 209.50064 209.36616 209.29567 209.62819 210.01570 210.40622
 211.20073 212.38025 213.63176 215.41628 217.34579 219.39031 221.48682 223.57134
 225.63285 227.71837 229.81688 231.92440 234.05491 236.22843 238.48595 240.85746
 243.47998 245.73249 247.73601 249.50252 250.92104 252.04555 252.86907 253.18658
 253.22510 253.00061 252.36213 251.31164 249.91916 248.08167 245.99219 243.82670
 241.61922 239.42474 237.24625 235.08677 232.94828 230.81680 228.84431 227.00283
 225.28734 223.76086 222.39237 221.16589 220.04940 219.01092 218.11643 217.25895
 216.50246 215.68398 214.78349 214.14901 213.60052 214.12682 215.37024 216.19577
 217.71449 219.29131 221.13193 222.66751 223.97865 225.78621 228.28316 229.86380
 231.22977 232.75182 234.94377 238.28166 242.32039 246.71165 251.08640 255.15977
 258.86597 262.32248 265.56015 268.48422 271.05948 273.30487 275.29205 277.00314
 278.31024 279.35611 280.29745 281.25967 282.11908 282.94128 283.86993 284.75156
 285.57172 286.31659 286.95493 287.79733
 366.78100 356.33770 345.77240 334.64110 323.04681 311.24351 299.11621 286.92191
 274.63661 262.53631 250.54801 239.85172 229.97642 221.08312 213.26782 206.27252
 200.10922 195.04992 191.63463 189.67933 188.71903 188.78573 189.62343 190.93413
 192.66184 194.75954 197.02524 199.38694 201.83464 204.31734 206.40804 208.25275
 209.88145 211.02915 211.26085 211.49155 211.43125 211.13895 210.77466 210.40736
 210.02706 209.73976 209.55046 209.41716 209.34786 209.68157 210.07027 210.46197
 211.25767 212.43837 213.69107 215.47677 217.40748 219.45318 221.55088 223.63658
 225.69928 227.78598 229.88569 231.99439 234.12609 236.30079 238.55949 240.93219
 243.55589 245.80960 247.81430 249.58200 251.00170 252.12740 252.95210 253.27080
 253.31051 253.08721 252.44991 251.40061 250.00931 248.17301 246.08471 243.92042
 241.71412 239.52082 237.34352 235.18522 233.04792 230.91762 228.94633 227.10603
 225.39173 223.86643 222.49913 221.27383 220.15853 219.12124 218.22794 217.37164
 216.61634 215.79904 214.89974 214.26645 213.71915 214.19611 215.32295 216.27531
 217.81633 219.41354 221.31726 222.69225 223.97394 225.84335 228.30688 229.71031
 230.98134 232.48656 234.74223 238.17165 242.26509 246.67599 251.05310 255.12231
 258.82571 262.28021 265.52042 268.43954 271.00226 273.24307 275.24139 276.96927
 278.29767 279.38196 280.36996 281.35919 282.23944 283.08209 284.01318 284.89276
 285.70926 286.45023 287.08484 287.92279
 366.78100 356.33930 345.77559 334.64589 323.05318 311.25148 299.12578 286.93307
 274.64937 262.55066 250.56396 239.86925 229.99555 221.10385 213.29014 206.29644
 200.13473 195.07703 191.66333 189.70962 188.75092 188.81921 189.65851 190.97080
 192.70010 194.79940 197.06669 199.42999 201.87928 204.36358 206.45588 208.30217
 209.93247 211.08176 211.31506 211.54736 211.48865 211.19795 210.83524 210.46954
 210.09083 209.80513 209.61743 209.48572 209.41802 209.75331 210.14361 210.53691
 211.33420 212.51650 213.77079 215.55809 217.49038 219.53768 221.63698 223.72427
 225.78857 227.87686 229.97816 232.08846 234.22175 236.39805 238.65834 241.03264
 243.65793 245.91323 247.91953 249.68882 251.11012 252.23741 253.06371 253.38401
 253.42530 253.20360 252.56789 251.52019 250.13049 248.29578 246.20908 244.04637
 241.84167 239.64996 237.47426 235.31756 233.18185 231.05315 229.08344 227.24474
 225.53204 224.00833 222.64263 221.41892 220.30522 219.26951 218.37781 217.52311
 216.76940 215.95370 215.05599 214.42429 213.87859 214.28416 215.24240 216.37773
 217.88698 219.61337 221.53502 222.71855 223.94615 225.85277 228.29395 229.53537
 230.71547 232.21674 234.52243 238.05733 242.20996 246.64291 251.03029 255.10492
 258.81177 262.26440 265.50211 268.41907 270.97797 273.21597 275.20853 276.92816
 278.25089 279.33542 280.35629 281.39459 282.32068 283.24237 284.18338 285.06015
 285.87643 286.61581 287.24347 288.07333
 366.78100 356.33997 345.77694 334.64791 323.05588 311.25485 299.12982 286.93779
 274.65476 262.55673 250.57070 239.87667 230.00364 221.11261 213.29958 206.30655
 200.14552 195.08849 191.67546 189.72243 188.76440 188.83337 189.67334 190.98631
 192.71628 194.81625 197.08422 199.44819 201.89816 204.38313 206.47610 208.32307
 209.95404 211.10401 211.33798 211.57095 211.51292 211.22289 210.86086 210.49583
 210.11780 209.83277 209.64574 209.51471 209.44768 209.78365 210.17462 210.56859
 211.36656 212.54953 213.80450 215.59247 217.52544 219.57341 221.67338 223.76135
 225.82632 227.91529 230.01726 232.12823 234.26220 236.43917 238.70014 241.07511
 243.70108 245.95705 247.96402 249.73399 251.15596 252.28393 253.11090 253.43187
 253.47384 253.25281 252.61778 251.57075 250.18172 248.34769 246.26166 244.09963
 241.89560 239.70457 237.52954 235.37351 233.23848 231.11045 229.14142 227.30339
 225.59136 224.06833 222.70330 221.48027 220.36724 219.33221 218.44118 217.58715
 216.83412 216.01909 215.12206 214.49103 213.94600 214.32230 215.21133 216.49512
 217.89120 219.76111 221.70383 222.80385 223.98651 225.87828 228.26729 229.38550
 230.48674 231.97595 234.34123 237.96143 242.15419 246.60062 250.99017 255.06186
 258.76627 262.21939 265.46143 268.38483 270.95694 273.20547 275.19159 276.89325
 278.19281 279.24930 280.27475 281.37402 282.40759 283.43234 284.38638 285.26620
 286.07544 286.80930 287.43048 288.25159
 366.78100 356.33973 345.77646 334.64719 323.05493 311.25366 299.12839 286.93612
 274.65285 262.55458 250.56831 239.87404 230.00078 221.10951 213.29624 206.30297
 200.14170 195.08443 191.67116 189.71790 188.75963 188.82836 189.66809 190.98082
 192.71055 194.81028 197.07801 199.44175 201.89148 204.37621 206.46894 208.31567
 209.94640 211.09613 211.32987 211.56260 211.50433 211.21406 210.85179 210.48652
 210.10825 209.82299 209.63572 209.50445 209.43718 209.77291 210.16364 210.55737
 211.35510 212.53784 213.79257 215.58030 217.51303 219.56076 221.66049 223.74822
 225.81296 227.90169 230.00342 232.11415 234.24788 236.42461 238.68534 241.06007
 243.68581 245.94154 247.94827 249.71800 251.13973 252.26746 253.09419 253.41493
 253.45666 253.23539 252.60012 251.55285 250.16358 248.32931 246.24304 244.08078
 241.87651 239.68524 237.50997 235.35370 233.21843 231.09016 229.12090 227.28263
 225.57036 224.04709 222.68182 221.45855 220.34528 219.31001 218.41875 217.56448
 216.81121 215.99594 215.09867 214.46740 213.92213 214.31371 215.23883 216.57518
 217.92841 219.84529 221.80009 222.89868 224.03558 225.92604 228.26978 229.28314
 230.29283 231.75993 234.19028 237.89256 242.11049 246.55872 250.94057 255.00125
 258.70020 262.15460 265.40295 268.33536 270.92368 273.18552 275.16901 276.85760
 278.15213 279.21045 280.23602 281.36502 282.51196 283.55380 284.51160 285.39044
 286.19638 286.92380 287.54138 288.36002
 366.78100 356.33881 345.77462 334.64443 323.05123 311.24904 299.12285 286.92966
 274.64547 262.54628 250.55908 239.86389 229.98970 221.09751 213.28332 206.28913
 200.12694 195.06874 191.65455 189.70036 188.74117 188.80898 189.64779 190.95960
 192.68840 194.78721 197.05402 199.41683 201.86564 204.34945 206.44125 208.28706
 209.91687 211.06568 211.29849 211.53030 211.47111 211.17991 210.81672 210.45053
 210.07134 209.78515 209.59696 209.46477 209.39657 209.73138 210.12119 210.51400
 211.31081 212.49262 213.74642 215.53323 217.46504 219.51185 221.61066 223.69747
 225.76128 227.84908 229.94989 232.05970 234.19251 236.36832 238.62813 241.00194
 243.62674 245.88155 247.88736 249.65617 251.07698 252.20379 253.02959 253.34940
 253.39021 253.16802 252.53183 251.48364 250.09345 248.25825 246.17106 244.00787
 241.80268 239.61049 237.43430 235.27710 233.14091 231.01172 229.04153 227.20234
 225.48915 223.96496 222.59876 221.37457 220.26038 219.22419 218.33200 217.47681
 216.72262 215.90642 215.00823 214.37604 213.82985 214.27263 215.31876 216.58934
 218.00488 219.92764 221.87045 222.97815 224.07558 225.95641 228.26918 229.21428
 230.13956 231.55681 234.04875 237.84280 242.07426 246.51671 250.88728 254.93806
 258.63583 262.09222 265.34204 268.27521 270.86832 273.13654 275.11588 276.80191
 278.11731 279.22089 280.27771 281.40552 282.56110 283.60443 284.56119 285.43912
 286.24500 286.97498 287.58795 288.40594
 366.78100 356.33759 345.77218 334.64077 323.04637 311.24296 299.11555 286.92114
 274.63573 262.53532 250.54692 239.85051 229.97510 221.08169 213.26628 206.27087
 200.10747 195.04806 191.63265 189.67724 188.71683 188.78342 189.62102 190.93161
 192.65920 194.75679 197.02238 199.38397 201.83156 204.31416 206.40475 208.24934
 209.87793 211.02552 211.25711 211.48771 211.42730 211.13489 210.77048 210.40307
 210.02266 209.73526 209.54585 209.41244 209.34303 209.67662 210.06521 210.45681
 211.25240 212.43299 213.68558 215.47117 217.40176 219.44736 221.54495 223.63054
 225.69313 227.77972 229.87931 231.98790 234.11950 236.29409 238.55268 240.92527
 243.54886 245.80245 247.80705 249.57464 250.99423 252.11982 252.94441 253.26300
 253.30260 253.07919 252.44178 251.39237 250.00096 248.16455 246.07615 243.91174
 241.70533 239.51192 237.33451 235.17610 233.03869 230.90829 228.93688 227.09647
 225.38206 223.85665 222.48924 221.26384 220.14843 219.11102 218.21761 217.36120
 216.60579 215.78839 214.88898 214.25557 213.70816 214.21907 215.42618 216.57344
 218.05142 220.03731 221.99303 223.02486 224.06920 226.02405 228.31544 229.16791
 229.97685 231.32513 233.89148 237.78481 242.03294 246.46419 250.82246 254.86736
 258.56845 262.02792 265.27545 268.20673 270.80341 273.08032 275.06372 276.75565
 278.10391 279.25922 280.35468 281.47717 282.57944 283.61526 284.56693 285.43668
 286.22678 286.92816 287.51770 288.25946
 366.78100 356.33689 345.77079 334.63868 323.04357 311.23946 299.11136 286.91625
 274.63014 262.52903 250.53993 239.84282 229.96671 221.07260 213.25650 206.26039
 200.09628 195.03617 191.62007 189.66396 188.70285 188.76874 189.60564 190.91553
 192.64242 194.73931 197.00421 199.36510 201.81199 204.29389 206.38378 208.22767
 209.85556 211.00246 211.23335 211.46324 211.40213 211.10903 210.74392 210.37581
 209.99470 209.70660 209.51649 209.38238 209.31227 209.64517 210.03306 210.42395
 211.21884 212.39874 213.65063 215.43552 217.36542 219.41031 221.50720 223.59209
 225.65399 227.73988 229.83877 231.94666 234.07756 236.25145 238.50934 240.88123
 243.50413 245.75702 247.76091 249.52780 250.94670 252.07159 252.89548 253.21337
 253.25227 253.02816 252.39005 251.33994 249.94784 248.11073 246.02162 243.85652
 241.64941 239.45530 237.27719 235.11809 232.97998 230.84887 228.87676 227.03566
 225.32055 223.79444 222.42633 221.20023 220.08412 219.04601 218.15190 217.29480
 216.53869 215.72058 214.82047 214.18637 213.63826 214.19316 215.50417 216.57913
 218.08969 220.09908 222.09720 223.16693 224.09505 226.02785 228.34639 229.11447
 229.79741 231.06662 233.73718 237.75449 241.99797 246.41670 250.76204 254.80313
 258.50592 261.96478 265.21039 268.14441 270.74930 273.04233 275.02719 276.71866
 278.09439 279.28284 280.40314 281.54202 282.62711 283.65607 284.60703 285.47556
 286.26468 286.96561 287.57568 288.35419
 366.78100 356.33599 345.76898 334.63597 323.03996 311.23495 299.10594 286.90993
 274.62292 262.52091 250.53090 239.83289 229.95588 221.06087 213.24386 206.24685
 200.08184 195.02083 191.60382 189.64681 188.68480 188.74979 189.58578 190.89477
 192.62076 194.71675 196.98074 199.34073 201.78672 204.26771 206.35670 208.19969
 209.82668 210.97267 211.20266 211.43165 211.36964 211.07563 210.70962 210.34061
 209.95860 209.66959 209.47858 209.34357 209.27256 209.60455 209.99153 210.38152
 211.17551 212.35450 213.60549 215.38948 217.31847 219.36246 221.45845 223.54244
 225.60343 227.68842 229.78641 231.89340 234.02339 236.19638 238.45337 240.82436
 243.44635 245.69834 247.70133 249.46732 250.88531 252.00930 252.83229 253.14928
 253.18727 252.96226 252.32325 251.27224 249.87923 248.04122 245.95121 243.78520
 241.57719 239.38218 237.20317 235.04316 232.90415 230.77214 228.79913 226.95712
 225.24111 223.71410 222.34509 221.11808 220.00107 218.96206 218.06705 217.20904
 216.45203 215.63302 214.73201 214.09700 213.54799 214.15817 215.59966 216.60370
 218.07965 220.04994 222.08412 223.28128 224.17339 226.04927 228.32678 229.08812
 229.63632 230.82841 233.58078 237.74954 241.97528 246.38577 250.71834 254.75655
 258.46298 261.91812 265.15295 268.08615 270.69519 272.99747 274.98596 276.66016
 278.04919 279.25098 280.40259 281.54208 282.69846 283.73895 284.69562 285.57056
 286.36603 287.10144 287.74390 288.56262
 366.78100 356.33541 345.76782 334.63423 323.03764 311.23204 299.10245 286.90586
 274.61827 262.51568 250.52509 239.82650 229.94891 221.05331 213.23572 206.23813
 200.07254 195.01095 191.59336 189.63577 188.67318 188.73759 189.57299 190.88140
 192.60681 194.70222 196.96563 199.32504 201.77045 204.25086 206.33927 208.18167
 209.80808 210.95349 211.18290 211.41131 211.34872 211.05413 210.68754 210.31794
 209.93535 209.64576 209.45417 209.31858 209.24699 209.57840 209.96481 210.35422
 211.14762 212.32603 213.57644 215.35985 217.28826 219.33167 221.42708 223.51049
 225.57089 227.65530 229.75271 231.85912 233.98853 236.16094 238.41735 240.78776
 243.40917 245.66057 247.66298 249.42839 250.84580 251.96921 252.79162 253.10803
 253.14544 252.91984 252.28025 251.22866 249.83507 247.99648 245.90589 243.73930
 241.53071 239.33512 237.15552 234.99493 232.85534 230.72275 228.74916 226.90657
 225.18998 223.66239 222.29280 221.06520 219.94761 218.90802 218.01243 217.15384
 216.39625 215.57666 214.67507 214.03947 213.48988 214.13971 215.67192 216.70079
 218.04262 219.92500 221.98386 223.33426 224.28464 226.09660 228.28928 229.16525
 229.46834 230.65433 233.46988 237.72523 242.01750 246.37294 250.67378 254.70592
 258.42157 261.88342 265.11075 268.04160 270.66064 272.97522 274.95578 276.61270
 277.99237 279.21249 280.36993 281.66153 282.84268 283.89758 284.87891 285.80780
 286.66074 287.42026 288.08377 288.92932
 366.78100 356.33639 345.76977 334.63716 323.04155 311.23693 299.10832 286.91271
 274.62610 262.52448 250.53487 239.83726 229.96064 221.06603 213.24942 206.25280
 200.08819 195.02758 191.61096 189.65435 188.69274 188.75813 189.59451 190.90390
 192.63029 194.72667 196.99106 199.35145 201.79783 204.27922 206.36861 208.21199
 209.83938 210.98577 211.21616 211.44554 211.38393 211.09032 210.72470 210.35609
 209.97448 209.68586 209.49525 209.36064 209.29002 209.62241 210.00980 210.40019
 211.19457 212.37396 213.62535 215.40973 217.33912 219.38351 221.47989 223.56428
 225.62567 227.71105 229.80944 231.91683 234.04722 236.22060 238.47799 240.84938
 243.47176 245.72415 247.72754 249.49392 250.91231 252.03670 252.86008 253.17747
 253.21586 252.99125 252.35263 251.30202 249.90941 248.07179 245.98218 243.81657
 241.60895 239.41434 237.23573 235.07611 232.93750 230.80589 228.83328 226.99166
 225.27605 223.74944 222.38082 221.15421 220.03760 218.99898 218.10437 217.24676
 216.49014 215.67153 214.77092 214.13631 213.58769 214.19955 215.64977 216.81029
 218.08829 219.88396 221.88121 223.29993 224.44710 226.13922 228.18065 229.14293
 229.38716 230.59904 233.43507 237.70700 242.04582 246.36128 250.64386 254.68028
 258.40878 261.87778 265.10178 268.03299 270.66260 272.98987 274.96600 276.61804
 278.00928 279.24115 280.46133 281.77820 282.96619 284.02914 285.04526 285.99237
 286.84421 287.60278 288.26544 289.10992
 366.78100 356.33679 345.77057 334.63836 323.04314 311.23893 299.11072 286.91550
 274.62929 262.52808 250.53886 239.84165 229.96543 221.07122 213.25501 206.25879
 200.09458 195.03437 191.61815 189.66194 188.70072 188.76651 189.60330 190.91308
 192.63987 194.73666 197.00144 199.36223 201.80901 204.29080 206.38059 208.22437
 209.85216 210.99895 211.22973 211.45952 211.39830 211.10509 210.73988 210.37166
 209.99045 209.70224 209.51202 209.37781 209.30759 209.64038 210.02817 210.41895
 211.21374 212.39353 213.64531 215.43010 217.35988 219.40467 221.50146 223.58624
 225.64803 227.73382 229.83260 231.94039 234.07117 236.24496 238.50275 240.87453
 243.49732 245.75011 247.75389 249.52068 250.93946 252.06425 252.88804 253.20582
 253.24461 253.02040 252.38218 251.33197 249.93975 248.10254 246.01333 243.84811
 241.64090 239.44669 237.26847 235.10926 232.97104 230.83983 228.86762 227.02640
 225.31119 223.78498 222.41676 221.19055 220.07433 219.03612 218.14191 217.28469
 216.52848 215.71027 214.81005 214.17584 213.62762 214.22820 215.65784 216.90726
 218.16460 219.90944 221.81378 223.25270 224.54759 226.16983 228.11810 229.02681
 229.26073 230.47147 233.36110 237.69670 242.06657 246.35645 250.62265 254.66591
 258.41122 261.89008 265.11594 268.05276 270.69415 273.03967 275.03720 276.69614
 278.10391 279.35556 280.55032 281.87860 283.06799 284.13846 285.17316 286.13214
 286.99466 287.76270 288.43369 289.28873
 366.78100 356.33576 345.76852 334.63527 323.03903 311.23379 299.10455 286.90830
 274.62106 262.51882 250.52858 239.83034 229.95309 221.05785 213.24061 206.24337
 200.07812 195.01688 191.59964 189.64240 188.68016 188.74491 189.58067 190.88943
 192.61519 194.71095 196.97470 199.33446 201.78022 204.26098 206.34973 208.19249
 209.81925 210.96501 211.19477 211.42352 211.36128 211.06704 210.70080 210.33155
 209.94931 209.66007 209.46883 209.33359 209.26234 209.59410 209.98086 210.37062
 211.16437 212.34313 213.59389 215.37765 217.30641 219.35016 221.44592 223.52968
 225.59044 227.67519 229.77295 231.87971 234.00947 236.18223 238.43898 240.80974
 243.43150 245.68326 247.68601 249.45177 250.86953 251.99329 252.81605 253.13280
 253.17056 252.94532 252.30608 251.25484 249.86159 248.02335 245.93311 243.76687
 241.55862 239.36338 237.18414 235.02390 232.88466 230.75241 228.77917 226.93693
 225.22069 223.69344 222.32420 221.09696 219.97972 218.94048 218.04523 217.18699
 216.42975 215.61051 214.70926 214.07402 213.52478 214.17775 215.72844 217.03809
 218.19398 219.91000 221.77866 223.25604 224.64008 226.22392 228.17386 228.89212
 229.11444 230.29709 233.24541 237.68095 242.06650 246.31886 250.56503 254.60846
 258.36560 261.85425 265.08600 268.03479 270.69711 273.08295 275.11328 276.79263
 278.23279 279.51178 280.69962 281.95374 283.13989 284.19809 285.19073 286.13092
 286.97653 287.72955 288.38739 289.22571
 366.78100 356.33523 345.76746 334.63369 323.03692 311.23115 299.10139 286.90462
 274.61685 262.51408 250.52331 239.82454 229.94677 221.05100 213.23323 206.23546
 200.06969 195.00793 191.59016 189.63239 188.66962 188.73385 189.56908 190.87731
 192.60254 194.69777 196.96100 199.32023 201.76547 204.24570 206.33393 208.17616
 209.80239 210.94762 211.17685 211.40508 211.34231 211.04754 210.68077 210.31101
 209.92824 209.63847 209.44670 209.31093 209.23916 209.57039 209.95662 210.34585
 211.13908 212.31731 213.56755 215.35078 217.27901 219.32224 221.41747 223.50070
 225.56093 227.64516 229.74239 231.84862 233.97786 236.15009 238.40632 240.77655
 243.39778 245.64901 247.65124 249.41647 250.83370 251.95693 252.77916 253.09540
 253.13263 252.90686 252.26709 251.21532 249.82155 247.98278 245.89201 243.72524
 241.51647 239.32070 237.14094 234.98017 232.84040 230.70763 228.73386 226.89109
 225.17432 223.64655 222.27678 221.04901 219.93124 218.89148 217.99571 217.13694
 216.37917 215.55940 214.65763 214.02186 213.47209 214.14934 215.75533 217.17970
 218.27367 219.94635 221.80258 223.30446 224.71179 226.28389 228.21614 228.69371
 228.98921 230.12495 233.10883 237.67981 242.04500 246.24872 250.47238 254.50902
 258.27130 261.76428 265.00180 267.96362 270.65051 273.05746 275.11453 276.83539
 278.32071 279.65729 280.86441 282.02307 283.18109 284.23074 285.19678 286.08386
 286.91290 287.65115 288.29608 289.11795
 366.78100 356.33524 345.76747 334.63371 323.03694 311.23118 299.10141 286.90465
 274.61688 262.51412 250.52335 239.82459 229.94682 221.05106 213.23329 206.23553
 200.06976 195.00800 191.59023 189.63247 188.66970 188.73394 189.56917 190.87741
 192.60264 194.69788 196.96111 199.32035 201.76559 204.24582 206.33406 208.17629
 209.80253 210.94776 211.17700 211.40523 211.34247 211.04770 210.68094 210.31117
 209.92841 209.63864 209.44688 209.31111 209.23935 209.57058 209.95682 210.34605
 211.13929 212.31752 213.56776 215.35099 217.27923 219.32247 221.41770 223.50094
 225.56117 227.64541 229.74264 231.84888 233.97811 236.15035 238.40658 240.77682
 243.39805 245.64929 247.65152 249.41676 250.83399 251.95723 252.77946 253.09570
 253.13293 252.90717 252.26740 251.21564 249.82187 247.98311 245.89234 243.72558
 241.51682 239.32105 237.14129 234.98052 232.84076 230.70799 228.73423 226.89146
 225.17470 223.64693 222.27717 221.04940 219.93164 218.89187 217.99611 217.13734
 216.37958 215.55981 214.65805 214.02228 213.47252 214.14917 215.74782 217.28276
 218.43164 220.04829 221.84138 223.34300 224.73360 226.30757 228.18410 228.53851
 228.89835 230.13435 233.17805 237.68964 242.03320 246.18355 250.38373 254.42136
 258.18762 261.68158 264.91840 267.88742 270.58786 273.00668 275.07816 276.81436
 278.33997 279.71909 280.97110 282.11533 283.21896 284.26328 285.22757 286.10403
 286.89911 287.60550 288.22119 289.00583
 366.78100 356.33571 345.76841 334.63512 323.03883 311.23353 299.10424 286.90795
 274.62065 262.51836 250.52807 239.82977 229.95248 221.05718 213.23989 206.24260
 200.07730 195.01601 191.59872 189.64142 188.67913 188.74384 189.57954 190.88825
 192.61396 194.70966 196.97337 199.33308 201.77878 204.25949 206.34820 208.19090
 209.81761 210.96332 211.19302 211.42173 211.35944 211.06514 210.69885 210.32955
 209.94726 209.65797 209.46667 209.33138 209.26009 209.59179 209.97850 210.36821
 211.16191 212.34062 213.59133 215.37503 217.30374 219.34745 221.44315 223.52686
 225.58757 227.67227 229.76998 231.87669 234.00639 236.17910 238.43581 240.80651
 243.42822 245.67992 247.68263 249.44834 250.86604 251.98975 252.81246 253.12916
 253.16687 252.94158 252.30228 251.25099 249.85770 248.01940 245.92911 243.76282
 241.55452 239.35923 237.17994 235.01964 232.88035 230.74806 228.77476 226.93247
 225.21617 223.68888 222.31959 221.09229 219.97500 218.93571 218.04041 217.18212
 216.42483 215.60553 214.70424 214.06895 213.51965 214.17487 215.72287 217.36090
 218.62444 220.16571 221.86642 223.33244 224.69841 226.28104 228.11952 228.45090
 228.79088 230.12695 233.21298 237.69810 242.04219 246.15855 250.32434 254.35262
 258.12158 261.61850 264.85034 267.82239 270.53592 272.97626 275.03836 276.75702
 278.29498 279.71133 281.00409 282.18326 283.24176 284.26736 285.22150 286.08020
 286.83026 287.46478 287.99734 288.67276
 366.78100 356.33666 345.77032 334.63798 323.04264 311.23830 299.10996 286.91462
 274.62828 262.52694 250.53760 239.84026 229.96392 221.06957 213.25323 206.25689
 200.09255 195.03221 191.61587 189.65953 188.69819 188.76385 189.60051 190.91017
 192.63683 194.73349 196.99815 199.35881 201.80547 204.28713 206.37679 208.22045
 209.84811 210.99477 211.22543 211.45509 211.39375 211.10041 210.73506 210.36672
 209.98538 209.69704 209.50670 209.37236 209.30202 209.63468 210.02234 210.41300
 211.20766 212.38732 213.63898 215.42364 217.35330 219.39796 221.49462 223.57928
 225.64094 227.72660 229.82526 231.93292 234.06358 236.23724 238.49490 240.86655
 243.48921 245.74187 247.74553 249.51219 250.93085 252.05551 252.87917 253.19683
 253.23549 253.01115 252.37281 251.32247 249.93013 248.09279 246.00345 243.83811
 241.63077 239.43643 237.25809 235.09875 232.96041 230.82907 228.85673 227.01538
 225.30004 223.77370 222.40536 221.17902 220.06268 219.02434 218.13000 217.27266
 216.51632 215.69798 214.79764 214.16330 213.61496 214.22855 215.67819 217.42451
 218.78897 220.27571 221.88020 223.28223 224.62115 226.22240 228.05280 228.38901
 228.70335 230.08824 233.21344 237.72324 242.06676 246.15114 250.27715 254.30185
 258.07410 261.57037 264.79541 267.76373 270.48169 272.92383 274.96539 276.67728
 278.22824 279.66422 280.98459 282.19095 283.24054 284.24973 285.19449 286.05234
 286.81665 287.49551 288.09491 288.89871
 366.78100 356.33756 345.77212 334.64068 323.04624 311.24280 299.11535 286.92091
 274.63547 262.53503 250.54659 239.85015 229.97471 221.08127 213.26583 206.27039
 200.10695 195.04750 191.63206 189.67662 188.71618 188.78274 189.62030 190.93086
 192.65842 194.75598 197.02154 199.38310 201.83065 204.31321 206.40377 208.24833
 209.87689 211.02445 211.25601 211.48657 211.42613 211.13369 210.76925 210.40181
 210.02136 209.73392 209.54448 209.41104 209.34160 209.67516 210.06372 210.45528
 211.25084 212.43140 213.68396 215.46951 217.40007 219.44563 221.54319 223.62875
 225.69131 227.77787 229.87743 231.98599 234.11755 236.29211 238.55066 240.92322
 243.54678 245.80034 247.80490 249.57246 250.99202 252.11758 252.94214 253.26070
 253.30026 253.07681 252.43937 251.38993 249.99849 248.16205 246.07361 243.90917
 241.70273 239.50929 237.33185 235.17341 233.03596 230.90552 228.93408 227.09364
 225.37920 223.85376 222.48632 221.26088 220.14544 219.10800 218.21456 217.35811
 216.60267 215.78523 214.88579 214.25235 213.70491 214.28015 215.63921 217.48091
 218.90459 220.36841 221.89232 223.21272 224.52133 226.14987 228.00221 228.35521
 228.66240 230.05072 233.20978 237.75676 242.09389 246.14415 250.24448 254.26370
 258.04446 261.54282 264.75812 267.71829 270.43674 272.88077 274.90292 276.59897
 278.15625 279.60440 280.94418 282.17184 283.22357 284.22345 285.17041 286.03336
 286.81381 287.51178 288.12097 288.92542
 366.78100 356.33816 345.77332 334.64249 323.04865 311.24581 299.11897 286.92513
 274.64030 262.54046 250.55262 239.85678 229.98194 221.08911 213.27427 206.27943
 200.11659 195.05775 191.64292 189.68808 188.72824 188.79540 189.63356 190.94473
 192.67289 194.77105 197.03721 199.39937 201.84754 204.33070 206.42186 208.26702
 209.89618 211.04435 211.27651 211.50767 211.44783 211.15599 210.79216 210.42532
 210.04548 209.75864 209.56980 209.43697 209.36813 209.70229 210.09145 210.48361
 211.27977 212.46094 213.71410 215.50026 217.43142 219.47758 221.57575 223.66191
 225.72507 227.81223 229.91239 232.02156 234.15372 236.32888 238.58804 240.96120
 243.58537 245.83953 247.84469 249.61285 251.03301 252.15918 252.98434 253.30350
 253.34366 253.12082 252.48399 251.43515 250.04431 248.20847 246.12063 243.95680
 241.75096 239.55812 237.38128 235.22344 233.08661 230.95677 228.98593 227.14609
 225.43225 223.90742 222.54058 221.31574 220.20090 219.16406 218.27123 217.41539
 216.66055 215.84371 214.94487 214.31204 213.76520 214.31494 215.61378 217.53630
 219.01283 220.45918 221.90343 223.13583 224.40889 226.06657 227.94373 228.32640
 228.64075 230.03145 233.21243 237.78604 242.12004 246.12976 250.20686 254.22664
 258.01892 261.52161 264.72821 267.68079 270.39709 272.84192 274.84866 276.53381
 278.09378 279.54803 280.90033 282.14435 283.19711 284.19598 285.14447 286.01151
 286.79745 287.49872 288.11047 288.91660
 366.78100 356.33872 345.77445 334.64417 323.05089 311.24861 299.12234 286.92906
 274.64478 262.54550 250.55823 239.86295 229.98867 221.09639 213.28212 206.28784
 200.12556 195.06728 191.65301 189.69873 188.73945 188.80717 189.64590 190.95762
 192.68634 194.78506 197.05179 199.41451 201.86323 204.34695 206.43868 208.28440
 209.91412 211.06285 211.29557 211.52729 211.46801 211.17674 210.81346 210.44718
 210.06790 209.78163 209.59335 209.46107 209.39279 209.72752 210.11724 210.50996
 211.30668 212.48841 213.74213 215.52885 217.46057 219.50730 221.60602 223.69274
 225.75646 227.84419 229.94491 232.05463 234.18736 236.36308 238.62280 240.99652
 243.62125 245.87597 247.88169 249.65041 251.07114 252.19786 253.02358 253.34330
 253.38403 253.16175 252.52547 251.47719 250.08692 248.25164 246.16436 244.00108
 241.79581 239.60353 237.42725 235.26997 233.13370 231.00442 229.03414 227.19486
 225.48159 223.95731 222.59103 221.36676 220.25248 219.21620 218.32392 217.46865
 216.71437 215.89809 214.99981 214.36754 213.82126 214.34721 215.58986 217.57487
 219.14920 220.55537 221.90707 223.05467 224.29109 225.96356 227.88335 228.30573
 228.62489 230.01683 233.21587 237.80638 242.13271 246.11145 250.17424 254.18596
 257.98843 261.49612 264.69772 267.64441 270.35983 272.80588 274.80386 276.48102
 278.03641 279.49133 280.84799 282.10443 283.16064 284.16675 285.11615 285.98502
 286.77353 287.48355 288.09488 288.90222
 366.78100 356.33943 345.77586 334.64630 323.05373 311.25216 299.12659 286.93403
 274.65046 262.55189 250.56532 239.87076 229.99719 221.10562 213.29205 206.29849
 200.13692 195.07935 191.66578 189.71222 188.75365 188.82208 189.66151 190.97395
 192.70338 194.80281 197.07024 199.43368 201.88311 204.36754 206.45997 208.30641
 209.93684 211.08627 211.31970 211.55213 211.49357 211.20300 210.84043 210.47486
 210.09630 209.81073 209.62316 209.49159 209.42403 209.75946 210.14989 210.54332
 211.34076 212.52319 213.77762 215.56505 217.49749 219.54492 221.64435 223.73178
 225.79622 227.88465 229.98608 232.09651 234.22995 236.40638 238.66681 241.04124
 243.66668 245.92211 247.92854 249.69797 251.11940 252.24684 253.07327 253.39370
 253.43513 253.21357 252.57800 251.53043 250.14086 248.30630 246.21973 244.05716
 241.85259 239.66103 237.48546 235.32889 233.19332 231.06476 229.09519 227.25662
 225.54405 224.02049 222.65492 221.43135 220.31778 219.28222 218.39065 217.53608
 216.78251 215.96695 215.06938 214.43781 213.89224 214.38789 215.55888 217.59592
 219.30954 220.65427 221.90825 222.96805 224.16304 225.87241 227.81331 228.26532
 228.60742 230.01491 233.22789 237.83374 242.15749 246.09427 250.13512 254.14659
 257.95868 261.47034 264.66785 267.60980 270.32614 272.77597 274.77112 276.44284
 277.98813 279.43439 280.79068 282.05121 283.11444 284.13348 285.08563 285.95645
 286.74835 287.45975 288.07895 288.88660
 366.78100 356.34032 345.77763 334.64895 323.05727 311.25658 299.13190 286.94022
 274.65753 262.55985 250.57417 239.88048 230.00780 221.11711 213.30443 206.31175
 200.15106 195.09438 191.68170 189.72901 188.77133 188.84065 189.68096 190.99428
 192.72460 194.82491 197.09323 199.45755 201.90786 204.39318 206.48650 208.33381
 209.96513 211.11545 211.34976 211.58308 211.52539 211.23571 210.87403 210.50934
 210.13166 209.84698 209.66029 209.52961 209.46293 209.79924 210.19056 210.58488
 211.38319 212.56651 213.82183 215.61014 217.54346 219.59178 221.69209 223.78041
 225.84573 227.93504 230.03736 232.14867 234.28299 236.46031 238.72162 241.09694
 243.72326 245.97957 247.98689 249.75721 251.17952 252.30784 253.13516 253.45647
 253.49879 253.27811 252.64342 251.59674 250.20806 248.37437 246.28869 244.12700
 241.92332 239.73264 237.55795 235.40227 233.26759 231.13990 229.17122 227.33354
 225.62185 224.09917 222.73449 221.51180 220.39912 219.36444 218.47375 217.62007
 216.86739 216.05270 215.15602 214.52534 213.98065 214.43825 215.51936 217.61502
 219.46970 220.74945 221.91222 222.90950 224.05554 225.71417 227.71463 228.24675
 228.61496 230.03041 233.24838 237.86205 242.18517 246.10217 250.10036 254.10651
 257.92975 261.44458 264.63681 267.57437 270.29071 272.74368 274.74078 276.41058
 277.94382 279.37857 280.72885 281.98819 283.06387 284.09506 285.05045 285.92661
 286.72177 287.43835 288.05884 288.87143
 366.78100 356.34117 345.77934 334.65151 323.06068 311.26085 299.13702 286.94619
 274.66436 262.56753 250.58270 239.88987 230.01804 221.12821 213.31637 206.32454
 200.16471 195.10888 191.69705 189.74522 188.78839 188.85856 189.69973 191.01390
 192.74507 194.84624 197.11541 199.48058 201.93175 204.41792 206.51209 208.36026
 209.99243 211.14360 211.37877 211.61294 211.55611 211.26728 210.90645 210.54262
 210.16579 209.88196 209.69612 209.56629 209.50046 209.83763 210.22980 210.62497
 211.42414 212.60831 213.86448 215.65365 217.58782 219.63699 221.73816 223.82733
 225.89350 227.98367 230.08684 232.19901 234.33418 236.51235 238.77452 241.15069
 243.77786 246.03503 248.04320 249.81437 251.23754 252.36670 253.19487 253.51704
 253.56021 253.34038 252.70655 251.66072 250.27289 248.44006 246.35523 244.19440
 241.99157 239.80174 237.62791 235.47308 233.33925 231.21242 229.24459 227.40776
 225.69693 224.17510 222.81127 221.58944 220.47761 219.44378 218.55395 217.70112
 216.94929 216.13545 215.23962 214.60979 214.06596 214.48695 215.48161 217.62714
 219.61185 220.84998 221.92477 222.86514 223.95438 225.54172 227.60446 228.22682
 228.62999 230.05786 233.27501 237.89050 242.21272 246.10985 250.07274 254.07623
 257.90393 261.41968 264.60550 267.53772 270.25409 272.70749 274.70721 276.37906
 277.89981 279.31979 280.66248 281.91592 283.01791 284.05515 285.01385 285.89136
 286.69110 287.41077 288.04144 288.85071
 366.78100 356.34162 345.78024 334.65286 323.06248 311.26310 299.13972 286.94934
 274.66796 262.57158 250.58720 239.89482 230.02344 221.13406 213.32269 206.33131
 200.17193 195.11655 191.70517 189.75379 188.79741 188.86803 189.70965 191.02427
 192.75589 194.85751 197.12713 199.49275 201.94437 204.43099 206.52561 208.37423
 210.00685 211.15847 211.39409 211.62871 211.57233 211.28395 210.92357 210.56019
 210.18382 209.90044 209.71506 209.58568 209.52030 209.85792 210.25054 210.64616
 211.44578 212.63040 213.88702 215.67664 217.61126 219.66088 221.76250 223.85212
 225.91874 228.00936 230.11298 232.22560 234.36122 236.53984 238.80246 241.17908
 243.80670 246.06432 248.07295 249.84457 251.26819 252.39781 253.22643 253.54905
 253.59267 253.37329 252.73991 251.69453 250.30715 248.47477 246.39039 244.23001
 242.02763 239.83825 237.66487 235.51049 233.37711 231.25073 229.28335 227.44697
 225.73659 224.21521 222.85183 221.63045 220.51908 219.48570 218.59632 217.74394
 216.99256 216.17918 215.28380 214.65442 214.11104 214.51477 215.46864 217.61046
 219.73199 220.97798 221.95857 222.82863 223.84813 225.36452 227.47699 228.17963
 228.63019 230.08824 233.30856 237.92590 242.25256 246.12737 250.05208 254.04767
 257.88318 261.39862 264.57596 267.50104 270.21567 272.66672 274.67017 276.34790
 277.85620 279.26031 280.59332 281.82846 282.97906 284.02090 284.97897 285.85709
 286.65881 287.38217 288.01651 288.82877
 366.78100 356.34174 345.78047 334.65321 323.06295 311.26369 299.14042 286.95016
 274.66890 262.57264 250.58837 239.89611 230.02485 221.13558 213.32432 206.33306
 200.17380 195.11853 191.70727 189.75601 188.79975 188.87048 189.71222 191.02696
 192.75869 194.86043 197.13017 199.49591 201.94764 204.43438 206.52912 208.37786
 210.01059 211.16233 211.39807 211.63280 211.57654 211.28828 210.92802 210.56475
 210.18849 209.90523 209.71997 209.59070 209.52544 209.86318 210.25591 210.65165
 211.45139 212.63613 213.89286 215.68260 217.61734 219.66708 221.76881 223.85855
 225.92529 228.01602 230.11976 232.23250 234.36824 236.54697 238.80971 241.18645
 243.81418 246.07192 248.08066 249.85240 251.27613 252.40587 253.23461 253.55735
 253.60108 253.38182 252.74856 251.70329 250.31603 248.48377 246.39951 244.23924
 242.03698 239.84772 237.67446 235.52019 233.38693 231.26067 229.29340 227.45714
 225.74688 224.22562 222.86235 221.64109 220.52983 219.49657 218.60730 217.75504
 217.00378 216.19051 215.29525 214.66599 214.12273 214.52525 215.47629 217.57185
 219.83182 221.12985 222.01027 222.78859 223.72934 225.18358 227.33449 228.11014
 228.62250 230.12639 233.34807 237.96341 242.29517 246.16368 250.05252 254.02730
 257.86655 261.37823 264.54382 267.46048 270.17230 272.61880 274.62592 276.31152
 277.81082 279.20178 280.52396 281.76181 282.92984 283.97736 284.94070 285.82062
 286.62372 287.34860 287.98340 288.79977
 366.78100 356.34212 345.78124 334.65436 323.06448 311.26561 299.14273 286.95285
 274.67197 262.57609 250.59221 239.90033 230.02945 221.14057 213.32969 206.33882
 200.17994 195.12506 191.71418 189.76330 188.80742 188.87854 189.72066 191.03578
 192.76790 194.87003 197.14015 199.50627 201.95839 204.44551 206.54063 208.38975
 210.02287 211.17499 211.41111 211.64624 211.59036 211.30248 210.94260 210.57972
 210.20384 209.92096 209.73608 209.60720 209.54233 209.88045 210.27357 210.66969
 211.46981 212.65493 213.91205 215.70217 217.63729 219.68741 221.78954 223.87966
 225.94678 228.03790 230.14202 232.25514 234.39126 236.57038 238.83350 241.21062
 243.83875 246.09687 248.10599 249.87811 251.30223 252.43235 253.26147 253.58459
 253.62871 253.40983 252.77696 251.73208 250.34520 248.51332 246.42944 244.26956
 242.06768 239.87880 237.70592 235.55204 233.41917 231.29329 229.32641 227.49053
 225.78065 224.25977 222.89689 221.67601 220.56513 219.53226 218.64338 217.79150
 217.04062 216.22774 215.33286 214.70398 214.16110 214.54993 215.46858 217.54927
 219.91637 221.27180 222.06714 222.74345 223.60143 225.00424 227.18362 228.02966
 228.61687 230.17877 233.40010 238.00893 242.34962 246.20461 250.06119 254.01535
 257.85141 261.35529 264.50638 267.41449 270.12244 272.56235 274.57162 276.26675
 277.75946 279.14117 280.45184 281.71069 282.88412 283.93613 284.90097 285.78528
 286.59119 287.31711 287.95728 288.78522
 366.78100 356.34315 345.78331 334.65746 323.06862 311.27077 299.14893 286.96008
 274.68023 262.58539 250.60254 239.91170 230.04185 221.15400 213.34416 206.35431
 200.19647 195.14262 191.73278 189.78293 188.82808 188.90024 189.74339 191.05955
 192.79270 194.89585 197.16701 199.53416 201.98732 204.47547 206.57163 208.42178
 210.05593 211.20909 211.44624 211.68240 211.62755 211.34071 210.98186 210.62001
 210.24517 209.96332 209.77948 209.65163 209.58778 209.92694 210.32109 210.71825
 211.51940 212.70556 213.96371 215.75486 217.69102 219.74217 221.84533 223.93648
 226.00463 228.09679 230.20194 232.31610 234.45325 236.63341 238.89756 241.27571
 243.90487 246.16402 248.17418 249.94733 251.37249 252.50364 253.33379 253.65795
 253.70310 253.48526 252.85341 251.80956 250.42372 248.59287 246.51003 244.35118
 242.15034 239.96249 237.79064 235.63780 233.50595 231.38111 229.41526 227.58042
 225.87157 224.35172 222.98988 221.77003 220.66019 219.62834 218.74049 217.88965
 217.13980 216.32796 215.43411 214.80627 214.26442 214.60872 215.42215 217.56412
 219.98621 221.37106 222.12799 222.71420 223.48929 224.84123 227.02913 227.93739
 228.60748 230.23579 233.45972 238.05838 242.40742 246.25140 250.07623 254.01245
 257.83746 261.32874 264.46509 267.36322 270.06674 272.49878 274.51001 276.21262
 277.70355 279.07800 280.37021 281.67752 282.85403 283.90384 284.86746 285.75281
 286.55884 287.28604 287.92670 288.75388
 366.78100 356.34434 345.78569 334.66103 323.07337 311.27671 299.15606 286.96840
 274.68974 262.59609 250.61443 239.92477 230.05611 221.16946 213.36080 206.37214
 200.21549 195.16283 191.75417 189.80551 188.85186 188.92520 189.76954 191.08689
 192.82123 194.92557 197.19791 199.56626 202.02060 204.50994 206.60729 208.45863
 210.09397 211.24831 211.48666 211.72400 211.67034 211.38469 211.02703 210.66637
 210.29271 210.01206 209.82940 209.70274 209.64009 209.98043 210.37577 210.77411
 211.57646 212.76380 214.02314 215.81549 217.75283 219.80517 221.90951 224.00186
 226.07120 228.16454 230.27089 232.38623 234.52457 236.70591 238.97126 241.35060
 243.98094 246.24129 248.25263 250.02697 251.45331 252.58566 253.41700 253.74234
 253.78869 253.57203 252.94137 251.89871 250.51406 248.68440 246.60274 244.44509
 242.24543 240.05877 237.88811 235.73646 233.60580 231.48214 229.51749 227.68383
 225.97617 224.45751 223.09686 221.87820 220.76954 219.73889 218.85223 218.00257
 217.25391 216.44326 215.55060 214.92394 214.38329 214.67599 215.36755 217.58604
 220.04846 221.42628 222.19603 222.72015 223.41049 224.70326 226.87196 227.82599
 228.58142 230.28619 233.52036 238.10739 242.46097 246.29877 250.09993 254.01566
 257.82330 261.29745 264.41830 267.30792 270.00815 272.43207 274.44583 276.15833
 277.64890 279.02063 280.30362 281.63919 282.82135 283.87213 284.83728 285.72000
 286.52536 287.24908 287.88586 288.71603
 366.78100 356.34496 345.78692 334.66288 323.07585 311.27981 299.15977 286.97273
 274.69469 262.60165 250.62062 239.93158 230.06354 221.17750 213.36946 206.38142
 200.22539 195.17335 191.76531 189.81727 188.86423 188.93819 189.78316 191.10112
 192.83608 194.94104 197.21400 199.58296 202.03792 204.52789 206.62585 208.47781
 210.11377 211.26873 211.50769 211.74566 211.69262 211.40758 211.05054 210.69050
 210.31746 210.03743 209.85539 209.72935 209.66731 210.00827 210.40423 210.80320
 211.60616 212.79412 214.05408 215.84704 217.78500 219.83796 221.94293 224.03589
 226.10585 228.19981 230.30677 232.42273 234.56170 236.74366 239.00962 241.38958
 244.02054 246.28150 248.29347 250.06843 251.49539 252.62835 253.46031 253.78627
 253.83324 253.61720 252.98716 251.94512 250.56108 248.73204 246.65100 244.49397
 242.29493 240.10889 237.93885 235.78781 233.65777 231.53474 229.57070 227.73766
 226.03062 224.51258 223.15254 221.93451 220.82647 219.79643 218.91039 218.06135
 217.31331 216.50328 215.61124 214.98520 214.44516 214.71423 215.34996 217.57469
 220.10361 221.47678 222.26714 222.74353 223.35370 224.58240 226.71060 227.69922
 228.54163 230.32962 233.58253 238.15915 242.51361 246.35208 250.13098 254.01848
 257.80606 261.26065 264.36444 267.24774 269.94498 272.36313 274.38214 276.10446
 277.59827 278.97156 280.26266 281.60406 282.79019 283.84442 284.81165 285.69659
 286.50055 287.22394 287.86414 288.68985
 366.78100 356.34500 345.78700 334.66300 323.07600 311.27999 299.15999 286.97299
 274.69499 262.60199 250.62099 239.93199 230.06399 221.17799 213.36999 206.38198
 200.22598 195.17398 191.76598 189.81798 188.86498 188.93898 189.78398 191.10198
 192.83698 194.94197 197.21497 199.58397 202.03897 204.52897 206.62697 208.47897
 210.11497 211.26997 211.50897 211.74696 211.69396 211.40896 211.05196 210.69196
 210.31896 210.03896 209.85696 209.73096 209.66896 210.00995 210.40595 210.80495
 211.60795 212.79595 214.05595 215.84895 217.78695 219.83995 221.94495 224.03794
 226.10794 228.20194 230.30894 232.42494 234.56394 236.74594 239.01194 241.39194
 244.02293 246.28393 248.29593 250.07093 251.49793 252.63093 253.46293 253.78893
 253.83593 253.61993 252.98992 251.94792 250.56392 248.73492 246.65392 244.49692
 242.29792 240.11192 237.94192 235.79092 233.66091 231.53791 229.57391 227.74091
 226.03391 224.51591 223.15591 221.93791 220.82991 219.79991 218.91390 218.06490
 217.31690 216.50690 215.61490 214.98890 214.44890 214.72371 215.37296 217.53423
 220.13869 221.55238 222.33707 222.75507 223.28265 224.46156 226.54770 227.56944
 228.50499 230.38307 233.65404 238.21375 242.56961 246.41032 250.17181 254.03064
 257.78406 261.21152 264.29947 267.17935 269.87592 272.29248 274.31812 276.05200
 277.55307 278.93518 280.23923 281.58368 282.77097 283.82733 284.79630 285.68237
 286.48706 287.21622 287.85312 288.68250
 366.78100 356.34493 345.78687 334.66280 323.07573 311.27967 299.15960 286.97254
 274.69447 262.60140 250.62034 239.93127 230.06320 221.17714 213.36907 206.38101
 200.22494 195.17287 191.76481 189.81674 188.86367 188.93761 189.78254 191.10047
 192.83541 194.94034 197.21328 199.58221 202.03714 204.52708 206.62501 208.47694
 210.11288 211.26781 211.50674 211.74468 211.69161 211.40655 211.04948 210.68941
 210.31635 210.03628 209.85421 209.72815 209.66608 210.00702 210.40295 210.80188
 211.60482 212.79275 214.05268 215.84562 217.78355 219.83648 221.94142 224.03435
 226.10429 228.19822 230.30515 232.42109 234.56002 236.74195 239.00789 241.38782
 244.01876 246.27969 248.29162 250.06656 251.49349 252.62642 253.45836 253.78429
 253.83122 253.61516 252.98509 251.94303 250.55896 248.72989 246.64883 244.49176
 242.29269 240.10663 237.93656 235.78550 233.65543 231.53236 229.56830 227.73523
 226.02816 224.51010 223.15003 221.93196 220.82390 219.79383 218.90777 218.05870
 217.31063 216.50057 215.60850 214.98243 214.44237 214.72974 215.40869 217.49579
 220.13788 221.65048 222.39842 222.73744 223.19522 224.33696 226.38316 227.44473
 228.47911 230.45172 233.74367 238.27953 242.64023 246.48566 250.22224 254.04080
 257.75336 261.15070 264.22302 267.10233 269.79935 272.21481 274.24847 275.99316
 277.50879 278.90530 280.22986 281.57626 282.76675 283.82446 284.79477 285.68121
 286.49081 287.21973 287.85605 288.68704
 366.78100 356.34510 345.78721 334.66331 323.07642 311.28052 299.16063 286.97373
 274.69584 262.60294 250.62205 239.93315 230.06526 221.17936 213.37147 206.38357
 200.22768 195.17578 191.76789 189.81999 188.86710 188.94120 189.78631 191.10441
 192.83952 194.94462 197.21773 199.58683 202.04194 204.53204 206.63015 208.48225
 210.11836 211.27346 211.51257 211.75067 211.69778 211.41288 211.05599 210.69609
 210.32320 210.04330 209.86140 209.73551 209.67361 210.01472 210.41082 210.80993
 211.61303 212.80114 214.06124 215.85435 217.79245 219.84556 221.95066 224.04377
 226.11387 228.20798 230.31508 232.43119 234.57029 236.75240 239.01850 241.39861
 244.02971 246.29082 248.30292 250.07803 251.50513 252.63824 253.47034 253.79645
 253.84355 253.62766 252.99776 251.95587 250.57197 248.74308 246.66218 244.50529
 242.30639 240.12050 237.95060 235.79970 233.66981 231.54691 229.58302 227.75012
 226.04323 224.52533 223.16544 221.94754 220.83965 219.80975 218.92386 218.07496
 217.32707 216.51717 215.62528 214.99938 214.45949 214.74971 215.43538 217.47842
 220.09859 221.73360 222.47379 222.71437 223.08200 224.21393 226.22620 227.32158
 228.45657 230.52887 233.84294 238.35344 242.72359 246.58438 250.28244 254.04756
 257.71823 261.08255 264.13962 267.01981 269.71771 272.13251 274.17084 275.92526
 277.45880 278.87347 280.23172 281.58362 282.77551 283.83353 284.80472 285.69415
 286.50043 287.23169 287.86975 288.70026
 366.78100 356.34540 345.78780 334.66420 323.07760 311.28200 299.16240 286.97579
 274.69819 262.60559 250.62499 239.93639 230.06879 221.18319 213.37559 206.38799
 200.23239 195.18079 191.77319 189.82559 188.87298 188.94738 189.79278 191.11118
 192.84658 194.95198 197.22538 199.59478 202.05018 204.54058 206.63898 208.49138
 210.12778 211.28317 211.52257 211.76097 211.70837 211.42377 211.06717 210.70757
 210.33497 210.05537 209.87377 209.74817 209.68657 210.02796 210.42436 210.82376
 211.62716 212.81556 214.07596 215.86936 217.80776 219.86116 221.96656 224.05996
 226.13036 228.22476 230.33215 232.44855 234.58795 236.77035 239.03675 241.41715
 244.04855 246.30995 248.32235 250.09775 251.52515 252.65855 253.49095 253.81734
 253.86474 253.64914 253.01954 251.97794 250.59434 248.76574 246.68514 244.52854
 242.32994 240.14434 237.97474 235.82414 233.69453 231.57193 229.60833 227.77573
 226.06913 224.55153 223.19193 221.97433 220.86673 219.83713 218.95153 218.10293
 217.35533 216.54572 215.65412 215.02852 214.48892 214.77739 215.45889 217.47324
 220.04782 221.77388 222.54240 222.71364 223.00473 224.09500 226.05989 227.19237
 228.42505 230.60002 233.95152 238.43762 242.81361 246.68813 250.34726 254.06091
 257.68738 261.01669 264.05771 266.93704 269.63455 272.04559 274.08609 275.85196
 277.41159 278.84958 280.24203 281.59781 282.78976 283.84958 284.82230 285.71094
 286.51996 287.25223 287.88950 288.71988
 366.78100 356.34543 345.78786 334.66428 323.07771 311.28214 299.16257 286.97600
 274.69842 262.60585 250.62528 239.93671 230.06914 221.18356 213.37599 206.38842
 200.23285 195.18128 191.77371 189.82613 188.87356 188.94799 189.79342 191.11185
 192.84727 194.95270 197.22613 199.59556 202.05099 204.54141 206.63984 208.49227
 210.12870 211.28413 211.52355 211.76198 211.70941 211.42484 211.06827 210.70869
 210.33612 210.05655 209.87498 209.74941 209.68783 210.02926 210.42569 210.82512
 211.62855 212.81697 214.07740 215.87083 217.80926 219.86269 221.96812 224.06154
 226.13197 228.22640 230.33383 232.45026 234.58968 236.77211 239.03854 241.41897
 244.05040 246.31182 248.32425 250.09968 251.52711 252.66054 253.49296 253.81939
 253.86682 253.65125 253.02168 251.98010 250.59653 248.76796 246.68739 244.53082
 242.33224 240.14667 237.97710 235.82653 233.69696 231.57439 229.61081 227.77824
 226.07167 224.55410 223.19453 221.97695 220.86938 219.83981 218.95424 218.10567
 217.35809 216.54852 215.65695 215.03138 214.49181 214.79150 215.49960 217.46243
 219.99712 221.78853 222.62982 222.71263 222.89409 223.99409 225.90437 227.04398
 228.37607 230.66510 234.06012 238.52599 242.90735 246.79672 250.42503 254.08379
 257.66321 260.95642 263.98010 266.85837 269.55273 271.95859 273.99649 275.77054
 277.35464 278.77301 280.27649 281.64279 282.83109 283.88757 284.85605 285.74500
 286.55215 287.28278 287.91757 288.75009
 366.78100 356.34513 345.78727 334.66340 323.07654 311.28067 299.16080 286.97394
 274.69607 262.60320 250.62234 239.93347 230.06561 221.17974 213.37187 206.38401
 200.22814 195.17628 191.76841 189.82054 188.86768 188.94181 189.78695 191.10508
 192.84021 194.94535 197.21848 199.58761 202.04275 204.53288 206.63102 208.48315
 210.11928 211.27442 211.51355 211.75169 211.69882 211.41395 211.05709 210.69722
 210.32435 210.04449 209.86262 209.73676 209.67489 210.01602 210.41216 210.81129
 211.61443 212.80256 214.06269 215.85583 217.79396 219.84710 221.95223 224.04536
 226.11550 228.20963 230.31676 232.43290 234.57203 236.75417 239.02030 241.40043
 244.03157 246.29270 248.30484 250.07997 251.50710 252.64024 253.47237 253.79850
 253.84564 253.62977 252.99991 251.95804 250.57417 248.74531 246.66444 244.50758
 242.30871 240.12284 237.95298 235.80211 233.67225 231.54938 229.58551 227.75265
 226.04578 224.52791 223.16805 221.95018 220.84232 219.81245 218.92658 218.07772
 217.32985 216.51999 215.62812 215.00225 214.46239 214.78847 215.55884 217.45178
 219.93915 221.77333 222.71135 222.77473 222.84753 223.82732 225.70535 226.90799
 228.32983 230.72072 234.17076 238.62462 243.00999 246.91231 250.51456 254.11823
 257.64514 260.90033 263.90558 266.77927 269.46878 271.86627 273.90283 275.69238
 277.30850 278.76727 280.29001 281.66455 282.85834 283.91779 284.88943 285.77618
 286.58533 287.31314 287.95044 288.77789
 366.78100 356.34477 345.78653 334.66230 323.07507 311.27884 299.15860 286.97137
 274.69314 262.59991 250.61867 239.92944 230.06121 221.17498 213.36674 206.37851
 200.22228 195.17005 191.76181 189.81358 188.86035 188.93411 189.77888 191.09665
 192.83142 194.93618 197.20895 199.57772 202.03249 204.52225 206.62002 208.47179
 210.10756 211.26232 211.50109 211.73886 211.68562 211.40039 211.04316 210.68293
 210.30969 210.02946 209.84723 209.72100 209.65876 209.99953 210.39530 210.79407
 211.59683 212.78460 214.04437 215.83714 217.77490 219.82767 221.93244 224.02520
 226.09497 228.18874 230.29551 232.41127 234.55004 236.73181 238.99758 241.37734
 244.00811 246.26888 248.28065 250.05541 251.48218 252.61495 253.44671 253.77248
 253.81925 253.60302 252.97278 251.93055 250.54632 248.71709 246.63585 244.47862
 242.27939 240.09316 237.92292 235.77169 233.64146 231.51823 229.55399 227.72076
 226.01353 224.49529 223.13506 221.91683 220.80860 219.77836 218.89213 218.04290
 217.29467 216.48443 215.59220 214.96597 214.42574 214.78232 215.62479 217.44958
 219.87888 221.73792 222.75781 222.83739 222.82538 223.66089 225.50217 226.77724
 228.28476 230.77359 234.28366 238.73297 243.12526 247.03658 250.61050 254.15968
 257.63373 260.85049 263.83670 266.70462 269.38614 271.77216 273.79993 275.59354
 277.24097 278.78064 280.31479 281.69135 282.88626 283.94943 284.92154 285.80850
 286.61536 287.34323 287.97943 288.80286
 366.78100 356.34433 345.78567 334.66100 323.07334 311.27667 299.15601 286.96834
 274.68967 262.59601 250.61434 239.92468 230.05601 221.16935 213.36068 206.37201
 200.21535 195.16268 191.75402 189.80535 188.85169 188.92502 189.76935 191.08669
 192.82102 194.92536 197.19769 199.56603 202.02036 204.50969 206.60703 208.45836
 210.09370 211.24803 211.48637 211.72370 211.67004 211.38437 211.02670 210.66604
 210.29237 210.01171 209.82904 209.70238 209.63971 209.98004 210.37538 210.77371
 211.57605 212.76338 214.02272 215.81505 217.75238 219.80472 221.90905 224.00139
 226.07072 228.16406 230.27039 232.38572 234.52406 236.70539 238.97073 241.35006
 243.98040 246.24073 248.25206 250.02640 251.45273 252.58507 253.41640 253.74174
 253.78807 253.57140 252.94074 251.89807 250.51341 248.68374 246.60208 244.44441
 242.24474 240.05808 237.88741 235.73575 233.60508 231.48142 229.51675 227.68308
 225.97542 224.45675 223.09609 221.87742 220.76876 219.73809 218.85143 218.00176
 217.25309 216.44243 215.54976 214.92310 214.38243 214.77440 215.70049 217.45355
 219.80138 221.69518 222.77014 222.87750 222.80061 223.50858 225.30827 226.64189
 228.24030 230.82648 234.40126 238.85103 243.24867 247.16759 250.71883 254.21199
 257.62915 260.80414 263.76746 266.62930 269.30405 271.68265 273.71017 275.52203
 277.20325 278.78745 280.32913 281.70544 282.90100 283.96362 284.93329 285.82190
 286.62897 287.35483 287.98895 288.81207
 366.78100 356.34415 345.78530 334.66045 323.07260 311.27575 299.15490 286.96705
 274.68820 262.59435 250.61250 239.92265 230.05380 221.16695 213.35810 206.36925
 200.21239 195.15954 191.75069 189.80184 188.84799 188.92114 189.76529 191.08244
 192.81659 194.92074 197.19289 199.56104 202.01519 204.50434 206.60149 208.45264
 210.08779 211.24194 211.48009 211.71724 211.66339 211.37754 211.01969 210.65884
 210.28499 210.00414 209.82129 209.69444 209.63159 209.97174 210.36689 210.76503
 211.56718 212.75433 214.01348 215.80563 217.74278 219.79493 221.89908 223.99123
 226.06038 228.15353 230.25968 232.37483 234.51298 236.69413 238.95928 241.33843
 243.96858 246.22873 248.23988 250.01403 251.44018 252.57233 253.40348 253.72863
 253.77478 253.55793 252.92708 251.88423 250.49938 248.66953 246.58767 244.42982
 242.22997 240.04312 237.87227 235.72042 233.58957 231.46572 229.50087 227.66702
 225.95917 224.44032 223.07947 221.86062 220.75177 219.72092 218.83407 217.98422
 217.23537 216.42452 215.53167 214.90482 214.36397 214.78001 215.76297 217.47864
 219.70676 221.63170 222.75690 222.89682 222.77310 223.37656 225.13127 226.51794
 228.19926 230.87959 234.52106 238.97124 243.37325 247.30429 250.83774 254.27745
 257.64029 260.77481 263.71207 266.56192 269.22324 271.58005 273.58408 275.39478
 277.10223 278.82492 280.37299 281.74481 282.93832 283.99808 284.96713 285.85226
 286.65744 287.38052 288.01370 288.83746
 366.78100 356.34432 345.78564 334.66096 323.07328 311.27660 299.15593 286.96825
 274.68957 262.59589 250.61421 239.92453 230.05585 221.16917 213.36049 206.37181
 200.21513 195.16246 191.75378 189.80510 188.85142 188.92474 189.76906 191.08638
 192.82070 194.92502 197.19734 199.56566 202.01998 204.50931 206.60663 208.45795
 210.09327 211.24759 211.48591 211.72323 211.66955 211.38387 211.02619 210.66551
 210.29184 210.01116 209.82848 209.70180 209.63912 209.97944 210.37476 210.77308
 211.57540 212.76272 214.02204 215.81437 217.75169 219.80401 221.90833 224.00065
 226.06997 228.16329 230.26961 232.38493 234.52325 236.70457 238.96989 241.34922
 243.97954 246.23986 248.25118 250.02550 251.45182 252.58414 253.41546 253.74078
 253.78710 253.57042 252.93975 251.89707 250.51239 248.68271 246.60103 244.44335
 242.24367 240.05699 237.88631 235.73463 233.60395 231.48028 229.51560 227.68192
 225.97424 224.45556 223.09488 221.87620 220.76752 219.73684 218.85016 218.00048
 217.25180 216.44113 215.54845 214.92177 214.38109 214.80591 215.80956 217.49510
 219.64481 221.59227 222.72104 222.86490 222.70558 223.24263 224.97202 226.40733
 228.17685 230.95918 234.65123 239.09720 243.49826 247.43633 250.95554 254.34462
 257.65182 260.74271 263.65689 266.49908 269.15381 271.50775 273.52264 275.35037
 277.05814 278.80606 280.36005 281.72992 282.91937 283.97546 284.94226 285.82495
 286.62521 287.34619 287.97543 288.79944
 366.78100 356.34442 345.78583 334.66125 323.07366 311.27708 299.15649 286.96891
 274.69032 262.59674 250.61515 239.92557 230.05698 221.17040 213.36181 206.37323
 200.21665 195.16406 191.75548 189.80689 188.85331 188.92672 189.77114 191.08855
 192.82297 194.92738 197.19980 199.56821 202.02263 204.51204 206.60946 208.46088
 210.09629 211.25071 211.48912 211.72654 211.67295 211.38737 211.02978 210.66920
 210.29561 210.01503 209.83244 209.70586 209.64327 209.98369 210.37911 210.77752
 211.57994 212.76735 214.02677 215.81918 217.75660 219.80901 221.91343 224.00584
 226.07526 228.16867 230.27509 232.39050 234.52892 236.71034 238.97575 241.35517
 243.98558 246.24600 248.25741 250.03183 251.45824 252.59066 253.42207 253.74749
 253.79390 253.57732 252.94673 251.90415 250.51957 248.68998 246.60840 244.45081
 242.25123 240.06464 237.89406 235.74247 233.61189 231.48830 229.52372 227.69013
 225.98255 224.46396 223.10338 221.88480 220.77621 219.74563 218.85904 218.00946
 217.26087 216.45029 215.55770 214.93112 214.39053 214.83266 215.87724 217.46754
 219.55911 221.55434 222.68753 222.80380 222.58871 223.07555 224.78540 226.29124
 228.16335 231.01807 234.77702 239.22980 243.64862 247.60669 251.10811 254.43271
 257.68005 260.72760 263.60220 266.42963 269.07095 271.39557 273.36298 275.19861
 277.02591 278.82315 280.38544 281.76062 282.95447 284.01273 284.98190 285.86600
 286.66586 287.38501 288.02377 288.84320
 366.78100 356.34485 345.78670 334.66255 323.07540 311.27925 299.15910 286.97195
 274.69380 262.60065 250.61950 239.93035 230.06220 221.17605 213.36790 206.37975
 200.22360 195.17145 191.76330 189.81515 188.86200 188.93585 189.78070 191.09855
 192.83340 194.93825 197.21110 199.57995 202.03480 204.52465 206.62250 208.47435
 210.11020 211.26505 211.50390 211.74175 211.68860 211.40345 211.04630 210.68615
 210.31300 210.03285 209.85070 209.72455 209.66240 210.00325 210.39910 210.79795
 211.60080 212.78865 214.04850 215.84135 217.77920 219.83205 221.93690 224.02975
 226.09960 228.19345 230.30030 232.41615 234.55500 236.73685 239.00270 241.38255
 244.01340 246.27425 248.28610 250.06095 251.48780 252.62065 253.45250 253.77835
 253.82520 253.60905 252.97890 251.93675 250.55260 248.72345 246.64230 244.48515
 242.28600 240.09985 237.92970 235.77855 233.64840 231.52525 229.56110 227.72795
 226.02081 224.50266 223.14251 221.92436 220.81621 219.78606 218.89991 218.05076
 217.30261 216.49246 215.60031 214.97416 214.43401 214.87674 215.92276 217.46669
 219.43250 221.44884 222.65503 222.75853 222.46960 222.91171 224.60188 226.16202
 228.15350 231.08214 234.89787 239.36301 243.78333 247.77960 251.29779 254.58997
 257.78189 260.78394 263.61981 266.40808 269.01260 271.29587 273.25696 275.11664
 276.99939 278.76620 280.30545 281.66711 282.84732 283.88693 284.83664 285.69409
 286.45532 287.10867 287.66415 288.37204
 366.78100 356.34525 345.78750 334.66375 323.07700 311.28126 299.16151 286.97476
 274.69701 262.60426 250.62351 239.93476 230.06701 221.18126 213.37351 206.38577
 200.23002 195.17827 191.77052 189.82277 188.87002 188.94427 189.78952 191.10777
 192.84303 194.94828 197.22153 199.59078 202.04603 204.53628 206.63453 208.48678
 210.12303 211.27828 211.51754 211.75579 211.70304 211.41829 211.06154 210.70179
 210.32904 210.04929 209.86754 209.74180 209.68005 210.02130 210.41755 210.81680
 211.62005 212.80830 214.06855 215.86180 217.80006 219.85331 221.95856 224.05181
 226.12206 228.21631 230.32356 232.43981 234.57906 236.76131 239.02757 241.40782
 244.03907 246.30032 248.31257 250.08782 251.51507 252.64832 253.48057 253.80683
 253.85408 253.63833 253.00858 251.96683 250.58308 248.75433 246.67358 244.51683
 242.31808 240.13234 237.96259 235.81184 233.68209 231.55934 229.59559 227.76284
 226.05609 224.53834 223.17860 221.96085 220.85310 219.82335 218.93760 218.08885
 217.34110 216.53135 215.63960 215.01385 214.47411 214.91519 215.95728 217.47653
 219.40164 221.40500 222.61809 222.67999 222.35928 222.77747 224.46025 226.06912
 228.12900 231.17860 235.04674 239.49127 243.89833 247.90440 251.43037 254.70357
 257.85043 260.81784 263.62155 266.39841 269.00592 271.29858 273.26163 275.09647
 276.93155 278.66971 280.21136 281.57303 282.75220 283.79810 284.75522 285.62741
 286.41876 287.13336 287.77759 288.59857
 366.78100 356.34551 345.78802 334.66453 323.07804 311.28254 299.16305 286.97656
 274.69907 262.60658 250.62609 239.93760 230.07011 221.18461 213.37712 206.38963
 200.23414 195.18265 191.77516 189.82767 188.87518 188.94968 189.79519 191.11370
 192.84921 194.95472 197.22823 199.59774 202.05325 204.54375 206.64226 208.49477
 210.13128 211.28679 211.52630 211.76481 211.71232 211.42782 211.07133 210.71184
 210.33935 210.05986 209.87837 209.75288 209.69139 210.03290 210.42940 210.82891
 211.63242 212.82093 214.08144 215.87495 217.81346 219.86697 221.97247 224.06598
 226.13649 228.23100 230.33851 232.45502 234.59453 236.77704 239.04354 241.42405
 244.05556 246.31707 248.32958 250.10509 251.53260 252.66611 253.49861 253.82512
 253.87263 253.65714 253.02765 251.98616 250.60267 248.77418 246.69368 244.53719
 242.33870 240.15321 237.98372 235.83323 233.70374 231.58125 229.61776 227.78526
 226.07877 224.56128 223.20179 221.98430 220.87681 219.84732 218.96183 218.11333
 217.36584 216.55635 215.66486 215.03937 214.49988 214.94856 216.00862 217.45685
 219.35858 221.38730 222.62660 222.65131 222.25854 222.62022 224.27528 225.92258
 228.05153 231.22398 235.15582 239.58865 243.98996 247.99942 251.54999 254.80128
 257.90524 260.83743 263.62061 266.38019 268.97772 271.28223 273.27200 275.11966
 276.92731 278.59225 280.13873 281.50070 282.68192 283.72784 284.68542 285.56232
 286.36819 287.09131 287.72229 288.52933
 366.78100 356.34690 345.79079 334.66869 323.08359 311.28948 299.17138 286.98627
 274.71017 262.61907 250.63996 239.95286 230.08676 221.20265 213.39655 206.41044
 200.25634 195.20624 191.80013 189.85403 188.90293 188.97882 189.82572 191.14561
 192.88251 194.98941 197.26430 199.63520 202.09210 204.58399 206.68389 208.53778
 210.17568 211.33258 211.57347 211.81337 211.76227 211.47916 211.12406 210.76595
 210.39485 210.11675 209.93664 209.81254 209.75244 210.09533 210.49323 210.89412
 211.69902 212.88892 214.15081 215.94571 217.88561 219.94050 222.04740 224.14229
 226.21419 228.31009 230.41898 232.53688 234.67778 236.86167 239.12957 241.51146
 244.14436 246.40726 248.42115 250.19805 251.62695 252.76184 253.59574 253.92363
 253.97253 253.75843 253.13032 252.09022 250.70812 248.88101 246.80191 244.64680
 242.44970 240.26560 238.09749 235.94839 233.82029 231.69918 229.73708 227.90597
 226.20087 224.68477 223.32666 222.11056 221.00446 219.97635 219.09225 218.24514
 217.49904 216.69094 215.80083 215.17673 214.63863 215.05064 216.02408 217.39345
 219.37605 221.40253 222.63223 222.59157 222.11789 222.43518 224.05283 225.71182
 227.94719 231.27304 235.28621 239.72913 244.13638 248.16168 251.75099 254.98587
 258.04712 260.94263 263.68454 266.40378 268.96051 271.20392 273.12509 274.94308
 276.80865 278.56671 280.11697 281.48251 282.66663 283.72003 284.69211 285.57816
 286.36987 287.06577 287.67596 288.48346
 366.78100 356.34774 345.79248 334.67123 323.08697 311.29371 299.17645 286.99219
 274.71693 262.62668 250.64842 239.96216 230.09690 221.21364 213.40838 206.42313
 200.26987 195.22061 191.81535 189.87009 188.91984 188.99658 189.84432 191.16506
 192.90280 195.01054 197.28629 199.65803 202.11577 204.60851 206.70925 208.56399
 210.20274 211.36048 211.60222 211.84296 211.79270 211.51044 211.15619 210.79893
 210.42867 210.15141 209.97215 209.84890 209.78964 210.13338 210.53212 210.93386
 211.73960 212.93035 214.19309 215.98883 217.92957 219.98531 222.09305 224.18880
 226.26154 228.35828 230.46802 232.58676 234.72851 236.91325 239.18199 241.56473
 244.19847 246.46221 248.47696 250.25470 251.68444 252.82018 253.65492 253.98366
 254.03341 253.82015 253.19289 252.15363 250.77237 248.94611 246.86786 244.71360
 242.51734 240.33408 238.16682 236.01857 233.89131 231.77105 229.80979 227.97953
 226.27527 224.76002 223.40276 222.18750 221.08224 220.05498 219.17172 218.32547
 217.58021 216.77295 215.88369 215.26043 214.72318 215.12814 216.08496 217.24217
 219.37468 221.42355 222.52063 222.37256 221.85745 222.23055 223.88284 225.68291
 227.95934 231.31529 235.38962 239.82953 244.25391 248.32153 251.93109 255.16501
 258.20184 261.07022 263.77734 266.45288 268.99216 271.24728 273.18149 274.96317
 276.73215 278.41754 279.90710 281.22018 282.37784 283.42236 284.40073 285.27600
 286.04526 286.75854 287.39484 288.20575
 366.78100 356.34721 345.79143 334.66964 323.08485 311.29107 299.17328 286.98849
 274.71270 262.62192 250.64313 239.95634 230.09056 221.20677 213.40098 206.41520
 200.26141 195.21162 191.80583 189.86005 188.90926 188.98547 189.83269 191.15290
 192.89011 194.99733 197.27254 199.64375 202.10096 204.59318 206.69339 208.54760
 210.18582 211.34303 211.58424 211.82446 211.77367 211.49088 211.13610 210.77831
 210.40752 210.12973 209.94995 209.82616 209.76637 210.10959 210.50780 210.90901
 211.71423 212.90444 214.16665 215.96186 217.90208 219.95729 222.06450 224.15972
 226.23193 228.32814 230.43736 232.55557 234.69678 236.88100 239.14921 241.53142
 244.16463 246.42785 248.44206 250.21927 251.64849 252.78370 253.61791 253.94613
 253.99534 253.78155 253.15376 252.11398 250.73219 248.90540 246.82662 244.67183
 242.47504 240.29126 238.12347 235.97468 233.84689 231.72611 229.76432 227.93353
 226.22875 224.71296 223.35517 222.13939 221.03360 220.00581 219.12203 218.27524
 217.52945 216.72166 215.83188 215.20809 214.67030 215.13058 216.22708 217.28520
 219.09332 220.83720 222.19171 222.37906 221.94563 222.21434 223.77531 225.80557
 227.98404 231.38255 235.47897 239.88557 244.26306 248.34969 252.00470 255.29332
 258.33261 261.17017 263.88397 266.52750 269.02911 271.24783 273.20871 275.04547
 276.80878 278.40976 279.84021 281.19165 282.38190 283.47302 284.56326 285.56485
 286.46567 287.26785 287.96866 288.86169
 366.78100 356.34531 345.78762 334.66393 323.07724 311.28155 299.16186 286.97517
 274.69748 262.60479 250.62410 239.93541 230.06772 221.18203 213.37434 206.38665
 200.23096 195.17927 191.77158 189.82389 188.87121 188.94552 189.79083 191.10914
 192.84445 194.94976 197.22307 199.59238 202.04769 204.53800 206.63631 208.48862
 210.12493 211.28024 211.51955 211.75786 211.70517 211.42048 211.06379 210.70410
 210.33141 210.05172 209.87003 209.74434 209.68265 210.02396 210.42027 210.81958
 211.62289 212.81120 214.07151 215.86482 217.80313 219.85644 221.96175 224.05506
 226.12537 228.21968 230.32700 232.44331 234.58262 236.76493 239.03124 241.41155
 244.04286 246.30417 248.31648 250.09179 251.51910 252.65241 253.48472 253.81103
 253.85834 253.64265 253.01296 251.97127 250.58758 248.75889 246.67820 244.52151
 242.32282 240.13713 237.96744 235.81675 233.68706 231.56437 229.60068 227.76799
 226.06130 224.54361 223.18392 221.96623 220.85854 219.82885 218.94316 218.09447
 217.34679 216.53710 215.64541 215.01972 214.48003 215.05150 216.39328 217.36264
 218.93250 220.61867 222.16411 222.59854 222.25911 222.35301 223.72688 225.66615
 227.90955 231.37201 235.50642 239.90251 244.29126 248.40077 252.16110 255.54692
 258.57886 261.36871 264.02744 266.60590 269.03702 271.22308 273.15009 274.94659
 276.68890 278.28378 279.81601 281.20032 282.45462 283.59842 284.64197 285.58734
 286.43759 287.19476 287.85620 288.69913
 366.78100 356.34451 345.78603 334.66154 323.07406 311.27757 299.15709 286.96960
 274.69111 262.59763 250.61614 239.92666 230.05817 221.17168 213.36320 206.37471
 200.21823 195.16574 191.75726 189.80877 188.85528 188.92880 189.77331 191.09083
 192.82534 194.92986 197.20237 199.57088 202.02540 204.51491 206.61243 208.46394
 210.09945 211.25397 211.49248 211.73000 211.67651 211.39103 211.03354 210.67305
 210.29957 210.01908 209.83660 209.71011 209.64763 209.98814 210.38365 210.78217
 211.58468 212.77220 214.03171 215.82422 217.76174 219.81425 221.91877 224.01128
 226.08080 228.17431 230.28082 232.39634 234.53485 236.71637 238.98188 241.36140
 243.99191 246.25242 248.26394 250.03845 251.46497 252.59748 253.42899 253.75451
 253.80102 253.58454 252.95405 251.91157 250.52708 248.69759 246.61611 244.45862
 242.25914 240.07265 237.90217 235.75068 233.62019 231.49671 229.53222 227.69874
 225.99125 224.47276 223.11228 221.89379 220.78531 219.75482 218.86834 218.01885
 217.27036 216.45988 215.56739 214.94091 214.40042 215.02228 216.47418 217.39403
 218.78812 220.52832 222.18756 222.66461 222.25316 222.28699 223.57942 225.38989
 227.79352 231.36568 235.54048 239.91542 244.29800 248.45856 252.31583 255.77640
 258.78421 261.53384 264.11731 266.60861 269.00037 271.16208 273.05875 274.85770
 276.55899 278.05414 279.51178 280.88388 282.12204 283.24286 284.26547 285.19186
 286.02505 286.76700 287.41516 288.24118
 366.78100 356.34414 345.78528 334.66043 323.07257 311.27571 299.15485 286.96699
 274.68813 262.59428 250.61242 239.92256 230.05370 221.16684 213.35798 206.36913
 200.21227 195.15941 191.75055 189.80169 188.84783 188.92098 189.76512 191.08226
 192.81640 194.92054 197.19269 199.56083 202.01497 204.50411 206.60125 208.45239
 210.08754 211.24168 211.47982 211.71696 211.66310 211.37724 211.01939 210.65853
 210.28467 210.00381 209.82095 209.69410 209.63124 209.97138 210.36652 210.76466
 211.56680 212.75395 214.01309 215.80523 217.74237 219.79451 221.89865 223.99080
 226.05994 228.15308 230.25922 232.37436 234.51250 236.69365 238.95879 241.33793
 243.96807 246.22821 248.23936 250.01350 251.43964 252.57178 253.40292 253.72806
 253.77421 253.55735 252.92649 251.88363 250.49877 248.66891 246.58706 244.42920
 242.22934 240.04248 237.87162 235.71976 233.58891 231.46505 229.50019 227.66633
 225.95847 224.43962 223.07876 221.85990 220.75104 219.72018 218.83332 217.98347
 217.23461 216.42375 215.53089 214.90403 214.36317 215.01817 216.53659 217.42906
 218.68982 220.48628 222.24471 222.73839 222.22714 222.14503 223.38615 225.25769
 227.74403 231.39717 235.62134 239.96910 244.35384 248.54404 252.43488 255.98967
 258.97446 261.68250 264.21524 266.63821 268.97385 271.12167 273.03186 274.82159
 276.49500 277.93097 279.34756 280.74844 282.01974 283.14450 284.17065 285.10031
 285.93643 286.68097 287.33142 288.16031
 366.78100 356.34402 345.78504 334.66006 323.07208 311.27510 299.15412 286.96614
 274.68716 262.59319 250.61121 239.92123 230.05225 221.16527 213.35629 206.36731
 200.21033 195.15735 191.74837 189.79939 188.84541 188.91843 189.76245 191.07947
 192.81349 194.91751 197.18954 199.55756 202.01158 204.50060 206.59762 208.44864
 210.08366 211.23768 211.47570 211.71272 211.65874 211.37276 211.01478 210.65380
 210.27982 209.99884 209.81586 209.68889 209.62591 209.96593 210.36095 210.75897
 211.56099 212.74801 214.00703 215.79905 217.73607 219.78809 221.89211 223.98413
 226.05315 228.14617 230.25219 232.36721 234.50524 236.68626 238.95128 241.33030
 243.96032 246.22034 248.23136 250.00538 251.43140 252.56342 253.39444 253.71946
 253.76548 253.54850 252.91752 251.87454 250.48956 248.65959 246.57761 244.41963
 242.21965 240.03267 237.86169 235.70971 233.57873 231.45475 229.48977 227.65579
 225.94781 224.42883 223.06785 221.84887 220.73989 219.70891 218.82194 217.97196
 217.22298 216.41200 215.51902 214.89204 214.35106 215.02631 216.57913 217.46930
 218.62878 220.42632 222.23308 222.71738 222.13722 222.02264 223.32784 225.21759
 227.76231 231.45822 235.72090 240.04961 244.42836 248.62863 252.52486 256.08908
 259.16547 261.84219 264.32828 266.73181 269.01599 271.13370 273.06845 274.84302
 276.44598 277.92453 279.53757 281.04315 282.34610 283.49887 284.55063 285.50342
 286.36035 287.12347 287.79010 288.63965
 366.78100 356.34531 345.78763 334.66394 323.07726 311.28157 299.16188 286.97520
 274.69751 262.60483 250.62414 239.93545 230.06777 221.18208 213.37440 206.38671
 200.23103 195.17934 191.77165 189.82397 188.87128 188.94560 189.79091 191.10922
 192.84454 194.94985 197.22317 199.59248 202.04779 204.53811 206.63642 208.48874
 210.12505 211.28036 211.51968 211.75799 211.70531 211.42062 211.06393 210.70425
 210.33156 210.05188 209.87019 209.74451 209.68282 210.02413 210.42045 210.81976
 211.62308 212.81139 214.07170 215.86502 217.80333 219.85665 221.96196 224.05527
 226.12559 228.21990 230.32722 232.44353 234.58284 236.76516 239.03147 241.41179
 244.04310 246.30442 248.31673 250.09204 251.51936 252.65267 253.48499 253.81130
 253.85861 253.64293 253.01324 251.97156 250.58787 248.75918 246.67850 244.52181
 242.32313 240.13744 237.96775 235.81707 233.68738 231.56470 229.60101 227.76832
 226.06164 224.54395 223.18427 221.96658 220.85890 219.82921 218.94352 218.09484
 217.34715 216.53747 215.64578 215.02009 214.48041 215.09975 216.54410 217.51624
 218.64571 220.32547 222.00035 222.49675 221.98216 221.93445 223.38139 225.26024
 227.80061 231.52631 235.82616 240.16820 244.51620 248.70570 252.58652 256.10751
 259.25912 261.99130 264.47842 266.84998 269.10013 271.21191 273.13443 274.87411
 276.43307 278.08109 279.75327 281.24774 282.54108 283.68536 284.72934 285.67511
 286.52573 287.28320 287.94492 288.78821
 366.78100 356.34619 345.78937 334.66656 323.08075 311.28593 299.16712 286.98130
 274.70449 262.61268 250.63286 239.94505 230.07824 221.19342 213.38661 206.39980
 200.24498 195.19417 191.78736 189.84054 188.88873 188.96391 189.81010 191.12929
 192.86547 194.97166 197.24585 199.61603 202.07222 204.56341 206.66259 208.51578
 210.15297 211.30915 211.54934 211.78852 211.73671 211.45290 211.09708 210.73827
 210.36646 210.08764 209.90683 209.78202 209.72120 210.06339 210.46058 210.86076
 211.66495 212.85413 214.11532 215.90951 217.84869 219.90288 222.00907 224.10325
 226.17444 228.26963 230.37781 232.49500 234.63519 236.81837 239.08556 241.46674
 244.09893 246.36112 248.37430 250.15049 251.57868 252.71286 253.54605 253.87324
 253.92142 253.70661 253.07780 252.03698 250.65417 248.82635 246.74654 244.59073
 242.39291 240.20810 238.03929 235.88947 233.76066 231.63885 229.67603 227.84422
 226.13841 224.62159 223.26278 222.04596 220.93915 219.91034 219.02552 218.17771
 217.43090 216.62208 215.73127 215.10646 214.56764 215.15176 216.52617 217.52161
 218.66093 220.31282 221.79025 222.20908 221.79761 221.83717 223.38275 225.31203
 227.85072 231.61105 235.92789 240.27908 244.61230 248.79387 252.65387 256.09274
 259.34698 262.08765 264.56982 266.93082 269.17676 271.32089 273.27054 274.99356
 276.47690 278.18704 279.87518 281.38434 282.69040 283.84592 284.90018 285.85526
 286.71423 287.47916 288.14737 288.99896
 366.78100 356.34590 345.78880 334.66570 323.07960 311.28450 299.16540 286.97930
 274.70220 262.61011 250.63001 239.94191 230.07481 221.18971 213.38261 206.39551
 200.24041 195.18931 191.78221 189.83511 188.88301 188.95791 189.80381 191.12271
 192.85862 194.96452 197.23842 199.60832 202.06422 204.55512 206.65402 208.50692
 210.14382 211.29972 211.53962 211.77852 211.72642 211.44232 211.08622 210.72712
 210.35503 210.07593 209.89483 209.76973 209.70863 210.05053 210.44743 210.84733
 211.65123 212.84013 214.10103 215.89493 217.83383 219.88773 221.99363 224.08753
 226.15843 228.25334 230.36124 232.47814 234.61804 236.80094 239.06784 241.44874
 244.08064 246.34254 248.35544 250.13134 251.55924 252.69314 253.52604 253.85294
 253.90085 253.68575 253.05665 252.01555 250.63245 248.80435 246.72425 244.56815
 242.37005 240.18495 238.01585 235.86575 233.73665 231.61455 229.65145 227.81935
 226.11325 224.59616 223.23706 222.01996 220.91286 219.88376 218.99866 218.15056
 217.40346 216.59436 215.70326 215.07816 214.53906 215.15237 216.57346 217.50558
 218.62747 220.34572 221.82928 222.12022 221.57675 221.60799 223.32083 225.30397
 227.88661 231.68748 236.01793 240.38708 244.73232 248.91026 252.76447 256.21027
 259.39526 262.15436 264.61859 266.94907 269.17273 271.30530 273.24252 274.97946
 276.67242 278.59418 280.31888 281.83328 283.14389 284.30344 285.36133 286.31973
 287.18167 287.94928 288.61981 289.47433
 366.78100 356.34647 345.78994 334.66741 323.08188 311.28735 299.16882 286.98329
 274.70675 262.61522 250.63569 239.94816 230.08163 221.19710 213.39057 206.40404
 200.24951 195.19898 191.79245 189.84592 188.89439 188.96986 189.81633 191.13579
 192.87226 194.97873 197.25320 199.62367 202.08014 204.57161 206.67108 208.52455
 210.16202 211.31849 211.55896 211.79843 211.74690 211.46336 211.10783 210.74930
 210.37777 210.09924 209.91871 209.79418 209.73365 210.07612 210.47359 210.87406
 211.67853 212.86800 214.12947 215.92394 217.86340 219.91787 222.02434 224.11881
 226.19028 228.28575 230.39422 232.51169 234.65216 236.83563 239.10310 241.48457
 244.11704 246.37951 248.39298 250.16944 251.59791 252.73238 253.56585 253.89332
 253.94179 253.72726 253.09873 252.05820 250.67567 248.84814 246.76861 244.61308
 242.41555 240.23101 238.06248 235.91295 233.78442 231.66289 229.70036 227.86883
 226.16330 224.64677 223.28824 222.07171 220.96518 219.93665 219.05212 218.20459
 217.45805 216.64952 215.75899 215.13446 214.59593 215.19463 216.57668 217.52306
 218.59875 220.25087 221.78651 222.07022 221.38194 221.30611 223.25220 225.32076
 227.99837 231.80080 236.12379 240.51642 244.88387 249.09280 252.95811 256.41928
 259.53418 262.27469 264.71066 267.00259 269.19745 271.31882 273.18729 275.11490
 277.42557 279.49557 281.28680 282.85965 284.22079 285.42508 286.52380 287.51917
 288.41437 289.21158 289.90799 290.79550
 366.78100 356.34655 345.79010 334.66765 323.08220 311.28774 299.16929 286.98384
 274.70739 262.61594 250.63649 239.94904 230.08259 221.19814 213.39169 206.40523
 200.25078 195.20033 191.79388 189.84743 188.89598 188.97153 189.81808 191.13763
 192.87418 194.98072 197.25527 199.62582 202.08237 204.57392 206.67347 208.52702
 210.16457 211.32112 211.56167 211.80121 211.74976 211.46631 211.11086 210.75241
 210.38096 210.10251 209.92206 209.79761 209.73715 210.07970 210.47725 210.87780
 211.68235 212.87190 214.13345 215.92800 217.86755 219.92210 222.02864 224.12319
 226.19474 228.29029 230.39884 232.51639 234.65694 236.84049 239.10804 241.48959
 244.12213 246.38468 248.39823 250.17478 251.60333 252.73788 253.57143 253.89898
 253.94753 253.73307 253.10462 252.06417 250.68172 248.85427 246.77482 244.61937
 242.42192 240.23747 238.06902 235.91956 233.79111 231.66966 229.70721 227.87576
 226.17031 224.65386 223.29541 222.07896 220.97251 219.94405 219.05960 218.21215
 217.46570 216.65725 215.76680 215.14235 214.60390 215.20892 216.58049 217.52383
 218.64140 220.15887 221.60005 221.83940 221.20245 221.13472 223.13289 225.29216
 228.03304 231.88937 236.23555 240.63370 245.02704 249.24715 253.13837 256.63364
 259.77536 262.54187 264.97836 267.23517 269.37225 271.41010 273.37631 275.59378
 278.02271 280.12546 281.94504 283.54279 284.92551 286.14883 287.26495 288.27606
 289.18546 289.99527 290.70270 291.60425
 366.78100 356.34625 345.78950 334.66675 323.08100 311.28625 299.16749 286.98174
 274.70499 262.61324 250.63349 239.94574 230.07899 221.19424 213.38749 206.40074
 200.24599 195.19524 191.78848 189.84173 188.88998 188.96523 189.81148 191.13073
 192.86698 194.97323 197.24748 199.61773 202.07398 204.56522 206.66447 208.51772
 210.15497 211.31122 211.55147 211.79072 211.73897 211.45522 211.09947 210.74072
 210.36897 210.09021 209.90946 209.78471 209.72396 210.06621 210.46346 210.86371
 211.66796 212.85721 214.11846 215.91271 217.85196 219.90620 222.01245 224.10670
 226.17795 228.27320 230.38145 232.49870 234.63895 236.82220 239.08945 241.47070
 244.10294 246.36519 248.37844 250.15469 251.58294 252.71719 253.55044 253.87769
 253.92594 253.71119 253.08244 252.04169 250.65893 248.83118 246.75143 244.59568
 242.39793 240.21318 238.04443 235.89468 233.76593 231.64418 229.68143 227.84967
 226.14392 224.62717 223.26842 222.05167 220.94492 219.91617 219.03142 218.18367
 217.43692 216.62817 215.73742 215.11266 214.57391 215.19962 216.59741 217.50462
 218.64120 220.16795 221.57361 221.67657 221.00952 220.88170 222.89764 225.17668
 228.00221 231.93137 236.31563 240.72795 245.15192 249.37970 253.29105 256.83148
 259.98071 262.75223 265.20343 267.44919 269.55682 271.58154 273.41043 275.74350
 278.24963 280.39777 282.25662 283.88882 285.30136 286.55109 287.69128 288.72421
 289.65323 290.48053 291.20322 292.12421
 366.78100 356.34759 345.79218 334.67077 323.08636 311.29295 299.17553 286.99112
 274.71571 262.62530 250.64689 239.96048 230.09507 221.21166 213.40625 206.42084
 200.26742 195.21801 191.81260 189.86719 188.91678 188.99337 189.84096 191.16155
 192.89914 195.00673 197.28231 199.65390 202.11149 204.60408 206.70467 208.55926
 210.19785 211.35544 211.59703 211.83762 211.78720 211.50479 211.15038 210.79297
 210.42256 210.14515 209.96574 209.84233 209.78292 210.12651 210.52509 210.92668
 211.73227 212.92286 214.18545 215.98104 217.92163 219.97722 222.08481 224.18040
 226.25298 228.34957 230.45916 232.57775 234.71934 236.90393 239.17252 241.55511
 244.18870 246.45229 248.46687 250.24446 251.67405 252.80964 253.64423 253.97282
 254.02241 253.80900 253.18159 252.14218 250.76076 248.93435 246.85594 244.70153
 242.50512 240.32171 238.15430 236.00589 233.87848 231.75807 229.79665 227.96624
 226.26183 224.74642 223.38901 222.17360 221.06819 220.04078 219.15737 218.31096
 217.56554 216.75813 215.86872 215.24531 214.70790 215.25720 216.53694 217.53137
 218.64325 220.08928 221.49625 221.55528 220.81081 220.90976 222.68901 225.07581
 227.97934 231.98495 236.40875 240.83372 245.27264 249.50656 253.41312 256.96207
 260.08514 262.85629 265.34320 267.63098 269.79218 271.80377 273.67014 276.03668
 278.43802 280.54294 282.36441 283.96378 285.34790 286.57248 287.68973 288.70187
 289.61221 290.42285 291.13101 292.03348
 366.78100 356.34788 345.79275 334.67163 323.08750 311.29438 299.17725 286.99313
 274.71800 262.62788 250.64975 239.96363 230.09850 221.21538 213.41025 206.42513
 200.27200 195.22288 191.81775 189.87263 188.92251 188.99938 189.84726 191.16813
 192.90601 195.01388 197.28976 199.66163 202.11951 204.61238 206.71326 208.56813
 210.20701 211.36488 211.60676 211.84763 211.79751 211.51538 211.16126 210.80414
 210.43401 210.15689 209.97776 209.85464 209.79551 210.13939 210.53826 210.94014
 211.74601 212.93689 214.19976 215.99564 217.93651 219.99239 222.10026 224.19614
 226.26901 228.36589 230.47577 232.59464 234.73652 236.92139 239.19027 241.57314
 244.20702 246.47089 248.48577 250.26364 251.69352 252.82939 253.66427 253.99314
 254.04302 253.82989 253.20277 252.16364 250.78252 248.95640 246.87827 244.72415
 242.52802 240.34490 238.17777 236.02965 233.90252 231.78240 229.82127 227.99115
 226.28702 224.77190 223.41477 222.19965 221.09452 220.06740 219.18427 218.33815
 217.59303 216.78590 215.89678 215.27365 214.73653 215.25525 216.48671 217.50246
 218.71919 220.11165 221.15135 221.08754 220.66612 221.10982 222.52676 225.07552
 227.99435 232.06226 236.54927 240.97232 245.35684 249.57213 253.42538 256.90805
 260.01648 262.79810 265.37451 267.75641 269.98483 272.07675 273.97012 275.79956
 277.70578 279.42371 281.06110 282.49884 283.74307 284.84390 285.84827 286.75812
 287.57645 288.30518 288.94177 289.75305
 366.78100 356.34675 345.79049 334.66824 323.08299 311.28873 299.17048 286.98522
 274.70897 262.61772 250.63846 239.95121 230.08496 221.20070 213.39445 206.40819
 200.25394 195.20369 191.79743 189.85118 188.89993 188.97567 189.82242 191.14216
 192.87891 194.98566 197.26040 199.63115 202.08790 204.57964 206.67939 208.53313
 210.17088 211.32763 211.56837 211.80812 211.75687 211.47361 211.11836 210.76010
 210.38885 210.11060 209.93034 209.80609 209.74584 210.08858 210.48633 210.88707
 211.69182 212.88157 214.14331 215.93806 217.87781 219.93255 222.03930 224.13404
 226.20579 228.30154 230.41028 232.52803 234.66878 236.85252 239.12027 241.50201
 244.13476 246.39751 248.41125 250.18800 251.61675 252.75149 253.58524 253.91298
 253.96173 253.74748 253.11922 252.07897 250.69672 248.86946 246.79021 244.63496
 242.43770 240.25345 238.08519 235.93594 233.80769 231.68643 229.72418 227.89293
 226.18767 224.67142 223.31316 222.09691 220.99066 219.96240 219.07815 218.23090
 217.48464 216.67639 215.78613 215.16188 214.62363 215.18945 216.51657 217.46815
 218.64609 220.12457 221.16786 220.96625 220.39442 220.84511 222.32951 224.93791
 228.04341 232.15633 236.65858 241.07339 245.48326 249.73743 253.57742 256.99973
 260.04871 262.79910 265.35248 267.74118 269.99597 272.12308 274.06107 275.80182
 277.60693 278.57574 279.51682 280.94156 282.17453 283.26541 284.26068 285.16232
 285.97324 286.69537 287.32620 288.13013
 366.78100 356.34654 345.79008 334.66762 323.08215 311.28769 299.16923 286.98377
 274.70731 262.61585 250.63638 239.94892 230.08246 221.19800 213.39154 206.40508
 200.25062 195.20015 191.79369 189.84723 188.89577 188.97131 189.81785 191.13738
 192.87392 194.98046 197.25500 199.62554 202.08208 204.57361 206.67315 208.52669
 210.16423 211.32077 211.56131 211.80085 211.74938 211.46592 211.11046 210.75200
 210.38054 210.10208 209.92161 209.79715 209.73669 210.07923 210.47677 210.87731
 211.68185 212.87138 214.13292 215.92746 217.86700 219.92154 222.02808 224.12261
 226.19415 228.28969 230.39823 232.51577 234.65631 236.83984 239.10738 241.48892
 244.12146 246.38400 248.39754 250.17408 251.60261 252.73715 253.57069 253.89823
 253.94677 253.73231 253.10384 252.06338 250.68092 248.85346 246.77400 244.61854
 242.42108 240.23661 238.06815 235.91869 233.79023 231.66877 229.70631 227.87484
 226.16938 224.65292 223.29446 222.07800 220.97154 219.94308 219.05861 218.21115
 217.46469 216.65623 215.76577 215.14131 214.60284 215.17946 216.52617 217.47021
 218.64659 220.10825 221.16063 220.91113 220.22672 220.62288 222.10243 224.76590
 228.00079 232.22652 236.77344 241.21361 245.64127 249.89198 253.74327 257.16119
 260.18900 262.92517 265.46085 267.83548 270.07794 272.19879 274.13965 275.88083
 277.48636 278.10742 279.48148 280.94675 282.21484 283.33676 284.36035 285.28766
 286.12167 286.86435 287.51315 288.33997
 366.78100 356.34658 345.79017 334.66775 323.08233 311.28792 299.16950 286.98408
 274.70767 262.61625 250.63683 239.94942 230.08300 221.19858 213.39217 206.40575
 200.25133 195.20092 191.79450 189.84808 188.89667 188.97225 189.81883 191.13842
 192.87500 194.98158 197.25617 199.62675 202.08333 204.57492 206.67450 208.52808
 210.16567 211.32225 211.56283 211.80242 211.75100 211.46758 211.11217 210.75375
 210.38233 210.10392 209.92350 209.79908 209.73867 210.08125 210.47883 210.87942
 211.68400 212.87358 214.13517 215.92975 217.86933 219.92392 222.03050 224.12508
 226.19666 228.29225 230.40083 232.51841 234.65900 236.84258 239.11016 241.49175
 244.12433 246.38691 248.40050 250.17708 251.60566 252.74025 253.57383 253.90141
 253.95000 253.73558 253.10716 252.06675 250.68433 248.85691 246.77750 244.62208
 242.42466 240.24025 238.07183 235.92241 233.79400 231.67258 229.71016 227.87875
 226.17333 224.65691 223.29850 222.08208 220.97566 219.94725 219.06283 218.21541
 217.46900 216.66058 215.77016 215.14575 214.60733 215.17946 216.51688 217.46046
 218.66461 220.13817 221.03438 220.62950 219.95636 220.48438 222.01294 224.73122
 228.07330 232.34865 236.90935 241.35315 245.78336 250.01994 253.86328 257.27829
 260.30432 263.05017 265.60129 267.98480 270.23059 272.34753 274.29169 276.00967
 277.42831 278.05072 279.28500 280.76791 282.05127 283.18671 284.22263 285.16110
 286.00516 286.75677 287.41339 288.25015
 366.78100 356.34587 345.78874 334.66561 323.07948 311.28435 299.16522 286.97910
 274.70197 262.60984 250.62971 239.94158 230.07445 221.18932 213.38219 206.39506
 200.23993 195.18880 191.78167 189.83454 188.88241 188.95729 189.80316 191.12203
 192.85790 194.96377 197.23764 199.60751 202.06338 204.55425 206.65312 208.50599
 210.14286 211.29873 211.53860 211.77748 211.72535 211.44122 211.08509 210.72596
 210.35383 210.07470 209.89357 209.76844 209.70731 210.04918 210.44605 210.84592
 211.64979 212.83867 214.09954 215.89341 217.83228 219.88615 221.99202 224.08589
 226.15676 228.25163 230.35950 232.47637 234.61624 236.79911 239.06598 241.44686
 244.07873 246.34060 248.35347 250.12934 251.55721 252.69108 253.52395 253.85082
 253.89869 253.68356 253.05443 252.01330 250.63017 248.80205 246.72192 244.56579
 242.36766 240.18253 238.01340 235.86327 233.73414 231.61201 229.64888 227.81675
 226.11062 224.59349 223.23436 222.01724 220.91011 219.88098 218.99585 218.14772
 217.40059 216.59146 215.70033 215.07520 214.53607 215.14301 216.54979 217.43774
 218.61322 220.20984 221.11185 220.56558 219.72408 220.12747 221.73282 224.67607
 228.10597 232.43298 237.00848 241.46252 245.90767 250.13773 253.96332 257.36673
 260.39020 263.13437 265.68597 268.08090 270.33762 272.46164 274.40961 276.10635
 277.44080 278.10590 279.23813 280.74576 282.05048 283.20483 284.25800 285.21210
 286.07019 286.83435 287.50189 288.35260
 366.78100 356.34545 345.78791 334.66436 323.07781 311.28227 299.16272 286.97618
 274.69863 262.60608 250.62554 239.93699 230.06944 221.18390 213.37635 206.38881
 200.23326 195.18171 191.77417 189.82662 188.87407 188.94853 189.79398 191.11243
 192.84789 194.95334 197.22680 199.59625 202.05170 204.54216 206.64061 208.49306
 210.12952 211.28497 211.52443 211.76288 211.71033 211.42579 211.06924 210.70969
 210.33715 210.05760 209.87606 209.75051 209.68896 210.03042 210.42687 210.82632
 211.62978 212.81823 214.07868 215.87214 217.81059 219.86405 221.96950 224.06295
 226.13341 228.22786 230.33531 232.45177 234.59122 236.77368 239.04013 241.42058
 244.05204 246.31349 248.32594 250.10140 251.52885 252.66230 253.49476 253.82121
 253.86867 253.65312 253.02357 251.98203 250.59848 248.76993 246.68939 244.53284
 242.33430 240.14875 237.97920 235.82866 233.69911 231.57656 229.61302 227.78047
 226.07393 224.55638 223.19683 221.97929 220.87174 219.84219 218.95665 218.10810
 217.36055 216.55101 215.65946 215.03392 214.49437 215.11749 216.56267 217.43834
 218.52892 220.15987 221.12386 220.55650 219.59889 219.83514 221.52153 224.65283
 228.16969 232.52664 237.11513 241.58499 246.04893 250.25955 254.03224 257.40240
 260.44003 263.21811 265.79810 268.20813 270.47620 272.61386 274.59732 276.32193
 277.62411 278.36865 279.24167 280.72583 282.01727 283.15985 284.20230 285.14667
 285.99603 286.75238 287.41315 288.25516
 366.78100 356.34514 345.78727 334.66341 323.07654 311.28068 299.16082 286.97395
 274.69609 262.60322 250.62236 239.93350 230.06563 221.17977 213.37190 206.38404
 200.22818 195.17631 191.76845 189.82058 188.86772 188.94186 189.78699 191.10513
 192.84026 194.94540 197.21854 199.58767 202.04281 204.53294 206.63108 208.48322
 210.11935 211.27449 211.51362 211.75176 211.69890 211.41403 211.05717 210.69730
 210.32444 210.04458 209.86271 209.73685 209.67498 210.01612 210.41226 210.81139
 211.61453 212.80266 214.06280 215.85594 217.79407 219.84721 221.95234 224.04548
 226.11562 228.20975 230.31689 232.43302 234.57216 236.75430 239.02043 241.40057
 244.03170 246.29284 248.30498 250.08011 251.50725 252.64038 253.47252 253.79866
 253.84579 253.62993 253.00006 251.95820 250.57434 248.74547 246.66461 244.50774
 242.30888 240.12302 237.95315 235.80229 233.67242 231.54956 229.58570 227.75283
 226.04597 224.52810 223.16824 221.95038 220.84251 219.81265 218.92678 218.07792
 217.33006 216.52019 215.62833 215.00246 214.46260 215.08847 216.55353 217.46472
 218.44353 220.00018 220.89496 220.33220 219.40105 219.57846 221.51440 224.65326
 228.32179 232.64546 237.24086 241.74823 246.18700 250.37953 254.12256 257.43716
 260.46176 263.27051 265.87958 268.30798 270.58743 272.74628 274.75693 276.49484
 277.79379 278.61850 278.99487 279.44818 280.68045 281.82520 282.86960 283.81577
 284.66672 285.42453 286.08652 286.93015
 366.78100 356.34562 345.78824 334.66486 323.07848 311.28310 299.16372 286.97734
 274.69997 262.60759 250.62721 239.93883 230.07145 221.18607 213.37869 206.39131
 200.23593 195.18455 191.77717 189.82979 188.87741 188.95203 189.79765 191.11627
 192.85190 194.95752 197.23114 199.60076 202.05638 204.54700 206.64562 208.49824
 210.13486 211.29048 211.53010 211.76872 211.71634 211.43196 211.07558 210.71620
 210.34383 210.06445 209.88307 209.75769 209.69631 210.03793 210.43455 210.83417
 211.63779 212.82641 214.08703 215.88065 217.81927 219.87289 221.97851 224.07213
 226.14276 228.23738 230.34500 232.46162 234.60124 236.78386 239.05048 241.43110
 244.06272 246.32434 248.33696 250.11258 251.54020 252.67382 253.50644 253.83306
 253.88069 253.66531 253.03593 251.99455 250.61117 248.78279 246.70241 244.54603
 242.34765 240.16227 237.99289 235.84251 233.71313 231.59075 229.62737 227.79499
 226.08862 224.57124 223.21186 221.99448 220.88710 219.85772 218.97234 218.12396
 217.37658 216.56720 215.67582 215.05044 214.51106 215.09671 216.48492 217.58276
 218.35054 219.72772 220.72591 220.13513 219.11855 219.20850 221.38657 224.51915
 228.41176 232.74712 237.37076 241.89743 246.31926 250.50645 254.24429 257.54095
 260.53229 263.32504 265.93372 268.35748 270.63745 272.81464 274.83405 276.56403
 277.83890 278.60916 279.00806 279.24429 279.71765 280.70520 281.70755 282.62311
 283.44653 284.17978 284.82034 285.63666
 366.78100 356.34562 345.78825 334.66487 323.07850 311.28312 299.16375 286.97737
 274.70000 262.60762 250.62725 239.93887 230.07150 221.18612 213.37875 206.39137
 200.23600 195.18462 191.77725 189.82987 188.87749 188.95212 189.79774 191.11637
 192.85199 194.95762 197.23124 199.60087 202.05649 204.54712 206.64574 208.49837
 210.13499 211.29062 211.53024 211.76887 211.71649 211.43212 211.07574 210.71637
 210.34399 210.06461 209.88324 209.75786 209.69649 210.03811 210.43474 210.83436
 211.63799 212.82661 214.08724 215.88086 217.81949 219.87311 221.97874 224.07236
 226.14299 228.23761 230.34524 232.46186 234.60148 236.78411 239.05073 241.43136
 244.06298 246.32461 248.33723 250.11286 251.54048 252.67411 253.50673 253.83336
 253.88098 253.66561 253.03623 251.99486 250.61148 248.78311 246.70273 244.54635
 242.34798 240.16260 237.99323 235.84285 233.71348 231.59110 229.62773 227.79535
 226.08898 224.57160 223.21223 221.99485 220.88748 219.85810 218.97273 218.12435
 217.37698 216.56760 215.67623 215.05085 214.51147 215.08759 216.45213 217.64180
 218.42981 219.73366 220.72408 219.98643 218.85068 218.84090 221.19098 224.38771
 228.48492 232.84918 237.49652 242.02419 246.44849 250.63786 254.36925 257.66498
 260.64697 263.42529 266.02634 268.45245 270.72876 272.89383 274.92340 276.64682
 277.83771 278.54883 278.88730 279.06189 279.38431 280.16583 281.13025 282.03040
 282.84793 283.57593 284.21191 285.02237
 366.78100 356.34388 345.78476 334.65965 323.07153 311.27441 299.15329 286.96517
 274.68606 262.59194 250.60982 239.91970 230.05058 221.16347 213.35435 206.36523
 200.20811 195.15499 191.74588 189.79676 188.84264 188.91552 189.75940 191.07629
 192.81017 194.91405 197.18593 199.55382 202.00770 204.49658 206.59346 208.44434
 210.07923 211.23311 211.47099 211.70787 211.65375 211.36764 211.00952 210.64840
 210.27428 209.99316 209.81005 209.68293 209.61981 209.95969 210.35457 210.75246
 211.55434 212.74122 214.00010 215.79198 217.72887 219.78075 221.88463 223.97651
 226.04539 228.13828 230.24416 232.35904 234.49692 236.67780 238.94269 241.32157
 243.95145 246.21133 248.22221 249.99610 251.42198 252.55386 253.38474 253.70962
 253.75551 253.53839 252.90727 251.86415 250.47904 248.64892 246.56680 244.40868
 242.20856 240.02145 237.85033 235.69821 233.56709 231.44297 229.47786 227.64374
 225.93562 224.41650 223.05538 221.83627 220.72715 219.69603 218.80891 217.95879
 217.20968 216.39856 215.50544 214.87832 214.33720 215.00130 216.56718 217.56877
 218.42258 219.70358 220.63768 219.91472 218.66161 218.56621 220.93785 224.40482
 228.53075 232.97151 237.61423 242.15567 246.58983 250.75629 254.46898 257.76636
 260.76892 263.55051 266.13419 268.54214 270.81323 272.97595 275.02112 276.69824
 277.82227 278.44638 278.68042 278.80560 279.14343 280.01752 280.99356 281.93805
 282.78754 283.54398 284.20480 285.04697
 354.97500 345.04800 334.58700 324.11500 313.32600 302.53700 291.65000 280.76700
 269.93100 259.19300 248.62200 238.61700 229.08700 220.35500 212.54000 205.53500
 199.46400 194.49300 191.14300 189.19000 188.08900 188.01400 188.72400 189.90600
 191.46900 193.38200 195.40300 197.55600 199.80700 202.06000 204.28800 206.47900
 208.55200 210.37800 212.02500 213.65900 214.99800 216.11800 217.17200 218.25900
 219.49400 220.64500 221.67900 222.61400 223.54500 224.98200 226.57100 228.19000
 229.79700 231.81100 233.86500 235.97200 238.24200 240.55300 242.89900 245.25300
 247.48800 249.53500 251.36600 252.84800 254.09800 255.16700 256.02700 256.25300
 256.09500 255.54300 253.93500 252.56600 251.38400 250.24500 249.05200 247.70100
 246.01600 243.99600 241.78400 239.39300 236.81300 234.22300 231.65800 229.14400
 226.74000 224.47300 222.33500 220.32500 218.44000 216.67700 214.96200 213.47200
 212.20000 211.10800 210.26000 209.63900 209.24400 209.03100 209.05800 209.33300
 209.78400 210.62600 211.33100 212.39100 213.62500 214.84668 217.72949 219.47640
 220.32566 220.86828 220.88710 220.27371 219.43733 218.84250 219.04934 220.86203
 222.60583 225.72206 229.03064 232.61777 236.12270 239.51333 242.70767 245.68587
 248.41061 250.90679 253.19353 254.91714 256.48655 257.94920 259.39966 260.69384
 261.81714 262.77997 263.71679 264.54570 265.26305 265.89772 266.47676 267.00133
 267.47312 267.89325 268.26027 268.72800
