|-------------------------------------------------------------------------|
|   File Name : in_temp.dat
|   Subject   : temperature profiles used for initial guess atmosphere
|   File Type : input of gmtr
|   Data Type : atmospherical data
|   Author/s  : WRF-Chem
|   Date      : Fri Jul 26 15:39:24 2024
|-------------------------------------------------------------------------|

 WRF-Chem temperature
#
 values of T (K)    (8f10.5)
#
 354.97500 345.04800 334.58700 324.11500 313.32600 302.53700 291.65000 280.76700
 269.93100 259.19300 248.62200 238.61700 229.08700 220.35500 212.54000 205.53500
 199.46400 194.49300 191.14300 189.19000 188.08900 188.01400 188.72400 189.90600
 191.46900 193.38200 195.40300 197.55600 199.80700 202.06000 204.28800 206.47900
 208.55200 210.37800 212.02500 213.65900 214.99800 216.11800 217.17200 218.25900
 219.49400 220.64500 221.67900 222.61400 223.54500 224.98200 226.57100 228.19000
 229.79700 231.81100 233.86500 235.97200 238.24200 240.55300 242.89900 245.25300
 247.48800 249.53500 251.36600 252.84800 254.09800 255.16700 256.02700 256.25300
 256.09500 255.54300 253.93500 252.56600 251.38400 250.24500 249.05200 247.70100
 246.01600 243.99600 241.78400 239.39300 236.81300 234.22300 231.65800 229.14400
 226.74000 224.47300 222.33500 220.32500 218.44000 216.67700 214.96200 213.47200
 212.20000 211.10800 210.26000 209.63900 209.24400 209.03100 209.05800 209.33300
 209.78400 210.62600 211.33100 212.39100 213.62500 214.84668 217.72949 219.47640
 220.32566 220.86828 220.88710 220.27371 219.43733 218.84250 219.04934 220.86203
 222.60583 225.72206 229.03064 232.61777 236.12270 239.51333 242.70767 245.68587
 248.41061 250.90679 253.19353 254.91714 256.48655 257.94920 259.39966 260.69384
 261.81714 262.77997 263.71679 264.54570 265.26305 265.89772 266.47676 267.00133
 267.47312 267.89325 268.26027 268.72800
 366.78100 356.33500 345.76700 334.63300 323.03600 311.23000 299.10000 286.90300
 274.61500 262.51200 250.52100 239.82200 229.94400 221.04800 213.23000 206.23200
 200.06600 195.00400 191.58600 189.62800 188.66500 188.72900 189.56400 190.87200
 192.59700 194.69200 196.95500 199.31400 201.75900 204.23900 206.32700 208.16900
 209.79500 210.94000 211.16900 211.39700 211.33400 211.03900 210.67200 210.30200
 209.91900 209.62900 209.43700 209.30100 209.22900 209.56000 209.94600 210.33500
 211.12800 212.30600 213.55600 215.33900 217.26700 219.31000 221.40500 223.48800
 225.54800 227.63200 229.72900 231.83500 233.96400 236.13600 238.39200 240.76200
 243.38300 245.63400 247.63600 249.40100 250.81800 251.94100 252.76300 253.07900
 253.11600 252.89000 252.25000 251.19800 249.80400 247.96500 245.87400 243.70700
 241.49800 239.30200 237.12200 234.96100 232.82100 230.68800 228.71400 226.87100
 225.15400 223.62600 222.25600 221.02800 219.91000 218.87000 217.97400 217.11500
 216.35700 215.53700 214.63500 213.99900 213.44900 212.85855 212.01316 212.61654
 214.26826 216.08686 218.14273 220.53346 223.40855 226.78828 231.49734 235.90155
 239.42278 243.28576 247.23140 251.11907 254.80144 258.23331 261.38913 264.27520
 266.89312 269.26852 271.44504 273.08845 274.58484 275.98591 277.39845 278.65879
 279.75272 280.69038 281.56708 282.34086 283.01050 283.60295 284.14348 284.63317
 285.07358 285.46577 285.80838 286.24500
 381.81900 372.39900 361.20600 349.77600 337.62200 324.85300 311.81000 298.35300
 284.86000 271.32400 258.56100 246.30400 236.08700 226.79600 218.44800 211.29000
 205.52200 200.89400 197.38100 194.84800 193.01500 192.31500 192.25000 192.43100
 192.91200 193.53700 194.13600 194.71200 195.26200 195.83100 196.39300 196.97600
 197.60400 198.14900 198.58400 199.05700 199.69500 200.37800 201.05400 201.70800
 202.31300 202.85700 203.35500 203.86200 204.56900 205.29700 206.02600 206.98700
 208.19300 209.44100 210.96900 212.57600 214.46200 216.51300 218.63000 220.85300
 223.34100 225.96200 228.73900 231.69700 234.70600 237.70600 240.69200 243.65700
 246.73700 249.69900 252.52100 255.06300 257.29000 259.23300 260.63300 261.68000
 262.46100 262.79800 262.69100 262.22400 261.06900 259.52500 257.70700 255.50700
 253.00100 250.30200 247.39800 244.45200 241.65400 239.05400 236.73300 234.59000
 232.59500 230.72500 228.83400 226.82600 224.66600 222.38700 220.10400 217.71500
 215.45900 213.06600 210.54600 208.09300 205.35400 202.08130 196.05959 200.71215
 209.01611 216.90438 223.84126 229.78593 235.00632 240.20838 245.98943 250.68668
 254.32982 257.93487 261.55666 264.96801 268.15192 271.06452 273.76717 276.25691
 278.57680 280.74479 282.77456 284.60533 286.27232 287.81705 289.31715 290.65561
 291.81734 292.81312 293.70701 294.49387 295.17482 295.77730 296.32696 296.82492
 297.27278 297.67160 298.02000 298.46400
 399.33000 389.90700 379.81300 368.66800 357.52200 345.30100 333.07400 320.22700
 307.21600 293.84800 280.37600 267.29600 254.61000 242.98700 232.15100 221.97700
 212.67200 204.28600 197.66900 192.82100 189.48600 187.45200 186.81400 187.08900
 187.78100 189.05400 190.64800 192.54200 194.63000 196.75200 198.67100 200.15800
 201.53500 202.48700 202.97500 203.34000 203.53900 203.49700 203.38500 203.24700
 203.00500 202.78600 202.60300 202.43700 202.42600 202.88800 203.42000 203.95100
 204.89500 205.99200 207.30100 208.95800 210.73800 213.10000 215.56400 218.18000
 220.96600 223.91800 226.96100 230.09200 233.29300 236.55700 239.95500 243.53700
 246.84500 249.39000 251.54200 253.47400 255.19500 256.48400 257.43100 258.05900
 258.21200 258.04000 257.58200 256.64300 255.23900 253.50700 251.40800 249.05600
 246.57600 243.99400 241.38900 238.83000 236.34400 233.98600 231.96900 230.11800
 228.42300 226.89900 225.54800 224.29700 223.10500 221.96500 220.95800 220.11300
 219.49000 218.92000 218.32500 217.88100 217.42300 216.96366 216.35568 216.80261
 217.73415 218.28582 218.64258 219.10077 220.44626 222.53987 226.38451 230.35736
 233.59734 237.39164 241.29814 245.22796 248.98002 252.51130 255.78595 258.80109
 261.54781 264.05210 266.34239 268.04198 269.58951 271.01303 272.35754 273.55718
 274.59842 275.49092 276.28989 276.99307 277.60161 278.14001 278.63122 279.07623
 279.47646 279.83287 280.14422 280.54100
 399.73800 389.78500 379.66200 368.15100 356.64100 344.35000 331.79200 318.88800
 305.72600 292.49300 279.20900 266.73800 254.69600 244.21100 234.45700 225.43300
 217.56900 210.45100 204.30000 199.30600 195.45800 192.57600 191.02700 190.38600
 190.23900 190.53400 191.16600 191.92500 192.79500 193.76600 194.73200 195.31200
 195.80000 196.05200 196.11500 196.11500 196.03900 195.72300 195.34000 194.98900
 194.75100 194.79200 195.13300 195.59800 196.50600 198.13600 199.85800 201.56600
 204.17900 206.82300 209.89300 213.28400 216.82800 220.60500 224.38700 228.20900
 232.03200 235.82500 239.56000 243.25800 246.84500 250.20100 253.70900 257.46800
 261.53000 264.22100 266.60100 268.68100 270.32900 271.74100 272.83600 273.47400
 273.89800 274.00200 273.75700 273.28800 272.37100 271.10000 269.58900 267.77900
 265.81600 263.72100 261.39300 258.91600 256.29800 253.42300 250.33100 247.11400
 243.83700 240.52900 237.24900 233.99900 230.72800 227.51500 224.25400 220.95200
 217.62700 213.65600 210.12100 206.78900 204.01000 201.99491 199.07309 198.76551
 199.40006 200.48994 201.46112 202.31912 203.45100 204.96110 207.47502 210.85391
 213.70530 217.29629 220.99574 224.72316 228.28753 231.64854 234.68024 237.40893
 239.70644 241.60899 243.46854 245.67368 247.68154 249.52395 251.24767 252.78566
 254.12057 255.26479 256.23740 257.09036 257.82852 258.48160 259.07744 259.61723
 260.10271 260.53504 260.91270 261.39400
 399.73800 389.78500 379.66200 368.15100 356.64100 344.35000 331.79200 318.88800
 305.72600 292.49300 279.20900 266.73800 254.69600 244.21100 234.45700 225.43300
 217.56900 210.45100 204.30000 199.30600 195.45800 192.57600 191.02700 190.38600
 190.23900 190.53400 191.16600 191.92500 192.79500 193.76600 194.73200 195.31200
 195.80000 196.05200 196.11500 196.11500 196.03900 195.72300 195.34000 194.98900
 194.75100 194.79200 195.13300 195.59800 196.50600 198.13600 199.85800 201.56600
 204.17900 206.82300 209.89300 213.28400 216.82800 220.60500 224.38700 228.20900
 232.03200 235.82500 239.56000 243.25800 246.84500 250.20100 253.70900 257.46800
 261.53000 264.22100 266.60100 268.68100 270.32900 271.74100 272.83600 273.47400
 273.89800 274.00200 273.75700 273.28800 272.37100 271.10000 269.58900 267.77900
 265.81600 263.72100 261.39300 258.91600 256.29800 253.42300 250.33100 247.11400
 243.83700 240.52900 237.24900 233.99900 230.72800 227.51500 224.25400 220.95200
 217.62700 213.65600 210.12100 206.78900 204.01000 201.99491 199.07309 198.76551
 199.40006 200.48994 201.46112 202.31912 203.45100 204.96110 207.47502 210.85391
 213.70530 217.29629 220.99574 224.72316 228.28753 231.64854 234.68024 237.40893
 239.70644 241.60899 243.46854 245.67368 247.68154 249.52395 251.24767 252.78566
 254.12057 255.26479 256.23740 257.09036 257.82852 258.48160 259.07744 259.61723
 260.10271 260.53504 260.91270 261.39400
 399.33000 389.90700 379.81300 368.66800 357.52200 345.30100 333.07400 320.22700
 307.21600 293.84800 280.37600 267.29600 254.61000 242.98700 232.15100 221.97700
 212.67200 204.28600 197.66900 192.82100 189.48600 187.45200 186.81400 187.08900
 187.78100 189.05400 190.64800 192.54200 194.63000 196.75200 198.67100 200.15800
 201.53500 202.48700 202.97500 203.34000 203.53900 203.49700 203.38500 203.24700
 203.00500 202.78600 202.60300 202.43700 202.42600 202.88800 203.42000 203.95100
 204.89500 205.99200 207.30100 208.95800 210.73800 213.10000 215.56400 218.18000
 220.96600 223.91800 226.96100 230.09200 233.29300 236.55700 239.95500 243.53700
 246.84500 249.39000 251.54200 253.47400 255.19500 256.48400 257.43100 258.05900
 258.21200 258.04000 257.58200 256.64300 255.23900 253.50700 251.40800 249.05600
 246.57600 243.99400 241.38900 238.83000 236.34400 233.98600 231.96900 230.11800
 228.42300 226.89900 225.54800 224.29700 223.10500 221.96500 220.95800 220.11300
 219.49000 218.92000 218.32500 217.88100 217.42300 216.96366 216.35568 216.80261
 217.73415 218.28582 218.64258 219.10077 220.44626 222.53987 226.38451 230.35736
 233.59734 237.39164 241.29814 245.22796 248.98002 252.51130 255.78595 258.80109
 261.54781 264.05210 266.34239 268.04198 269.58951 271.01303 272.35754 273.55718
 274.59842 275.49092 276.28989 276.99307 277.60161 278.14001 278.63122 279.07623
 279.47646 279.83287 280.14422 280.54100
 381.81900 372.39900 361.20600 349.77600 337.62200 324.85300 311.81000 298.35300
 284.86000 271.32400 258.56100 246.30400 236.08700 226.79600 218.44800 211.29000
 205.52200 200.89400 197.38100 194.84800 193.01500 192.31500 192.25000 192.43100
 192.91200 193.53700 194.13600 194.71200 195.26200 195.83100 196.39300 196.97600
 197.60400 198.14900 198.58400 199.05700 199.69500 200.37800 201.05400 201.70800
 202.31300 202.85700 203.35500 203.86200 204.56900 205.29700 206.02600 206.98700
 208.19300 209.44100 210.96900 212.57600 214.46200 216.51300 218.63000 220.85300
 223.34100 225.96200 228.73900 231.69700 234.70600 237.70600 240.69200 243.65700
 246.73700 249.69900 252.52100 255.06300 257.29000 259.23300 260.63300 261.68000
 262.46100 262.79800 262.69100 262.22400 261.06900 259.52500 257.70700 255.50700
 253.00100 250.30200 247.39800 244.45200 241.65400 239.05400 236.73300 234.59000
 232.59500 230.72500 228.83400 226.82600 224.66600 222.38700 220.10400 217.71500
 215.45900 213.06600 210.54600 208.09300 205.35400 202.08130 196.05959 200.71215
 209.01611 216.90438 223.84126 229.78593 235.00632 240.20838 245.98943 250.68668
 254.32982 257.93487 261.55666 264.96801 268.15192 271.06452 273.76717 276.25691
 278.57680 280.74479 282.77456 284.60533 286.27232 287.81705 289.31715 290.65561
 291.81734 292.81312 293.70701 294.49387 295.17482 295.77730 296.32696 296.82492
 297.27278 297.67160 298.02000 298.46400
 366.78100 356.33840 345.77380 334.64319 323.04959 311.24699 299.12039 286.92679
 274.64218 262.54258 250.55498 239.85938 229.98477 221.09217 213.27757 206.28297
 200.12037 195.06176 191.64716 189.69256 188.73296 188.80036 189.63875 190.95015
 192.67855 194.77695 197.04334 199.40574 201.85414 204.33754 206.42894 208.27433
 209.90373 211.05213 211.28453 211.51593 211.45632 211.16472 210.80112 210.43452
 210.05492 209.76831 209.57971 209.44711 209.37851 209.71290 210.10230 210.49470
 211.29110 212.47250 213.72589 215.51229 217.44369 219.49009 221.58849 223.67488
 225.73828 227.82568 229.92608 232.03547 234.16787 236.34327 238.60267 240.97607
 243.60046 245.85486 247.86026 249.62866 251.04906 252.17545 253.00085 253.32025
 253.36065 253.13805 252.50144 251.45284 250.06224 248.22664 246.13903 243.97543
 241.76983 239.57723 237.40063 235.24302 233.10642 230.97682 229.00622 227.16662
 225.45301 223.92841 222.56181 221.33721 220.22260 219.18600 218.29340 217.43780
 216.68320 215.86659 214.96799 214.33539 213.78879 213.18051 211.75427 212.56288
 214.32890 216.19000 217.35362 217.72896 218.68567 222.87973 228.48268 233.29301
 237.07149 240.84319 244.59900 248.27315 251.77664 254.77127 257.35629 259.88840
 262.50830 265.04178 267.43207 269.54138 271.57004 273.52646 275.15894 276.74655
 278.40674 280.07748 281.60901 282.97125 284.15439 285.20493 286.16602 287.04083
 287.83276 288.54294 289.16953 290.00494
 366.78100 356.33840 345.77380 334.64320 323.04960 311.24700 299.12040 286.92680
 274.64220 262.54260 250.55500 239.85940 229.98479 221.09219 213.27759 206.28299
 200.12039 195.06179 191.64719 189.69259 188.73299 188.80039 189.63879 190.95019
 192.67859 194.77699 197.04339 199.40579 201.85419 204.33759 206.42899 208.27439
 209.90379 211.05219 211.28458 211.51598 211.45638 211.16478 210.80118 210.43458
 210.05498 209.76838 209.57978 209.44718 209.37858 209.71298 210.10238 210.49478
 211.29118 212.47258 213.72598 215.51238 217.44378 219.49018 221.58858 223.67498
 225.73838 227.82577 229.92617 232.03557 234.16797 236.34337 238.60277 240.97617
 243.60057 245.85497 247.86037 249.62877 251.04917 252.17557 253.00097 253.32037
 253.36077 253.13817 252.50157 251.45297 250.06237 248.22677 246.13917 243.97556
 241.76996 239.57736 237.40076 235.24316 233.10656 230.97696 229.00636 227.16676
 225.45316 223.92856 222.56196 221.33736 220.22276 219.18616 218.29356 217.43796
 216.68336 215.86676 214.96816 214.33556 213.78896 213.19395 211.79776 212.66536
 214.45384 216.31003 217.40712 217.85040 218.76448 222.90729 228.43016 233.20540
 236.97255 240.74637 244.50934 248.16214 251.58495 254.54405 257.18503 259.79520
 262.35638 264.83902 267.26117 269.41489 271.45575 273.40024 275.02795 276.62463
 278.28986 279.96704 281.50058 282.86316 284.04654 285.09793 286.05887 286.93524
 287.72617 288.43506 289.06369 289.90015
 366.78100 356.33845 345.77391 334.64336 323.04982 311.24727 299.12073 286.92718
 274.64264 262.54309 250.55555 239.86000 229.98546 221.09291 213.27837 206.28382
 200.12128 195.06273 191.64819 189.69364 188.73410 188.80155 189.64001 190.95146
 192.67992 194.77837 197.04482 199.40728 201.85573 204.33919 206.43064 208.27610
 209.90555 211.05401 211.28646 211.51792 211.45837 211.16683 210.80328 210.43674
 210.05719 209.77065 209.58210 209.44956 209.38101 209.71547 210.10492 210.49738
 211.29383 212.47528 213.72874 215.51519 217.44665 219.49310 221.59156 223.67801
 225.74147 227.82892 229.92938 232.03883 234.17129 236.34674 238.60620 240.97965
 243.60411 245.85856 247.86402 249.63247 251.05293 252.17938 253.00484 253.32429
 253.36475 253.14220 252.50565 251.45711 250.06656 248.23102 246.14347 243.97993
 241.77438 239.58184 237.40529 235.24775 233.11120 230.98166 229.01111 227.17157
 225.45802 223.93348 222.56693 221.34239 220.22784 219.19130 218.29875 217.44321
 216.68866 215.87211 214.97357 214.34102 213.79448 213.21326 211.85760 212.75648
 214.56184 216.38609 217.48026 217.94424 218.84364 222.89572 228.37553 233.12581
 236.87445 240.64499 244.41260 248.04991 251.39848 254.32449 257.02179 259.71494
 262.22366 264.65213 267.09619 269.29297 271.34702 273.28659 274.90323 276.49527
 278.17615 279.85925 281.40125 282.76544 283.95056 285.00235 285.96542 286.84286
 287.63712 288.35083 288.98938 289.82556
 366.78100 356.33831 345.77363 334.64294 323.04925 311.24657 299.11988 286.92619
 274.64150 262.54182 250.55413 239.85844 229.98376 221.09107 213.27638 206.28170
 200.11901 195.06032 191.64563 189.69095 188.73126 188.79857 189.63689 190.94820
 192.67651 194.77483 197.04114 199.40345 201.85177 204.33508 206.42639 208.27170
 209.90102 211.04933 211.28164 211.51296 211.45327 211.16158 210.79790 210.43121
 210.05152 209.76483 209.57615 209.44346 209.37477 209.70909 210.09840 210.49071
 211.28703 212.46834 213.72165 215.50797 217.43928 219.48559 221.58390 223.67022
 225.73353 227.82084 229.92116 232.03047 234.16278 236.33810 238.59741 240.97072
 243.59503 245.84935 247.85466 249.62297 251.04329 252.16960 252.99491 253.31423
 253.35454 253.13185 252.49516 251.44648 250.05579 248.22010 246.13242 243.96873
 241.76304 239.57036 237.39367 235.23598 233.09930 230.96961 228.99892 227.15923
 225.44555 223.92086 222.55417 221.32949 220.21480 219.17811 218.28543 217.42974
 216.67505 215.85836 214.95968 214.32699 213.78030 213.22275 211.93079 212.85934
 214.65208 216.43794 217.55946 218.05128 219.00325 222.88095 228.32970 233.05682
 236.77776 240.54785 244.31841 247.94402 251.21619 254.10768 256.86172 259.63455
 262.09799 264.43121 266.95221 269.19312 271.26251 273.17850 274.81787 276.41821
 278.09183 279.74335 281.26953 282.63098 283.81464 284.86484 285.82666 286.70383
 287.50018 288.21725 288.87677 289.72781
 366.78100 356.33763 345.77226 334.64090 323.04653 311.24316 299.11579 286.92143
 274.63606 262.53569 250.54732 239.85096 229.97559 221.08222 213.26685 206.27149
 200.10812 195.04875 191.63338 189.67801 188.71765 188.78428 189.62191 190.93254
 192.66018 194.75781 197.02344 199.38507 201.83271 204.31534 206.40597 208.25060
 209.87924 211.02687 211.25850 211.48913 211.42876 211.13640 210.77203 210.40466
 210.02429 209.73693 209.54756 209.41419 209.34482 209.67846 210.06709 210.45872
 211.25435 212.43498 213.68762 215.47325 217.40388 219.44951 221.54715 223.63278
 225.69541 227.78204 229.88168 231.99031 234.12194 236.29657 238.55521 240.92784
 243.55147 245.80510 247.80973 249.57737 250.99700 252.12263 252.94726 253.26590
 253.30553 253.08216 252.44479 251.39543 250.00406 248.16769 246.07932 243.91496
 241.70859 239.51522 237.33785 235.17948 233.04212 230.91175 228.94038 227.10001
 225.38565 223.86028 222.49291 221.26754 220.15218 219.11481 218.22144 217.36507
 216.60971 215.79234 214.89297 214.25960 213.71223 213.19899 212.00145 212.99870
 214.76437 216.51305 217.64262 218.14534 219.14114 222.88617 228.30522 232.97804
 236.67514 240.43883 244.20967 247.80887 251.00319 253.87131 256.69305 259.52957
 261.93311 264.22855 266.74832 269.02618 271.12198 273.04196 274.67862 276.28513
 277.97995 279.64011 281.17630 282.53958 283.72385 284.77582 285.73764 286.61426
 287.40976 288.12329 288.76266 289.59756
 366.78100 356.33673 345.77046 334.63819 323.04292 311.23865 299.11038 286.91511
 274.62884 262.52757 250.53831 239.84104 229.96477 221.07050 213.25423 206.25796
 200.09369 195.03342 191.61715 189.66088 188.69961 188.76534 189.60207 190.91180
 192.63853 194.73526 196.99999 199.36072 201.80746 204.28919 206.37892 208.22265
 209.85038 210.99711 211.22784 211.45757 211.39630 211.10303 210.73776 210.36949
 209.98822 209.69995 209.50968 209.37541 209.30514 209.63787 210.02561 210.41634
 211.21107 212.39080 213.64253 215.42726 217.35699 219.40172 221.49845 223.58318
 225.64491 227.73064 229.82937 231.93710 234.06783 236.24156 238.49929 240.87102
 243.49376 245.74649 247.75022 249.51695 250.93568 252.06041 252.88414 253.20187
 253.24060 253.01633 252.37806 251.32779 249.93552 248.09825 246.00898 243.84371
 241.63644 239.44217 237.26391 235.10464 232.96637 230.83510 228.86283 227.02156
 225.30629 223.78002 222.41175 221.18548 220.06921 219.03094 218.13667 217.27940
 216.52313 215.70486 214.80459 214.17032 213.62206 213.16203 212.07855 213.14943
 214.86417 216.58487 217.72977 218.24573 219.30515 222.90045 228.28273 232.89432
 236.56563 240.32539 244.09285 247.65807 250.77885 253.62195 256.50290 259.39813
 261.76324 264.02884 266.51801 268.83066 270.95325 272.87726 274.53073 276.16550
 277.87775 279.56143 281.09973 282.46445 283.65009 284.70239 285.66611 286.54135
 287.33304 288.04626 288.67294 289.51419
 366.78100 356.33610 345.76920 334.63630 323.04040 311.23550 299.10660 286.91070
 274.62381 262.52191 250.53201 239.83411 229.95721 221.06231 213.24541 206.24851
 200.08361 195.02271 191.60581 189.64891 188.68701 188.75211 189.58821 190.89732
 192.62342 194.71952 196.98362 199.34372 201.78982 204.27092 206.36002 208.20312
 209.83022 210.97632 211.20642 211.43552 211.37362 211.07972 210.71383 210.34493
 209.96303 209.67413 209.48323 209.34833 209.27743 209.60953 209.99663 210.38673
 211.18083 212.35993 213.61103 215.39513 217.32423 219.36834 221.46444 223.54854
 225.60964 227.69474 229.79284 231.89994 234.03004 236.20314 238.46024 240.83134
 243.45344 245.70554 247.70864 249.47474 250.89285 252.01695 252.84005 253.15715
 253.19525 252.97035 252.33145 251.28055 249.88765 248.04975 245.95985 243.79395
 241.58605 239.39115 237.21225 235.05236 232.91346 230.78156 228.80866 226.96676
 225.25086 223.72396 222.35506 221.12816 220.01126 218.97236 218.07746 217.21956
 216.46266 215.64376 214.74287 214.10797 213.55907 213.14291 212.16148 213.27554
 214.93918 216.64915 217.82602 218.34724 219.44360 222.89993 228.25737 232.82219
 236.46794 240.22404 243.98750 247.52101 250.57283 253.38525 256.31430 259.27884
 261.61542 263.84045 266.31668 268.65451 270.80331 272.74295 274.40442 276.05484
 277.77823 279.47546 281.01566 282.38055 283.56744 284.61948 285.58237 286.45926
 287.25388 287.96402 288.59692 289.43698
 366.78100 356.33555 345.76809 334.63464 323.03819 311.23273 299.10328 286.90683
 274.61937 262.51692 250.52647 239.82801 229.95056 221.05511 213.23765 206.24020
 200.07475 195.01329 191.59584 189.63839 188.67593 188.74048 189.57603 190.88457
 192.61012 194.70567 196.96921 199.32876 201.77431 204.25485 206.34340 208.18595
 209.81249 210.95804 211.18759 211.41613 211.35368 211.05922 210.69277 210.32332
 209.94086 209.65141 209.45996 209.32450 209.25305 209.58460 209.97114 210.36069
 211.15424 212.33278 213.58333 215.36688 217.29542 219.33897 221.43452 223.51806
 225.57861 227.66316 229.76070 231.86725 233.99680 236.16934 238.42589 240.79644
 243.41798 245.66953 247.67208 249.43762 250.85517 251.97872 252.80126 253.11781
 253.15536 252.92990 252.29045 251.23900 249.84554 248.00709 245.91664 243.75018
 241.54173 239.34628 237.16682 235.00637 232.86692 230.73446 228.76101 226.91856
 225.20210 223.67465 222.30520 221.07774 219.96029 218.92084 218.02538 217.16693
 216.40948 215.59002 214.68857 214.05312 213.50366 213.13013 212.24794 213.39096
 215.00842 216.71042 217.91737 218.44206 219.60184 222.89935 228.23921 232.76137
 236.38120 240.13527 243.89119 247.38942 250.37555 253.16205 256.13348 259.15350
 261.46600 263.65411 266.12720 268.48657 270.66199 272.61880 274.29828 275.96323
 277.68268 279.39209 280.93460 282.30118 283.48810 284.54343 285.50961 286.39255
 287.19592 287.91602 288.55029 289.39188
 366.78100 356.33495 345.76691 334.63286 323.03581 311.22977 299.09972 286.90268
 274.61463 262.51158 250.52054 239.82149 229.94344 221.04740 213.22935 206.23130
 200.06526 195.00321 191.58517 189.62712 188.66407 188.72803 189.56298 190.87093
 192.59589 194.69084 196.95380 199.31275 201.75770 204.23766 206.32561 208.16756
 209.79352 210.93847 211.16742 211.39538 211.33233 211.03729 210.67024 210.30019
 209.91715 209.62710 209.43505 209.29901 209.22696 209.55791 209.94387 210.33282
 211.12578 212.30373 213.55368 215.33664 217.26459 219.30754 221.40250 223.48545
 225.54541 227.62936 229.72631 231.83227 233.96122 236.13317 238.38913 240.75908
 243.38003 245.63099 247.63294 249.39790 250.81485 251.93780 252.75976 253.07571
 253.11266 252.88662 252.24657 251.19452 249.80048 247.96143 245.87039 243.70334
 241.49429 239.29825 237.11820 234.95715 232.81711 230.68406 228.71002 226.86697
 225.14992 223.62188 222.25183 221.02378 219.90574 218.86569 217.96964 217.11060
 216.35255 215.53251 214.63046 213.99441 213.44437 213.11595 212.34003 213.51399
 215.06825 216.76280 218.00804 218.53583 219.76422 222.89647 228.21478 232.70123
 236.30031 240.05441 243.79860 247.25639 250.17674 252.93541 255.94055 259.00827
 261.31253 263.47385 265.93854 268.31763 270.52066 272.49469 274.18820 275.85394
 277.58615 279.31747 280.86160 282.22760 283.41708 284.47195 285.43909 286.32193
 287.12756 287.84912 288.48300 289.32913
 366.78100 356.33430 345.76559 334.63089 323.03318 311.22648 299.09577 286.89807
 274.60936 262.50566 250.51396 239.81425 229.93555 221.03884 213.22014 206.22143
 200.05473 194.99202 191.57332 189.61462 188.65091 188.71421 189.54850 190.85580
 192.58009 194.67439 196.93668 199.29498 201.73928 204.21857 206.30587 208.14716
 209.77246 210.91675 211.14505 211.37234 211.30864 211.01294 210.64523 210.27453
 209.89082 209.60012 209.40741 209.27071 209.19800 209.52830 209.91360 210.30189
 211.09419 212.27148 213.52078 215.30307 217.23037 219.27266 221.36696 223.44926
 225.50855 227.59185 229.68814 231.79344 233.92173 236.09303 238.34832 240.71762
 243.33792 245.58821 247.58951 249.35380 250.77010 251.89239 252.71369 253.02898
 253.06528 252.83858 252.19787 251.14517 249.75046 247.91076 245.81905 243.65135
 241.44164 239.24494 237.06424 234.90253 232.76183 230.62812 228.65342 226.80971
 225.09201 223.56330 222.19260 220.96390 219.84519 218.80449 217.90778 217.04808
 216.28937 215.46867 214.56596 213.92926 213.37856 213.09859 212.43713 213.64296
 215.12547 216.80797 218.10168 218.61697 219.95137 222.87411 228.19402 232.64595
 236.22041 239.97566 243.70558 247.12111 249.97905 252.71031 255.74123 258.84656
 261.15381 263.30215 265.75729 268.15591 270.38989 272.39154 274.10126 275.76685
 277.49609 279.23154 280.77725 282.14456 283.33279 284.38922 285.35529 286.24091
 287.04779 287.77142 288.40567 289.25122
 366.78100 356.33362 345.76425 334.62887 323.03050 311.22312 299.09175 286.89337
 274.60400 262.49962 250.50725 239.80687 229.92750 221.03012 213.21075 206.21137
 200.04400 194.98062 191.56125 189.60187 188.63750 188.70012 189.53375 190.84037
 192.56399 194.65762 196.91924 199.27687 201.72049 204.19912 206.28574 208.12637
 209.75099 210.89462 211.12224 211.34887 211.28449 210.98812 210.61974 210.24837
 209.86399 209.57262 209.37924 209.24187 209.16849 209.49811 209.88274 210.27036
 211.06199 212.23861 213.48724 215.26886 217.19549 219.23711 221.33074 223.41236
 225.47099 227.55361 229.64924 231.75386 233.88149 236.05211 238.30674 240.67536
 243.29499 245.54461 247.54524 249.30886 250.72448 251.84611 252.66673 252.98136
 253.01698 252.78961 252.14823 251.09486 249.69948 247.85911 245.76673 243.59836
 241.38798 239.19061 237.00923 234.84686 232.70548 230.57111 228.59573 226.75136
 225.03298 223.50361 222.13223 220.90285 219.78348 218.74210 217.84473 216.98435
 216.22498 215.40360 214.50023 213.86285 213.31148 213.08049 212.53474 213.78328
 215.18147 216.85049 218.18228 218.70770 220.11765 222.87988 228.15749 232.57812
 236.13928 239.90369 243.61980 246.98744 249.78070 252.48439 255.53297 258.66534
 260.98822 263.14191 265.58911 268.00568 270.27182 272.30359 274.03152 275.69785
 277.40994 279.14609 280.69308 282.06033 283.24991 284.30530 285.27383 286.15918
 286.96689 287.69257 288.32867 289.17380
 366.78100 356.33331 345.76361 334.62792 323.02923 311.22154 299.08984 286.89115
 274.60146 262.49677 250.50407 239.80338 229.92369 221.02599 213.20630 206.20661
 200.03892 194.97522 191.55553 189.59584 188.63114 188.69345 189.52676 190.83307
 192.55637 194.64968 196.91099 199.26830 201.71160 204.18991 206.27622 208.11652
 209.74083 210.88414 211.11145 211.33775 211.27306 210.97637 210.60768 210.23598
 209.85129 209.55960 209.36590 209.22821 209.15452 209.48383 209.86813 210.25544
 211.04675 212.22305 213.47136 215.25267 217.17898 219.22028 221.31359 223.39490
 225.45321 227.53551 229.63082 231.73513 233.86243 236.03274 238.28705 240.65536
 243.27466 245.52397 247.52428 249.28759 250.70289 251.82420 252.64451 252.95881
 252.99412 252.76643 252.12474 251.07104 249.67535 247.83466 245.74196 243.57327
 241.36258 239.16489 236.98319 234.82050 232.67881 230.54412 228.56842 226.72373
 225.00504 223.47534 222.10365 220.87396 219.75427 218.71257 217.81488 216.95419
 216.19450 215.37280 214.46911 213.83142 213.27972 213.07986 212.60770 213.95872
 215.24008 216.85355 218.28578 218.78078 220.34178 222.82591 228.13429 232.53659
 236.06691 239.83656 243.53029 246.83713 249.56398 252.24651 255.31345 258.46878
 260.82504 262.99890 265.43860 267.86768 270.16312 272.22574 273.96887 275.62836
 277.32797 279.06549 280.61349 281.98077 283.16895 284.22641 285.19595 286.08200
 286.89175 287.62015 288.25510 289.10052
 366.78100 356.33237 345.76174 334.62510 323.02547 311.21684 299.08421 286.88457
 274.59394 262.48831 250.49468 239.79304 229.91241 221.01378 213.19315 206.19251
 200.02388 194.95925 191.53862 189.57798 188.61235 188.67372 189.50609 190.81145
 192.53382 194.62619 196.88656 199.24293 201.68529 204.16266 206.24803 208.08740
 209.71076 210.85313 211.07950 211.30487 211.23923 210.94160 210.57197 210.19934
 209.81370 209.52107 209.32644 209.18781 209.11317 209.44154 209.82491 210.21128
 211.00165 212.17701 213.42438 215.20475 217.13012 219.17048 221.26285 223.34322
 225.40059 227.48195 229.57632 231.67969 233.80606 235.97542 238.22879 240.59616
 243.21453 245.46289 247.46226 249.22463 250.63900 251.75936 252.57873 252.89210
 252.92647 252.69784 252.05520 251.00057 249.60394 247.76231 245.66867 243.49904
 241.28741 239.08878 236.90614 234.74251 232.59988 230.46425 228.48761 226.64198
 224.92235 223.39172 222.01908 220.78845 219.66782 218.62519 217.72655 216.86492
 216.10429 215.28166 214.37703 213.73839 213.18576 213.04903 212.72598 214.07932
 215.37700 216.87262 218.23364 218.90466 220.51175 222.95500 228.10670 232.45563
 235.96599 239.73984 243.41113 246.66060 249.33369 252.00732 255.09209 258.26807
 260.67142 262.87216 265.30203 267.74020 270.06335 272.15997 273.91992 275.57358
 277.25055 278.98471 280.53207 281.89951 283.08875 284.14520 285.11584 286.00241
 286.81335 287.54126 288.17944 289.02341
 366.78100 356.33123 345.75945 334.62168 323.02090 311.21113 299.07735 286.87658
 274.58480 262.47803 250.48325 239.78048 229.89870 220.99893 213.17715 206.17538
 200.00560 194.93983 191.51805 189.55628 188.58950 188.64973 189.48095 190.78518
 192.50640 194.59763 196.85685 199.21208 201.65331 204.12953 206.21376 208.05198
 209.67421 210.81543 211.04066 211.26488 211.19811 210.89933 210.52856 210.15478
 209.76801 209.47423 209.27846 209.13868 209.06291 209.39013 209.77236 210.15758
 210.94681 212.12103 213.36726 215.14648 217.07071 219.10993 221.20116 223.28038
 225.33661 227.41684 229.51006 231.61229 233.73751 235.90574 238.15796 240.52419
 243.14141 245.38864 247.38686 249.14809 250.56131 251.68054 252.49876 252.81099
 252.84421 252.61444 251.97066 250.91489 249.51711 247.67434 245.57956 243.40879
 241.19601 238.99624 236.81246 234.64769 232.50392 230.36714 228.38937 226.54259
 224.82182 223.29004 221.91627 220.68449 219.56272 218.51894 217.61917 216.75639
 215.99462 215.17084 214.26507 213.62529 213.07152 213.00897 212.86118 214.20120
 215.47125 216.90222 218.24272 219.06270 220.61290 223.12199 228.06183 232.34737
 235.84962 239.63139 243.28447 246.48222 249.10870 251.77426 254.87135 258.06085
 260.51672 262.74927 265.17111 267.61642 269.96677 272.09915 273.87842 275.52994
 277.17963 278.91083 280.45871 281.82639 283.01593 284.07294 285.04318 285.93228
 286.74475 287.47446 288.11169 288.96033
 366.78100 356.33046 345.75791 334.61937 323.01783 311.20728 299.07274 286.87120
 274.57865 262.47111 250.47556 239.77202 229.88948 220.98893 213.16639 206.16385
 199.99330 194.92676 191.50422 189.54167 188.57413 188.63359 189.46404 190.76750
 192.48795 194.57841 196.83687 199.19132 201.63178 204.10724 206.19069 208.02815
 209.64961 210.79006 211.01452 211.23798 211.17043 210.87089 210.49934 210.12480
 209.73726 209.44271 209.24617 209.10563 209.02908 209.35554 209.73700 210.12145
 210.90991 212.08337 213.32882 215.10728 217.03073 219.06919 221.15965 223.23810
 225.29356 227.37302 229.46547 231.56693 233.69139 235.85884 238.11030 240.47576
 243.09221 245.33867 247.33613 249.09658 250.50904 251.62749 252.44495 252.75641
 252.78886 252.55832 251.91378 250.85723 249.45869 247.61515 245.51960 243.34806
 241.13452 238.93397 236.74943 234.58388 232.43934 230.30180 228.32325 226.47571
 224.75417 223.22162 221.84708 220.61454 219.49199 218.44745 217.54691 216.68336
 215.92082 215.09627 214.18973 213.54919 212.99464 212.98810 212.97261 214.35606
 215.54089 216.93269 218.30353 219.21758 220.70012 223.28514 228.00797 232.23184
 235.73441 239.52615 243.15627 246.29617 248.87425 251.53340 254.64134 257.83862
 260.35281 262.62720 265.04718 267.49957 269.87436 272.04239 273.84299 275.49466
 277.12134 278.83594 280.38235 281.74863 282.93573 283.99216 284.96149 285.84717
 286.65710 287.38254 288.00150 288.84024
 366.78100 356.32993 345.75686 334.61780 323.01573 311.20466 299.06959 286.86753
 274.57446 262.46639 250.47032 239.76626 229.88319 220.98212 213.15905 206.15598
 199.98492 194.91785 191.49478 189.53171 188.56365 188.62258 189.45251 190.75544
 192.47538 194.56531 196.82324 199.17717 201.61710 204.09204 206.17497 208.01190
 209.63283 210.77277 210.99670 211.21963 211.15156 210.85150 210.47943 210.10436
 209.71629 209.42122 209.22416 209.08309 209.00602 209.33195 209.71289 210.09682
 210.88475 212.05768 213.30262 215.08055 217.00348 219.04141 221.13134 223.20928
 225.26421 227.34314 229.43507 231.53601 233.65994 235.82687 238.07780 240.44274
 243.05867 245.30460 247.30153 249.06146 250.47340 251.59133 252.40826 252.71919
 252.75113 252.52006 251.87499 250.81792 249.41885 247.57479 245.47872 243.30665
 241.09258 238.89152 236.70645 234.54038 232.39531 230.25725 228.27818 226.43011
 224.70804 223.17497 221.79991 220.56684 219.44377 218.39870 217.49764 216.63357
 215.87050 215.04543 214.13837 213.49730 212.94223 212.98061 213.07130 214.51701
 215.62971 216.96843 218.37671 219.37151 220.81845 223.42918 227.95421 232.11801
 235.62444 239.42113 243.01506 246.08875 248.61989 251.27928 254.40390 257.60934
 260.18222 262.50333 264.91919 267.37793 269.77737 271.97937 273.80765 275.47354
 277.09894 278.75726 280.29901 281.66553 282.85263 283.90671 284.87369 285.75952
 286.56744 287.29565 287.91382 288.74570
 366.78100 356.32962 345.75625 334.61687 323.01450 311.20312 299.06775 286.86537
 274.57200 262.46362 250.46724 239.76287 229.87949 220.97812 213.15474 206.15137
 199.97999 194.91261 191.48924 189.52586 188.55749 188.61611 189.44574 190.74836
 192.46799 194.55761 196.81523 199.16886 201.60848 204.08311 206.16573 208.00236
 209.62298 210.76260 210.98623 211.20885 211.14048 210.84010 210.46773 210.09235
 209.70398 209.40860 209.21122 209.06985 208.99247 209.31810 209.69872 210.08235
 210.86997 212.04259 213.28722 215.06484 216.98747 219.02509 221.11472 223.19234
 225.24697 227.32559 229.41721 231.51784 233.64146 235.80809 238.05871 240.42334
 243.03896 245.28458 247.28121 249.04083 250.45246 251.57008 252.38671 252.69733
 252.72896 252.49758 251.85220 250.79483 249.39545 247.55108 245.45470 243.28233
 241.06795 238.86657 236.68120 234.51482 232.36945 230.23107 228.25170 226.40332
 224.68095 223.14757 221.77219 220.53882 219.41544 218.37007 217.46869 216.60432
 215.84094 215.01556 214.10819 213.46681 212.91144 212.98773 213.16933 214.65359
 215.73515 217.01025 218.45219 219.52763 220.95760 223.54005 227.89217 232.01801
 235.51649 239.31163 242.85858 245.86314 248.34419 251.00465 254.15002 257.37344
 260.00162 262.31641 264.83661 267.30008 269.71082 271.93774 273.76920 275.42230
 277.05081 278.69016 280.21085 281.57480 282.75879 283.80963 284.77328 285.65396
 286.45224 287.16376 287.77682 288.55008
 366.78100 356.33003 345.75707 334.61810 323.01614 311.20517 299.07021 286.86824
 274.57528 262.46731 250.47135 239.76738 229.88442 220.98345 213.16049 206.15752
 199.98656 194.91959 191.49663 189.53366 188.56570 188.62473 189.45477 190.75780
 192.47784 194.56787 196.82591 199.17994 201.61998 204.09501 206.17805 208.01508
 209.63611 210.77615 211.00018 211.22322 211.15525 210.85529 210.48332 210.10836
 209.72039 209.42543 209.22846 209.08750 209.01053 209.33657 209.71760 210.10164
 210.88967 212.06271 213.30774 215.08578 217.00881 219.04685 221.13688 223.21492
 225.26995 227.34899 229.44102 231.54206 233.66609 235.83313 238.08416 240.44920
 243.06523 245.31126 247.30830 249.06833 250.48037 251.59840 252.41544 252.72647
 252.75851 252.52754 251.88258 250.82561 249.42665 247.58268 245.48672 243.31475
 241.10079 238.89982 236.71486 234.54889 232.40393 230.26596 228.28700 226.43903
 224.71707 223.18410 221.80914 220.57617 219.45321 218.40824 217.50728 216.64331
 215.88034 215.05538 214.14841 213.50745 212.95248 213.03645 213.24738 214.75388
 215.84842 217.05051 218.52335 219.67822 221.10126 223.62985 227.82527 231.92970
 235.40810 239.19125 242.68166 245.62344 248.06891 250.73682 253.90698 257.15823
 259.85410 262.24939 264.71677 267.18283 269.60156 271.83685 273.70663 275.38425
 277.02335 278.63461 280.17825 281.54514 282.73080 283.78198 284.74612 285.62759
 286.42856 287.15256 287.79666 288.61749
 366.78100 356.33096 345.75891 334.62087 323.01982 311.20978 299.07574 286.87469
 274.58265 262.47560 250.48056 239.77752 229.89547 220.99543 213.17338 206.17134
 200.00130 194.93525 191.51321 189.55116 188.58412 188.64408 189.47503 190.77899
 192.49994 194.59090 196.84986 199.20481 201.64577 204.12172 206.20568 208.04364
 209.66559 210.80655 211.03150 211.25546 211.18842 210.88937 210.51833 210.14428
 209.75724 209.46320 209.26715 209.12711 209.05106 209.37802 209.75998 210.14493
 210.93389 212.10784 213.35380 215.13276 217.05671 219.09567 221.18662 223.26558
 225.32154 227.40149 229.49445 231.59640 233.72136 235.88932 238.14127 240.50723
 243.12418 245.37114 247.36910 249.13005 250.54301 251.66196 252.47992 252.79188
 252.82483 252.59479 251.95075 250.89470 249.49666 247.65361 245.55857 243.38753
 241.17448 238.97444 236.79039 234.62535 232.48131 230.34426 228.36622 226.51917
 224.79813 223.26609 221.89204 220.66000 219.53795 218.49391 217.59387 216.73082
 215.96878 215.14473 214.23869 213.59865 213.04460 213.11647 213.30768 214.83461
 215.94374 217.07898 218.59274 219.82796 221.25291 223.71678 227.76666 231.84514
 235.29880 239.05212 242.47711 245.36533 247.80324 250.50430 253.71548 256.97791
 259.77429 262.29694 264.69727 267.14178 269.55826 271.79440 273.69177 275.39236
 277.02710 278.62772 280.15265 281.51453 282.69867 283.74823 284.70953 285.59061
 286.39731 287.15256 287.82346 288.67844
 366.78100 356.33112 345.75925 334.62137 323.02049 311.21062 299.07674 286.87586
 274.58399 262.47711 250.48223 239.77936 229.89748 220.99760 213.17573 206.17385
 200.00397 194.93810 191.51622 189.55434 188.58747 188.64759 189.47871 190.78283
 192.50396 194.59508 196.85420 199.20933 201.65045 204.12657 206.21070 208.04882
 209.67094 210.81207 211.03719 211.26131 211.19444 210.89556 210.52468 210.15081
 209.76393 209.47005 209.27418 209.13430 209.05842 209.38555 209.76767 210.15279
 210.94192 212.11604 213.36216 215.14129 217.06541 219.10453 221.19566 223.27478
 225.33090 227.41103 229.50415 231.60627 233.73140 235.89952 238.15164 240.51776
 243.13489 245.38201 247.38013 249.14126 250.55438 251.67350 252.49163 252.80375
 252.83687 252.60700 251.96312 250.90724 249.50937 247.66649 245.57161 243.40074
 241.18786 238.98798 236.80411 234.63923 232.49535 230.35848 228.38060 226.53372
 224.81285 223.28097 221.90709 220.67522 219.55334 218.50946 217.60959 216.74671
 215.98483 215.16096 214.25508 213.61520 213.06133 213.16229 213.43141 214.88341
 215.99857 217.10635 218.67438 220.00340 221.44824 223.82607 227.72691 231.77617
 235.18637 238.89261 242.24565 245.08420 247.54507 250.30400 253.53030 256.79758
 259.68243 262.25302 264.70154 267.15460 269.55670 271.77307 273.68246 275.38751
 276.99799 278.58472 280.10977 281.47421 282.65900 283.71146 284.68381 285.57596
 286.42465 287.21771 287.91049 288.79340
 366.78100 356.32979 345.75658 334.61737 323.01516 311.20394 299.06873 286.86652
 274.57331 262.46510 250.46889 239.76468 229.88147 220.98026 213.15704 206.15383
 199.98262 194.91541 191.49220 189.52899 188.56078 188.61957 189.44936 190.75214
 192.47193 194.56172 196.81951 199.17330 201.61309 204.08788 206.17067 208.00745
 209.62824 210.76803 210.99182 211.21461 211.14640 210.84619 210.47398 210.09877
 209.71055 209.41534 209.21813 209.07692 208.99971 209.32550 209.70629 210.09008
 210.87787 212.05065 213.29544 215.07323 216.99602 219.03381 221.12360 223.20139
 225.25618 227.33497 229.42675 231.52754 233.65133 235.81812 238.06891 240.43370
 243.04949 245.29528 247.29207 249.05185 250.46364 251.58143 252.39822 252.70901
 252.74080 252.50959 251.86438 250.80717 249.40795 247.56374 245.46753 243.29532
 241.08111 238.87990 236.69469 234.52848 232.38327 230.24505 228.26584 226.41763
 224.69542 223.16221 221.78700 220.55379 219.43058 218.38536 217.48415 216.61994
 215.85673 215.03152 214.12431 213.48310 212.92789 213.13382 213.65613 214.89708
 216.00957 217.11786 218.71710 220.16183 221.68285 223.98167 227.73111 231.74019
 235.07759 238.70428 241.97452 244.76938 247.28799 250.10304 253.34366 256.61423
 259.55725 262.19675 264.70438 267.16467 269.55795 271.77032 273.70239 275.40863
 277.03180 278.58929 280.09839 281.46655 282.65692 283.72244 284.71057 285.64871
 286.53818 287.33026 288.02222 288.90405
 366.78100 356.32917 345.75534 334.61552 323.01269 311.20086 299.06503 286.86221
 274.56838 262.45955 250.46272 239.75790 229.87407 220.97224 213.14841 206.14459
 199.97276 194.90493 191.48110 189.51728 188.54845 188.60662 189.43579 190.73797
 192.45714 194.54631 196.80348 199.15666 201.59583 204.07000 206.15217 207.98834
 209.60852 210.74769 210.97086 211.19303 211.12421 210.82338 210.45055 210.07472
 209.68590 209.39007 209.19224 209.05041 208.97259 209.29776 209.67793 210.06110
 210.84828 212.02045 213.26462 215.04179 216.96397 219.00114 221.09031 223.16748
 225.22166 227.29983 229.39100 231.49117 233.61434 235.78052 238.03069 240.39486
 243.01003 245.25521 247.25138 249.01055 250.42172 251.53890 252.35507 252.66524
 252.69641 252.46459 251.81876 250.76093 249.36110 247.51628 245.41945 243.24662
 241.03179 238.82997 236.64414 234.47731 232.33148 230.19266 228.21283 226.36400
 224.64117 223.10734 221.73152 220.49769 219.37386 218.32803 217.42621 216.56138
 215.79755 214.97172 214.06390 213.42207 212.86624 213.13443 213.81367 215.03168
 215.97810 216.98456 218.69087 220.30231 221.92261 224.15663 227.77496 231.72115
 234.99428 238.52454 241.69991 244.43852 247.00581 249.88945 253.17007 256.46808
 259.47311 262.19229 264.75238 267.21542 269.59000 271.79752 273.73694 275.46475
 277.07010 278.63507 280.18665 281.56015 282.76294 283.84537 284.89432 285.89001
 286.78552 287.58298 288.27960 289.16739
 366.78100 356.33054 345.75808 334.61963 323.01817 311.20771 299.07325 286.87180
 274.57934 262.47188 250.47642 239.77296 229.89051 220.99005 213.16759 206.16513
 199.99468 194.92822 191.50576 189.54330 188.57584 188.63539 189.46593 190.76947
 192.49001 194.58055 196.83910 199.19364 201.63418 204.10972 206.19327 208.03081
 209.65235 210.79289 211.01743 211.24098 211.17352 210.87406 210.50260 210.12815
 209.74069 209.44623 209.24977 209.10931 209.03286 209.35940 209.74094 210.12548
 210.91403 212.08757 213.33311 215.11165 217.03519 219.07374 221.16428 223.24282
 225.29836 227.37791 229.47045 231.57199 233.69653 235.86407 238.11562 240.48116
 243.09770 245.34424 247.34178 249.10233 250.51487 251.63341 252.45095 252.76250
 252.79504 252.56458 251.92012 250.86366 249.46521 247.62175 245.52629 243.35483
 241.14138 238.94092 236.75646 234.59100 232.44654 230.30909 228.33063 226.48317
 224.76171 223.22926 221.85480 220.62234 219.49988 218.45542 217.55497 216.69151
 215.92905 215.10459 214.19814 213.55768 213.00322 213.23018 213.84219 215.23901
 216.02538 216.93332 218.76024 220.48692 222.15588 224.33401 227.84099 231.70917
 234.92615 238.34982 241.41475 244.09190 246.69579 249.65221 252.99188 256.34641
 259.42380 262.22739 264.84122 267.31088 269.67297 271.87256 273.83694 275.57248
 277.17676 278.73807 280.29382 281.66873 282.87842 283.97385 285.07486 286.07233
 286.96939 287.76825 288.46613 289.35547
 366.78100 356.33140 345.75980 334.62219 323.02159 311.21199 299.07839 286.87778
 274.58618 262.47958 250.48498 239.78238 229.90077 221.00117 213.17957 206.17797
 200.00836 194.94276 191.52116 189.55956 188.59296 188.65335 189.48475 190.78915
 192.51055 194.60194 196.86134 199.21674 201.65814 204.13453 206.21893 208.05733
 209.67973 210.82113 211.04652 211.27092 211.20432 210.90572 210.53511 210.16151
 209.77491 209.48131 209.28571 209.14610 209.07050 209.39790 209.78030 210.16569
 210.95509 212.12949 213.37589 215.15529 217.07968 219.11908 221.21048 223.28988
 225.34627 227.42667 229.52007 231.62247 233.74787 235.91626 238.16866 240.53506
 243.15246 245.39985 247.39825 249.15965 250.57305 251.69245 252.51084 252.82324
 252.85664 252.62704 251.98343 250.92783 249.53023 247.68763 245.59302 243.42242
 241.20982 239.01022 236.82662 234.66201 232.51841 230.38181 228.40421 226.55760
 224.83700 223.30540 221.93180 220.70020 219.57859 218.53499 217.63539 216.77279
 216.01118 215.18758 214.28198 213.64238 213.08878 213.30415 213.90213 215.35834
 216.14038 217.06157 218.89352 220.67027 222.33977 224.46487 227.90054 231.67213
 234.82588 238.11578 241.04779 243.66888 246.32571 249.37131 252.77287 256.17719
 259.33127 262.21744 264.89676 267.41504 269.78915 271.99747 273.98862 275.73929
 277.32837 278.85211 280.40671 281.78671 283.00217 284.13635 285.23718 286.23444
 287.13135 287.93005 288.62781 289.51700
 366.78100 356.33151 345.76002 334.62253 323.02204 311.21255 299.07906 286.87857
 274.58708 262.48059 250.48611 239.78362 229.90213 221.00264 213.18115 206.17966
 200.01017 194.94468 191.52319 189.56170 188.59521 188.65572 189.48723 190.79174
 192.51325 194.60476 196.86427 199.21978 201.66129 204.13781 206.22232 208.06083
 209.68334 210.82485 211.05036 211.27487 211.20838 210.90989 210.53940 210.16591
 209.77942 209.48593 209.29044 209.15095 209.07546 209.40297 209.78548 210.17099
 210.96050 212.13502 213.38153 215.16104 217.08555 219.12506 221.21657 223.29608
 225.35259 227.43310 229.52661 231.62912 233.75463 235.92314 238.17565 240.54216
 243.15967 245.40718 247.40569 249.16720 250.58072 251.70023 252.51874 252.83125
 252.86476 252.63527 251.99178 250.93629 249.53880 247.69631 245.60182 243.43133
 241.21884 239.01935 236.83586 234.67137 232.52788 230.39139 228.41390 226.56742
 224.84693 223.31544 221.94195 220.71046 219.58897 218.54548 217.64599 216.78350
 216.02201 215.19852 214.29303 213.65354 213.10005 213.33946 213.99280 215.45789
 216.27333 217.26323 219.06793 220.82837 222.45630 224.56078 227.96217 231.62987
 234.71547 237.85587 240.64040 243.19258 245.89803 249.04135 252.51053 255.95123
 259.15607 262.11630 264.86496 267.44815 269.85403 272.06662 274.06042 275.82486
 277.41800 278.98175 280.54007 281.92337 283.14090 284.30157 285.42151 286.43610
 287.34860 288.16119 288.87106 289.77570
 366.78100 356.33091 345.75882 334.62073 323.01964 311.20955 299.07546 286.87437
 274.58228 262.47519 250.48010 239.77701 229.89492 220.99484 213.17275 206.17066
 200.00057 194.93448 191.51239 189.55030 188.58321 188.64312 189.47403 190.77794
 192.49885 194.58976 196.84867 199.20358 201.64449 204.12040 206.20431 208.04222
 209.66413 210.80504 211.02995 211.25386 211.18677 210.88768 210.51659 210.14251
 209.75542 209.46133 209.26524 209.12515 209.04906 209.37597 209.75788 210.14279
 210.93170 212.10561 213.35152 215.13043 217.05434 219.09325 221.18416 223.26307
 225.31898 227.39889 229.49180 231.59371 233.71862 235.88653 238.13844 240.50435
 243.12126 245.36818 247.36609 249.12700 250.53991 251.65882 252.47673 252.78864
 252.82155 252.59146 251.94737 250.89128 249.49319 247.65010 245.55501 243.38392
 241.17083 238.97074 236.78665 234.62156 232.47747 230.34038 228.36229 226.51520
 224.79411 223.26202 221.88794 220.65585 219.53376 218.48967 217.58958 216.72649
 215.96440 215.14031 214.23422 213.59413 213.04004 213.32750 214.07706 215.63426
 216.41547 217.29582 219.03601 220.84793 222.54768 224.67125 228.04280 231.60794
 234.63626 237.63019 240.25819 242.73721 245.49458 248.73479 252.27364 255.75208
 258.99261 261.99127 264.78406 267.39423 269.80414 272.00275 273.99133 275.78049
 277.42007 279.04172 280.60141 281.97803 283.18591 284.27695 285.33743 286.31927
 287.20233 287.98871 288.67566 289.55109
 366.78100 356.32951 345.75601 334.61652 323.01402 311.20253 299.06703 286.86454
 274.57104 262.46255 250.46605 239.76156 229.87806 220.97657 213.15307 206.14958
 199.97808 194.91059 191.48709 189.52360 188.55510 188.61361 189.44311 190.74562
 192.46512 194.55463 196.81213 199.16564 201.60514 204.07965 206.16215 207.99866
 209.61916 210.75867 210.98217 211.20468 211.13618 210.83569 210.46319 210.08770
 209.69920 209.40371 209.20621 209.06472 208.98722 209.31273 209.69323 210.07674
 210.86424 212.03675 213.28125 215.05876 216.98126 219.01877 221.10827 223.18578
 225.24028 227.31879 229.41029 231.51080 233.63430 235.80081 238.05131 240.41582
 243.03132 245.27683 247.27333 249.03284 250.44434 251.56185 252.37835 252.68886
 252.72036 252.48887 251.84337 250.78588 249.38638 247.54189 245.44539 243.27290
 241.05840 238.85691 236.67141 234.50492 232.35942 230.22093 228.24143 226.39294
 224.67044 223.13695 221.76146 220.52796 219.40447 218.35897 217.45748 216.59298
 215.82949 215.00399 214.09650 213.45500 212.89951 213.27365 214.21336 215.76759
 216.48102 217.53595 219.18004 220.82965 222.63173 224.78319 228.07399 231.59943
 234.54922 237.38789 239.85201 242.27599 245.10938 248.46765 252.10092 255.63725
 258.90414 261.93182 264.74619 267.35904 269.74603 271.90466 273.88141 275.71146
 277.42441 279.06021 280.61880 281.99155 283.19183 284.27454 285.31104 286.28879
 287.16821 287.95132 288.63544 289.50726
 366.78100 356.33014 345.75728 334.61842 323.01656 311.20570 299.07084 286.86898
 274.57612 262.46826 250.47240 239.76854 229.88568 220.98482 213.16196 206.15910
 199.98824 194.92138 191.49853 189.53567 188.56781 188.62695 189.45709 190.76023
 192.48037 194.57051 196.82865 199.18279 201.62293 204.09807 206.18121 208.01835
 209.63949 210.77963 211.00377 211.22691 211.15905 210.85919 210.48733 210.11247
 209.72461 209.42975 209.23289 209.09203 209.01517 209.34131 209.72245 210.10659
 210.89473 212.06787 213.31301 215.09115 217.01429 219.05243 221.14258 223.22072
 225.27586 227.35500 229.44714 231.54828 233.67242 235.83956 238.09070 240.45584
 243.07198 245.31812 247.31526 249.07540 250.48754 251.60568 252.42282 252.73396
 252.76610 252.53524 251.89038 250.83352 249.43466 247.59080 245.49494 243.32308
 241.10922 238.90836 236.72350 234.55764 232.41278 230.27492 228.29606 226.44820
 224.72634 223.19348 221.81863 220.58577 219.46291 218.41805 217.51719 216.65333
 215.89047 215.06561 214.15875 213.51789 212.96303 213.33409 214.29074 215.78700
 216.68892 217.85995 219.45882 221.02934 222.80510 224.91766 228.08441 231.62599
 234.43225 237.10327 239.42899 241.82867 244.74326 248.21727 251.93602 255.51854
 258.83356 261.88040 264.73129 267.35757 269.71585 271.81946 273.76065 275.60120
 277.42499 279.20892 280.77502 282.16861 283.40961 284.57889 285.65887 286.63730
 287.51727 288.30087 288.98541 289.85782
 366.78100 356.32958 345.75615 334.61673 323.01430 311.20288 299.06745 286.86503
 274.57161 262.46318 250.46676 239.76233 229.87891 220.97748 213.15406 206.15064
 199.97921 194.91179 191.48836 189.52494 188.55651 188.61509 189.44467 190.74724
 192.46682 194.55639 196.81397 199.16754 201.60712 204.08170 206.16427 208.00085
 209.62142 210.76100 210.98457 211.20715 211.13873 210.83830 210.46588 210.09045
 209.70203 209.40660 209.20918 209.06776 208.99033 209.31591 209.69648 210.08006
 210.86763 212.04021 213.28479 215.06236 216.98494 219.02251 221.11209 223.18966
 225.24424 227.32282 229.41439 231.51497 233.63854 235.80512 238.05569 240.42027
 243.03585 245.28142 247.27800 249.03757 250.44915 251.56672 252.38330 252.69388
 252.72545 252.49403 251.84860 250.79118 249.39175 247.54733 245.45090 243.27848
 241.06406 238.86263 236.67721 234.51078 232.36536 230.22693 228.24751 226.39909
 224.67666 223.14324 221.76781 220.53439 219.41096 218.36554 217.46412 216.59969
 215.83627 215.01084 214.10342 213.46199 212.90657 213.33437 214.43324 215.85742
 216.80826 218.08643 219.70760 221.26543 222.98039 225.03543 228.18808 231.67265
 234.37296 236.87236 239.05461 241.38840 244.35094 247.92976 251.74706 255.37645
 258.69263 261.81265 264.69965 267.34644 269.68997 271.76224 273.68555 275.53738
 277.53690 279.34784 280.93967 282.38159 283.73511 284.93265 286.02521 287.01498
 287.90518 288.69791 289.39041 290.27295
 366.78100 356.33062 345.75823 334.61985 323.01847 311.20809 299.07370 286.87232
 274.57994 262.47256 250.47717 239.77379 229.89141 220.99103 213.16864 206.16626
 199.99588 194.92950 191.50711 189.54473 188.57735 188.63697 189.46758 190.77120
 192.49182 194.58244 196.84105 199.19567 201.63629 204.11191 206.19552 208.03314
 209.65476 210.79537 211.01999 211.24361 211.17623 210.87684 210.50546 210.13108
 209.74370 209.44931 209.25293 209.11255 209.03617 209.36278 209.74440 210.12902
 210.91764 212.09125 213.33687 215.11549 217.03911 219.07772 221.16834 223.24696
 225.30258 227.38219 229.47481 231.57643 233.70105 235.86866 238.12028 240.48590
 243.10252 245.34913 247.34675 249.10737 250.51998 251.63860 252.45622 252.76784
 252.80045 252.57007 251.92569 250.86931 249.47092 247.62754 245.53216 243.36078
 241.14739 238.94701 236.76263 234.59725 232.45286 230.31548 228.33710 226.48972
 224.76833 223.23595 221.86157 220.62919 219.50680 218.46242 217.56204 216.69866
 215.93627 215.11189 214.20551 213.56512 213.01074 213.40805 214.50723 216.01677
 216.89484 218.23558 219.86769 221.45486 223.15840 225.10573 228.34361 231.67390
 234.35413 236.69559 238.70316 240.94545 244.01364 247.71573 251.60045 255.24637
 258.59500 261.74731 264.67664 267.33463 269.65530 271.68390 273.57663 275.61478
 277.72552 279.59271 281.36856 282.99820 284.40851 285.65625 286.79465 287.82596
 288.75351 289.57947 290.30103 291.22058
 366.78100 356.33226 345.76151 334.62477 323.02502 311.21628 299.08354 286.88379
 274.59305 262.48730 250.49356 239.79182 229.91107 221.01233 213.19158 206.19084
 200.02210 194.95735 191.53661 189.57587 188.61012 188.67138 189.50363 190.80889
 192.53115 194.62340 196.88366 199.23991 201.68217 204.15943 206.24468 208.08394
 209.70719 210.84945 211.07571 211.30096 211.23522 210.93747 210.56773 210.19499
 209.80924 209.51650 209.32175 209.18301 209.10827 209.43652 209.81978 210.20603
 210.99629 212.17155 213.41880 215.19906 217.12432 219.16457 221.25683 223.33708
 225.39434 227.47560 229.56985 231.67311 233.79936 235.96862 238.22188 240.58913
 243.20739 245.45564 247.45490 249.21716 250.63141 251.75167 252.57092 252.88418
 252.91844 252.68969 252.04695 250.99220 249.59546 247.75372 245.65997 243.49023
 241.27849 239.07974 236.89700 234.73325 232.59051 230.45477 228.47802 226.63228
 224.91253 223.38179 222.00905 220.77830 219.65756 218.61481 217.71607 216.85433
 216.09358 215.27084 214.36609 213.72735 213.17461 213.50630 214.55881 216.13808
 216.98796 218.34352 219.94539 221.59705 223.23682 225.11140 228.45642 231.62669
 234.22874 236.49835 238.44574 240.69481 243.77586 247.54175 251.50557 255.19453
 258.55359 261.70239 264.65500 267.33170 269.63269 271.57922 273.50360 275.90915
 278.11972 280.26462 282.14267 283.79175 285.21890 286.48154 287.63351 288.67712
 289.61575 290.45157 291.18176 292.11227
 366.78100 356.33188 345.76076 334.62364 323.02352 311.21440 299.08128 286.88116
 274.59004 262.48392 250.48980 239.78768 229.90656 221.00744 213.18632 206.18520
 200.01608 194.95096 191.52984 189.56872 188.60260 188.66348 189.49536 190.80024
 192.52212 194.61400 196.87388 199.22976 201.67164 204.14852 206.23340 208.07228
 209.69516 210.83704 211.06292 211.28780 211.22168 210.92356 210.55344 210.18032
 209.79420 209.50108 209.30596 209.16684 209.09172 209.41960 209.80248 210.18836
 210.97824 212.15312 213.40000 215.17988 217.10476 219.14464 221.23652 223.31640
 225.37328 227.45416 229.54804 231.65092 233.77680 235.94568 238.19856 240.56544
 243.18332 245.43120 247.43008 249.19196 250.60584 251.72572 252.54460 252.85748
 252.89136 252.66224 252.01912 250.96400 249.56687 247.72475 245.63063 243.46051
 241.24839 239.04927 236.86615 234.70203 232.55891 230.42279 228.44567 226.59955
 224.87943 223.34831 221.97519 220.74407 219.62295 218.57983 217.68071 216.81859
 216.05747 215.23435 214.32923 213.69011 213.13699 213.49200 214.56117 216.33340
 217.04999 218.34798 220.06769 221.63649 223.20793 225.33321 228.44778 231.68552
 234.19319 236.26767 238.04845 240.24133 243.47089 247.36852 251.36380 255.12157
 258.52267 261.70288 264.67148 267.30203 269.54846 271.57465 273.57043 275.86102
 277.98145 279.84940 281.65579 283.36847 284.85062 286.16193 287.35834 288.44217
 289.41696 290.28503 291.04337 292.00977
 366.78100 356.32788 345.75276 334.61163 323.00751 311.19439 299.05727 286.85314
 274.55802 262.44790 250.44978 239.74365 229.85853 220.95541 213.13029 206.12516
 199.95204 194.88292 191.45780 189.49267 188.52255 188.57943 189.40731 190.70818
 192.42606 194.51394 196.76982 199.12169 201.55957 204.03245 206.11333 207.94820
 209.56708 210.70496 210.92684 211.14771 211.07759 210.77547 210.40135 210.02422
 209.63410 209.33698 209.13786 208.99473 208.91561 209.23949 209.61837 210.00025
 210.78612 211.95700 213.19988 214.97576 216.89663 218.93251 221.02039 223.09627
 225.14914 227.22602 229.31590 231.41478 233.53665 235.70153 237.95041 240.31329
 242.92716 245.17104 247.16592 248.92380 250.33367 251.44955 252.26443 252.57331
 252.60318 252.37006 251.72294 250.66382 249.26269 247.41657 245.31845 243.14433
 240.92820 238.72508 236.53796 234.36984 232.22271 230.08259 228.10147 226.25135
 224.52722 222.99210 221.61498 220.37986 219.25473 218.20761 217.30449 216.43837
 215.67325 214.84612 213.93700 213.29388 212.73676 213.29352 214.66006 216.52994
 217.09599 218.00211 220.03040 221.63571 223.18214 225.27168 228.57242 231.41586
 233.96921 235.97314 237.75220 240.01770 243.24831 247.18980 251.23723 255.03629
 258.50253 261.70538 264.67059 267.31104 269.59402 271.65955 273.68182 275.69681
 277.66483 279.44833 281.00259 282.37866 283.58521 284.64587 285.62695 286.57535
 287.42834 288.18793 288.85150 289.69711
 366.78100 356.32566 345.74832 334.60498 322.99864 311.18330 299.04396 286.83763
 274.54029 262.42795 250.42761 239.71927 229.83193 220.92659 213.09925 206.09191
 199.91657 194.84523 191.41789 189.45055 188.47822 188.53288 189.35854 190.65720
 192.37286 194.45852 196.71218 199.06184 201.49750 203.96816 206.04682 207.87948
 209.49614 210.63180 210.85147 211.07013 210.99779 210.69345 210.31711 209.93777
 209.54543 209.24609 209.04475 208.89941 208.81807 209.13973 209.51639 209.89606
 210.67972 211.84838 213.08904 214.86270 216.78136 218.81502 220.90068 222.97434
 225.02500 227.09966 229.18732 231.28398 233.40365 235.56631 237.81297 240.17363
 242.78529 245.02695 247.01961 248.77527 250.18293 251.29659 252.10925 252.41591
 252.44357 252.20824 251.55890 250.49756 249.09422 247.24588 245.14554 242.96920
 240.75086 238.54552 236.35618 234.18584 232.03650 229.89416 227.91083 226.05849
 224.33215 222.79481 221.41547 220.17813 219.05079 218.00145 217.09611 216.22777
 215.46043 214.63109 213.71975 213.07441 212.51508 213.18352 214.76279 216.65933
 217.47516 218.31097 220.15504 221.83615 223.33691 225.35211 228.60742 231.38092
 233.71700 235.65778 237.34039 239.58691 242.93855 247.03201 251.18689 255.04433
 258.51785 261.71872 264.71191 267.38348 269.68454 271.71216 273.68265 275.63266
 277.50983 279.22449 280.73019 282.08865 283.28635 284.33270 285.15884 285.76080
 286.47632 287.17123 287.80081 288.64676
 366.78100 356.32521 345.74741 334.60362 322.99683 311.18103 299.04124 286.83445
 274.53665 262.42386 250.42307 239.71427 229.82648 220.92069 213.09290 206.08510
 199.90931 194.83752 191.40972 189.44193 188.46914 188.52334 189.34855 190.64676
 192.36196 194.44717 196.70038 199.04958 201.48479 203.95500 206.03320 207.86541
 209.48162 210.61682 210.83603 211.05424 210.98145 210.67665 210.29986 209.92007
 209.52727 209.22748 209.02569 208.87989 208.79810 209.11931 209.49551 209.87472
 210.65793 211.82613 213.06634 214.83955 216.75775 218.79096 220.87617 222.94937
 224.99958 227.07379 229.16099 231.25720 233.37641 235.53862 237.78482 240.14503
 242.75624 244.99744 246.98965 248.74486 250.15206 251.26527 252.07748 252.38368
 252.41089 252.17510 251.52530 250.46351 249.05972 247.21092 245.11013 242.93334
 240.71454 238.50875 236.31896 234.14817 231.99837 229.85558 227.87179 226.01899
 224.29220 222.75441 221.37461 220.13682 219.00903 217.95923 217.05344 216.18465
 215.41685 214.58706 213.67527 213.02947 212.46968 213.17130 214.82895 216.75259
 217.64110 218.47421 220.22322 222.00720 223.51184 225.45892 228.56421 231.33846
 233.52823 235.30469 236.92647 239.22679 242.72392 246.92445 251.11780 255.01346
 258.51041 261.72089 264.70746 267.38586 269.68994 271.71536 273.67239 275.59674
 277.46478 279.16498 280.65228 281.94275 283.11176 284.15692 285.05502 285.62686
 286.31747 287.00864 287.63565 288.50494
 366.78100 356.32510 345.74720 334.60331 322.99641 311.18051 299.04061 286.83372
 274.53582 262.42292 250.42202 239.71313 229.82523 220.91933 213.09143 206.08354
 199.90764 194.83574 191.40784 189.43995 188.46705 188.52115 189.34625 190.64436
 192.35946 194.44456 196.69766 199.04677 201.48187 203.95197 206.03007 207.86218
 209.47828 210.61338 210.83248 211.05059 210.97769 210.67279 210.29589 209.91600
 209.52310 209.22320 209.02130 208.87540 208.79351 209.11461 209.49071 209.86981
 210.65292 211.82102 213.06112 214.83422 216.75233 218.78543 220.87053 222.94363
 224.99374 227.06784 229.15494 231.25104 233.37015 235.53225 237.77835 240.13845
 242.74956 244.99066 246.98276 248.73786 250.14497 251.25807 252.07017 252.37627
 252.40338 252.16748 251.51758 250.45568 249.05179 247.20289 245.10199 242.92509
 240.70620 238.50030 236.31040 234.13950 231.98960 229.84671 227.86281 226.00991
 224.28301 222.74512 221.36522 220.12732 218.99942 217.94953 217.04363 216.17473
 215.40683 214.57694 213.66504 213.01914 212.45924 213.17598 214.86935 216.88881
 217.78249 218.57309 220.33000 222.16891 223.67119 225.56142 228.55838 231.26997
 233.32571 234.93755 236.52228 238.91643 242.54353 246.80559 251.02365 254.96472
 258.50357 261.73688 264.72409 267.40454 269.70999 271.72797 273.64502 275.51932
 277.37289 279.07803 280.57358 281.85687 282.97659 284.01682 284.97897 285.55859
 286.30594 287.00369 287.63379 288.50027
 366.78100 356.32510 345.74719 334.60329 322.99639 311.18049 299.04058 286.83368
 274.53578 262.42288 250.42197 239.71307 229.82517 220.91927 213.09136 206.08346
 199.90756 194.83566 191.40775 189.43985 188.46695 188.52105 189.34614 190.64424
 192.35934 194.44444 196.69753 199.04663 201.48173 203.95182 206.02992 207.86202
 209.47812 210.61321 210.83231 211.05041 210.97751 210.67260 210.29570 209.91580
 209.52290 209.22299 209.02109 208.87519 208.79329 209.11438 209.49048 209.86958
 210.65268 211.82077 213.06087 214.83397 216.75206 218.78516 220.87026 222.94336
 224.99345 227.06755 229.15465 231.25075 233.36984 235.53194 237.77804 240.13814
 242.74923 244.99033 246.98243 248.73753 250.14462 251.25772 252.06982 252.37592
 252.40301 252.16711 251.51721 250.45531 249.05140 247.20250 245.10160 242.92469
 240.70579 238.49989 236.30999 234.13908 231.98918 229.84628 227.86238 226.00947
 224.28257 222.74467 221.36477 220.12686 218.99896 217.94906 217.04316 216.17425
 215.40635 214.57645 213.66455 213.01864 212.45874 213.18636 214.90543 216.99931
 217.95985 218.69418 220.48749 222.33195 223.77516 225.64590 228.57907 231.14268
 233.04375 234.51707 236.09392 238.62825 242.38586 246.69791 250.95242 254.93506
 258.50888 261.76004 264.74432 267.41638 269.71826 271.72446 273.59549 275.42059
 277.27005 278.98627 280.48444 281.77155 282.91541 283.96085 284.92599 285.57361
 286.33081 287.02856 287.66284 288.52280
 366.78100 356.32604 345.74907 334.60611 323.00014 311.18518 299.04621 286.84025
 274.54328 262.43132 250.43135 239.72339 229.83642 220.93146 213.10450 206.09753
 199.92257 194.85160 191.42464 189.45767 188.48571 188.54074 189.36678 190.66581
 192.38185 194.46788 196.72192 199.07195 201.50799 203.97903 206.05806 207.89110
 209.50813 210.64417 210.86420 211.08324 211.01127 210.70731 210.33134 209.95238
 209.56041 209.26145 209.06049 208.91552 208.83456 209.15659 209.53363 209.91366
 210.69770 211.86673 213.10777 214.88180 216.80084 218.83487 220.92091 222.99494
 225.04598 227.12102 229.20905 231.30609 233.42612 235.58916 237.83619 240.19723
 242.80926 245.05130 247.04433 248.80037 250.20840 251.32244 252.13548 252.44251
 252.47055 252.23558 251.58662 250.52565 249.12269 247.27472 245.17476 242.99879
 240.78083 238.57586 236.38690 234.21693 232.06797 229.92601 227.94304 226.09108
 224.36511 222.82815 221.44918 220.21222 219.08525 218.03629 217.13132 216.26336
 215.49639 214.66743 213.75647 213.11150 212.55254 213.24609 214.88472 217.11989
 218.16925 218.81035 220.62355 222.49991 223.94051 225.71526 228.54326 230.98546
 232.72783 234.09050 235.71869 238.38361 242.25131 246.59923 250.89812 254.92014
 258.52426 261.78458 264.75824 267.40881 269.70084 271.70105 273.53271 275.32053
 277.16220 278.87448 280.38351 281.70190 282.87531 283.92230 284.88858 285.69006
 286.44638 287.14456 287.77109 288.62549
 366.78100 356.32628 345.74956 334.60684 323.00112 311.18640 299.04768 286.84196
 274.54524 262.43352 250.43380 239.72608 229.83936 220.93464 213.10792 206.10119
 199.92647 194.85575 191.42903 189.46231 188.49059 188.54587 189.37215 190.67143
 192.38771 194.47399 196.72827 199.07855 201.51483 203.98611 206.06539 207.89867
 209.51595 210.65223 210.87251 211.09179 211.02007 210.71635 210.34063 209.96191
 209.57019 209.27147 209.07075 208.92603 208.84530 209.16758 209.54486 209.92514
 210.70942 211.87870 213.11998 214.89426 216.81354 218.84782 220.93410 223.00838
 225.05966 227.13494 229.22322 231.32050 233.44078 235.60406 237.85134 240.21262
 242.82490 245.06718 247.06046 248.81674 250.22502 251.33930 252.15258 252.45986
 252.48814 252.25341 251.60469 250.54397 249.14125 247.29353 245.19381 243.01809
 240.80037 238.59565 236.40693 234.23721 232.08849 229.94677 227.96405 226.11233
 224.38661 222.84989 221.47117 220.23445 219.10773 218.05901 217.15429 216.28657
 215.51985 214.69113 213.78041 213.13569 212.57697 213.27383 214.92029 217.12483
 218.48981 218.99939 220.70444 222.59464 223.97554 225.76111 228.55904 230.86168
 232.43570 233.68011 235.31171 238.15962 242.14845 246.52287 250.86087 254.91722
 258.54584 261.80835 264.76022 267.37930 269.65781 271.65778 273.46188 275.21857
 277.03503 278.77222 280.31891 281.67926 282.85858 283.90936 284.87839 285.75320
 286.53360 287.22687 287.84158 288.67459
 366.78100 356.32580 345.74860 334.60541 322.99921 311.18401 299.04481 286.83861
 274.54142 262.42922 250.42902 239.72082 229.83362 220.92843 213.10123 206.09403
 199.91883 194.84763 191.42044 189.45324 188.48104 188.53584 189.36165 190.66045
 192.37625 194.46205 196.71585 199.06566 201.50146 203.97226 206.05106 207.88386
 209.50067 210.63647 210.85627 211.07507 211.00287 210.69868 210.32248 209.94328
 209.55108 209.25188 209.05069 208.90549 208.82429 209.14609 209.52289 209.90270
 210.68650 211.85530 213.09610 214.86990 216.78871 218.82251 220.90831 222.98211
 225.03291 227.10772 229.19552 231.29232 233.41212 235.57493 237.82173 240.18253
 242.79433 245.03613 247.02894 248.78474 250.19254 251.30634 252.11914 252.42595
 252.45375 252.21855 251.56935 250.50815 249.10496 247.25676 245.15656 242.98036
 240.76216 238.55697 236.36777 234.19757 232.04837 229.90617 227.92298 226.07078
 224.34458 222.80738 221.42818 220.19099 219.06379 218.01459 217.10939 216.24120
 215.47400 214.64480 213.73360 213.08840 212.52921 213.26457 215.00195 217.13011
 218.62321 219.35585 220.88870 222.60980 223.98730 225.84406 228.60059 230.76604
 232.03946 233.11716 234.95670 238.01286 242.07713 246.47624 250.82831 254.90276
 258.55020 261.81476 264.74640 267.33716 269.61227 271.63126 273.42648 275.17603
 276.95605 278.68109 280.23007 281.59561 282.78131 283.83740 284.81647 285.70331
 286.48938 287.18881 287.80615 288.65170
 366.78100 356.32598 345.74896 334.60595 322.99993 311.18491 299.04589 286.83988
 274.54286 262.43084 250.43082 239.72281 229.83579 220.93077 213.10375 206.09674
 199.92172 194.85070 191.42368 189.45667 188.48465 188.53963 189.36561 190.66460
 192.38058 194.46656 196.72054 199.07053 201.50651 203.97749 206.05647 207.88945
 209.50644 210.64242 210.86240 211.08138 211.00937 210.70535 210.32933 209.95031
 209.55830 209.25928 209.05826 208.91324 208.83223 209.15421 209.53119 209.91117
 210.69516 211.86414 213.10512 214.87910 216.79809 218.83207 220.91805 222.99203
 225.04302 227.11800 229.20598 231.30296 233.42294 235.58593 237.83291 240.19389
 242.80587 245.04786 247.04084 248.79682 250.20480 251.31879 252.13177 252.43875
 252.46673 252.23172 251.58270 250.52168 249.11866 247.27065 245.17063 242.99461
 240.77659 238.57158 236.38256 234.21254 232.06352 229.92151 227.93849 226.08647
 224.36045 222.82343 221.44442 220.20740 219.08038 218.03136 217.12635 216.25833
 215.49131 214.66229 213.75128 213.10626 212.54724 213.28580 215.03073 217.22493
 218.67105 219.64998 221.08958 222.65648 224.06308 225.93178 228.65509 230.72156
 231.61630 232.45029 234.65236 237.91510 242.00729 246.43434 250.79184 254.87907
 258.54617 261.81488 264.73044 267.29874 269.57864 271.62796 273.43082 275.12061
 276.89410 278.56775 280.09927 281.45883 282.63904 283.68524 284.63666 285.51920
 286.35239 287.07263 287.69965 288.55215
 366.78100 356.32644 345.74989 334.60733 323.00177 311.18722 299.04866 286.84310
 274.54654 262.43499 250.43543 239.72787 229.84132 220.93676 213.11020 206.10365
 199.92909 194.85853 191.43198 189.46542 188.49386 188.54930 189.37575 190.67519
 192.39163 194.47808 196.73252 199.08296 201.51941 203.99085 206.07029 207.90374
 209.52118 210.65762 210.87806 211.09751 211.02595 210.72239 210.34684 209.96828
 209.57672 209.27817 209.07761 208.93305 208.85250 209.17494 209.55238 209.93282
 210.71727 211.88671 213.12815 214.90260 216.82204 218.85648 220.94293 223.01737
 225.06881 227.14426 229.23270 231.33014 233.45058 235.61403 237.86147 240.22291
 242.83536 245.07780 247.07124 248.82769 250.23613 251.35057 252.16402 252.47146
 252.49990 252.26534 251.61679 250.55623 249.15367 247.30612 245.20656 243.03100
 240.81345 238.60889 236.42033 234.25078 232.10222 229.96066 227.97810 226.12655
 224.40099 222.86443 221.48588 220.24932 219.12276 218.07421 217.16965 216.30209
 215.53554 214.70698 213.79642 213.15186 212.59331 213.32121 215.04097 217.33377
 218.71709 219.87932 221.30647 222.76929 224.18286 225.98178 228.67006 230.62276
 231.25229 231.92964 234.35936 237.80269 241.93359 246.38490 250.74939 254.84805
 258.53064 261.80484 264.71127 267.26645 269.55191 271.61615 273.38339 275.06516
 276.76114 278.47192 280.01965 281.38483 282.56976 283.61792 284.57706 285.45947
 286.28479 287.02240 287.64624 288.50662
 366.78100 356.32683 345.75067 334.60850 323.00334 311.18917 299.05100 286.84584
 274.54967 262.43851 250.43934 239.73218 229.84601 220.94184 213.11568 206.10951
 199.93535 194.86518 191.43901 189.47285 188.50168 188.55752 189.38435 190.68419
 192.40102 194.48785 196.74269 199.09352 201.53036 204.00219 206.08202 207.91586
 209.53369 210.67053 210.89136 211.11120 211.04003 210.73686 210.36170 209.98353
 209.59237 209.29420 209.09403 208.94987 208.86970 209.19254 209.57037 209.95121
 210.73604 211.90587 213.14771 214.92254 216.84238 218.87721 220.96404 223.03888
 225.09071 227.16655 229.25538 231.35322 233.47405 235.63788 237.88572 240.24755
 242.86039 245.10322 247.09705 248.85389 250.26272 251.37756 252.19139 252.49923
 252.52806 252.29389 251.64573 250.58556 249.18340 247.33623 245.23706 243.06190
 240.84473 238.64057 236.45240 234.28324 232.13507 229.99390 228.01174 226.16057
 224.43541 222.89924 221.52107 220.28491 219.15874 218.11058 217.20641 216.33924
 215.57308 214.74491 213.83475 213.19058 212.63242 213.35512 215.06256 217.41420
 218.78870 220.06479 221.53156 222.94193 224.31201 225.99469 228.63289 230.47211
 230.92332 231.50946 234.07767 237.67870 241.87103 246.33578 250.70607 254.81305
 258.50516 261.77966 264.67603 267.21484 269.50589 271.59265 273.35803 274.98126
 276.66248 278.41245 279.96667 281.33371 282.51999 283.57309 284.53320 285.41873
 286.23721 286.97653 287.60721 288.46994
 366.78100 356.32712 345.75124 334.60936 323.00448 311.19060 299.05273 286.84785
 274.55197 262.44109 250.44221 239.73533 229.84945 220.94557 213.11969 206.11381
 199.93993 194.87005 191.44418 189.47830 188.50742 188.56354 189.39066 190.69078
 192.40790 194.49502 196.75014 199.10126 201.53838 204.01051 206.09063 207.92475
 209.54287 210.67999 210.90111 211.12123 211.05035 210.74747 210.37259 209.99471
 209.60383 209.30596 209.10608 208.96220 208.88232 209.20544 209.58356 209.96468
 210.74980 211.91992 213.16204 214.93716 216.85729 218.89241 220.97953 223.05465
 225.10677 227.18289 229.27201 231.37013 233.49125 235.65537 237.90349 240.26561
 242.87874 245.12186 247.11598 248.87310 250.28222 251.39734 252.21146 252.51958
 252.54870 252.31482 251.66694 250.60707 249.20519 247.35831 245.25943 243.08455
 240.86767 238.66379 236.47591 234.30703 232.15915 230.01827 228.03639 226.18552
 224.46064 222.92476 221.54688 220.31100 219.18512 218.13724 217.23336 216.36648
 215.60060 214.77272 213.86285 213.21897 212.66109 213.38666 215.10091 217.46191
 218.87860 220.22569 221.74399 223.14372 224.45126 226.01126 228.56476 230.27670
 230.61005 231.15126 233.81276 237.55598 241.81104 246.28491 250.65924 254.77368
 258.47565 261.75443 264.64450 267.16867 269.45996 271.57104 273.34552 274.64658
 276.60040 278.39270 279.94699 281.31525 282.50302 283.55725 284.52206 285.40631
 286.22034 286.95346 287.59940 288.46634
 366.78100 356.32736 345.75173 334.61009 323.00546 311.19182 299.05419 286.84955
 274.55391 262.44328 250.44464 239.73801 229.85237 220.94874 213.12310 206.11746
 199.94383 194.87419 191.44856 189.48292 188.51228 188.56865 189.39601 190.69638
 192.41374 194.50111 196.75647 199.10783 201.54520 204.01756 206.09793 207.93229
 209.55066 210.68802 210.90938 211.12975 211.05911 210.75648 210.38184 210.00421
 209.61357 209.31593 209.11630 208.97266 208.89303 209.21639 209.59476 209.97612
 210.76148 211.93185 213.17421 214.94958 216.86994 218.90531 220.99267 223.06803
 225.12040 227.19676 229.28613 231.38449 233.50585 235.67022 237.91858 240.28095
 242.89431 245.13768 247.13204 248.88940 250.29877 251.41413 252.22850 252.53686
 252.56623 252.33259 251.68495 250.62532 249.22368 247.37705 245.27841 243.10378
 240.88714 238.68350 236.49587 234.32723 232.17960 230.03896 228.05733 226.20669
 224.48205 222.94642 221.56878 220.33315 219.20751 218.15988 217.25624 216.38960
 215.62397 214.79633 213.88670 213.24306 212.68542 213.41661 215.14410 217.49068
 218.97420 220.38510 221.93895 223.34059 224.59962 226.04892 228.48471 230.04881
 230.31490 230.84871 233.56615 237.43997 241.75148 246.23123 250.60379 254.72113
 258.42960 261.71155 264.59723 267.10651 269.39566 271.51828 273.24658 274.70404
 276.52429 278.30692 279.87152 281.24640 282.43985 283.49979 284.46918 285.35568
 286.16815 286.90390 287.54968 288.44919
 366.78100 356.32777 345.75254 334.61131 323.00708 311.19385 299.05662 286.85239
 274.55716 262.44694 250.44871 239.74248 229.85725 220.95402 213.12879 206.12356
 199.95033 194.88110 191.45587 189.49064 188.52041 188.57718 189.40495 190.70572
 192.42349 194.51126 196.76704 199.11881 201.55658 204.02935 206.11012 207.94489
 209.56366 210.70143 210.92320 211.14397 211.07374 210.77151 210.39728 210.02005
 209.62982 209.33259 209.13336 208.99014 208.91091 209.23468 209.61345 209.99522
 210.78099 211.95176 213.19453 214.97030 216.89107 218.92684 221.01461 223.09038
 225.14315 227.21992 229.30969 231.40846 233.53024 235.69501 237.94378 240.30655
 242.92032 245.16409 247.15886 248.91663 250.32640 251.44217 252.25694 252.56571
 252.59548 252.36225 251.71502 250.65579 249.25456 247.40834 245.31011 243.13588
 240.91965 238.71642 236.52919 234.36096 232.21373 230.07350 228.09227 226.24204
 224.51781 222.98258 221.60535 220.37012 219.24489 218.19766 217.29444 216.42821
 215.66298 214.83575 213.92652 213.28329 212.72606 213.45593 215.18030 217.50824
 219.06578 220.55461 222.12682 223.52022 224.74580 226.09967 228.40660 229.80460
 230.02499 230.58240 233.33659 237.32893 241.69737 246.17976 250.54729 254.66331
 258.37399 261.65771 264.54169 267.04251 269.33820 271.47787 273.14627 274.69858
 276.46277 278.23969 279.80655 281.18335 282.37888 283.44025 284.40906 285.29611
 286.10345 286.83392 287.48111 288.38205
 366.78100 356.32838 345.75377 334.61315 323.00954 311.19692 299.06031 286.85669
 274.56208 262.45246 250.45485 239.74923 229.86462 220.96200 213.13738 206.13277
 199.96015 194.89154 191.46692 189.50231 188.53269 188.59008 189.41846 190.71985
 192.43823 194.52662 196.78300 199.13538 201.57377 204.04715 206.12854 207.96392
 209.58331 210.72169 210.94408 211.16546 211.09585 210.79423 210.42061 210.04400
 209.65438 209.35777 209.15915 209.01654 208.93792 209.26231 209.64169 210.02408
 210.81046 211.98185 213.22523 215.00161 216.92300 218.95938 221.04777 223.12415
 225.17754 227.25492 229.34531 231.44469 233.56708 235.73246 237.98185 240.34523
 242.95961 245.20400 247.19938 248.95777 250.36815 251.48454 252.29992 252.60931
 252.63969 252.40708 251.76046 250.70185 249.30123 247.45561 245.35800 243.18438
 240.96877 238.76615 236.57954 234.41192 232.26531 230.12569 228.14508 226.29546
 224.57185 223.03723 221.66061 220.42600 219.30138 218.25477 217.35215 216.48654
 215.72192 214.89531 213.98669 213.34408 212.78746 213.50861 215.21237 217.51787
 219.15074 220.72726 222.31157 223.68794 224.88150 226.15399 228.33969 229.56236
 229.73962 230.34213 233.12798 237.22270 241.64378 246.12424 250.48567 254.59473
 258.30060 261.58286 264.46841 266.96915 269.28223 271.44260 273.07263 274.66287
 276.41541 278.19083 279.75775 281.13495 282.32941 283.39099 284.36191 285.24805
 286.05661 286.78830 287.43271 288.33890
 366.78100 356.32908 345.75516 334.61523 323.01231 311.20039 299.06447 286.86154
 274.56762 262.45870 250.46178 239.75685 229.87293 220.97101 213.14709 206.14316
 199.97124 194.90332 191.47940 189.51548 188.54655 188.60463 189.43371 190.73579
 192.45486 194.54394 196.80102 199.15410 201.59317 204.06725 206.14933 207.98541
 209.60549 210.74456 210.96764 211.18972 211.12080 210.81987 210.44695 210.07103
 209.68211 209.38618 209.18826 209.04634 208.96842 209.29349 209.67357 210.05665
 210.84373 212.01581 213.25988 215.03696 216.95904 218.99612 221.08519 223.16227
 225.21635 227.29443 229.38550 231.48558 233.60866 235.77474 238.02481 240.38889
 243.00397 245.24905 247.24513 249.00420 250.41528 251.53236 252.34844 252.65851
 252.68959 252.45767 251.81175 250.75382 249.35390 247.50898 245.41206 243.23913
 241.02421 238.82229 236.63637 234.46945 232.32352 230.18460 228.20468 226.35576
 224.63283 223.09891 221.72299 220.48907 219.36514 218.31922 217.41730 216.55238
 215.78846 214.96253 214.05461 213.41269 212.85677 213.56615 215.24213 217.51930
 219.23323 220.89354 222.49243 223.85272 225.00682 226.20865 228.27779 229.32228
 229.45619 230.12550 232.94656 237.12875 241.59265 246.06882 250.42247 254.51910
 258.21310 261.49042 264.37595 266.88254 269.21783 271.39511 273.01849 274.63043
 276.39172 278.16751 279.73489 281.11148 282.30753 283.36850 284.34201 285.22849
 286.04016 286.77347 287.41928 288.32867
 366.78100 356.32985 345.75670 334.61755 323.01541 311.20426 299.06911 286.86696
 274.57381 262.46566 250.46952 239.76537 229.88222 220.98107 213.15792 206.15477
 199.98363 194.91648 191.49333 189.53018 188.56203 188.62088 189.45073 190.75359
 192.47344 194.56329 196.82114 199.17499 201.61484 204.08970 206.17255 208.00940
 209.63025 210.77010 210.99395 211.21681 211.14866 210.84851 210.47636 210.10121
 209.71306 209.41791 209.22077 209.07962 209.00247 209.32832 209.70917 210.09302
 210.88088 212.05373 213.29858 215.07643 216.99928 219.03713 221.12699 223.20484
 225.25969 227.33854 229.43039 231.53124 233.65509 235.82195 238.07280 240.43765
 243.05350 245.29935 247.29620 249.05606 250.46791 251.58576 252.40261 252.71346
 252.74531 252.51417 251.86902 250.81187 249.41272 247.56857 245.47242 243.30028
 241.08613 238.88498 236.69983 234.53368 232.38853 230.25038 228.27124 226.42309
 224.70094 223.16779 221.79264 220.55949 219.43635 218.39120 217.49005 216.62590
 215.86275 215.03760 214.13046 213.48931 212.93416 213.62866 215.26952 217.51237
 219.31657 221.04851 222.67160 224.02130 225.13040 226.26820 228.22173 229.08553
 229.17052 229.92801 232.79109 237.04510 241.54155 246.01308 250.35768 254.43808
 258.11746 261.38995 264.27774 266.79462 269.14795 271.31845 272.93036 274.62573
 276.38437 278.15958 279.72742 281.10617 282.30231 283.36481 284.33691 285.22614
 286.03787 286.77124 287.41867 288.33038
 366.78100 356.33062 345.75824 334.61986 323.01848 311.20810 299.07372 286.87234
 274.57996 262.47258 250.47720 239.77382 229.89144 220.99106 213.16868 206.16630
 199.99592 194.92954 191.50715 189.54477 188.57739 188.63701 189.46763 190.77125
 192.49187 194.58249 196.84111 199.19573 201.63635 204.11197 206.19559 208.03321
 209.65483 210.79545 211.02007 211.24369 211.17631 210.87693 210.50555 210.13117
 209.74379 209.44941 209.25303 209.11265 209.03627 209.36289 209.74451 210.12913
 210.91775 212.09137 213.33699 215.11561 217.03922 219.07784 221.16846 223.24708
 225.30270 227.38232 229.47494 231.57656 233.70118 235.86880 238.12042 240.48604
 243.10266 245.34928 247.34690 249.10752 250.52014 251.63876 252.45638 252.76800
 252.80062 252.57024 251.92586 250.86948 249.47110 247.62772 245.53234 243.36096
 241.14758 238.94720 236.76282 234.59744 232.45306 230.31568 228.33730 226.48991
 224.76853 223.23615 221.86177 220.62939 219.50701 218.46263 217.56225 216.69887
 215.93649 215.11211 214.20573 213.56535 213.01097 213.69130 215.29865 217.49921
 219.39403 221.18858 222.84395 224.19131 225.26488 226.34097 228.16051 228.84042
 228.88602 229.75253 232.66144 236.97079 241.49077 245.95656 250.28894 254.34941
 258.01157 261.28134 264.17398 266.70895 269.07788 271.22308 272.83536 274.62988
 276.38275 278.15863 279.72870 281.10843 282.30527 283.37036 284.34366 285.23257
 286.04648 286.78198 287.42822 288.34198
 366.78100 356.33138 345.75975 334.62213 323.02151 311.21189 299.07826 286.87764
 274.58602 262.47940 250.48477 239.78215 229.90053 221.00091 213.17928 206.17766
 200.00804 194.94242 191.52079 189.55917 188.59255 188.65293 189.48430 190.78868
 192.51006 194.60144 196.86081 199.21619 201.65757 204.13395 206.21832 208.05670
 209.67908 210.82046 211.04583 211.27021 211.20359 210.90497 210.53434 210.16072
 209.77410 209.48048 209.28485 209.14523 209.06961 209.39699 209.77936 210.16474
 210.95412 212.12850 213.37487 215.15425 217.07863 219.11801 221.20938 223.28876
 225.34514 227.42552 229.51889 231.62127 233.74665 235.91503 238.16740 240.53378
 243.15116 245.39854 247.39691 249.15829 250.57167 251.69104 252.50942 252.82180
 252.85518 252.62555 251.98193 250.92631 249.52869 247.68606 245.59144 243.42082
 241.20820 239.00857 236.82495 234.66033 232.51671 230.38008 228.40246 226.55584
 224.83522 223.30359 221.92997 220.69835 219.57673 218.53310 217.63348 216.77086
 216.00924 215.18561 214.27999 213.64037 213.08675 213.75362 215.32919 217.48801
 219.45964 221.31316 223.01271 224.35474 225.39354 226.41919 228.10783 228.59201
 228.59636 229.59908 232.55504 236.90279 241.43904 245.89732 250.21655 254.25330
 257.89801 261.16623 264.06985 266.62863 269.00775 271.11978 272.72989 274.62378
 276.40396 278.18137 279.75128 281.12991 282.32904 283.39200 284.36426 285.25427
 286.06671 286.80048 287.44690 288.35519
 366.78100 356.33225 345.76150 334.62475 323.02500 311.21625 299.08350 286.88375
 274.59300 262.48725 250.49350 239.79175 229.91100 221.01225 213.19150 206.19075
 200.02200 194.95725 191.53650 189.57576 188.61001 188.67126 189.50351 190.80876
 192.53101 194.62326 196.88351 199.23976 201.68201 204.15926 206.24451 208.08376
 209.70701 210.84926 211.07551 211.30076 211.23501 210.93726 210.56751 210.19476
 209.80901 209.51626 209.32151 209.18276 209.10801 209.43626 209.81951 210.20576
 210.99601 212.17126 213.41851 215.19876 217.12401 219.16426 221.25651 223.33676
 225.39401 227.47527 229.56952 231.67277 233.79902 235.96827 238.22152 240.58877
 243.20702 245.45527 247.45452 249.21677 250.63102 251.75127 252.57052 252.88377
 252.91802 252.68927 252.04652 250.99177 249.59502 247.75327 245.65952 243.48977
 241.27802 239.07927 236.89652 234.73277 232.59002 230.45427 228.47752 226.63177
 224.91202 223.38127 222.00852 220.77777 219.65702 218.61427 217.71552 216.85378
 216.09303 215.27028 214.36553 213.72678 213.17403 213.82266 215.35512 217.47658
 219.52303 221.44066 223.17957 224.52188 225.52913 226.49362 228.03897 228.35513
 228.33740 229.46376 232.46587 236.84479 241.39183 245.84132 250.14456 254.15463
 257.77841 261.03915 263.94864 266.53149 268.91919 271.00464 272.65805 274.60983
 276.43958 278.21622 279.78073 281.15680 282.35306 283.41541 284.38809 285.27859
 286.09018 286.82904 287.47345 288.38184
 366.78100 356.33287 345.76275 334.62662 323.02750 311.21937 299.08725 286.88812
 274.59800 262.49287 250.49975 239.79862 229.91850 221.02037 213.20025 206.20012
 200.03199 194.96787 191.54774 189.58762 188.62249 188.68437 189.51724 190.82312
 192.54599 194.63887 196.89974 199.25662 201.69949 204.17736 206.26324 208.10311
 209.72699 210.86986 211.09674 211.32261 211.25749 210.96036 210.59124 210.21911
 209.83399 209.54186 209.34774 209.20961 209.13548 209.46436 209.84823 210.23511
 211.02598 212.20186 213.44973 215.23061 217.15648 219.19736 221.29023 223.37111
 225.42898 227.51086 229.60573 231.70960 233.83648 236.00635 238.26023 240.62810
 243.24698 245.49585 247.49573 249.25860 250.67348 251.79435 252.61423 252.92810
 252.96298 252.73485 252.09272 251.03860 249.64247 247.80135 245.70822 243.53910
 241.32797 239.12985 236.94772 234.78460 232.64247 230.50735 228.53122 226.68609
 224.96697 223.43684 222.06472 220.83459 219.71447 218.67234 217.77422 216.91309
 216.15297 215.33084 214.42672 213.78859 213.23647 213.87857 215.39565 217.45059
 219.56573 221.55917 223.36473 224.70506 225.67073 226.59331 227.98552 228.06154
 228.01646 229.34453 232.40123 236.79172 241.34500 245.78458 250.07237 254.05734
 257.66519 260.92761 263.85300 266.46118 268.84210 270.89386 272.59506 274.53198
 276.46881 278.25592 279.81601 281.18854 282.38156 283.44305 284.41302 285.30219
 286.11591 286.85257 287.50089 288.40494
 366.78100 356.33312 345.76324 334.62736 323.02848 311.22059 299.08871 286.88983
 274.59995 262.49507 250.50219 239.80131 229.92143 221.02354 213.20366 206.20378
 200.03590 194.97202 191.55214 189.59226 188.62738 188.68949 189.52261 190.82873
 192.55185 194.64497 196.90609 199.26321 201.70633 204.18445 206.27056 208.11068
 209.73480 210.87792 211.10504 211.33116 211.26628 210.96940 210.60051 210.22863
 209.84375 209.55187 209.35799 209.22011 209.14623 209.47535 209.85946 210.24658
 211.03770 212.21382 213.46194 215.24306 217.16918 219.21030 221.30341 223.38453
 225.44265 227.52477 229.61989 231.72401 233.85113 236.02125 238.27537 240.64348
 243.26260 245.51172 247.51184 249.27496 250.69008 251.81120 252.63132 252.94543
 252.98055 252.75267 252.11079 251.05691 249.66103 247.82015 245.72727 243.55838
 241.34750 239.14962 236.96774 234.80486 232.66298 230.52810 228.55222 226.70734
 224.98845 223.45857 222.08669 220.85681 219.73693 218.69505 217.79717 216.93629
 216.17640 215.35452 214.45064 213.81276 213.26088 213.91306 215.45387 217.44966
 219.58704 221.63756 223.48729 224.88290 225.82425 226.70403 227.95879 227.88948
 227.80205 229.20081 232.32423 236.74121 241.29208 245.71912 249.98610 253.94107
 257.53036 260.79434 263.74045 266.37823 268.75546 270.77243 272.53717 274.54465
 276.57339 278.30347 279.85052 281.21954 282.40930 283.46780 284.43735 285.32568
 286.13568 286.87308 287.52066 288.41922
 366.78100 356.33318 345.76337 334.62755 323.02873 311.22091 299.08910 286.89028
 274.60046 262.49564 250.50283 239.80201 229.92219 221.02438 213.20456 206.20474
 200.03692 194.97311 191.55329 189.59347 188.62865 188.69084 189.52402 190.83020
 192.55339 194.64657 196.90775 199.26493 201.70812 204.18630 206.27248 208.11266
 209.73685 210.88003 211.10721 211.33340 211.26858 210.97176 210.60294 210.23113
 209.84631 209.55449 209.36067 209.22286 209.14904 209.47822 209.86241 210.24959
 211.04077 212.21695 213.46514 215.24632 217.17250 219.21368 221.30687 223.38805
 225.44623 227.52842 229.62360 231.72778 233.85496 236.02515 238.27933 240.64751
 243.26669 245.51588 247.51606 249.27924 250.69443 251.81561 252.63579 252.94997
 252.98516 252.75734 252.11552 251.06170 249.66589 247.82507 245.73225 243.56344
 241.35262 239.15480 236.97298 234.81017 232.66835 230.53353 228.55771 226.71290
 224.99408 223.46426 222.09245 220.86263 219.74281 218.70099 217.80318 216.94236
 216.18254 215.36072 214.45691 213.81909 213.26727 213.93501 215.51262 217.48192
 219.58609 221.69249 223.57552 225.00151 225.92499 226.79333 227.95505 227.80197
 227.66208 229.08147 232.27328 236.71095 241.25340 245.66458 249.90631 253.82814
 257.39423 260.65210 263.60706 266.25388 268.58954 270.53015 272.60687 274.56030
 276.58096 278.34705 279.89023 281.25409 282.44025 283.49615 284.46210 285.34848
 286.15790 286.89325 287.53995 288.43378
 366.78100 356.33341 345.76381 334.62822 323.02963 311.22203 299.09044 286.89184
 274.60225 262.49766 250.50506 239.80447 229.92488 221.02728 213.20769 206.20810
 200.04050 194.97691 191.55732 189.59772 188.63313 188.69553 189.52894 190.83535
 192.55875 194.65216 196.91357 199.27097 201.71438 204.19279 206.27919 208.11960
 209.74401 210.88741 211.11482 211.34122 211.27663 210.98004 210.61144 210.23985
 209.85526 209.56366 209.37007 209.23248 209.15888 209.48829 209.87270 210.26010
 211.05151 212.22791 213.47632 215.25773 217.18413 219.22554 221.31895 223.40035
 225.45876 227.54117 229.63657 231.74098 233.86839 236.03879 238.29320 240.66160
 243.28101 245.53042 247.53082 249.29423 250.70964 251.83104 252.65145 252.96586
 253.00126 252.77367 252.13208 251.07848 249.68289 247.84229 245.74970 243.58111
 241.37051 239.17292 236.99133 234.82873 232.68714 230.55255 228.57695 226.73236
 225.01377 223.48417 222.11258 220.88298 219.76339 218.72180 217.82420 216.96361
 216.20402 215.38242 214.47883 213.84124 213.28964 213.96458 215.55920 217.53513
 219.59575 221.73779 223.66019 225.09946 226.00185 226.86232 227.94394 227.72610
 227.53465 228.97408 232.24051 236.68974 241.21732 245.61145 249.82922 253.72189
 257.26974 260.52759 263.49518 266.14941 268.44186 270.37869 272.64975 274.56406
 276.58749 278.36554 279.91165 281.27603 282.46259 283.51666 284.48297 285.36679
 286.17410 286.90564 287.55093 288.43842
 366.78100 356.33396 345.76492 334.62988 323.03184 311.22481 299.09377 286.89573
 274.60669 262.50265 250.51061 239.81057 229.93153 221.03449 213.21546 206.21642
 200.04938 194.98634 191.56730 189.60826 188.64422 188.70718 189.54114 190.84810
 192.57207 194.66603 196.92799 199.28595 201.72991 204.20887 206.29583 208.13679
 209.76175 210.90572 211.13368 211.36064 211.29660 211.00056 210.63252 210.26148
 209.87744 209.58640 209.39337 209.25633 209.18329 209.51325 209.89821 210.28617
 211.07813 212.25509 213.50405 215.28602 217.21298 219.25494 221.34890 223.43086
 225.48982 227.57278 229.66874 231.77370 233.90166 236.07263 238.32759 240.69655
 243.31651 245.56647 247.56743 249.33139 250.74735 251.86931 252.69028 253.00524
 253.04120 252.81416 252.17312 251.12008 249.72504 247.88500 245.79296 243.62493
 241.41489 239.21785 237.03681 234.87477 232.73373 230.59969 228.62465 226.78061
 225.06258 223.53354 222.16250 220.93346 219.81442 218.77338 217.87634 217.01630
 216.25726 215.43622 214.53319 213.89615 213.34511 214.01048 215.58250 217.57671
 219.64163 221.79066 223.73795 225.18860 226.07745 226.92027 227.90916 227.63683
 227.41328 228.88322 232.22363 236.68190 241.19531 245.57402 249.77109 253.64011
 257.17117 260.42398 263.39474 266.03748 268.28906 270.15512 272.47379 274.52740
 276.56882 278.35709 279.90921 281.27621 282.46356 283.51865 284.48419 285.36655
 286.17221 286.90457 287.54376 288.43011
 366.78100 356.33449 345.76599 334.63148 323.03397 311.22747 299.09696 286.89945
 274.61095 262.50744 250.51593 239.81642 229.93792 221.04141 213.22290 206.22440
 200.05789 194.99538 191.57688 189.61837 188.65486 188.71836 189.55285 190.86034
 192.58484 194.67933 196.94182 199.30032 201.74481 204.22430 206.31179 208.15329
 209.77878 210.92327 211.15177 211.37926 211.31575 211.02025 210.65274 210.28223
 209.89873 209.60822 209.41571 209.27921 209.20670 209.53719 209.92269 210.31118
 211.10367 212.28116 213.53066 215.31315 217.24064 219.28314 221.37763 223.46012
 225.51962 227.60311 229.69960 231.80510 233.93359 236.10508 238.36058 240.73007
 243.35056 245.60106 247.60255 249.36704 250.78353 251.90603 252.72752 253.04301
 253.07951 252.85300 252.21249 251.15999 249.76548 247.92597 245.83447 243.66696
 241.45745 239.26095 237.08044 234.91893 232.77842 230.64492 228.67041 226.82690
 225.10940 223.58089 222.21038 220.98188 219.86337 218.82286 217.92636 217.06685
 216.30834 215.48784 214.58533 213.94882 213.39832 214.05493 215.60625 217.60883
 219.69856 221.84346 223.80305 225.26614 226.16095 226.99091 227.87614 227.54704
 227.29224 228.78595 232.19800 236.66386 241.16216 245.52678 249.70508 253.55371
 257.07422 260.32968 263.30801 265.93930 268.15192 270.28369 272.45615 274.54269
 276.57568 278.35217 279.90228 281.26974 282.45547 283.51102 284.47617 285.35834
 286.16431 286.89346 287.53619 288.42050
 366.78100 356.33460 345.76621 334.63181 323.03441 311.22801 299.09762 286.90022
 274.61182 262.50842 250.51703 239.81763 229.93923 221.04283 213.22444 206.22604
 200.05964 194.99724 191.57885 189.62045 188.65705 188.72065 189.55526 190.86286
 192.58746 194.68206 196.94467 199.30327 201.74787 204.22747 206.31508 208.15668
 209.78228 210.92688 211.15549 211.38309 211.31969 211.02429 210.65690 210.28650
 209.90310 209.61270 209.42031 209.28391 209.21151 209.54212 209.92772 210.31632
 211.10892 212.28653 213.53613 215.31873 217.24633 219.28894 221.38354 223.46614
 225.52574 227.60935 229.70595 231.81155 233.94015 236.11176 238.36736 240.73696
 243.35756 245.60817 247.60977 249.37437 250.79097 251.91358 252.73518 253.05078
 253.08738 252.86099 252.22059 251.16819 249.77379 247.93440 245.84300 243.67560
 241.46620 239.26981 237.08941 234.92801 232.78762 230.65422 228.67982 226.83642
 225.11903 223.59063 222.22023 220.99183 219.87344 218.83304 217.93664 217.07724
 216.31885 215.49845 214.59605 213.95965 213.40926 214.07651 215.65298 217.65550
 219.74046 221.87407 223.82935 225.31615 226.24957 227.08064 227.86862 227.50539
 227.22127 228.71596 232.18236 236.65009 241.13081 245.47748 249.63321 253.45781
 256.96182 260.21234 263.19598 265.82574 268.02887 270.28210 272.42233 274.62323
 276.57523 278.33450 279.88318 281.24826 282.43579 283.48923 284.45331 285.33447
 286.13779 286.86801 287.50604 288.38510
 366.78100 356.33441 345.76582 334.63123 323.03364 311.22705 299.09646 286.89887
 274.61028 262.50670 250.51511 239.81552 229.93693 221.04034 213.22175 206.22316
 200.05657 194.99398 191.57539 189.61680 188.65321 188.71662 189.55103 190.85844
 192.58285 194.67727 196.93968 199.29809 201.74250 204.22191 206.30932 208.15073
 209.77614 210.92055 211.14896 211.37637 211.31278 211.01719 210.64960 210.27901
 209.89542 209.60483 209.41225 209.27566 209.20307 209.53348 209.91889 210.30730
 211.09971 212.27712 213.52653 215.30894 217.23635 219.27876 221.37317 223.45558
 225.51499 227.59840 229.69482 231.80023 233.92864 236.10005 238.35546 240.72487
 243.34528 245.59569 247.59710 249.36151 250.77792 251.90033 252.72174 253.03715
 253.07356 252.84697 252.20638 251.15380 249.75921 247.91962 245.82803 243.66044
 241.45085 239.25426 237.07367 234.91208 232.77149 230.63790 228.66331 226.81972
 225.10213 223.57354 222.20295 220.97436 219.85578 218.81519 217.91860 217.05901
 216.30042 215.47983 214.57724 213.94065 213.39006 214.07927 215.70761 217.72313
 219.77994 221.89195 223.81433 225.31711 226.31555 227.16727 227.87025 227.49039
 227.18434 228.67055 232.17715 236.64426 241.11008 245.44139 249.57986 253.38599
 256.87735 260.12094 263.09244 265.68149 267.85837 270.18204 272.39880 274.58133
 276.53525 278.30084 279.84927 281.21524 282.40140 283.45316 284.41663 285.29709
 286.09854 286.82861 287.46695 288.33981
 366.78100 356.33427 345.76555 334.63082 323.03309 311.22636 299.09564 286.89791
 274.60918 262.50546 250.51373 239.81400 229.93527 221.03855 213.21982 206.22109
 200.05437 194.99164 191.57291 189.61418 188.65046 188.71373 189.54800 190.85527
 192.57955 194.67382 196.93609 199.29437 201.73864 204.21791 206.30518 208.14646
 209.77173 210.91600 211.14428 211.37155 211.30782 211.01209 210.64437 210.27364
 209.88991 209.59919 209.40646 209.26973 209.19700 209.52728 209.91255 210.30082
 211.09310 212.27037 213.51964 215.30191 217.22919 219.27146 221.36573 223.44800
 225.50728 227.59055 229.68682 231.79210 233.92037 236.09164 238.34691 240.71619
 243.33646 245.58673 247.58801 249.35228 250.76855 251.89082 252.71210 253.02737
 253.06364 252.83692 252.19619 251.14346 249.74873 247.90901 245.81728 243.64955
 241.43983 239.24310 237.06237 234.90064 232.75992 230.62619 228.65146 226.80774
 225.09001 223.56128 222.19055 220.96183 219.84310 218.80237 217.90564 217.04592
 216.28719 215.46646 214.56374 213.92701 213.37628 214.08197 215.74924 217.80679
 219.84084 221.91649 223.77577 225.27193 226.34247 227.23396 227.87215 227.49017
 227.16951 228.64194 232.17876 236.64717 241.10095 245.41821 249.54227 253.33406
 256.81268 260.04233 262.98648 265.52783 267.70212 270.18207 272.33328 274.56961
 276.48773 278.24985 279.79767 281.16290 282.34775 283.39874 284.36234 285.24210
 286.04611 286.77542 287.41705 288.28864
 366.78100 356.33424 345.76547 334.63071 323.03294 311.22618 299.09541 286.89765
 274.60888 262.50512 250.51335 239.81359 229.93483 221.03806 213.21930 206.22053
 200.05377 194.99100 191.57224 189.61347 188.64971 188.71294 189.54718 190.85441
 192.57865 194.67289 196.93512 199.29336 201.73759 204.21683 206.30406 208.14530
 209.77053 210.91477 211.14300 211.37024 211.30648 211.01071 210.64295 210.27218
 209.88842 209.59765 209.40489 209.26812 209.19536 209.52559 209.91083 210.29907
 211.09130 212.26854 213.51777 215.30001 217.22724 219.26948 221.36371 223.44595
 225.50518 227.58842 229.68466 231.78989 233.91813 236.08936 238.34460 240.71383
 243.33407 245.58430 247.58554 249.34977 250.76601 251.88824 252.70948 253.02472
 253.06095 252.83419 252.19342 251.14066 249.74589 247.90613 245.81436 243.64660
 241.43683 239.24007 237.05931 234.89754 232.75678 230.62301 228.64825 226.80448
 225.08672 223.55795 222.18719 220.95842 219.83966 218.79890 217.90213 217.04237
 216.28360 215.46284 214.56007 213.92331 213.37254 214.08777 215.77760 217.90199
 219.93291 221.95164 223.72667 225.19447 226.32588 227.26599 227.85890 227.48772
 227.16780 228.63237 232.19273 236.66505 241.11293 245.41728 249.52681 253.30354
 256.76297 259.97040 262.89136 265.41406 267.57889 270.10162 272.26492 274.51865
 276.42407 278.18018 279.72647 281.09000 282.27368 283.32346 284.28598 285.16394
 285.96741 286.69495 287.33426 288.18469
 366.78100 356.33430 345.76559 334.63089 323.03318 311.22648 299.09578 286.89807
 274.60937 262.50567 250.51396 239.81426 229.93555 221.03885 213.22015 206.22144
 200.05474 194.99203 191.57333 189.61463 188.65092 188.71422 189.54852 190.85581
 192.58011 194.67440 196.93670 199.29500 201.73929 204.21859 206.30588 208.14718
 209.77248 210.91677 211.14507 211.37237 211.30866 211.01296 210.64525 210.27455
 209.89085 209.60014 209.40744 209.27074 209.19803 209.52833 209.91362 210.30192
 211.09422 212.27151 213.52081 215.30310 217.23040 219.27270 221.36699 223.44929
 225.50859 227.59188 229.68818 231.79347 233.92177 236.09307 238.34836 240.71766
 243.33795 245.58825 247.58955 249.35384 250.77014 251.89244 252.71373 253.02903
 253.06532 252.83862 252.19792 251.14521 249.75051 247.91080 245.81910 243.65140
 241.44169 239.24499 237.06429 234.90258 232.76188 230.62817 228.65347 226.80977
 225.09206 223.56336 222.19265 220.96395 219.84525 218.80454 217.90784 217.04814
 216.28943 215.46873 214.56602 213.92932 213.37862 214.09618 215.79149 218.00075
 220.04897 221.99657 223.67686 225.10489 226.28418 227.27014 227.82709 227.46761
 227.15906 228.62682 232.21059 236.69160 241.13841 245.42929 249.52309 253.28421
 256.72391 259.91238 262.82449 265.35214 267.51743 270.01727 272.20621 274.43472
 276.34109 278.08954 279.63013 280.99176 282.17255 283.22177 284.18088 285.05734
 285.85989 286.59155 287.22760 288.07260
 366.78100 356.33448 345.76597 334.63145 323.03393 311.22742 299.09690 286.89938
 274.61087 262.50735 250.51583 239.81632 229.93780 221.04128 213.22277 206.22425
 200.05773 194.99522 191.57670 189.61818 188.65466 188.71815 189.55263 190.86011
 192.58460 194.67908 196.94156 199.30005 201.74453 204.22401 206.31150 208.15298
 209.77846 210.92295 211.15143 211.37891 211.31540 211.01988 210.65236 210.28185
 209.89833 209.60781 209.41530 209.27878 209.20626 209.53675 209.92223 210.31071
 211.10320 212.28068 213.53016 215.31265 217.24013 219.28261 221.37709 223.45958
 225.51906 227.60254 229.69903 231.80451 233.93299 236.10448 238.35996 240.72944
 243.34993 245.60041 247.60189 249.36638 250.78286 251.90534 252.72683 253.04231
 253.07879 252.85228 252.21176 251.15924 249.76473 247.92521 245.83369 243.66618
 241.45666 239.26014 237.07963 234.91811 232.77759 230.64408 228.66956 226.82604
 225.10852 223.58001 222.20949 220.98097 219.86246 218.82194 217.92542 217.06591
 216.30739 215.48687 214.58436 213.94784 213.39732 214.10983 215.79318 218.09877
 220.18605 222.04794 223.63045 225.01326 226.22525 227.25381 227.78174 227.43042
 227.14229 228.62704 232.23497 236.72702 241.17506 245.45126 249.52803 253.27379
 256.69373 259.85938 262.75439 265.28201 267.52094 270.00528 272.12970 274.34384
 276.24051 277.98074 279.51721 280.87534 282.05536 283.10223 284.05798 284.93372
 285.73804 286.46951 287.09869 287.93829
 366.78100 356.33472 345.76645 334.63217 323.03490 311.22862 299.09835 286.90107
 274.61280 262.50952 250.51825 239.81897 229.94070 221.04442 213.22615 206.22787
 200.06160 194.99932 191.58105 189.62277 188.65950 188.72322 189.55795 190.86567
 192.59039 194.68512 196.94784 199.30657 201.75129 204.23102 206.31874 208.16047
 209.78619 210.93092 211.15964 211.38737 211.32409 211.02882 210.66154 210.29127
 209.90799 209.61772 209.42544 209.28917 209.21689 209.54762 209.93334 210.32206
 211.11479 212.29251 213.54224 215.32496 217.25269 219.29541 221.39014 223.47286
 225.53259 227.61631 229.71304 231.81876 233.94749 236.11921 238.37494 240.74466
 243.36539 245.61611 247.61784 249.38256 250.79929 251.92201 252.74373 253.05946
 253.09618 252.86991 252.22963 251.17736 249.78308 247.94381 245.85253 243.68526
 241.47598 239.27971 237.09943 234.93816 232.79788 230.66461 228.69033 226.84706
 225.12978 223.60151 222.23123 221.00296 219.88468 218.84440 217.94813 217.08885
 216.33058 215.51030 214.60803 213.97175 213.42148 214.12584 215.78995 218.19334
 220.33887 222.11813 223.58542 224.91441 226.15283 227.21352 227.71782 227.37408
 227.11461 228.62936 232.26259 236.76993 241.22404 245.48683 249.54750 253.28087
 256.68008 259.81815 262.69510 265.22757 267.50052 269.97162 272.05005 274.24374
 276.12451 277.85440 279.38361 280.73740 281.91333 282.95758 283.91110 284.78604
 285.59201 286.32922 286.94821 287.78741
 366.78100 356.33496 345.76692 334.63288 323.03584 311.22980 299.09976 286.90272
 274.61468 262.51164 250.52060 239.82156 229.94352 221.04748 213.22944 206.23140
 200.06536 195.00332 191.58528 189.62724 188.66420 188.72816 189.56311 190.87107
 192.59603 194.69099 196.95395 199.31291 201.75787 204.23783 206.32579 208.16775
 209.79371 210.93867 211.16763 211.39559 211.33255 211.03751 210.67047 210.30043
 209.91739 209.62735 209.43531 209.29927 209.22723 209.55819 209.94415 210.33311
 211.12607 212.30403 213.55399 215.33695 217.26491 219.30787 221.40283 223.48579
 225.54575 227.62971 229.72667 231.83263 233.96159 236.13355 238.38951 240.75947
 243.38043 245.63138 247.63334 249.39830 250.81526 251.93822 252.76018 253.07614
 253.11310 252.88706 252.24702 251.19498 249.80094 247.96190 245.87086 243.70382
 241.49478 239.29874 237.11870 234.95766 232.81762 230.68458 228.71054 226.86750
 225.15046 223.62242 222.25238 221.02434 219.90630 218.86626 217.97022 217.11118
 216.35314 215.53310 214.63106 213.99502 213.44498 214.13963 215.78082 218.29660
 220.50378 222.19640 223.55641 224.82315 226.06268 227.14117 227.62552 227.28464
 227.07098 228.64343 232.30278 236.82172 241.28242 245.53316 249.57852 253.30147
 256.68097 259.79132 262.65494 265.19864 267.46313 269.95401 271.97534 274.14554
 276.00381 277.71649 279.23764 280.58575 281.76135 282.80484 283.75696 284.63077
 285.43750 286.17239 286.79407 287.62497
 366.78100 356.33546 345.76792 334.63438 323.03784 311.23230 299.10276 286.90622
 274.61868 262.51614 250.52560 239.82706 229.94952 221.05398 213.23644 206.23890
 200.07336 195.01182 191.59428 189.63674 188.67420 188.73866 189.57412 190.88258
 192.60804 194.70349 196.96695 199.32641 201.77187 204.25233 206.34079 208.18325
 209.80971 210.95517 211.18463 211.41309 211.35055 211.05601 210.68947 210.31993
 209.93739 209.64785 209.45631 209.32077 209.24923 209.58069 209.96715 210.35661
 211.15007 212.32853 213.57899 215.36245 217.29091 219.33437 221.42983 223.51329
 225.57375 227.65821 229.75567 231.86213 233.99159 236.16405 238.42051 240.79097
 243.41243 245.66389 247.66635 249.43181 250.84927 251.97273 252.79519 253.11165
 253.14911 252.92357 252.28403 251.23248 249.83894 248.00040 245.90986 243.74332
 241.53478 239.33924 237.15970 234.99916 232.85962 230.72708 228.75354 226.91100
 225.19446 223.66692 222.29738 221.06984 219.95230 218.91276 218.01722 217.15868
 216.40114 215.58160 214.68006 214.04452 213.49498 214.16830 215.75912 218.37123
 220.70584 222.32870 223.53087 224.68425 225.91397 227.02504 227.51967 227.22314
 227.04810 228.65337 232.33890 236.88298 241.36143 245.60005 249.62628 253.34027
 256.69962 259.77945 262.63589 265.20877 267.39310 269.92065 271.90152 274.02588
 275.85574 277.56268 279.07590 280.41324 281.57370 282.60318 283.54736 284.41760
 285.23126 285.97165 286.59006 287.42551
 366.78100 356.33729 345.77158 334.63987 323.04516 311.24145 299.11374 286.91902
 274.63331 262.53260 250.54389 239.84718 229.97147 221.07776 213.26205 206.26634
 200.10263 195.04292 191.62721 189.67149 188.71078 188.77707 189.61436 190.92465
 192.65194 194.74923 197.01452 199.37581 201.82310 204.30539 206.39568 208.23996
 209.86825 211.01554 211.24683 211.47712 211.41641 211.12370 210.75899 210.39128
 210.01057 209.72286 209.53315 209.39943 209.32972 209.66301 210.05130 210.44259
 211.23788 212.41817 213.67046 215.45575 217.38604 219.43133 221.52862 223.61390
 225.67619 227.76248 229.86177 231.97006 234.10135 236.27564 238.53393 240.90622
 243.52951 245.78280 247.78709 249.55437 250.97366 252.09895 252.92324 253.24153
 253.28082 253.05711 252.41940 251.36969 249.97798 248.14127 246.05256 243.88784
 241.68113 239.48742 237.30971 235.15100 233.01329 230.88258 228.91087 227.07016
 225.35545 223.82974 222.46203 221.23631 220.12060 219.08289 218.18918 217.33247
 216.57676 215.75905 214.85934 214.22563 213.67792 214.27531 215.71292 218.37863
 220.85463 222.40083 223.49197 224.52112 225.72205 226.84987 227.28056 227.25322
 226.94739 228.67409 232.37015 236.94994 241.44853 245.67732 249.67731 253.37553
 256.71246 259.75003 262.56326 265.08398 267.53610 269.91873 271.89108 273.86978
 275.74844 277.43698 278.96317 280.32767 281.51251 282.57062 283.55737 284.47147
 285.34280 286.12726 286.81253 287.68582
 366.78100 356.33809 345.77317 334.64226 323.04834 311.24543 299.11851 286.92460
 274.63968 262.53977 250.55185 239.85594 229.98102 221.08811 213.27319 206.27828
 200.11536 195.05645 191.64153 189.68662 188.72670 188.79379 189.63187 190.94296
 192.67104 194.76913 197.03521 199.39730 201.84538 204.32847 206.41955 208.26464
 209.89372 211.04181 211.27389 211.50498 211.44506 211.15315 210.78923 210.42232
 210.04240 209.75549 209.56657 209.43366 209.36474 209.69883 210.08791 210.48000
 211.27608 212.45717 213.71025 215.49634 217.42742 219.47351 221.57159 223.65768
 225.72076 227.80785 229.90793 232.01702 234.14910 236.32419 238.58327 240.95636
 243.58044 245.83453 247.83961 249.60770 251.02778 252.15387 252.97896 253.29804
 253.33813 253.11521 252.47830 251.42938 250.03847 248.20255 246.11464 243.95072
 241.74481 239.55189 237.37498 235.21706 233.08015 230.95023 228.97932 227.13940
 225.42549 223.90057 222.53366 221.30874 220.19383 219.15691 218.26400 217.40808
 216.65317 215.83625 214.93734 214.30442 213.75751 214.32961 215.74217 218.33542
 220.99744 222.54257 223.48511 224.40106 225.55286 226.66113 227.06020 227.19130
 226.72914 228.64105 232.43375 237.01642 241.55429 245.80809 249.80582 253.49155
 256.82574 259.83884 262.64032 265.11880 267.51730 269.81268 271.85745 273.79703
 275.59329 277.25256 278.76544 280.11612 281.27615 282.32611 283.28763 284.11392
 284.85706 285.51883 286.09695 286.83368
 366.78100 356.33726 345.77151 334.63977 323.04503 311.24128 299.11354 286.91880
 274.63305 262.53231 250.54357 239.84682 229.97108 221.07734 213.26159 206.26585
 200.10211 195.04236 191.62662 189.67088 188.71013 188.77639 189.61365 190.92390
 192.65116 194.74842 197.01367 199.37493 201.82219 204.30444 206.39470 208.23896
 209.86721 211.01447 211.24573 211.47598 211.41524 211.12250 210.75775 210.39001
 210.00927 209.72152 209.53178 209.39804 209.32829 209.66155 210.04981 210.44106
 211.23632 212.41658 213.66883 215.45409 217.38435 219.42960 221.52686 223.61212
 225.67437 227.76063 229.85989 231.96814 234.09940 236.27366 238.53191 240.90417
 243.52743 245.78068 247.78494 249.55220 250.97145 252.09671 252.92097 253.23922
 253.27848 253.05474 252.41699 251.36725 249.97551 248.13876 246.05002 243.88528
 241.67853 239.48479 237.30705 235.14830 233.01056 230.87982 228.90807 227.06733
 225.35259 223.82684 222.45910 221.23336 220.11761 219.07987 218.18613 217.32938
 216.57364 215.75590 214.85615 214.22241 213.67467 214.28951 215.75713 218.34184
 221.22058 222.82780 223.61095 224.48056 225.54480 226.49300 226.91882 226.70868
 226.71040 228.72299 232.51207 237.10847 241.66269 245.91722 249.90631 253.60808
 256.94934 259.93835 262.70514 265.29074 267.55276 269.69647 271.73141 273.70795
 275.48468 277.13831 278.64258 279.97638 281.12354 282.15308 283.11572 283.98871
 284.72449 285.34195 285.88138 286.56882
 366.78100 356.33668 345.77036 334.63804 323.04272 311.23840 299.11009 286.91477
 274.62845 262.52713 250.53781 239.84049 229.96417 221.06985 213.25353 206.25721
 200.09290 195.03258 191.61626 189.65994 188.69862 188.76430 189.60098 190.91066
 192.63734 194.73402 196.99870 199.35939 201.80607 204.28775 206.37743 208.22111
 209.84879 210.99547 211.22615 211.45583 211.39451 211.10120 210.73588 210.36756
 209.98624 209.69792 209.50760 209.37328 209.30296 209.63564 210.02332 210.41401
 211.20869 212.38837 213.64005 215.42473 217.35441 219.39909 221.49577 223.58045
 225.64213 227.72781 229.82650 231.93418 234.06486 236.23854 238.49622 240.86790
 243.49058 245.74326 247.74694 249.51362 250.93231 252.05699 252.88067 253.19835
 253.23703 253.01271 252.37439 251.32407 249.93175 248.09443 246.00511 243.83980
 241.63248 239.43816 237.25984 235.10052 232.96220 230.83088 228.85856 227.01724
 225.30192 223.77561 222.40729 221.18097 220.06465 219.02633 218.13201 217.27469
 216.51837 215.70005 214.79973 214.16541 213.61710 214.25893 215.77530 218.45575
 221.23808 222.90306 223.76051 224.59627 225.60651 226.49959 226.81561 226.39561
 226.47917 228.63037 232.50536 237.13464 241.70404 245.97264 249.95438 253.66612
 257.02490 260.00052 262.72577 265.37000 267.60278 269.57144 271.69980 273.65240
 275.42346 277.04675 278.48361 279.77658 280.89713 281.91470 282.87189 283.74274
 284.50009 285.12427 285.66302 286.34961
 366.78100 356.33704 345.77108 334.63912 323.04416 311.24020 299.11225 286.91729
 274.63133 262.53037 250.54141 239.84445 229.96849 221.07453 213.25857 206.26261
 200.09865 195.03870 191.62274 189.66678 188.70582 188.77186 189.60890 190.91894
 192.64598 194.74302 197.00806 199.36910 201.81615 204.29819 206.38823 208.23227
 209.86031 211.00735 211.23839 211.46843 211.40747 211.11451 210.74955 210.38160
 210.00064 209.71268 209.52272 209.38876 209.31880 209.65184 210.03988 210.43092
 211.22596 212.40600 213.65805 215.44309 217.37313 219.41817 221.51521 223.60025
 225.66229 227.74833 229.84737 231.95541 234.08645 236.26050 238.51854 240.89058
 243.51362 245.76666 247.77070 249.53774 250.95678 252.08182 252.90586 253.22390
 253.26295 253.03899 252.40103 251.35107 249.95911 248.12215 246.03319 243.86823
 241.66127 239.46731 237.28935 235.13040 232.99244 230.86148 228.88952 227.04856
 225.33360 223.80764 222.43968 221.21372 220.09776 219.05981 218.16585 217.30889
 216.55293 215.73497 214.83501 214.20105 213.65309 214.27998 215.76828 218.54289
 221.34804 222.93806 223.74612 224.53198 225.52711 226.43658 226.79111 226.43327
 226.42293 228.55983 232.47548 237.14807 241.73318 246.01076 249.98811 253.68724
 257.05573 260.01907 262.71625 265.37631 267.60989 269.51483 271.72440 273.50116
 275.22107 276.81708 278.27341 279.53473 280.58850 281.59409 282.54910 283.41064
 284.00363 284.61368 285.14661 285.82571
 366.78100 356.33864 345.77427 334.64391 323.05055 311.24819 299.12182 286.92846
 274.64410 262.54473 250.55737 239.86201 229.98765 221.09528 213.28092 206.28656
 200.12419 195.06583 191.65147 189.69711 188.73774 188.80538 189.64402 190.95565
 192.68429 194.78293 197.04957 199.41220 201.86084 204.34448 206.43611 208.28175
 209.91139 211.06003 211.29266 211.52430 211.46494 211.17357 210.81021 210.44385
 210.06449 209.77812 209.58976 209.45740 209.38903 209.72367 210.11331 210.50595
 211.30258 212.48422 213.73786 215.52449 217.45613 219.50277 221.60141 223.68804
 225.75168 227.83932 229.93995 232.04959 234.18223 236.35787 238.61750 240.99114
 243.61578 245.87041 247.87605 249.64469 251.06533 252.19196 253.01760 253.33724
 253.37787 253.15551 252.51915 251.47079 250.08042 248.24506 246.15770 243.99433
 241.78897 239.59661 237.42025 235.26288 233.12652 230.99716 229.02679 227.18743
 225.47407 223.94971 222.58334 221.35898 220.24462 219.20825 218.31589 217.46053
 216.70617 215.88980 214.99144 214.35908 213.81271 214.37561 215.73648 218.55048
 221.53667 223.03076 223.66841 224.37947 225.37111 226.28198 226.69170 226.57404
 226.49867 228.60419 232.48090 237.16550 241.78549 246.04929 250.03406 253.72406
 257.07632 260.01431 262.68808 265.31793 267.50314 269.59995 271.69522 273.44565
 275.05072 276.56796 277.99808 279.23193 280.26633 281.24680 282.19388 283.01004
 283.68365 284.28067 284.80222 285.46686
 366.78100 356.33930 345.77560 334.64590 323.05320 311.25150 299.12580 286.93310
 274.64940 262.55070 250.56400 239.86930 229.99560 221.10390 213.29020 206.29650
 200.13480 195.07710 191.66340 189.70970 188.75100 188.81930 189.65860 190.97090
 192.70020 194.79950 197.06680 199.43010 201.87940 204.36370 206.45600 208.30230
 209.93260 211.08190 211.31520 211.54750 211.48880 211.19810 210.83540 210.46970
 210.09100 209.80530 209.61760 209.48590 209.41820 209.75350 210.14380 210.53710
 211.33440 212.51670 213.77100 215.55830 217.49060 219.53790 221.63720 223.72450
 225.78880 227.87710 229.97840 232.08870 234.22200 236.39830 238.65860 241.03290
 243.65820 245.91350 247.91980 249.68910 251.11040 252.23770 253.06400 253.38430
 253.42560 253.20390 252.56820 251.52050 250.13080 248.29610 246.20940 244.04670
 241.84200 239.65030 237.47460 235.31790 233.18220 231.05350 229.08380 227.24510
 225.53240 224.00870 222.64300 221.41930 220.30560 219.26990 218.37820 217.52350
 216.76980 215.95410 215.05640 214.42470 213.87900 214.43091 215.81148 218.51463
 221.47153 223.02332 223.69975 224.36246 225.33537 226.21933 226.54585 226.59215
 226.32811 228.57841 232.50621 237.17099 241.78528 246.09120 250.10358 253.81769
 257.17749 260.11401 262.80151 265.41202 267.56866 269.48010 271.60156 273.42099
 275.01459 276.45886 277.79108 278.94925 279.98880 281.00989 282.00897 282.94250
 283.78207 284.52975 285.18289 286.01526
 366.78100 356.33799 345.77298 334.64197 323.04796 311.24495 299.11794 286.92393
 274.63892 262.53891 250.55090 239.85489 229.97988 221.08687 213.27186 206.27685
 200.11384 195.05483 191.63982 189.68481 188.72480 188.79179 189.62978 190.94077
 192.66876 194.76675 197.03274 199.39473 201.84272 204.32571 206.41670 208.26169
 209.89068 211.03867 211.27066 211.50165 211.44163 211.14962 210.78561 210.41860
 210.03859 209.75158 209.56257 209.42956 209.36055 209.69454 210.08353 210.47552
 211.27151 212.45250 213.70549 215.49148 217.42247 219.46846 221.56645 223.65244
 225.71543 227.80242 229.90241 232.01140 234.14339 236.31838 238.57737 240.95036
 243.57435 245.82834 247.83333 249.60132 251.02131 252.14730 252.97229 253.29128
 253.33127 253.10826 252.47125 251.42224 250.03123 248.19522 246.10721 243.94320
 241.73719 239.54418 237.36717 235.20916 233.07215 230.94214 228.97113 227.13112
 225.41711 223.89210 222.52509 221.30008 220.18507 219.14806 218.25505 217.39904
 216.64403 215.82702 214.92801 214.29500 213.74799 214.37617 215.92659 218.52516
 221.41885 223.00401 223.79411 224.54948 225.48340 226.24965 226.47290 226.25917
 226.13493 228.50891 232.50558 237.17667 241.78687 246.08978 250.11661 253.83397
 257.20581 260.17017 262.86441 265.49237 267.78500 269.47003 271.47568 273.38525
 275.06152 276.52087 277.78400 278.94092 280.01703 281.05569 282.08835 283.07043
 283.95370 284.74026 285.42737 286.30304
 366.78100 356.33827 345.77354 334.64282 323.04909 311.24636 299.11963 286.92591
 274.64118 262.54145 250.55372 239.85799 229.98327 221.09054 213.27581 206.28108
 200.11835 195.05963 191.64490 189.69017 188.73044 188.79772 189.63599 190.94726
 192.67553 194.77380 197.04008 199.40235 201.85062 204.33389 206.42516 208.27044
 209.89971 211.04798 211.28025 211.51153 211.45180 211.16007 210.79634 210.42961
 210.04989 209.76316 209.57443 209.44170 209.37297 209.70725 210.09652 210.48879
 211.28506 212.46634 213.71961 215.50588 217.43715 219.48342 221.58170 223.66797
 225.73124 227.81851 229.91878 232.02806 234.16033 236.33560 238.59487 240.96815
 243.59242 245.84669 247.85196 249.62023 251.04051 252.16678 252.99205 253.31132
 253.35159 253.12887 252.49214 251.44341 250.05268 248.21696 246.12923 243.96550
 241.75977 239.56704 237.39032 235.23259 233.09586 230.96613 228.99540 227.15568
 225.44195 223.91722 222.55049 221.32577 220.21104 219.17431 218.28158 217.42585
 216.67113 215.85440 214.95567 214.32294 213.77621 214.38765 215.87163 218.57404
 221.61490 223.13206 223.74980 224.54013 225.55353 226.32391 226.55191 226.02222
 226.03136 228.42635 232.48135 237.18111 241.75069 246.06563 250.11131 253.83972
 257.20963 260.15787 262.82852 265.45453 267.75616 269.57553 271.44760 273.34390
 275.03595 276.54938 277.84625 279.00623 280.07117 281.08929 282.06015 282.98193
 283.85291 284.62848 285.30603 286.16949
 366.78100 356.34147 345.77995 334.65242 323.06190 311.26237 299.13884 286.94832
 274.66679 262.57027 250.58574 239.89321 230.02169 221.13216 213.32064 206.32911
 200.16958 195.11406 191.70253 189.75101 188.79448 188.86496 189.70643 191.02090
 192.75238 194.85385 197.12333 199.48880 201.94027 204.42675 206.52122 208.36970
 210.00217 211.15364 211.38912 211.62359 211.56707 211.27854 210.91801 210.55449
 210.17796 209.89444 209.70891 209.57938 209.51386 209.85133 210.24381 210.63928
 211.43875 212.62323 213.87970 215.66918 217.60365 219.65312 221.75460 223.84407
 225.91055 228.00102 230.10449 232.21697 234.35244 236.53092 238.79339 241.16987
 243.79734 246.05481 248.06329 249.83476 251.25824 252.38771 253.21618 253.53866
 253.58213 253.36261 252.72908 251.68355 250.29603 248.46350 246.37898 244.21845
 242.01592 239.82640 237.65287 235.49835 233.36482 231.23829 229.27077 227.43424
 225.72372 224.20219 222.83866 221.61714 220.50561 219.47209 218.58256 217.73003
 216.97851 216.16498 215.26946 214.63993 214.09641 214.57619 215.82895 218.63289
 221.67102 223.00108 223.66058 224.49707 225.56197 226.37422 226.49496 226.40112
 226.16678 228.41911 232.40390 237.07402 241.68283 246.04311 250.11623 253.87144
 257.27130 260.23953 262.87686 265.43423 267.72147 269.55341 271.41660 273.26257
 274.78113 276.16986 277.36359 278.52045 279.70999 280.84103 281.93625 282.92841
 283.82077 284.61542 285.30957 286.19424
 366.78100 356.34300 345.78299 334.65699 323.06798 311.26998 299.14797 286.95897
 274.67896 262.58396 250.60096 239.90995 230.03995 221.15194 213.34194 206.35193
 200.19393 195.13992 191.72992 189.77991 188.82491 188.89691 189.73990 191.05590
 192.78889 194.89189 197.16288 199.52988 201.98287 204.47087 206.56687 208.41686
 210.05086 211.20385 211.44085 211.67684 211.62184 211.33483 210.97583 210.61382
 210.23882 209.95682 209.77281 209.64481 209.58080 209.91980 210.31379 210.71079
 211.51178 212.69778 213.95578 215.74677 217.68277 219.73376 221.83676 223.92775
 225.99575 228.08774 230.19274 232.30673 234.44373 236.62373 238.88772 241.26572
 243.89471 246.15371 248.16370 249.93670 251.36169 252.49269 253.32269 253.64668
 253.69168 253.47367 252.84167 251.79766 250.41166 248.58065 246.49765 244.33864
 242.13764 239.94964 237.77763 235.62463 233.49262 231.36762 229.40161 227.56661
 225.85760 224.33760 222.97560 221.75559 220.64559 219.61358 218.72558 217.87457
 217.12457 216.31256 215.41856 214.79055 214.24855 214.69310 215.97664 218.61844
 221.58731 223.18683 224.17688 225.01099 225.79031 226.09831 226.30954 225.78993
 226.15843 228.56801 232.55412 237.15582 241.75533 246.13358 250.23973 254.02766
 257.39966 260.41956 263.14136 265.63324 267.75845 269.62210 271.36032 273.17322
 274.65289 275.96405 277.66104 279.25320 280.63110 281.85016 282.96240 283.97000
 284.87622 285.68323 286.38818 287.28659
 366.78100 356.33962 345.77624 334.64687 323.05449 311.25311 299.12773 286.93535
 274.65198 262.55360 250.56722 239.87284 229.99946 221.10809 213.29471 206.30133
 200.13995 195.08257 191.66919 189.71582 188.75744 188.82606 189.66568 190.97830
 192.70793 194.80755 197.07517 199.43879 201.88841 204.37304 206.46566 208.31228
 209.94290 211.09252 211.32615 211.55877 211.50039 211.21001 210.84763 210.48226
 210.10388 209.81850 209.63112 209.49974 209.43237 209.76799 210.15861 210.55223
 211.34985 212.53247 213.78710 215.57472 217.50734 219.55496 221.65458 223.74221
 225.80683 227.89545 229.99707 232.10769 234.24132 236.41794 238.67856 241.05318
 243.67880 245.93443 247.94105 249.71067 251.13229 252.25991 253.08654 253.40716
 253.44878 253.22740 252.59202 251.54465 250.15527 248.32089 246.23451 244.07213
 241.86776 239.67638 237.50100 235.34462 233.20924 231.08086 229.11149 227.27311
 225.56073 224.03735 222.67197 221.44860 220.33522 219.29984 218.40846 217.55408
 216.80071 215.98533 215.08795 214.45657 213.91119 214.54790 216.21049 218.56102
 221.31534 223.35504 224.50977 225.23891 225.90488 226.16823 226.20287 225.26512
 225.59071 228.25203 232.46950 237.17537 241.82950 246.26755 250.44594 254.32408
 257.81964 260.93549 263.68439 266.21747 268.42010 270.26718 271.84265 273.23642
 274.80099 276.64505 278.70508 280.53479 282.11826 283.51923 284.79739 285.95532
 286.99677 287.92416 288.73431 289.76675
 366.78100 356.33911 345.77522 334.64534 323.05245 311.25056 299.12467 286.93178
 274.64789 262.54901 250.56212 239.86723 229.99334 221.10145 213.28757 206.29368
 200.13179 195.07390 191.66001 189.70612 188.74724 188.81535 189.65446 190.96657
 192.69568 194.79480 197.06191 199.42502 201.87413 204.35824 206.45036 208.29647
 209.92658 211.07569 211.30880 211.54091 211.48203 211.19114 210.82825 210.46236
 210.08347 209.79759 209.60970 209.47781 209.40992 209.74503 210.13514 210.52826
 211.32537 212.50748 213.76159 215.54870 217.48082 219.52793 221.62704 223.71415
 225.77826 227.86637 229.96749 232.07760 234.21071 236.38682 238.64693 241.02105
 243.64616 245.90127 247.90738 249.67649 251.09760 252.22472 253.05083 253.37094
 253.41205 253.19016 252.55428 251.50639 250.11650 248.28161 246.19472 244.03184
 241.82695 239.63506 237.45917 235.30228 233.16639 231.03751 229.06762 227.22873
 225.51584 223.99195 222.62607 221.40218 220.28829 219.25240 218.36051 217.50562
 216.75174 215.93585 215.03796 214.40607 213.86018 214.52330 216.22417 218.65848
 221.18575 223.23872 224.41164 225.08533 225.78542 226.42853 226.35339 225.48645
 225.68999 228.12810 232.29613 236.94756 241.56473 246.00002 250.18460 254.05490
 257.56009 260.72293 263.61041 266.26740 268.65491 270.68610 272.44342 273.94437
 275.31982 276.84683 278.44461 280.05945 281.69043 283.13342 284.44995 285.64264
 286.71533 287.67056 288.50500 289.56845
 366.78100 356.34104 345.77907 334.65111 323.06015 311.26018 299.13622 286.94525
 274.66329 262.56633 250.58136 239.88840 230.01644 221.12647 213.31451 206.32254
 200.16258 195.10662 191.69465 189.74269 188.78573 188.85576 189.69680 191.01083
 192.74187 194.84291 197.11194 199.47698 201.92802 204.41405 206.50809 208.35612
 209.98816 211.13920 211.37423 211.60827 211.55131 211.26234 210.90138 210.53741
 210.16045 209.87649 209.69052 209.56056 209.49460 209.83163 210.22367 210.61870
 211.41774 212.60178 213.85781 215.64685 217.58089 219.62992 221.73096 223.82000
 225.88603 227.97607 230.07910 232.19114 234.32618 236.50421 238.76625 241.14229
 243.76932 246.02636 248.03439 249.80543 251.22847 252.35750 253.18554 253.50758
 253.55061 253.33065 252.69668 251.65072 250.26276 248.42979 246.34483 244.18387
 241.98090 239.79094 237.61697 235.46201 233.32805 231.20108 229.23312 227.39616
 225.68519 224.16323 222.79926 221.57730 220.46534 219.43137 218.54141 217.68845
 216.93648 216.12252 215.22656 214.59659 214.05263 214.63353 216.15103 218.68137
 221.29349 223.25159 224.31253 224.85667 225.49680 226.32278 226.61575 225.80656
 225.90271 228.15674 232.25699 236.89749 241.49730 245.91626 250.09448 253.96529
 257.44785 260.54248 263.37485 266.01483 268.39752 270.44937 272.27005 273.91260
 275.40955 277.02347 278.60037 280.06201 281.49350 282.77179 283.93802 284.99454
 285.94476 286.79095 287.53018 288.47223
 366.78100 356.34114 345.77929 334.65143 323.06057 311.26072 299.13686 286.94600
 274.66415 262.56729 250.58243 239.88958 230.01772 221.12786 213.31601 206.32415
 200.16429 195.10844 191.69658 189.74472 188.78787 188.85801 189.69915 191.01330
 192.74444 194.84558 197.11473 199.47987 201.93101 204.41716 206.51130 208.35945
 209.99159 211.14273 211.37788 211.61202 211.55516 211.26631 210.90545 210.54159
 210.16474 209.88088 209.69502 209.56517 209.49931 209.83645 210.22860 210.62374
 211.42288 212.60703 213.86317 215.65231 217.58646 219.63560 221.73674 223.82589
 225.89203 227.98217 230.08532 232.19746 234.33260 236.51075 238.77289 241.14903
 243.77618 246.03332 248.04146 249.81261 251.23575 252.36489 253.19304 253.51518
 253.55832 253.33847 252.70461 251.65875 250.27090 248.43804 246.35318 244.19233
 241.98947 239.79961 237.62576 235.47090 233.33704 231.21019 229.24233 227.40548
 225.69462 224.17276 222.80891 221.58705 220.47519 219.44134 218.55148 217.69862
 216.94677 216.13291 215.23705 214.60720 214.06334 214.66547 216.21837 218.59979
 221.27968 223.40169 224.50334 224.84856 225.24017 226.06793 226.54047 225.82758
 225.96886 228.21516 232.29295 236.92815 241.53598 245.97096 250.17865 254.09880
 257.60831 260.72409 263.53522 266.15295 268.51587 270.52634 272.30112 273.94043
 275.48413 277.18967 278.78143 280.27997 281.71542 282.98541 284.14407 285.19376
 286.13785 286.97855 287.71298 288.64890
 366.78100 356.34070 345.77840 334.65011 323.05881 311.25851 299.13421 286.94292
 274.66062 262.56332 250.57802 239.88472 230.01243 221.12213 213.30983 206.31753
 200.15724 195.10094 191.68864 189.73634 188.77905 188.84875 189.68945 191.00315
 192.73385 194.83456 197.10326 199.46796 201.91866 204.40437 206.49807 208.34577
 209.97747 211.12817 211.36288 211.59658 211.53928 211.24998 210.88869 210.52439
 210.14709 209.86279 209.67649 209.54620 209.47990 209.81660 210.20830 210.60301
 211.40171 212.58541 213.84111 215.62982 217.56352 219.61222 221.71292 223.80162
 225.86733 227.95703 230.05973 232.17143 234.30614 236.48384 238.74554 241.12124
 243.74794 246.00465 248.01235 249.78305 251.20575 252.33446 253.16216 253.48386
 253.52656 253.30627 252.67197 251.62567 250.23737 248.40407 246.31878 244.15748
 241.95418 239.76388 237.58959 235.43429 233.29999 231.17269 229.20439 227.36710
 225.65580 224.13350 222.76920 221.54691 220.43461 219.40031 218.51001 217.65671
 216.90442 216.09012 215.19382 214.56352 214.01923 214.66534 216.29318 218.57179
 221.15451 223.36810 224.69609 225.01672 225.16177 225.90466 226.41875 225.65857
 225.93739 228.19603 232.28979 236.91823 241.52519 245.97198 250.20654 254.15335
 257.65369 260.79755 263.62775 266.26089 268.61624 270.63986 272.41531 274.05035
 275.59320 277.22040 278.78448 280.19791 281.56390 282.80997 283.94681 284.97675
 285.90302 286.72791 287.44849 288.36679
 366.78100 356.34051 345.77803 334.64954 323.05805 311.25757 299.13308 286.94160
 274.65911 262.56162 250.57614 239.88265 230.01016 221.11968 213.30719 206.31470
 200.15422 195.09773 191.68525 189.73276 188.77527 188.84479 189.68530 190.99881
 192.72933 194.82984 197.09836 199.46287 201.91338 204.39890 206.49241 208.33992
 209.97144 211.12195 211.35646 211.58998 211.53249 211.24301 210.88152 210.51703
 210.13955 209.85506 209.66857 209.53809 209.47160 209.80811 210.19963 210.59414
 211.39266 212.57617 213.83168 215.62020 217.55371 219.60222 221.70274 223.79125
 225.85677 227.94628 230.04879 232.16031 234.29482 236.47233 238.73385 241.10936
 243.73587 245.99239 247.99990 249.77042 251.19293 252.32144 253.14896 253.47047
 253.51298 253.29250 252.65801 251.61152 250.22304 248.38955 246.30407 244.14258
 241.93909 239.74861 237.57412 235.41863 233.28415 231.15666 229.18817 227.35069
 225.63920 224.11672 222.75223 221.52974 220.41726 219.38277 218.49228 217.63880
 216.88631 216.07183 215.17534 214.54485 214.00037 214.67506 216.36032 218.58495
 221.04704 223.21857 224.77791 225.25067 225.32997 225.98042 226.27107 225.38953
 225.76585 228.13501 232.28255 236.91884 241.53879 246.01016 250.27705 254.26476
 257.79822 260.94583 263.76636 266.35132 268.68787 270.69855 272.44186 274.05646
 275.56232 277.09705 278.64627 280.05542 281.42438 282.68045 283.82645 284.86462
 285.79837 286.62985 287.35623 288.28189
 366.78100 356.34042 345.77784 334.64926 323.05768 311.25710 299.13252 286.94094
 274.65836 262.56078 250.57520 239.88162 230.00905 221.11847 213.30589 206.31331
 200.15273 195.09615 191.68357 189.73099 188.77341 188.84283 189.68325 190.99667
 192.72709 194.82751 197.09593 199.46035 201.91077 204.39619 206.48961 208.33703
 209.96845 211.11887 211.35329 211.58672 211.52914 211.23956 210.87798 210.51340
 210.13582 209.85124 209.66466 209.53408 209.46750 209.80392 210.19534 210.58976
 211.38818 212.57160 213.82702 215.61544 217.54886 219.59728 221.69770 223.78612
 225.85154 227.94096 230.04338 232.15481 234.28923 236.46665 238.72807 241.10349
 243.72991 245.98633 247.99375 249.76417 251.18659 252.31501 253.14243 253.46385
 253.50627 253.28569 252.65111 251.60453 250.21595 248.38237 246.29679 244.13521
 241.93163 239.74105 237.56648 235.41090 233.27632 231.14874 229.18016 227.34258
 225.63100 224.10842 222.74384 221.52126 220.40868 219.37410 218.48352 217.62994
 216.87736 216.06278 215.16620 214.53562 213.99104 214.68965 216.43135 218.60867
 220.93553 223.14253 224.77180 225.30396 225.49683 226.20306 226.32521 225.28474
 225.53543 227.98842 232.19608 236.84645 241.47636 245.97485 250.28885 254.33099
 257.93890 261.14340 264.01315 266.60196 268.93567 270.97000 272.72849 274.29919
 275.71844 277.18900 278.75363 280.20999 281.64444 282.91898 284.08182 285.13525
 286.08270 286.92642 287.66348 288.60275
 366.78100 356.33991 345.77682 334.64773 323.05564 311.25455 299.12946 286.93737
 274.65429 262.55620 250.57011 239.87602 230.00293 221.11184 213.29875 206.30566
 200.14457 195.08748 191.67439 189.72130 188.76321 188.83212 189.67203 190.98494
 192.71486 194.81477 197.08268 199.44659 201.89650 204.38141 206.47432 208.32123
 209.95214 211.10205 211.33596 211.56887 211.51078 211.22069 210.85860 210.49351
 210.11543 209.83034 209.64325 209.51216 209.44507 209.78098 210.17189 210.56580
 211.36371 212.54662 213.80153 215.58944 217.52235 219.57026 221.67017 223.75808
 225.82300 227.91191 230.01382 232.12473 234.25864 236.43555 238.69646 241.07137
 243.69728 245.95319 247.96010 249.73001 251.15192 252.27983 253.10674 253.42766
 253.46957 253.24848 252.61339 251.56630 250.17721 248.34312 246.25703 244.09494
 241.89085 239.69976 237.52467 235.36858 233.23349 231.10540 229.13631 227.29823
 225.58614 224.06305 222.69796 221.47487 220.36178 219.32669 218.43560 217.58151
 216.82842 216.01333 215.11624 214.48515 213.94006 214.67526 216.48683 218.64899
 220.79706 223.06560 224.59871 225.11845 225.48688 226.42104 226.78070 225.43132
 225.44142 227.81065 232.04892 236.68391 241.29320 245.79390 250.12077 254.15698
 257.80148 261.07199 264.04803 266.74106 269.16263 271.30515 273.16455 274.78882
 276.17868 277.35599 278.89313 280.29837 281.66373 282.99078 284.20151 285.29834
 286.28485 287.16333 287.93073 288.90872
 366.78100 356.34024 345.77749 334.64873 323.05697 311.25622 299.13146 286.93970
 274.65695 262.55919 250.57343 239.87968 230.00692 221.11616 213.30341 206.31065
 200.14989 195.09314 191.68038 189.72762 188.76987 188.83911 189.67935 190.99260
 192.72284 194.82308 197.09133 199.45557 201.90581 204.39106 206.48430 208.33154
 209.96278 211.11303 211.34727 211.58051 211.52276 211.23300 210.87124 210.50649
 210.12873 209.84397 209.65722 209.52646 209.45970 209.79595 210.18719 210.58143
 211.37968 212.56292 213.81816 215.60641 217.53965 219.58789 221.68814 223.77638
 225.84162 227.93087 230.03311 232.14435 234.27860 236.45584 238.71708 241.09233
 243.71857 245.97481 247.98206 249.75230 251.17454 252.30279 253.13003 253.45127
 253.49352 253.27276 252.63800 251.59125 250.20249 248.36873 246.28298 244.12122
 241.91746 239.72671 237.55195 235.39619 233.26144 231.13368 229.16492 227.32717
 225.61541 224.09265 222.72789 221.50514 220.39238 219.35762 218.46687 217.61311
 216.86035 216.04560 215.14884 214.51808 213.97333 214.69241 216.44861 218.78357
 220.65414 222.76424 224.46394 224.96317 225.38516 226.46646 227.27917 225.51846
 225.38121 227.65967 231.95824 236.58180 241.18118 245.67570 249.98705 253.98470
 257.59900 260.88803 263.91922 266.68195 269.15994 271.36725 273.33783 275.07800
 276.56458 277.80289 278.98422 280.35513 281.59482 282.71045 283.78577 284.77255
 285.66003 286.45035 287.14075 288.02057
 366.78100 356.34062 345.77824 334.64985 323.05847 311.25809 299.13371 286.94233
 274.65995 262.56256 250.57718 239.88380 230.01142 221.12104 213.30865 206.31627
 200.15589 195.09951 191.68713 189.73475 188.77736 188.84698 189.68760 191.00122
 192.73184 194.83245 197.10107 199.46569 201.91631 204.40193 206.49555 208.34316
 209.97478 211.12540 211.36002 211.59364 211.53625 211.24687 210.88549 210.52111
 210.14373 209.85935 209.67296 209.54258 209.47620 209.81282 210.20444 210.59905
 211.39767 212.58129 213.83691 215.62553 217.55915 219.60776 221.70838 223.79700
 225.86262 227.95224 230.05485 232.16647 234.30109 236.47871 238.74033 241.11595
 243.74256 245.99918 248.00680 249.77742 251.20004 252.32865 253.15627 253.47789
 253.52051 253.30013 252.66575 251.61936 250.23098 248.39760 246.31222 244.15084
 241.94745 239.75707 237.58269 235.42731 233.29293 231.16555 229.19716 227.35978
 225.64840 224.12602 222.76164 221.53925 220.42687 219.39249 218.50211 217.64873
 216.89635 216.08196 215.18558 214.55520 214.01082 214.71725 216.40672 218.82831
 220.80739 222.72868 224.42039 224.95638 225.41875 226.37123 227.11574 225.58966
 225.48305 227.69849 231.93915 236.55173 241.16396 245.67513 250.00452 254.01187
 257.61172 260.85709 263.85254 266.59741 269.06744 271.27838 273.28430 275.09286
 276.65851 277.97559 279.10913 280.30609 281.50903 282.56516 283.50259 284.39355
 285.26276 286.03677 286.71295 287.57465
 366.78100 356.34038 345.77777 334.64915 323.05753 311.25692 299.13230 286.94069
 274.65807 262.56045 250.57484 239.88122 230.00860 221.11799 213.30537 206.31275
 200.15214 195.09552 191.68291 189.73029 188.77267 188.84206 189.68244 190.99582
 192.72621 194.82659 197.09498 199.45936 201.90974 204.39513 206.48851 208.33589
 209.96728 211.11766 211.35204 211.58543 211.52781 211.23820 210.87658 210.51196
 210.13435 209.84973 209.66311 209.53250 209.46588 209.80226 210.19365 210.58803
 211.38642 212.56980 213.82518 215.61357 217.54695 219.59533 221.69572 223.78410
 225.84948 227.93887 230.04125 232.15264 234.28702 236.46440 238.72579 241.10117
 243.72755 245.98394 247.99132 249.76171 251.18409 252.31247 253.13986 253.46124
 253.50362 253.28301 252.64839 251.60177 250.21316 248.37954 246.29393 244.13231
 241.92869 239.73808 237.56346 235.40784 233.27323 231.14561 229.17699 227.33938
 225.62776 224.10515 222.74053 221.51791 220.40530 219.37068 218.48006 217.62645
 216.87383 216.05921 215.16260 214.53198 213.98737 214.71776 216.44342 218.75366
 220.96770 222.82339 224.30560 224.93622 225.46071 226.31735 226.91023 225.66960
 225.55710 227.83449 231.95154 236.55573 241.17271 245.70273 250.05232 254.08456
 257.68726 260.89606 263.85269 266.56049 269.00653 271.19293 273.19229 275.01953
 276.62091 277.98621 279.14566 280.20404 281.32697 282.40176 283.35327 284.08807
 284.85031 285.56665 286.21182 287.03406
 366.78100 356.34136 345.77972 334.65207 323.06143 311.26179 299.13815 286.94750
 274.66586 262.56922 250.58458 239.89193 230.02029 221.13065 213.31901 206.32736
 200.16772 195.11208 191.70044 189.74879 188.79215 188.86251 189.70387 191.01823
 192.74958 194.85094 197.12030 199.48566 201.93701 204.42337 206.51773 208.36609
 209.99844 211.14980 211.38516 211.61952 211.56287 211.27423 210.91359 210.54995
 210.17331 209.88966 209.70402 209.57438 209.50874 209.84609 210.23845 210.63381
 211.43317 212.61752 213.87388 215.66324 217.59760 219.64695 221.74831 223.83767
 225.90403 227.99438 230.09774 232.21010 234.34546 236.52382 238.78617 241.16253
 243.78989 246.04725 248.05560 249.82696 251.25032 252.37968 253.20803 253.53039
 253.57375 253.35411 252.72046 251.67482 250.28718 248.45454 246.36989 244.20925
 242.00661 239.81697 237.64333 235.48868 233.35504 231.22840 229.26076 227.42411
 225.71347 224.19183 222.82819 221.60654 220.49490 219.46126 218.57162 217.71897
 216.96733 216.15369 215.25805 214.62840 214.08476 214.77968 216.42151 218.77180
 221.00359 222.83356 224.24126 224.88731 225.44279 226.28468 226.80482 225.73265
 225.59262 227.90178 231.96834 236.56438 241.18134 245.71825 250.06859 254.09311
 257.68527 260.89908 263.85788 266.55771 268.98672 271.14301 273.12271 274.95355
 276.56375 277.93954 279.12134 280.17111 281.27628 282.34460 283.21503 283.83469
 284.52298 285.22302 285.86746 286.71097
 366.78100 356.34268 345.78237 334.65605 323.06673 311.26842 299.14610 286.95679
 274.67647 262.58115 250.59784 239.90652 230.03620 221.14789 213.33757 206.34725
 200.18894 195.13462 191.72431 189.77399 188.81867 188.89036 189.73304 191.04872
 192.78141 194.88409 197.15477 199.52146 201.97414 204.46182 206.55751 208.40719
 210.04088 211.19356 211.43024 211.66593 211.61061 211.32329 210.96398 210.60166
 210.22634 209.94403 209.75971 209.63140 209.56708 209.90576 210.29945 210.69613
 211.49681 212.68250 213.94018 215.73086 217.66655 219.71723 221.81992 223.91060
 225.97828 228.06997 230.17465 232.28833 234.42502 236.60470 238.86838 241.24607
 243.87475 246.13343 248.14312 249.91580 251.34049 252.47117 253.30085 253.62454
 253.66922 253.45090 252.81859 251.77427 250.38795 248.55664 246.47332 244.31401
 242.11269 239.92437 237.75206 235.59874 233.46642 231.34111 229.37479 227.53947
 225.83016 224.30984 222.94753 221.72721 220.61689 219.58458 218.69626 217.84494
 217.09463 216.28231 215.38799 214.75968 214.21736 214.85834 216.37274 218.82149
 221.00359 222.81479 224.20183 224.84312 225.39313 226.20534 226.72382 225.79738
 225.66553 227.98584 232.00227 236.57610 241.18814 245.72365 250.06612 254.07808
 257.66269 260.88501 263.85498 266.55957 268.97650 271.11813 273.08524 274.90536
 276.50797 277.88162 279.07272 280.11032 281.07523 282.11011 283.11041 283.83142
 284.32080 285.01923 285.64990 286.50330
 366.78100 356.34284 345.78269 334.65653 323.06737 311.26922 299.14706 286.95790
 274.67774 262.58259 250.59943 239.90827 230.03812 221.14996 213.33980 206.34965
 200.19149 195.13733 191.72718 189.77702 188.82186 188.89370 189.73655 191.05239
 192.78523 194.88808 197.15892 199.52576 201.97861 204.46645 206.56229 208.41214
 210.04598 211.19882 211.43566 211.67151 211.61635 211.32919 210.97004 210.60788
 210.23272 209.95057 209.76641 209.63825 209.57410 209.91294 210.30678 210.70362
 211.50447 212.69031 213.94815 215.73900 217.67484 219.72568 221.82853 223.91937
 225.98721 228.07905 230.18390 232.29774 234.43458 236.61443 238.87827 241.25611
 243.88496 246.14380 248.15364 249.92649 251.35133 252.48217 253.31201 253.63586
 253.68070 253.46254 252.83039 251.78623 250.40007 248.56892 246.48576 244.32660
 242.12545 239.93729 237.76513 235.61197 233.47982 231.35466 229.38850 227.55335
 225.84419 224.32403 222.96188 221.74172 220.63156 219.59941 218.71125 217.86009
 217.10993 216.29778 215.40362 214.77546 214.23331 214.87732 216.39886 218.80028
 221.03329 222.79704 224.10669 224.78696 225.39348 226.14128 226.63461 225.84717
 225.76108 228.05502 232.03261 236.58502 241.19284 245.72748 250.06630 254.07388
 257.65680 260.88034 263.85019 266.55524 268.96896 271.10678 273.06186 274.86230
 276.44785 277.81073 279.00110 280.05960 280.97354 281.97659 282.96579 283.83368
 284.30930 284.97424 285.60406 286.45282
 366.78100 356.34247 345.78193 334.65540 323.06586 311.26733 299.14480 286.95526
 274.67473 262.57920 250.59566 239.90413 230.03359 221.14506 213.33453 206.34399
 200.18546 195.13093 191.72039 189.76986 188.81432 188.88579 189.72826 191.04372
 192.77619 194.87865 197.14912 199.51559 201.96805 204.45552 206.55099 208.40045
 210.03392 211.18638 211.42285 211.65832 211.60278 211.31525 210.95571 210.59318
 210.21765 209.93511 209.75058 209.62205 209.55751 209.89598 210.28944 210.68591
 211.48638 212.67184 213.92931 215.71978 217.65524 219.70571 221.80817 223.89864
 225.96611 228.05757 230.16204 232.27550 234.41197 236.59144 238.85490 241.23237
 243.86084 246.11930 248.12877 249.90123 251.32570 252.45617 253.28563 253.60910
 253.65356 253.43503 252.80250 251.75796 250.37143 248.53990 246.45636 244.29683
 242.09529 239.90676 237.73423 235.58069 233.44816 231.32263 229.35609 227.52056
 225.81102 224.29049 222.92796 221.70742 220.59689 219.56435 218.67582 217.82429
 217.07375 216.26122 215.36669 214.73815 214.19562 214.86946 216.46146 218.73349
 221.07933 222.83409 223.97487 224.68520 225.38649 226.08740 226.58141 225.84486
 225.80594 228.13515 232.06538 236.58722 241.19600 245.73535 250.07491 254.08273
 257.66489 260.88342 263.84265 266.54626 268.96750 271.11551 273.06525 274.84442
 276.40472 277.75067 278.93311 279.99985 280.93973 281.95825 282.96442 283.85599
 284.28598 284.95038 285.57858 286.42123
 366.78100 356.34218 345.78136 334.65455 323.06473 311.26591 299.14309 286.95327
 274.67245 262.57664 250.59282 239.90100 230.03018 221.14136 213.33054 206.33973
 200.18091 195.12609 191.71527 189.76445 188.80864 188.87982 189.72200 191.03718
 192.76936 194.87154 197.14173 199.50791 201.96009 204.44727 206.54245 208.39163
 210.02482 211.17700 211.41318 211.64836 211.59254 211.30472 210.94491 210.58209
 210.20627 209.92345 209.73863 209.60982 209.54500 209.88318 210.27636 210.67254
 211.47272 212.65791 213.91509 215.70527 217.64045 219.69063 221.79281 223.88300
 225.95018 228.04136 230.14554 232.25872 234.39491 236.57409 238.83727 241.21445
 243.84263 246.10081 248.11000 249.88218 251.30636 252.43654 253.26572 253.58890
 253.63309 253.41427 252.78145 251.73663 250.34981 248.51799 246.43418 244.27436
 242.07254 239.88372 237.71090 235.55709 233.42427 231.29845 229.33163 227.49581
 225.78599 224.26518 222.90236 221.68154 220.57072 219.53790 218.64908 217.79727
 217.04645 216.23363 215.33881 214.70999 214.16718 214.86610 216.51738 218.68892
 221.06085 222.90366 223.97289 224.61880 225.31358 225.91113 226.43854 225.91867
 225.93954 228.18607 232.08957 236.60767 241.21899 245.76353 250.10304 254.10577
 257.68011 260.88419 263.82654 266.52771 268.95795 271.11832 273.06964 274.83551
 276.37967 277.71902 278.90564 279.99121 280.93546 281.95276 282.94778 283.84888
 284.47482 285.15088 285.75827 286.58359
 366.78100 356.34194 345.78089 334.65383 323.06377 311.26472 299.14166 286.95160
 274.67055 262.57449 250.59044 239.89838 230.02732 221.13827 213.32721 206.33615
 200.17710 195.12204 191.71098 189.75993 188.80387 188.87481 189.71676 191.03170
 192.76365 194.86559 197.13553 199.50148 201.95342 204.44036 206.53531 208.38425
 210.01719 211.16914 211.40508 211.64002 211.58397 211.29591 210.93586 210.57280
 210.19674 209.91369 209.72863 209.59957 209.53452 209.87246 210.26540 210.66135
 211.46129 212.64623 213.90318 215.69312 217.62807 219.67801 221.77995 223.86990
 225.93684 228.02778 230.13173 232.24467 234.38061 236.55956 238.82250 241.19944
 243.82739 246.08533 248.09428 249.86622 251.29016 252.42011 253.24905 253.57199
 253.61594 253.39688 252.76382 251.71877 250.33171 248.49965 246.41560 244.25554
 242.05349 239.86443 237.69137 235.53732 233.40426 231.27820 229.31115 227.47509
 225.76503 224.24398 222.88092 221.65986 220.54881 219.51575 218.62669 217.77464
 217.02358 216.21053 215.31547 214.68641 214.14336 214.86372 216.56567 218.68279
 220.98897 222.93477 224.07306 224.60941 225.17293 225.64122 226.23906 226.01425
 226.13788 228.28047 232.13695 236.64430 241.25571 245.80502 250.14307 254.13673
 257.70090 260.89001 263.81451 266.51135 268.94540 271.11282 273.06033 274.81192
 276.34021 277.67755 278.87497 279.98883 280.99701 282.02890 283.01773 283.91907
 284.71426 285.40820 286.01596 286.81744
 366.78100 356.34173 345.78047 334.65320 323.06294 311.26367 299.14041 286.95014
 274.66887 262.57261 250.58834 239.89608 230.02481 221.13554 213.32428 206.33301
 200.17375 195.11848 191.70722 189.75595 188.79968 188.87042 189.71215 191.02689
 192.75862 194.86036 197.13009 199.49582 201.94756 204.43429 206.52903 208.37776
 210.01049 211.16223 211.39796 211.63270 211.57643 211.28817 210.92790 210.56463
 210.18837 209.90510 209.71984 209.59057 209.52531 209.86304 210.25577 210.65151
 211.45124 212.63598 213.89271 215.68244 217.61718 219.66691 221.76865 223.85838
 225.92512 228.01585 230.11958 232.23232 234.36805 236.54679 238.80952 241.18626
 243.81399 246.07172 248.08046 249.85219 251.27593 252.40566 253.23439 253.55713
 253.60086 253.38160 252.74833 251.70307 250.31580 248.48353 246.39927 244.23900
 242.03674 239.84747 237.67421 235.51994 233.38667 231.26041 229.29314 227.45688
 225.74661 224.22534 222.86208 221.64081 220.52955 219.49628 218.60702 217.75475
 217.00348 216.19022 215.29495 214.66569 214.12242 214.86212 216.60976 218.68883
 220.91637 222.92943 224.18013 224.62286 225.01111 225.36252 226.04185 226.09959
 226.33665 228.38992 232.18756 236.67957 241.29413 245.85089 250.18861 254.17334
 257.72873 260.90494 263.81299 266.50378 268.93927 271.11234 273.05875 274.80222
 276.32129 277.66107 278.87262 280.01379 281.04111 282.06967 283.02530 283.90701
 284.73660 285.49500 286.11542 286.92517
 366.78100 356.34158 345.78017 334.65275 323.06233 311.26292 299.13950 286.94908
 274.66767 262.57125 250.58683 239.89442 230.02300 221.13358 213.32217 206.33075
 200.17134 195.11592 191.70450 189.75309 188.79667 188.86725 189.70884 191.02342
 192.75500 194.85659 197.12617 199.49175 201.94334 204.42992 206.52450 208.37309
 210.00567 211.15725 211.39284 211.62742 211.57100 211.28259 210.92217 210.55875
 210.18234 209.89892 209.71351 209.58409 209.51867 209.85626 210.24884 210.64442
 211.44401 212.62859 213.88517 215.67476 217.60934 219.65892 221.76051 223.85009
 225.91667 228.00726 230.11084 232.22342 234.35901 236.53759 238.80017 241.17676
 243.80434 246.06192 248.07051 249.84209 251.26567 252.39526 253.22384 253.54643
 253.59001 253.37059 252.73718 251.69176 250.30434 248.47193 246.38751 244.22709
 242.02468 239.83526 237.66184 235.50743 233.37401 231.24759 229.28018 227.44376
 225.73334 224.21193 222.84851 221.62709 220.51568 219.48226 218.59284 217.74043
 216.98901 216.17560 215.28018 214.65076 214.10735 214.86389 216.65132 218.69057
 220.85941 222.91716 224.25175 224.62593 224.85313 225.11874 225.86671 226.15489
 226.49730 228.48717 232.23210 236.71330 241.33791 245.90663 250.24640 254.22226
 257.76694 260.92865 263.81824 266.49701 268.92963 271.10980 273.05658 274.79330
 276.30862 277.65619 278.88541 280.05725 281.10666 282.13840 283.09763 283.97839
 284.79773 285.55789 286.19174 287.00317
 366.78100 356.34154 345.78007 334.65261 323.06215 311.26268 299.13922 286.94876
 274.66729 262.57083 250.58637 239.89390 230.02244 221.13298 213.32151 206.33005
 200.17059 195.11512 191.70366 189.75220 188.79573 188.86627 189.70781 191.02234
 192.75388 194.85542 197.12495 199.49049 201.94203 204.42856 206.52310 208.37163
 210.00417 211.15571 211.39124 211.62578 211.56932 211.28085 210.92039 210.55693
 210.18046 209.89700 209.71154 209.58207 209.51661 209.85415 210.24668 210.64222
 211.44176 212.62629 213.88283 215.67237 217.60690 219.65644 221.75798 223.84751
 225.91405 228.00459 230.10812 232.22066 234.35620 236.53473 238.79727 241.17381
 243.80134 246.05888 248.06742 249.83895 251.26249 252.39203 253.22056 253.54310
 253.58664 253.36717 252.73371 251.68825 250.30078 248.46832 246.38386 244.22339
 242.02093 239.83147 237.65800 235.50354 233.37008 231.24361 229.27615 227.43969
 225.72922 224.20776 222.84430 221.62283 220.51137 219.47790 218.58844 217.73598
 216.98451 216.17105 215.27559 214.64612 214.10266 214.87112 216.68669 218.69002
 220.81158 222.90541 224.29172 224.61073 224.70074 224.90816 225.70300 226.17508
 226.61894 228.57266 232.27690 236.75433 241.39427 245.97664 250.31895 254.28436
 257.81619 260.96185 263.82803 266.49203 268.92105 271.10815 273.05405 274.78452
 276.29507 277.65106 278.90079 280.06662 281.21198 282.25598 283.21387 284.09283
 284.90219 285.64575 286.29514 287.10242
 366.78100 356.34160 345.78021 334.65281 323.06241 311.26301 299.13962 286.94922
 274.66782 262.57143 250.58703 239.89463 230.02324 221.13384 213.32244 206.33104
 200.17165 195.11625 191.70485 189.75346 188.79706 188.86766 189.70927 191.02387
 192.75547 194.85707 197.12668 199.49228 201.94388 204.43049 206.52509 208.37369
 210.00630 211.15790 211.39350 211.62810 211.57171 211.28331 210.92291 210.55952
 210.18312 209.89972 209.71433 209.58493 209.51953 209.85713 210.24974 210.64534
 211.44494 212.62955 213.88615 215.67575 217.61036 219.65996 221.76156 223.85116
 225.91777 228.00837 230.11197 232.22458 234.36018 236.53878 238.80139 241.17799
 243.80559 246.06319 248.07180 249.84340 251.26700 252.39661 253.22521 253.54781
 253.59142 253.37202 252.73862 251.69322 250.30583 248.47343 246.38903 244.22864
 242.02624 239.83684 237.66344 235.50905 233.37565 231.24925 229.28186 227.44546
 225.73506 224.21367 222.85027 221.62887 220.51747 219.48408 218.59468 217.74228
 216.99089 216.17749 215.28209 214.65270 214.10930 214.88438 216.71559 218.69276
 220.77022 222.88860 224.31204 224.58392 224.55487 224.71881 225.53967 226.16153
 226.71098 228.65593 232.32889 236.80583 241.46234 246.05743 250.40033 254.35341
 257.87115 261.00064 263.84344 266.49124 268.91785 271.11340 273.05756 274.77927
 276.28259 277.64587 278.91217 280.13315 281.30331 282.35446 283.31989 284.19940
 285.00763 285.73901 286.38321 287.19943
 366.78100 356.34178 345.78056 334.65334 323.06312 311.26391 299.14069 286.95047
 274.66925 262.57303 250.58881 239.89659 230.02537 221.13615 213.32493 206.33372
 200.17450 195.11928 191.70806 189.75684 188.80062 188.87140 189.71318 191.02796
 192.75975 194.86153 197.13131 199.49709 201.94887 204.43565 206.53043 208.37921
 210.01199 211.16377 211.39956 211.63434 211.57812 211.28990 210.92968 210.56646
 210.19024 209.90702 209.72180 209.59259 209.52737 209.86515 210.25793 210.65371
 211.45349 212.63827 213.89505 215.68483 217.61961 219.66940 221.77118 223.86096
 225.92774 228.01852 230.12230 232.23508 234.37086 236.54964 238.81243 241.18921
 243.81699 246.07477 248.08355 249.85533 251.27911 252.40889 253.23767 253.56046
 253.60424 253.38502 252.75180 251.70658 250.31936 248.48714 246.40292 244.24270
 242.04048 239.85127 237.67805 235.52383 233.39061 231.26439 229.29717 227.46095
 225.75073 224.22951 222.86630 221.64508 220.53386 219.50064 218.61142 217.75920
 217.00798 216.19476 215.29954 214.67032 214.12711 214.90388 216.73911 218.70038
 220.73286 222.86116 224.31578 224.54790 224.41594 224.54536 225.37743 226.12067
 226.78027 228.74054 232.38869 236.86613 241.53745 246.14296 250.48491 254.42548
 257.92929 261.04233 263.86536 266.49969 268.92563 271.12738 273.07010 274.78165
 276.27795 277.64749 278.91458 280.21707 281.39392 282.44342 283.40469 284.28485
 285.08545 285.81128 286.44693 287.26926
 366.78100 356.34205 345.78110 334.65414 323.06419 311.26524 299.14229 286.95234
 274.67138 262.57543 250.59148 239.89953 230.02858 221.13962 213.32867 206.33772
 200.17877 195.12381 191.71286 189.76191 188.80596 188.87701 189.71905 191.03410
 192.76615 194.86820 197.13825 199.50429 201.95634 204.44339 206.53844 208.38749
 210.02053 211.17258 211.40863 211.64368 211.58773 211.29977 210.93982 210.57687
 210.20092 209.91797 209.73301 209.60406 209.53911 209.87716 210.27020 210.66625
 211.46630 212.65135 213.90840 215.69844 217.63349 219.68354 221.78559 223.87564
 225.94268 228.03373 230.13778 232.25083 234.38688 236.56592 238.82897 241.20602
 243.83407 246.09212 248.10116 249.87321 251.29726 252.42731 253.25636 253.57940
 253.62345 253.40450 252.77155 251.72660 250.33964 248.50769 246.42374 244.26379
 242.06183 239.87288 237.69993 235.54598 233.41303 231.28707 229.32012 227.48417
 225.77422 224.25327 222.89031 221.66936 220.55841 219.52546 218.63651 217.78455
 217.03360 216.22065 215.32570 214.69675 214.15379 214.92865 216.75931 218.71010
 220.69832 222.82310 224.30104 224.50372 224.28630 224.38388 225.22050 226.06369
 226.83195 228.82481 232.45482 236.93346 241.61685 246.23094 250.57091 254.49823
 257.98727 261.08600 263.89328 266.51669 268.94156 271.14807 273.08722 274.78796
 276.28021 277.65952 278.94470 280.27786 281.46420 282.51706 283.48236 284.36194
 285.16025 285.88452 286.52191 287.33582
 366.78100 356.34236 345.78173 334.65509 323.06546 311.26682 299.14418 286.95455
 274.67391 262.57827 250.59464 239.90300 230.03237 221.14373 213.33309 206.34246
 200.18382 195.12918 191.71855 189.76791 188.81228 188.88364 189.72600 191.04137
 192.77373 194.87609 197.14646 199.51282 201.96519 204.45255 206.54791 208.39728
 210.03064 211.18301 211.41937 211.65473 211.59910 211.31146 210.95182 210.58919
 210.21355 209.93092 209.74628 209.61764 209.55301 209.89137 210.28473 210.68110
 211.48146 212.66683 213.92419 215.71455 217.64992 219.70028 221.80264 223.89301
 225.96037 228.05174 230.15610 232.26946 234.40583 236.58519 238.84855 241.22592
 243.85428 246.11265 248.12201 249.89437 251.31874 252.44910 253.27847 253.60183
 253.64619 253.42756 252.79492 251.75028 250.36365 248.53201 246.44838 244.28874
 242.08710 239.89847 237.72583 235.57219 233.43956 231.31392 229.34729 227.51165
 225.80201 224.28138 222.91874 221.69810 220.58747 219.55483 218.66620 217.81456
 217.06392 216.25129 215.35665 214.72802 214.18538 214.95650 216.77835 218.71843
 220.66743 222.77939 224.26675 224.44926 224.16599 224.23300 225.06940 225.99738
 226.86974 228.90448 232.52460 237.00722 241.70140 246.32190 250.65782 254.57097
 258.04352 261.12946 263.92636 266.54062 268.96414 271.17084 273.10269 274.79236
 276.28491 277.67477 278.99866 280.34119 281.52982 282.58527 283.55185 284.43317
 285.23163 285.95694 286.59164 287.40948
 366.78100 356.34270 345.78240 334.65611 323.06681 311.26851 299.14621 286.95692
 274.67662 262.58132 250.59802 239.90672 230.03643 221.14813 213.33783 206.34753
 200.18924 195.13494 191.72464 189.77434 188.81904 188.89075 189.73345 191.04915
 192.78185 194.88456 197.15526 199.52196 201.97466 204.46236 206.55807 208.40777
 210.04147 211.19417 211.43088 211.66658 211.61128 211.32398 210.96468 210.60239
 210.22709 209.94479 209.76049 209.63220 209.56790 209.90660 210.30030 210.69700
 211.49771 212.68341 213.94111 215.73181 217.66752 219.71822 221.82092 223.91162
 225.97932 228.07103 230.17573 232.28943 234.42613 236.60584 238.86954 241.24724
 243.87594 246.13464 248.14435 249.91705 251.34175 252.47245 253.30216 253.62586
 253.67056 253.45226 252.81997 251.77567 250.38937 248.55807 246.47477 244.31548
 242.11418 239.92588 237.75358 235.60029 233.46799 231.34269 229.37639 227.54109
 225.83180 224.31150 222.94920 221.72890 220.61861 219.58631 218.69801 217.84671
 217.09641 216.28412 215.38982 214.76152 214.21922 214.98528 216.79517 218.72639
 220.64108 222.73340 224.22075 224.38707 224.05186 224.08360 224.92325 225.92996
 226.89235 228.97377 232.59846 237.08919 241.79172 246.41440 250.74347 254.64139
 258.09723 261.17178 263.96396 266.57333 268.99231 271.19379 273.11438 274.79099
 276.28735 277.69272 279.05609 280.40451 281.59296 282.64917 283.61502 284.49884
 285.29907 286.02457 286.66025 287.47781
 366.78100 356.34306 345.78312 334.65718 323.06823 311.27029 299.14835 286.95941
 274.67947 262.58453 250.60159 239.91064 230.04070 221.15276 213.34282 206.35288
 200.19494 195.14099 191.73105 189.78111 188.82617 188.89823 189.74129 191.05735
 192.79040 194.89346 197.16452 199.53158 201.98464 204.47270 206.56876 208.41881
 210.05287 211.20593 211.44299 211.67905 211.62411 211.33717 210.97822 210.61628
 210.24134 209.95940 209.77546 209.64752 209.58358 209.92263 210.31669 210.71375
 211.51481 212.70087 213.95893 215.74998 217.68604 219.73710 221.84016 223.93122
 225.99928 228.09134 230.19639 232.31045 234.44751 236.62757 238.89163 241.26969
 243.89875 246.15780 248.16786 249.94092 251.36598 252.49704 253.32710 253.65116
 253.69621 253.47827 252.84633 251.80239 250.41645 248.58551 246.50256 244.34362
 242.14268 239.95474 237.78280 235.62986 233.49792 231.37297 229.40703 227.57209
 225.86315 224.34321 222.98127 221.76133 220.65138 219.61944 218.73150 217.88056
 217.13062 216.31868 215.42474 214.79679 214.25485 215.01456 216.80943 218.73192
 220.62288 222.68700 224.16098 224.32063 223.94830 223.93840 224.77110 225.85991
 226.90904 229.03372 232.67488 237.18069 241.88893 246.50838 250.82719 254.70917
 258.14795 261.21271 264.00534 266.61166 269.02460 271.21686 273.12140 274.78442
 276.28937 277.71295 279.11078 280.46359 281.65210 282.70786 283.67627 284.55658
 285.35922 286.08606 286.72174 287.54181
 366.78100 356.34341 345.78382 334.65824 323.06965 311.27206 299.15047 286.96188
 274.68229 262.58771 250.60512 239.91453 230.04494 221.15735 213.34776 206.35818
 200.20059 195.14700 191.73741 189.78782 188.83324 188.90565 189.74906 191.06547
 192.79888 194.90229 197.17371 199.54112 201.99453 204.48294 206.57935 208.42976
 210.06418 211.21759 211.45500 211.69141 211.63682 211.35024 210.99165 210.63006
 210.25547 209.97388 209.79029 209.66271 209.59912 209.93853 210.33294 210.73035
 211.53176 212.71818 213.97659 215.76800 217.70441 219.75582 221.85924 223.95065
 226.01906 228.11147 230.21688 232.33129 234.46871 236.64912 238.91353 241.29194
 243.92135 246.18076 248.19118 249.96459 251.39000 252.52141 253.35182 253.67624
 253.72165 253.50406 252.87247 251.82888 250.44329 248.61271 246.53012 244.37153
 242.17094 239.98335 237.81176 235.65918 233.52759 231.40300 229.43741 227.60282
 225.89424 224.37465 223.01306 221.79347 220.68388 219.65229 218.76471 217.91412
 217.16453 216.35294 215.45935 214.83176 214.29018 215.04405 216.82518 218.73186
 220.60747 222.64799 224.09390 224.23567 223.84271 223.80022 224.62766 225.78206
 226.90186 229.08629 232.76227 237.28479 241.99379 246.60213 250.90680 254.77281
 258.19385 261.25189 264.04892 266.65350 269.05930 271.23685 273.12222 274.77316
 276.29010 277.73480 279.16104 280.51733 281.70572 282.76184 283.72958 284.61127
 285.41379 286.13986 286.77704 287.59552
 366.78100 356.34378 345.78457 334.65935 323.07113 311.27392 299.15270 286.96448
 274.68526 262.59105 250.60883 239.91861 230.04940 221.16218 213.35296 206.36375
 200.20653 195.15331 191.74409 189.79488 188.84066 188.91344 189.75723 191.07401
 192.80779 194.91158 197.18336 199.55114 202.00492 204.49371 206.59049 208.44127
 210.07606 211.22984 211.46762 211.70441 211.65019 211.36397 211.00575 210.64454
 210.27032 209.98910 209.80589 209.67867 209.61545 209.95524 210.35002 210.74780
 211.54958 212.73637 213.99515 215.78693 217.72372 219.77550 221.87928 223.97107
 226.03985 228.13263 230.23841 232.35320 234.49098 236.67176 238.93655 241.31533
 243.94511 246.20490 248.21568 249.98946 251.41524 252.54703 253.37781 253.70259
 253.74838 253.53116 252.89994 251.85673 250.47151 248.64129 246.55907 244.40086
 242.20064 240.01342 237.84221 235.68999 233.55877 231.43456 229.46934 227.63512
 225.92690 224.40769 223.04647 221.82725 220.71804 219.68682 218.79960 217.94939
 217.20017 216.38895 215.49574 214.86852 214.32730 215.07498 216.84145 218.73326
 220.58345 222.60576 224.04161 224.15947 223.72350 223.63417 224.46504 225.73497
 226.92349 229.13095 232.85022 237.39854 242.10329 246.69521 250.98257 254.83168
 258.23575 261.28891 264.09488 266.69803 269.09415 271.25223 273.11673 274.75739
 276.28815 277.75656 279.20761 280.56635 281.75397 282.80890 283.77731 284.65762
 285.46027 286.18802 286.82370 287.64090
 366.78100 356.34425 345.78550 334.66075 323.07300 311.27625 299.15550 286.96775
 274.68899 262.59524 250.61349 239.92374 230.05499 221.16824 213.35949 206.37074
 200.21399 195.16124 191.75249 189.80374 188.84999 188.92324 189.76749 191.08473
 192.81898 194.92323 197.19548 199.56373 202.01798 204.50723 206.60448 208.45573
 210.09098 211.24523 211.48348 211.72073 211.66698 211.38122 211.02347 210.66272
 210.28897 210.00822 209.82547 209.69872 209.63597 209.97622 210.37147 210.76972
 211.57197 212.75922 214.01847 215.81072 217.74796 219.80021 221.90446 223.99671
 226.06596 228.15921 230.26546 232.38071 234.51896 236.70021 238.96546 241.34471
 243.97496 246.23521 248.24646 250.02070 251.44695 252.57920 253.41045 253.73570
 253.78195 253.56520 252.93445 251.89170 250.50695 248.67720 246.59545 244.43770
 242.23795 240.05119 237.88044 235.72869 233.59794 231.47419 229.50944 227.67569
 225.96794 224.44919 223.08844 221.86969 220.76094 219.73019 218.84344 217.99369
 217.24493 216.43418 215.54143 214.91468 214.37393 215.11023 216.84982 218.74289
 220.55849 222.54254 223.98251 224.11523 223.65311 223.48506 224.25446 225.57114
 226.91243 229.23952 232.97141 237.52625 242.21948 246.78815 251.05446 254.88689
 258.27502 261.32617 264.14218 266.74387 269.12662 271.26303 273.10486 274.73984
 276.28821 277.77893 279.25089 280.61078 281.79730 282.85202 283.81836 284.69995
 285.50165 286.22803 286.86426 287.67834
 366.78100 356.34480 345.78660 334.66240 323.07519 311.27899 299.15879 286.97159
 274.69339 262.60019 250.61898 239.92978 230.06158 221.17538 213.36718 206.37898
 200.22278 195.17057 191.76237 189.81417 188.86097 188.93477 189.77957 191.09737
 192.83216 194.93696 197.20976 199.57856 202.03336 204.52316 206.62095 208.47275
 210.10855 211.26335 211.50215 211.73995 211.68675 211.40154 211.04434 210.68414
 210.31094 210.03074 209.84854 209.72233 209.66013 210.00093 210.39673 210.79553
 211.59833 212.78613 214.04592 215.83872 217.77652 219.82932 221.93412 224.02692
 226.09672 228.19051 230.29731 232.41311 234.55191 236.73371 238.99951 241.37930
 244.01010 246.27090 248.28270 250.05750 251.48430 252.61710 253.44889 253.77469
 253.82149 253.60529 252.97509 251.93289 250.54868 248.71948 246.63828 244.48108
 242.28188 240.09568 237.92548 235.77427 233.64407 231.52087 229.55667 227.72347
 226.01627 224.49806 223.13786 221.91966 220.81146 219.78126 218.89506 218.04586
 217.29765 216.48745 215.59525 214.96905 214.42885 215.14847 216.84863 218.75230
 220.54636 222.47383 223.88910 224.05525 223.60941 223.38072 224.07190 225.37538
 226.84706 229.33009 233.10066 237.66249 242.33887 246.87904 251.12303 254.93930
 258.31198 261.36337 264.19083 266.78998 269.15527 271.26697 273.08698 274.72058
 276.28763 277.80371 279.29172 280.65198 281.83737 282.89133 283.85693 284.73776
 285.53891 286.26456 286.90048 287.71780
 366.78100 356.34536 345.78772 334.66408 323.07744 311.28180 299.16216 286.97552
 274.69788 262.60525 250.62461 239.93597 230.06833 221.18269 213.37505 206.38741
 200.23177 195.18013 191.77249 189.82485 188.87221 188.94657 189.79193 191.11029
 192.84565 194.95102 197.22438 199.59374 202.04910 204.53946 206.63782 208.49018
 210.12654 211.28190 211.52126 211.75962 211.70698 211.42234 211.06570 210.70606
 210.33342 210.05379 209.87215 209.74651 209.68487 210.02623 210.42259 210.82195
 211.62531 212.81367 214.07403 215.86739 217.80575 219.85911 221.96447 224.05783
 226.12819 228.22256 230.32992 232.44628 234.58564 236.76800 239.03436 241.41472
 244.04608 246.30744 248.31980 250.09516 251.52252 252.65588 253.48824 253.81460
 253.86196 253.64633 253.01669 251.97505 250.59141 248.76277 246.68213 244.52549
 242.32685 240.14121 237.97157 235.82093 233.69129 231.56865 229.60501 227.77237
 226.06573 224.54809 223.18846 221.97082 220.86318 219.83354 218.94790 218.09926
 217.35162 216.54198 215.65034 215.02470 214.48506 215.18742 216.84685 218.74908
 220.54315 222.42125 223.78104 223.96205 223.54924 223.29286 223.93166 225.19159
 226.74644 229.38980 233.23080 237.80560 242.46024 246.97081 251.19400 254.99457
 258.35126 261.40240 264.23880 266.83029 269.17737 271.26285 273.06104 274.69839
 276.29297 277.82883 279.32932 280.68893 281.87347 282.92728 283.89130 284.77148
 285.57068 286.29645 286.93201 287.74612
 366.78100 356.34586 345.78872 334.66558 323.07945 311.28431 299.16517 286.97903
 274.70189 262.60975 250.62962 239.94148 230.07434 221.18920 213.38206 206.39492
 200.23979 195.18865 191.78151 189.83437 188.88223 188.95709 189.80295 191.12182
 192.85768 194.96354 197.23740 199.60726 202.06312 204.55399 206.65285 208.50571
 210.14257 211.29843 211.53829 211.77715 211.72502 211.44088 211.08474 210.72560
 210.35346 210.07432 209.89319 209.76805 209.70691 210.04877 210.44563 210.84549
 211.64935 212.83822 214.09908 215.89294 217.83180 219.88566 221.99152 224.08539
 226.15625 228.25111 230.35897 232.47583 234.61569 236.79856 239.06542 241.44628
 244.07814 246.34000 248.35286 250.12872 251.55659 252.69045 253.52331 253.85017
 253.89803 253.68289 253.05376 252.01262 250.62948 248.80134 246.72120 244.56506
 242.36692 240.18179 238.01265 235.86251 233.73337 231.61123 229.64809 227.81596
 226.10982 224.59268 223.23354 222.01640 220.90926 219.88013 218.99499 218.14685
 217.39971 216.59057 215.69943 215.07429 214.53516 215.22403 216.85158 218.73500
 220.53677 222.38277 223.68245 223.85118 223.46034 223.19296 223.80420 225.02463
 226.64427 229.44038 233.36427 237.95430 242.58580 247.06662 251.26962 255.05231
 258.39148 261.44006 264.28629 266.86896 269.19138 271.24527 273.02805 274.67191
 276.28326 277.86234 279.36554 280.72449 281.90674 282.96024 283.92361 284.80304
 285.60281 286.32648 286.96005 287.78232
 366.78100 356.34628 345.78956 334.66685 323.08113 311.28641 299.16769 286.98197
 274.70526 262.61354 250.63382 239.94610 230.07938 221.19467 213.38795 206.40123
 200.24651 195.19579 191.78907 189.84236 188.89064 188.96592 189.81220 191.13148
 192.86777 194.97405 197.24833 199.61861 202.07489 204.56618 206.66546 208.51874
 210.15602 211.31230 211.55259 211.79187 211.74015 211.45643 211.10071 210.74200
 210.37028 210.09156 209.91084 209.78612 209.72541 210.06769 210.46497 210.86525
 211.66953 212.85882 214.12010 215.91438 217.85366 219.90794 222.01422 224.10851
 226.17979 228.27507 230.38335 232.50063 234.64092 236.82420 239.09148 241.47276
 244.10504 246.36733 248.38061 250.15689 251.58517 252.71945 253.55274 253.88002
 253.92830 253.71358 253.08486 252.04415 250.66143 248.83371 246.75399 244.59827
 242.40056 240.21584 238.04712 235.89740 233.76868 231.64697 229.68425 227.85253
 226.14681 224.63009 223.27137 222.05466 220.94794 219.91922 219.03450 218.18678
 217.44007 216.63135 215.74063 215.11591 214.57719 215.25603 216.85985 218.72144
 220.52544 222.34311 223.59138 223.73900 223.35574 223.07837 223.66753 224.86137
 226.54880 229.49339 233.50406 238.11113 242.72112 247.17386 251.35788 255.11998
 258.43628 261.47479 264.32028 266.88782 269.18915 271.22318 272.99091 274.64499
 276.30981 277.89111 279.39679 280.75223 281.93497 282.98709 283.94876 284.82922
 285.62680 286.34885 286.98282 287.79807
 366.78100 356.34678 345.79055 334.66833 323.08310 311.28888 299.17065 286.98543
 274.70920 262.61798 250.63876 239.95153 230.08531 221.20108 213.39486 206.40863
 200.25441 195.20418 191.79796 189.85174 188.90051 188.97629 189.82306 191.14284
 192.87961 194.98639 197.26116 199.63194 202.08872 204.58049 206.68027 208.53404
 210.17182 211.32859 211.56937 211.80914 211.75792 211.47470 211.11947 210.76125
 210.39002 210.11180 209.93157 209.80735 209.74712 210.08990 210.48768 210.88845
 211.69323 212.88300 214.14478 215.93955 217.87933 219.93410 222.04088 224.13566
 226.20743 228.30321 230.41198 232.52976 234.67053 236.85431 239.12208 241.50386
 244.13664 246.39941 248.41319 250.18996 251.61874 252.75351 253.58729 253.91507
 253.96384 253.74962 253.12139 252.08117 250.69894 248.87172 246.79249 244.63727
 242.44005 240.25582 238.08760 235.93837 233.81015 231.68892 229.72670 227.89547
 226.19025 224.67403 223.31580 222.09958 220.99335 219.96513 219.08090 218.23368
 217.48745 216.67923 215.78901 215.16478 214.62656 215.29092 216.86057 218.70633
 220.51659 222.30466 223.50169 223.62538 223.24527 222.95990 223.52339 224.69958
 226.46017 229.54752 233.64482 238.26956 242.85852 247.28506 251.45131 255.19392
 258.48877 261.51910 264.36340 266.90945 269.17139 271.15997 272.92154 274.62430
 276.28333 277.92474 279.43112 280.78311 281.96265 283.01312 283.97549 284.85117
 285.64862 286.36795 286.99887 287.82254
 366.78100 356.34726 345.79152 334.66978 323.08505 311.29131 299.17357 286.98883
 274.71309 262.62235 250.64361 239.95688 230.09114 221.20740 213.40166 206.41592
 200.26218 195.21244 191.80671 189.86097 188.91023 188.98649 189.83375 191.15401
 192.89127 194.99854 197.27380 199.64506 202.10232 204.59458 206.69484 208.54910
 210.18736 211.34463 211.58589 211.82615 211.77541 211.49267 211.13793 210.78019
 210.40946 210.13172 209.95198 209.82824 209.76850 210.11176 210.51002 210.91129
 211.71655 212.90681 214.16907 215.96433 217.90459 219.95985 222.06712 224.16238
 226.23464 228.33090 230.44016 232.55842 234.69968 236.88395 239.15221 241.53447
 244.16773 246.43099 248.44525 250.22251 251.65178 252.78704 253.62130 253.94956
 253.99882 253.78508 253.15734 252.11761 250.73587 248.90913 246.83039 244.67565
 242.47891 240.29517 238.12744 235.97870 233.85096 231.73022 229.76848 227.93774
 226.23300 224.71726 223.35953 222.14379 221.03805 220.01031 219.12657 218.27983
 217.53409 216.72636 215.83662 215.21288 214.67514 215.32208 216.85056 218.68657
 220.51436 222.27744 223.41872 223.50475 223.11513 222.82378 223.36674 224.54840
 226.39270 229.61497 233.79582 238.43529 243.00285 247.40291 251.54706 255.26468
 258.53287 261.54965 264.38644 266.91675 269.16391 271.14688 272.90259 274.55203
 276.31177 277.95691 279.45508 280.80020 281.97964 283.02698 283.98758 284.86230
 285.65927 286.37625 287.00629 287.82858
 366.78100 356.34759 345.79219 334.67078 323.08638 311.29297 299.17557 286.99116
 274.71576 262.62535 250.64695 239.96054 230.09514 221.21173 213.40633 206.42092
 200.26752 195.21811 191.81271 189.86730 188.91690 188.99349 189.84109 191.16168
 192.89928 195.00687 197.28247 199.65406 202.11166 204.60425 206.70485 208.55944
 210.19804 211.35563 211.59723 211.83782 211.78742 211.50501 211.15061 210.79320
 210.42280 210.14539 209.96599 209.84258 209.78318 210.12677 210.52537 210.92696
 211.73256 212.92315 214.18575 215.98134 217.92194 219.97753 222.08513 224.18072
 226.25332 228.34991 230.45951 232.57810 234.71970 236.90429 239.17289 241.55548
 244.18908 246.45267 248.46727 250.24486 251.67446 252.81005 253.64465 253.97324
 254.02284 253.80943 253.18203 252.14262 250.76122 248.93481 246.85641 244.70200
 242.50560 240.32219 238.15479 236.00638 233.87898 231.75857 229.79717 227.96676
 226.26236 224.74695 223.38955 222.17414 221.06874 220.04133 219.15793 218.31152
 217.56612 216.75871 215.86931 215.24590 214.70850 215.34480 216.84814 218.66476
 220.50505 222.25253 223.34253 223.37987 222.96983 222.67041 223.19255 224.40219
 226.34058 229.68736 233.94879 238.60573 243.15601 247.53708 251.66544 255.36121
 258.60394 261.59985 264.41266 266.90384 269.11270 271.06613 272.77774 274.52618
 276.34558 278.00211 279.48605 280.82288 281.99722 283.04395 284.00333 284.87759
 285.67175 286.38901 287.02020 287.84235
 366.78100 356.34798 345.79296 334.67195 323.08793 311.29491 299.17789 286.99388
 274.71886 262.62884 250.65082 239.96480 230.09979 221.21677 213.41175 206.42673
 200.27372 195.22470 191.81968 189.87466 188.92464 189.00163 189.84961 191.17059
 192.90857 195.01656 197.29254 199.66452 202.12250 204.61548 206.71647 208.57145
 210.21043 211.36841 211.61040 211.85138 211.80136 211.51934 211.16532 210.80831
 210.43829 210.16127 209.98225 209.85924 209.80022 210.14420 210.54318 210.94516
 211.75115 212.94213 214.20511 216.00109 217.94208 219.99806 222.10604 224.20202
 226.27500 228.37199 230.48197 232.60095 234.74293 236.92792 239.19690 241.57988
 244.21386 246.47784 248.49283 250.27081 251.70079 252.83677 253.67176 254.00074
 254.05072 253.83770 253.21068 252.17167 250.79065 248.96463 246.88661 244.73260
 242.53658 240.35356 238.18654 236.03853 233.91151 231.79149 229.83047 228.00045
 226.29644 224.78142 223.42440 222.20938 221.10437 220.07735 219.19433 218.34831
 217.60329 216.79628 215.90726 215.28424 214.74722 215.37273 216.85054 218.63181
 220.49443 222.23761 223.27397 223.24663 222.79909 222.49522 223.00740 224.27267
 226.31259 229.77042 234.10284 238.77516 243.31071 247.67686 251.79082 255.46120
 258.67322 261.64630 264.43903 266.90738 269.07574 270.95605 272.68588 274.65057
 276.32156 278.00732 279.47961 280.81271 281.98767 283.03461 283.99200 284.86755
 285.66193 286.38330 287.02066 287.84677
 366.78100 356.34838 345.79376 334.67314 323.08952 311.29690 299.18028 286.99666
 274.72204 262.63241 250.65479 239.96917 230.10455 221.22193 213.41731 206.43269
 200.28007 195.23145 191.82683 189.88221 188.93259 189.00997 189.85835 191.17973
 192.91811 195.02649 197.30286 199.67524 202.13362 204.62700 206.72838 208.58376
 210.22314 211.38152 211.62390 211.86528 211.81566 211.53404 211.18042 210.82380
 210.45418 210.17756 209.99894 209.87631 209.81769 210.16207 210.56145 210.96383
 211.77021 212.96159 214.22497 216.02135 217.96273 220.01911 222.12749 224.22387
 226.29725 228.39463 230.50501 232.62439 234.76676 236.95214 239.22152 241.60490
 244.23928 246.50366 248.51904 250.29742 251.72780 252.86418 253.69956 254.02894
 254.07932 253.86670 253.24008 252.20146 250.82084 248.99521 246.91759 244.76397
 242.56835 240.38573 238.21911 236.07149 233.94487 231.82525 229.86463 228.03501
 226.33139 224.81677 223.46015 222.24553 221.14091 220.11429 219.23167 218.38604
 217.64142 216.83480 215.94618 215.32356 214.78694 215.40068 216.85071 218.59155
 220.47598 222.23534 223.23125 223.11786 222.60240 222.27463 222.78809 224.14671
 226.30695 229.87523 234.26547 238.95126 243.47961 247.83794 251.94327 255.59348
 258.76981 261.69873 264.44193 266.86389 269.00867 270.90906 272.68921 274.57184
 276.34296 277.99850 279.46054 280.78314 281.95401 282.99780 283.95294 284.82635
 285.62579 286.34979 286.98373 287.80481
 366.78100 356.34847 345.79395 334.67342 323.08990 311.29737 299.18084 286.99732
 274.72279 262.63327 250.65574 239.97021 230.10569 221.22316 213.41864 206.43411
 200.28158 195.23306 191.82853 189.88401 188.93448 189.01195 189.86043 191.18190
 192.92038 195.02885 197.30532 199.67780 202.13627 204.62975 206.73122 208.58669
 210.22617 211.38464 211.62712 211.86859 211.81906 211.53754 211.18401 210.82749
 210.45796 210.18143 210.00291 209.88038 209.82186 210.16633 210.56580 210.96828
 211.77475 212.96623 214.22970 216.02618 217.96765 220.02412 222.13260 224.22907
 226.30255 228.40002 230.51049 232.62997 234.77244 236.95792 239.22739 241.61086
 244.24534 246.50981 248.52529 250.30376 251.73423 252.87071 253.70618 254.03566
 254.08613 253.87360 253.24708 252.20855 250.82803 249.00250 246.92497 244.77145
 242.57592 240.39340 238.22687 236.07934 233.95282 231.83329 229.87277 228.04324
 226.33971 224.82519 223.46866 222.25414 221.14961 220.12308 219.24056 218.39503
 217.65051 216.84398 215.95545 215.33293 214.79640 215.40797 216.85286 218.57817
 220.44058 222.20348 223.19292 223.02362 222.42471 222.03822 222.54716 223.99178
 226.28795 229.98976 234.43378 239.12939 243.65858 248.01353 252.10875 255.74287
 258.89615 261.78049 264.46014 266.83594 268.92181 270.65176 272.76868 274.56461
 276.33899 277.96634 279.42630 280.74738 281.91510 282.95850 283.91150 284.78305
 285.58173 286.30569 286.93826 287.75681
 366.78100 356.34851 345.79402 334.67354 323.09005 311.29756 299.18107 286.99759
 274.72310 262.63361 250.65612 239.97063 230.10615 221.22366 213.41917 206.43468
 200.28219 195.23371 191.82922 189.88473 188.93524 189.01276 189.86127 191.18278
 192.92129 195.02980 197.30632 199.67883 202.13734 204.63085 206.73237 208.58788
 210.22739 211.38590 211.62841 211.86993 211.82044 211.53895 211.18546 210.82897
 210.45949 210.18300 210.00451 209.88202 209.82354 210.16805 210.56756 210.97007
 211.77658 212.96810 214.23161 216.02812 217.96963 220.02614 222.13466 224.23117
 226.30468 228.40219 230.51271 232.63222 234.77473 236.96024 239.22975 241.61327
 244.24778 246.51229 248.52780 250.30632 251.73683 252.87334 253.70885 254.03836
 254.08888 253.87639 253.24990 252.21141 250.83092 249.00544 246.92795 244.77446
 242.57897 240.39649 238.23000 236.08251 233.95602 231.83653 229.87605 228.04656
 226.34307 224.82858 223.47210 222.25761 221.15312 220.12663 219.24414 218.39866
 217.65417 216.84768 215.95919 215.33670 214.80022 215.41054 216.85251 218.56754
 220.41974 222.16644 223.13559 222.91153 222.25548 221.80237 222.28333 223.83644
 226.28728 230.12170 234.61377 239.31897 243.84656 248.19383 252.26775 255.88025
 259.02786 261.89731 264.52936 266.80783 268.72778 270.70468 272.67328 274.60815
 276.24759 277.84015 279.28088 280.57788 281.72470 282.75781 283.70929 284.57883
 285.37943 286.10938 286.73065 287.55084
 366.78100 356.34855 345.79411 334.67366 323.09022 311.29777 299.18132 286.99788
 274.72343 262.63399 250.65654 239.97109 230.10665 221.22420 213.41976 206.43531
 200.28286 195.23442 191.82997 189.88553 188.93608 189.01363 189.86219 191.18374
 192.92230 195.03085 197.30740 199.67996 202.13851 204.63207 206.73362 208.58917
 210.22873 211.38728 211.62984 211.87139 211.82194 211.54050 211.18705 210.83061
 210.46116 210.18471 210.00627 209.88382 209.82537 210.16993 210.56948 210.97204
 211.77859 212.97014 214.23370 216.03025 217.97181 220.02836 222.13691 224.23347
 226.30702 228.40458 230.51513 232.63468 234.77724 236.96279 239.23235 241.61590
 244.25045 246.51501 248.53056 250.30912 251.73967 252.87622 253.71178 254.04133
 254.09189 253.87944 253.25299 252.21455 250.83410 249.00866 246.93121 244.77776
 242.58232 240.39987 238.23343 236.08598 233.95953 231.84009 229.87964 228.05020
 226.34675 224.83230 223.47586 222.26141 221.15697 220.13052 219.24807 218.40263
 217.65818 216.85174 215.96329 215.34084 214.80440 215.41273 216.85001 218.53093
 220.40764 222.15506 223.10909 222.81833 222.04759 221.49767 222.00476 223.66147
 226.26280 230.23854 234.79984 239.51912 244.06078 248.40767 252.46321 256.05090
 259.19055 262.05341 264.67361 266.88519 268.63873 270.94879 272.78839 274.55142
 276.22476 277.64999 279.04337 280.32532 281.46582 282.49551 283.44296 284.31253
 285.11469 285.84531 286.46097 287.28818
 366.78100 356.34862 345.79424 334.67386 323.09048 311.29810 299.18171 286.99833
 274.72395 262.63457 250.65719 239.97181 230.10743 221.22505 213.42067 206.43629
 200.28391 195.23553 191.83114 189.88676 188.93738 189.01500 189.86362 191.18524
 192.92386 195.03248 197.30910 199.68172 202.14034 204.63395 206.73557 208.59119
 210.23081 211.38943 211.63205 211.87367 211.82429 211.54291 211.18953 210.83315
 210.46377 210.18738 210.00900 209.88662 209.82824 210.17286 210.57248 210.97510
 211.78172 212.97334 214.23696 216.03358 217.97519 220.03181 222.14043 224.23705
 226.31067 228.40829 230.51891 232.63853 234.78115 236.96677 239.23639 241.62001
 244.25462 246.51924 248.53486 250.31348 251.74410 252.88072 253.71634 254.04596
 254.09658 253.88420 253.25782 252.21943 250.83905 249.01367 246.93629 244.78291
 242.58753 240.40515 238.23877 236.09139 233.96501 231.84563 229.88525 228.05586
 226.35248 224.83810 223.48172 222.26734 221.16296 220.13658 219.25420 218.40882
 217.66444 216.85806 215.96967 215.34729 214.81091 215.41380 216.83823 218.50769
 220.37440 222.10667 223.07681 222.79787 221.96529 221.27615 221.63135 223.36873
 226.19461 230.34500 234.98950 239.72548 244.26978 248.61592 252.64565 256.20840
 259.35327 262.21490 264.84128 267.06912 268.77975 270.83609 272.80630 274.52011
 276.11469 277.47537 278.71405 279.91837 281.02335 282.04669 283.00073 283.87573
 284.66467 285.36670 285.98450 286.80753
 366.78100 356.34877 345.79455 334.67432 323.09110 311.29887 299.18265 286.99942
 274.72520 262.63597 250.65875 239.97352 230.10930 221.22707 213.42284 206.43862
 200.28639 195.23817 191.83394 189.88972 188.94049 189.01827 189.86704 191.18882
 192.92759 195.03637 197.31314 199.68591 202.14469 204.63846 206.74024 208.59601
 210.23579 211.39456 211.63734 211.87911 211.82989 211.54866 211.19544 210.83921
 210.46998 210.19376 210.01553 209.89331 209.83508 210.17986 210.57963 210.98241
 211.78918 212.98096 214.24473 216.04151 217.98328 220.04005 222.14883 224.24560
 226.31938 228.41715 230.52793 232.64770 234.79048 236.97625 239.24603 241.62980
 244.26458 246.52935 248.54512 250.32390 251.75467 252.89145 253.72722 254.05700
 254.10777 253.89555 253.26932 252.23110 250.85087 249.02565 246.94842 244.79519
 242.59997 240.41774 238.25152 236.10429 233.97807 231.85884 229.89862 228.06939
 226.36617 224.85194 223.49572 222.28149 221.17726 220.15104 219.26881 218.42359
 217.67936 216.87314 215.98491 215.36269 214.82646 215.41792 216.81531 218.50552
 220.35153 222.05385 222.96463 222.75049 221.93590 220.96048 221.30667 223.25790
 226.23221 230.50468 235.20929 239.92245 244.44098 248.77541 252.77989 256.29312
 259.38943 262.21173 264.80804 267.10535 269.04443 270.68655 272.71121 274.49020
 276.05371 277.43207 278.66980 279.81793 280.84930 281.84885 282.80057 283.67096
 284.45847 285.15570 285.77084 286.59796
 366.78100 356.34873 345.79446 334.67419 323.09092 311.29865 299.18238 286.99911
 274.72484 262.63557 250.65831 239.97304 230.10877 221.22650 213.42223 206.43796
 200.28569 195.23742 191.83315 189.88888 188.93961 189.01734 189.86607 191.18780
 192.92653 195.03526 197.31199 199.68472 202.14345 204.63719 206.73892 208.59465
 210.23438 211.39311 211.63584 211.87757 211.82830 211.54703 211.19376 210.83749
 210.46822 210.19195 210.01368 209.89141 209.83314 210.17787 210.57760 210.98033
 211.78706 212.97880 214.24253 216.03926 217.98099 220.03772 222.14645 224.24318
 226.31691 228.41464 230.52537 232.64510 234.78783 236.97356 239.24329 241.62702
 244.26175 246.52648 248.54221 250.32094 251.75168 252.88841 253.72414 254.05387
 254.10460 253.89233 253.26606 252.22779 250.84752 249.02225 246.94498 244.79171
 242.59644 240.41417 238.24790 236.10063 233.97436 231.85509 229.89482 228.06556
 226.36229 224.84802 223.49175 222.27748 221.17321 220.14694 219.26467 218.41940
 217.67513 216.86886 215.98059 215.35832 214.82205 215.41161 216.80450 218.49339
 220.33769 222.03236 222.83911 222.61534 221.81482 220.63486 221.04832 223.21591
 226.29128 230.64975 235.42262 240.13364 244.63443 248.95102 252.92278 256.39856
 259.45731 262.23453 264.77066 267.06714 269.14819 270.91739 272.73062 274.51605
 276.07309 277.41370 278.62119 279.72736 280.65616 281.50977 282.42117 283.26456
 284.02859 284.71982 285.33640 286.17032
 366.78100 356.34851 345.79402 334.67353 323.09004 311.29755 299.18107 286.99758
 274.72309 262.63360 250.65611 239.97062 230.10613 221.22364 213.41915 206.43466
 200.28218 195.23369 191.82920 189.88471 188.93522 189.01273 189.86124 191.18275
 192.92126 195.02977 197.30628 199.67880 202.13731 204.63082 206.73233 208.58784
 210.22735 211.38586 211.62837 211.86988 211.82039 211.53891 211.18542 210.82893
 210.45944 210.18295 210.00446 209.88197 209.82348 210.16799 210.56750 210.97001
 211.77653 212.96804 214.23155 216.02806 217.96957 220.02608 222.13459 224.23110
 226.30461 228.40212 230.51263 232.63215 234.77466 236.96017 239.22968 241.61319
 244.24770 246.51221 248.52772 250.30623 251.73674 252.87326 253.70877 254.03828
 254.08879 253.87630 253.24981 252.21132 250.83083 249.00534 246.92785 244.77436
 242.57888 240.39639 238.22990 236.08241 233.95592 231.83643 229.87594 228.04645
 226.34296 224.82847 223.47199 222.25750 221.15301 220.12652 219.24403 218.39854
 217.65405 216.84756 215.95907 215.33658 214.80009 215.39590 216.80360 218.47800
 220.31036 221.99878 222.72908 222.45477 221.64375 220.32979 220.81554 223.15565
 226.35100 230.78607 235.61465 240.35100 244.85777 249.14803 253.07582 256.51016
 259.54031 262.27213 264.74689 267.00497 269.09915 271.02856 272.80704 274.52319
 276.02505 277.31058 278.46817 279.55212 280.45508 281.27679 282.18185 282.99707
 283.67090 284.37170 285.00192 285.86053
 366.78100 356.34841 345.79382 334.67323 323.08964 311.29705 299.18046 286.99687
 274.72228 262.63269 250.65510 239.96951 230.10492 221.22233 213.41773 206.43314
 200.28055 195.23196 191.82737 189.88278 188.93319 189.01060 189.85901 191.18042
 192.91883 195.02724 197.30365 199.67606 202.13447 204.62788 206.72929 208.58470
 210.22411 211.38252 211.62493 211.86634 211.81675 211.53516 211.18157 210.82498
 210.45539 210.17879 210.00020 209.87761 209.81902 210.16343 210.56284 210.96525
 211.77166 212.96307 214.22648 216.02289 217.96430 220.02071 222.12912 224.22553
 226.29894 228.39635 230.50676 232.62617 234.76858 236.95399 239.22340 241.60681
 244.24122 246.50563 248.52104 250.29945 251.72985 252.86626 253.70167 254.03108
 254.08149 253.86890 253.24231 252.20372 250.82313 248.99754 246.91995 244.76636
 242.57077 240.38818 238.22159 236.07400 233.94741 231.82782 229.86723 228.03764
 226.33405 224.81946 223.46287 222.24828 221.14369 220.11710 219.23451 218.38891
 217.64432 216.83773 215.94914 215.32655 214.78996 215.38513 216.79128 218.47195
 220.28523 221.94370 222.62970 222.29192 221.43439 220.05496 220.61389 223.03697
 226.37500 230.90125 235.79491 240.57646 245.06960 249.33868 253.24440 256.66577
 259.68585 262.38513 264.81149 267.03589 269.10779 271.07483 272.86539 274.50079
 275.89511 277.11151 278.23019 279.27692 280.14963 280.98727 281.84985 282.64835
 283.39999 284.10263 284.73941 285.59219
 366.78100 356.34854 345.79408 334.67362 323.09016 311.29770 299.18124 286.99778
 274.72332 262.63386 250.65640 239.97094 230.10648 221.22402 213.41955 206.43509
 200.28263 195.23417 191.82971 189.88525 188.93579 189.01333 189.86187 191.18341
 192.92195 195.03049 197.30703 199.67957 202.13811 204.63165 206.73319 208.58873
 210.22827 211.38681 211.62935 211.87089 211.82143 211.53997 211.18651 210.83005
 210.46059 210.18412 210.00566 209.88320 209.82474 210.16928 210.56882 210.97136
 211.77790 212.96944 214.23298 216.02952 217.97106 220.02760 222.13614 224.23268
 226.30622 228.40376 230.51430 232.63384 234.77638 236.96192 239.23146 241.61500
 244.24954 246.51408 248.52962 250.30816 251.73870 252.87523 253.71077 254.04031
 254.09085 253.87839 253.25193 252.21347 250.83301 249.00755 246.93009 244.77663
 242.58117 240.39871 238.23225 236.08479 233.95833 231.83887 229.87841 228.04895
 226.34549 224.83103 223.47457 222.26011 221.15565 220.12919 219.24673 218.40127
 217.65680 216.85034 215.96188 215.33942 214.80296 215.38493 216.75992 218.47421
 220.27068 221.89102 222.55075 222.13159 221.15831 219.76862 220.43233 222.91827
 226.40836 231.01726 235.96359 240.79117 245.29921 249.52701 253.40060 256.81787
 259.84467 262.53156 264.92526 267.13297 269.20432 271.16702 272.96063 274.52853
 275.83319 276.98288 278.04880 279.04950 279.90347 280.65411 281.40280 282.20663
 282.98077 283.69110 284.33859 285.21677
 366.78100 356.34845 345.79389 334.67334 323.08979 311.29723 299.18068 286.99712
 274.72257 262.63302 250.65546 239.96991 230.10536 221.22280 213.41825 206.43370
 200.28114 195.23259 191.82804 189.88348 188.93393 189.01137 189.85982 191.18127
 192.91971 195.02816 197.30461 199.67705 202.13550 204.62895 206.73039 208.58584
 210.22528 211.38373 211.62618 211.86762 211.81807 211.53652 211.18296 210.82641
 210.45686 210.18030 210.00175 209.87920 209.82064 210.16509 210.56453 210.96698
 211.77343 212.96487 214.22832 216.02477 217.96621 220.02266 222.13111 224.22755
 226.30100 228.39844 230.50889 232.62834 234.77078 236.95623 239.22568 241.60912
 244.24357 246.50802 248.52346 250.30191 251.73236 252.86880 253.70425 254.03369
 254.08414 253.87159 253.24503 252.20648 250.82593 249.00037 246.92282 244.76927
 242.57371 240.39116 238.22460 236.07705 233.95050 231.83094 229.87039 228.04084
 226.33728 224.82273 223.46618 222.25162 221.14707 220.12052 219.23796 218.39241
 217.64785 216.84130 215.95275 215.33019 214.79364 215.37366 216.74397 218.46721
 220.24734 221.84454 222.47054 221.97122 220.91429 219.49535 220.20143 222.79160
 226.45712 231.14673 236.12193 240.98637 245.52176 249.72943 253.56375 256.96573
 259.98746 262.65100 265.00983 267.20502 269.28748 271.24936 273.01712 274.54214
 275.82016 276.96396 278.00076 278.93405 279.69644 280.37238 281.05209 281.74847
 282.51239 283.22318 283.89423 284.80392
 354.97500 345.04800 334.58700 324.11500 313.32600 302.53700 291.65000 280.76700
 269.93100 259.19300 248.62200 238.61700 229.08700 220.35500 212.54000 205.53500
 199.46400 194.49300 191.14300 189.19000 188.08900 188.01400 188.72400 189.90600
 191.46900 193.38200 195.40300 197.55600 199.80700 202.06000 204.28800 206.47900
 208.55200 210.37800 212.02500 213.65900 214.99800 216.11800 217.17200 218.25900
 219.49400 220.64500 221.67900 222.61400 223.54500 224.98200 226.57100 228.19000
 229.79700 231.81100 233.86500 235.97200 238.24200 240.55300 242.89900 245.25300
 247.48800 249.53500 251.36600 252.84800 254.09800 255.16700 256.02700 256.25300
 256.09500 255.54300 253.93500 252.56600 251.38400 250.24500 249.05200 247.70100
 246.01600 243.99600 241.78400 239.39300 236.81300 234.22300 231.65800 229.14400
 226.74000 224.47300 222.33500 220.32500 218.44000 216.67700 214.96200 213.47200
 212.20000 211.10800 210.26000 209.63900 209.24400 209.03100 209.05800 209.33300
 209.78400 210.62600 211.33100 212.39100 213.62500 214.84668 217.72949 219.47640
 220.32566 220.86828 220.88710 220.27371 219.43733 218.84250 219.04934 220.86203
 222.60583 225.72206 229.03064 232.61777 236.12270 239.51333 242.70767 245.68587
 248.41061 250.90679 253.19353 254.91714 256.48655 257.94920 259.39966 260.69384
 261.81714 262.77997 263.71679 264.54570 265.26305 265.89772 266.47676 267.00133
 267.47312 267.89325 268.26027 268.72800
