|-------------------------------------------------------------------------|
|   File Name : in_temp.dat
|   Subject   : temperature profiles used for initial guess atmosphere
|   File Type : input of gmtr
|   Data Type : atmospherical data
|   Author/s  : WRF-Chem
|   Date      : Fri Jul 26 15:39:24 2024
|-------------------------------------------------------------------------|

 WRF-Chem temperature
#
 values of T (K)    (8f10.5)
#
 354.97500 345.04800 334.58700 324.11500 313.32600 302.53700 291.65000 280.76700
 269.93100 259.19300 248.62200 238.61700 229.08700 220.35500 212.54000 205.53500
 199.46400 194.49300 191.14300 189.19000 188.08900 188.01400 188.72400 189.90600
 191.46900 193.38200 195.40300 197.55600 199.80700 202.06000 204.28800 206.47900
 208.55200 210.37800 212.02500 213.65900 214.99800 216.11800 217.17200 218.25900
 219.49400 220.64500 221.67900 222.61400 223.54500 224.98200 226.57100 228.19000
 229.79700 231.81100 233.86500 235.97200 238.24200 240.55300 242.89900 245.25300
 247.48800 249.53500 251.36600 252.84800 254.09800 255.16700 256.02700 256.25300
 256.09500 255.54300 253.93500 252.56600 251.38400 250.24500 249.05200 247.70100
 246.01600 243.99600 241.78400 239.39300 236.81300 234.22300 231.65800 229.14400
 226.74000 224.47300 222.33500 220.32500 218.44000 216.67700 214.96200 213.47200
 212.20000 211.10800 210.26000 209.63900 209.24400 209.03100 209.05800 209.33300
 209.78400 210.62600 211.33100 212.39100 213.62500 214.84668 217.72949 219.47640
 220.32566 220.86828 220.88710 220.27371 219.43733 218.84250 219.04934 220.86203
 222.60583 225.72206 229.03064 232.61777 236.12270 239.51333 242.70767 245.68587
 248.41061 250.90679 253.19353 254.91714 256.48655 257.94920 259.39966 260.69384
 261.81714 262.77997 263.71679 264.54570 265.26305 265.89772 266.47676 267.00133
 267.47312 267.89325 268.26027 268.72800
 366.78100 356.33500 345.76700 334.63300 323.03600 311.23000 299.10000 286.90300
 274.61500 262.51200 250.52100 239.82200 229.94400 221.04800 213.23000 206.23200
 200.06600 195.00400 191.58600 189.62800 188.66500 188.72900 189.56400 190.87200
 192.59700 194.69200 196.95500 199.31400 201.75900 204.23900 206.32700 208.16900
 209.79500 210.94000 211.16900 211.39700 211.33400 211.03900 210.67200 210.30200
 209.91900 209.62900 209.43700 209.30100 209.22900 209.56000 209.94600 210.33500
 211.12800 212.30600 213.55600 215.33900 217.26700 219.31000 221.40500 223.48800
 225.54800 227.63200 229.72900 231.83500 233.96400 236.13600 238.39200 240.76200
 243.38300 245.63400 247.63600 249.40100 250.81800 251.94100 252.76300 253.07900
 253.11600 252.89000 252.25000 251.19800 249.80400 247.96500 245.87400 243.70700
 241.49800 239.30200 237.12200 234.96100 232.82100 230.68800 228.71400 226.87100
 225.15400 223.62600 222.25600 221.02800 219.91000 218.87000 217.97400 217.11500
 216.35700 215.53700 214.63500 213.99900 213.44900 212.85855 212.01316 212.61654
 214.26826 216.08686 218.14273 220.53346 223.40855 226.78828 231.49734 235.90155
 239.42278 243.28576 247.23140 251.11907 254.80144 258.23331 261.38913 264.27520
 266.89312 269.26852 271.44504 273.08845 274.58484 275.98591 277.39845 278.65879
 279.75272 280.69038 281.56708 282.34086 283.01050 283.60295 284.14348 284.63317
 285.07358 285.46577 285.80838 286.24500
 381.81900 372.39900 361.20600 349.77600 337.62200 324.85300 311.81000 298.35300
 284.86000 271.32400 258.56100 246.30400 236.08700 226.79600 218.44800 211.29000
 205.52200 200.89400 197.38100 194.84800 193.01500 192.31500 192.25000 192.43100
 192.91200 193.53700 194.13600 194.71200 195.26200 195.83100 196.39300 196.97600
 197.60400 198.14900 198.58400 199.05700 199.69500 200.37800 201.05400 201.70800
 202.31300 202.85700 203.35500 203.86200 204.56900 205.29700 206.02600 206.98700
 208.19300 209.44100 210.96900 212.57600 214.46200 216.51300 218.63000 220.85300
 223.34100 225.96200 228.73900 231.69700 234.70600 237.70600 240.69200 243.65700
 246.73700 249.69900 252.52100 255.06300 257.29000 259.23300 260.63300 261.68000
 262.46100 262.79800 262.69100 262.22400 261.06900 259.52500 257.70700 255.50700
 253.00100 250.30200 247.39800 244.45200 241.65400 239.05400 236.73300 234.59000
 232.59500 230.72500 228.83400 226.82600 224.66600 222.38700 220.10400 217.71500
 215.45900 213.06600 210.54600 208.09300 205.35400 202.08130 196.05959 200.71215
 209.01611 216.90438 223.84126 229.78593 235.00632 240.20838 245.98943 250.68668
 254.32982 257.93487 261.55666 264.96801 268.15192 271.06452 273.76717 276.25691
 278.57680 280.74479 282.77456 284.60533 286.27232 287.81705 289.31715 290.65561
 291.81734 292.81312 293.70701 294.49387 295.17482 295.77730 296.32696 296.82492
 297.27278 297.67160 298.02000 298.46400
 399.33000 389.90700 379.81300 368.66800 357.52200 345.30100 333.07400 320.22700
 307.21600 293.84800 280.37600 267.29600 254.61000 242.98700 232.15100 221.97700
 212.67200 204.28600 197.66900 192.82100 189.48600 187.45200 186.81400 187.08900
 187.78100 189.05400 190.64800 192.54200 194.63000 196.75200 198.67100 200.15800
 201.53500 202.48700 202.97500 203.34000 203.53900 203.49700 203.38500 203.24700
 203.00500 202.78600 202.60300 202.43700 202.42600 202.88800 203.42000 203.95100
 204.89500 205.99200 207.30100 208.95800 210.73800 213.10000 215.56400 218.18000
 220.96600 223.91800 226.96100 230.09200 233.29300 236.55700 239.95500 243.53700
 246.84500 249.39000 251.54200 253.47400 255.19500 256.48400 257.43100 258.05900
 258.21200 258.04000 257.58200 256.64300 255.23900 253.50700 251.40800 249.05600
 246.57600 243.99400 241.38900 238.83000 236.34400 233.98600 231.96900 230.11800
 228.42300 226.89900 225.54800 224.29700 223.10500 221.96500 220.95800 220.11300
 219.49000 218.92000 218.32500 217.88100 217.42300 216.96366 216.35568 216.80261
 217.73415 218.28582 218.64258 219.10077 220.44626 222.53987 226.38451 230.35736
 233.59734 237.39164 241.29814 245.22796 248.98002 252.51130 255.78595 258.80109
 261.54781 264.05210 266.34239 268.04198 269.58951 271.01303 272.35754 273.55718
 274.59842 275.49092 276.28989 276.99307 277.60161 278.14001 278.63122 279.07623
 279.47646 279.83287 280.14422 280.54100
 399.73800 389.78500 379.66200 368.15100 356.64100 344.35000 331.79200 318.88800
 305.72600 292.49300 279.20900 266.73800 254.69600 244.21100 234.45700 225.43300
 217.56900 210.45100 204.30000 199.30600 195.45800 192.57600 191.02700 190.38600
 190.23900 190.53400 191.16600 191.92500 192.79500 193.76600 194.73200 195.31200
 195.80000 196.05200 196.11500 196.11500 196.03900 195.72300 195.34000 194.98900
 194.75100 194.79200 195.13300 195.59800 196.50600 198.13600 199.85800 201.56600
 204.17900 206.82300 209.89300 213.28400 216.82800 220.60500 224.38700 228.20900
 232.03200 235.82500 239.56000 243.25800 246.84500 250.20100 253.70900 257.46800
 261.53000 264.22100 266.60100 268.68100 270.32900 271.74100 272.83600 273.47400
 273.89800 274.00200 273.75700 273.28800 272.37100 271.10000 269.58900 267.77900
 265.81600 263.72100 261.39300 258.91600 256.29800 253.42300 250.33100 247.11400
 243.83700 240.52900 237.24900 233.99900 230.72800 227.51500 224.25400 220.95200
 217.62700 213.65600 210.12100 206.78900 204.01000 201.99491 199.07309 198.76551
 199.40006 200.48994 201.46112 202.31912 203.45100 204.96110 207.47502 210.85391
 213.70530 217.29629 220.99574 224.72316 228.28753 231.64854 234.68024 237.40893
 239.70644 241.60899 243.46854 245.67368 247.68154 249.52395 251.24767 252.78566
 254.12057 255.26479 256.23740 257.09036 257.82852 258.48160 259.07744 259.61723
 260.10271 260.53504 260.91270 261.39400
 399.73800 389.78500 379.66200 368.15100 356.64100 344.35000 331.79200 318.88800
 305.72600 292.49300 279.20900 266.73800 254.69600 244.21100 234.45700 225.43300
 217.56900 210.45100 204.30000 199.30600 195.45800 192.57600 191.02700 190.38600
 190.23900 190.53400 191.16600 191.92500 192.79500 193.76600 194.73200 195.31200
 195.80000 196.05200 196.11500 196.11500 196.03900 195.72300 195.34000 194.98900
 194.75100 194.79200 195.13300 195.59800 196.50600 198.13600 199.85800 201.56600
 204.17900 206.82300 209.89300 213.28400 216.82800 220.60500 224.38700 228.20900
 232.03200 235.82500 239.56000 243.25800 246.84500 250.20100 253.70900 257.46800
 261.53000 264.22100 266.60100 268.68100 270.32900 271.74100 272.83600 273.47400
 273.89800 274.00200 273.75700 273.28800 272.37100 271.10000 269.58900 267.77900
 265.81600 263.72100 261.39300 258.91600 256.29800 253.42300 250.33100 247.11400
 243.83700 240.52900 237.24900 233.99900 230.72800 227.51500 224.25400 220.95200
 217.62700 213.65600 210.12100 206.78900 204.01000 201.99491 199.07309 198.76551
 199.40006 200.48994 201.46112 202.31912 203.45100 204.96110 207.47502 210.85391
 213.70530 217.29629 220.99574 224.72316 228.28753 231.64854 234.68024 237.40893
 239.70644 241.60899 243.46854 245.67368 247.68154 249.52395 251.24767 252.78566
 254.12057 255.26479 256.23740 257.09036 257.82852 258.48160 259.07744 259.61723
 260.10271 260.53504 260.91270 261.39400
 399.33000 389.90700 379.81300 368.66800 357.52200 345.30100 333.07400 320.22700
 307.21600 293.84800 280.37600 267.29600 254.61000 242.98700 232.15100 221.97700
 212.67200 204.28600 197.66900 192.82100 189.48600 187.45200 186.81400 187.08900
 187.78100 189.05400 190.64800 192.54200 194.63000 196.75200 198.67100 200.15800
 201.53500 202.48700 202.97500 203.34000 203.53900 203.49700 203.38500 203.24700
 203.00500 202.78600 202.60300 202.43700 202.42600 202.88800 203.42000 203.95100
 204.89500 205.99200 207.30100 208.95800 210.73800 213.10000 215.56400 218.18000
 220.96600 223.91800 226.96100 230.09200 233.29300 236.55700 239.95500 243.53700
 246.84500 249.39000 251.54200 253.47400 255.19500 256.48400 257.43100 258.05900
 258.21200 258.04000 257.58200 256.64300 255.23900 253.50700 251.40800 249.05600
 246.57600 243.99400 241.38900 238.83000 236.34400 233.98600 231.96900 230.11800
 228.42300 226.89900 225.54800 224.29700 223.10500 221.96500 220.95800 220.11300
 219.49000 218.92000 218.32500 217.88100 217.42300 216.96366 216.35568 216.80261
 217.73415 218.28582 218.64258 219.10077 220.44626 222.53987 226.38451 230.35736
 233.59734 237.39164 241.29814 245.22796 248.98002 252.51130 255.78595 258.80109
 261.54781 264.05210 266.34239 268.04198 269.58951 271.01303 272.35754 273.55718
 274.59842 275.49092 276.28989 276.99307 277.60161 278.14001 278.63122 279.07623
 279.47646 279.83287 280.14422 280.54100
 381.81900 372.39900 361.20600 349.77600 337.62200 324.85300 311.81000 298.35300
 284.86000 271.32400 258.56100 246.30400 236.08700 226.79600 218.44800 211.29000
 205.52200 200.89400 197.38100 194.84800 193.01500 192.31500 192.25000 192.43100
 192.91200 193.53700 194.13600 194.71200 195.26200 195.83100 196.39300 196.97600
 197.60400 198.14900 198.58400 199.05700 199.69500 200.37800 201.05400 201.70800
 202.31300 202.85700 203.35500 203.86200 204.56900 205.29700 206.02600 206.98700
 208.19300 209.44100 210.96900 212.57600 214.46200 216.51300 218.63000 220.85300
 223.34100 225.96200 228.73900 231.69700 234.70600 237.70600 240.69200 243.65700
 246.73700 249.69900 252.52100 255.06300 257.29000 259.23300 260.63300 261.68000
 262.46100 262.79800 262.69100 262.22400 261.06900 259.52500 257.70700 255.50700
 253.00100 250.30200 247.39800 244.45200 241.65400 239.05400 236.73300 234.59000
 232.59500 230.72500 228.83400 226.82600 224.66600 222.38700 220.10400 217.71500
 215.45900 213.06600 210.54600 208.09300 205.35400 202.08130 196.05959 200.71215
 209.01611 216.90438 223.84126 229.78593 235.00632 240.20838 245.98943 250.68668
 254.32982 257.93487 261.55666 264.96801 268.15192 271.06452 273.76717 276.25691
 278.57680 280.74479 282.77456 284.60533 286.27232 287.81705 289.31715 290.65561
 291.81734 292.81312 293.70701 294.49387 295.17482 295.77730 296.32696 296.82492
 297.27278 297.67160 298.02000 298.46400
 366.78100 356.33748 345.77196 334.64044 323.04592 311.24240 299.11488 286.92037
 274.63485 262.53433 250.54581 239.84929 229.97377 221.08025 213.26473 206.26921
 200.10569 195.04617 191.63065 189.67514 188.71462 188.78110 189.61858 190.92906
 192.65654 194.75402 197.01950 199.38098 201.82846 204.31094 206.40142 208.24591
 209.87439 211.02187 211.25335 211.48383 211.42331 211.13079 210.76627 210.39875
 210.01823 209.73071 209.54119 209.40768 209.33816 209.67164 210.06012 210.45160
 211.24708 212.42756 213.68004 215.46552 217.39600 219.44148 221.53896 223.62445
 225.68693 227.77341 229.87289 231.98137 234.11285 236.28733 238.54581 240.91829
 243.54177 245.79525 247.79973 249.56722 250.98670 252.11218 252.93666 253.25514
 253.29462 253.07110 252.43358 251.38406 249.99254 248.15602 246.06750 243.90299
 241.69647 239.50295 237.32543 235.16691 233.02939 230.89887 228.92735 227.08683
 225.37231 223.84679 222.47927 221.25376 220.13824 219.10072 218.20720 217.35068
 216.59516 215.77764 214.87812 214.24460 213.69708 213.15150 211.87567 212.87668
 214.73418 216.55882 217.58878 217.87221 218.86372 222.84810 228.42584 233.19922
 236.96638 240.73019 244.46297 248.09969 251.55846 254.46391 257.02020 259.64279
 262.40527 264.93591 267.22018 269.27078 271.27213 273.22778 274.87579 276.45450
 278.07483 279.73221 281.26660 282.63040 283.81464 284.86502 285.82654 286.70093
 287.49326 288.20404 288.83093 289.66690
 366.78100 356.33746 345.77192 334.64037 323.04583 311.24229 299.11475 286.92020
 274.63466 262.53412 250.54558 239.84903 229.97349 221.07995 213.26441 206.26886
 200.10532 195.04578 191.63024 189.67470 188.71415 188.78061 189.61807 190.92853
 192.65598 194.75344 197.01890 199.38036 201.82781 204.31027 206.40073 208.24519
 209.87364 211.02110 211.25256 211.48302 211.42247 211.12993 210.76539 210.39785
 210.01731 209.72976 209.54022 209.40668 209.33714 209.67059 210.05905 210.45051
 211.24597 212.42642 213.67888 215.46434 217.39480 219.44025 221.53771 223.62317
 225.68563 227.77209 229.87154 231.98000 234.11146 236.28592 238.54437 240.91683
 243.54029 245.79375 247.79820 249.56566 250.98512 252.11058 252.93503 253.25349
 253.29295 253.06941 252.43186 251.38232 249.99078 248.15424 246.06570 243.90115
 241.69461 239.50107 237.32353 235.16498 233.02744 230.89690 228.92536 227.08481
 225.37027 223.84473 222.47719 221.25164 220.13610 219.09856 218.20502 217.34848
 216.59293 215.77539 214.87585 214.24231 213.69476 213.16568 211.92764 213.00893
 214.85782 216.64963 217.65262 218.00160 218.99663 222.85362 228.36592 233.10422
 236.85567 240.61893 244.35516 247.97292 251.35661 254.21846 256.82700 259.54169
 262.25708 264.73059 267.03458 269.13321 271.15610 273.10593 274.74838 276.33276
 277.95740 279.63403 281.17075 282.53461 283.71930 284.76996 285.73163 286.60724
 287.39877 288.10889 288.73953 289.57315
 366.78100 356.33722 345.77143 334.63965 323.04487 311.24109 299.11330 286.91852
 274.63274 262.53195 250.54317 239.84639 229.97060 221.07682 213.26104 206.26526
 200.10147 195.04169 191.62591 189.67012 188.70934 188.77556 189.61277 190.92299
 192.65021 194.74743 197.01264 199.37386 201.82108 204.30329 206.39351 208.23773
 209.86594 211.01316 211.24438 211.47460 211.41381 211.12103 210.75625 210.38846
 210.00768 209.71990 209.53011 209.39633 209.32655 209.65977 210.04798 210.43920
 211.23442 212.41463 213.66685 215.45207 217.38228 219.42750 221.52472 223.60994
 225.67215 227.75837 229.85759 231.96580 234.09702 236.27124 238.52945 240.90167
 243.52489 245.77811 247.78232 249.54954 250.96876 252.09397 252.91819 253.23641
 253.27562 253.05184 252.41406 251.36428 249.97249 248.13571 246.04693 243.88214
 241.67536 239.48158 237.30379 235.14501 233.00723 230.87645 228.90466 227.06388
 225.34910 223.82331 222.45553 221.22975 220.11396 219.07618 218.18240 217.32562
 216.56983 215.75205 214.85227 214.21848 213.67070 213.17035 211.99858 213.12988
 214.96832 216.72745 217.74786 218.12505 219.14107 222.85875 228.31569 233.01183
 236.74107 240.50117 244.24060 247.84181 251.15399 253.97534 256.63876 259.44159
 262.10788 264.52164 266.83914 268.98477 271.03271 272.97778 274.61658 276.20938
 277.84717 279.53918 281.07785 282.44098 283.62653 284.67856 285.64014 286.51453
 287.30762 288.01923 288.64792 289.48447
 366.78100 356.33694 345.77089 334.63883 323.04377 311.23971 299.11166 286.91660
 274.63054 262.52949 250.54043 239.84337 229.96732 221.07326 213.25720 206.26114
 200.09709 195.03703 191.62097 189.66492 188.70386 188.76980 189.60674 190.91669
 192.64363 194.74057 197.00552 199.36646 201.81340 204.29535 206.38529 208.22923
 209.85717 211.00412 211.23506 211.46500 211.40395 211.11089 210.74583 210.37778
 209.99672 209.70866 209.51860 209.38455 209.31449 209.64743 210.03538 210.42632
 211.22126 212.40120 213.65315 215.43809 217.36803 219.41298 221.50992 223.59486
 225.65681 227.74275 229.84169 231.94963 234.08058 236.25452 238.51246 240.88441
 243.50735 245.76029 247.76423 249.53118 250.95012 252.07506 252.89901 253.21695
 253.25589 253.03184 252.39378 251.34372 249.95166 248.11461 246.02555 243.86049
 241.65344 239.45938 237.28132 235.12227 232.98421 230.85315 228.88109 227.04004
 225.32498 223.79892 222.43087 221.20481 220.08875 219.05069 218.15664 217.29958
 216.54352 215.72547 214.82541 214.19135 213.64330 213.17500 212.07722 213.24809
 215.06021 216.79662 217.85603 218.25058 219.28439 222.87180 228.27863 232.92242
 236.62639 240.38051 244.12376 247.70717 250.94876 253.73323 256.45212 259.33862
 261.95743 264.31033 266.63635 268.82666 270.90289 272.84628 274.48370 276.08365
 277.74222 279.44180 280.98196 282.34637 283.53238 284.58487 285.54703 286.42252
 287.21558 287.92773 288.55750 289.39420
 366.78100 356.33675 345.77049 334.63824 323.04299 311.23873 299.11048 286.91523
 274.62897 262.52772 250.53847 239.84121 229.96496 221.07071 213.25445 206.25820
 200.09395 195.03369 191.61744 189.66119 188.69993 188.76568 189.60243 190.91217
 192.63892 194.73567 197.00041 199.36116 201.80791 204.28966 206.37940 208.22315
 209.85090 210.99764 211.22839 211.45814 211.39688 211.10363 210.73838 210.37012
 209.98887 209.70062 209.51036 209.37611 209.30586 209.63860 210.02635 210.41710
 211.21184 212.39159 213.64334 215.42808 217.35783 219.40258 221.49932 223.58407
 225.64582 227.73156 229.83031 231.93806 234.06880 236.24255 238.50030 240.87204
 243.49479 245.74754 247.75128 249.51803 250.93678 252.06152 252.88527 253.20302
 253.24176 253.01751 252.37926 251.32900 249.93675 248.09950 246.01024 243.84499
 241.63774 239.44348 237.26523 235.10598 232.96772 230.83647 228.86422 227.02297
 225.30771 223.78146 222.41321 221.18695 220.07070 219.03245 218.13819 217.28094
 216.52469 215.70643 214.80618 214.17193 213.62367 213.18507 212.15564 213.36781
 215.14044 216.85654 217.96236 218.38081 219.43442 222.89439 228.25012 232.83844
 236.51208 240.26157 244.00647 247.56540 250.73683 253.48917 256.26382 259.22876
 261.80432 264.09903 266.42749 268.65826 270.76361 272.70969 274.35010 275.96414
 277.64478 279.34131 280.88260 282.24747 283.43552 284.48666 285.45020 286.32605
 287.11954 287.83215 288.46167 289.29971
 366.78100 356.33660 345.77021 334.63781 323.04242 311.23802 299.10963 286.91423
 274.62784 262.52644 250.53705 239.83965 229.96325 221.06886 213.25246 206.25607
 200.09167 195.03128 191.61488 189.65849 188.69709 188.76269 189.59930 190.90890
 192.63551 194.73211 196.99672 199.35732 201.80393 204.28553 206.37514 208.21874
 209.84634 210.99295 211.22355 211.45316 211.39176 211.09837 210.73297 210.36458
 209.98318 209.69479 209.50439 209.36999 209.29960 209.63220 210.01981 210.41041
 211.20502 212.38462 213.63623 215.42083 217.35043 219.39504 221.49164 223.57625
 225.63785 227.72346 229.82206 231.92967 234.06027 236.23388 238.49148 240.86308
 243.48569 245.73829 247.74190 249.50850 250.92711 252.05171 252.87532 253.19292
 253.23152 253.00713 252.36873 251.31834 249.92594 248.08855 245.99915 243.83376
 241.62636 239.43197 237.25357 235.09417 232.95578 230.82438 228.85199 227.01059
 225.29520 223.76880 222.40041 221.17401 220.05762 219.01922 218.12482 217.26743
 216.51103 215.69264 214.79224 214.15785 213.60945 213.19972 212.23669 213.48317
 215.21184 216.91138 218.06773 218.51820 219.59830 222.92276 228.22636 232.76233
 236.40338 240.14932 243.89001 247.41718 250.52115 253.24637 256.07370 259.10849
 261.64941 263.89066 266.21497 268.48160 270.61670 272.56821 274.21555 275.84073
 277.53561 279.24561 280.78848 282.15381 283.34073 284.39389 285.35657 286.23254
 287.02643 287.73834 288.37009 289.20709
 366.78100 356.33645 345.76990 334.63735 323.04179 311.23724 299.10869 286.91314
 274.62659 262.52504 250.53548 239.83793 229.96138 221.06683 213.25028 206.25373
 200.08917 195.02862 191.61207 189.65552 188.69397 188.75942 189.59587 190.90531
 192.63176 194.72821 196.99266 199.35311 201.79956 204.28100 206.37045 208.21390
 209.84135 210.98780 211.21825 211.44769 211.38614 211.09259 210.72704 210.35849
 209.97694 209.68839 209.49783 209.36328 209.29273 209.62518 210.01263 210.40308
 211.19752 212.37697 213.62842 215.41287 217.34232 219.38677 221.48321 223.56766
 225.62911 227.71456 229.81301 231.92046 234.05090 236.22435 238.48180 240.85325
 243.47570 245.72815 247.73160 249.49804 250.91649 252.04094 252.86439 253.18184
 253.22029 252.99573 252.35718 251.30663 249.91408 248.07653 245.98698 243.82142
 241.61387 239.41932 237.24077 235.08122 232.94267 230.81112 228.83856 226.99701
 225.28146 223.75491 222.38636 221.15981 220.04325 219.00470 218.11015 217.25260
 216.49605 215.67750 214.77694 214.14239 213.59384 213.21510 212.32346 213.59103
 215.27208 216.96245 218.17091 218.65417 219.77429 222.95309 228.20441 232.69472
 236.30461 240.04611 243.77650 247.26695 250.30762 253.00771 255.88007 258.97562
 261.48828 263.68573 266.00455 268.30127 270.46646 272.42822 274.08533 275.71985
 277.42746 279.14716 280.68997 282.05606 283.24265 284.29684 285.25912 286.13480
 286.92926 287.64249 288.27280 289.11160
 366.78100 356.33623 345.76946 334.63668 323.04091 311.23614 299.10737 286.91159
 274.62482 262.52305 250.53328 239.83551 229.95873 221.06396 213.24719 206.25042
 200.08564 195.02487 191.60810 189.65133 188.68956 188.75478 189.59101 190.90024
 192.62647 194.72269 196.98692 199.34715 201.79338 204.27461 206.36383 208.20706
 209.83429 210.98052 211.21074 211.43997 211.37820 211.08443 210.71866 210.34988
 209.96811 209.67934 209.48857 209.35379 209.28302 209.61525 210.00248 210.39271
 211.18693 212.36616 213.61739 215.40162 217.33084 219.37507 221.47130 223.55553
 225.61676 227.70198 229.80021 231.90744 234.03767 236.21089 238.46812 240.83935
 243.46158 245.71381 247.71703 249.48326 250.90149 252.02572 252.84894 253.16617
 253.20440 252.97963 252.34086 251.29008 249.89731 248.05954 245.96977 243.80399
 241.59622 239.40145 237.22268 235.06291 232.92413 230.79236 228.81959 226.97782
 225.26204 223.73527 222.36650 221.13973 220.02296 218.98418 218.08941 217.23164
 216.47487 215.65609 214.75532 214.12055 213.57178 213.22841 212.41847 213.69577
 215.31955 217.00926 218.27496 218.78137 219.95880 222.97961 228.18341 232.63036
 236.21408 239.95212 243.66646 247.11505 250.09398 252.77248 255.68230 258.82849
 261.32120 263.48529 265.79852 268.12201 270.31815 272.29547 273.96573 275.60828
 277.32242 279.04123 280.58389 281.95081 283.13721 284.19034 285.15417 286.03073
 286.82556 287.53903 288.16763 289.01059
 366.78100 356.33596 345.76892 334.63589 323.03985 311.23481 299.10577 286.90973
 274.62270 262.52066 250.53062 239.83258 229.95555 221.06051 213.24347 206.24643
 200.08139 195.02036 191.60332 189.64628 188.68424 188.74920 189.58517 190.89413
 192.62009 194.71605 196.98002 199.33998 201.78594 204.26690 206.35586 208.19883
 209.82579 210.97175 211.20171 211.43067 211.36864 211.07460 210.70856 210.33952
 209.95748 209.66845 209.47741 209.34237 209.27133 209.60330 209.99026 210.38022
 211.17418 212.35314 213.60411 215.38807 217.31703 219.36099 221.45695 223.54092
 225.60188 227.68684 229.78480 231.89176 234.02173 236.19469 238.45165 240.82261
 243.44458 245.69654 247.69950 249.46546 250.88342 252.00739 252.83035 253.14731
 253.18527 252.96023 252.32120 251.27016 249.87712 248.03908 245.94905 243.78301
 241.57497 239.37993 237.20089 235.04086 232.90182 230.76978 228.79674 226.95470
 225.23867 223.71163 222.34259 221.11555 219.99851 218.95948 218.06444 217.20640
 216.44936 215.63033 214.72929 214.09425 213.54521 213.24025 212.51973 213.80058
 215.35588 217.05392 218.38367 218.90364 220.14592 223.00873 228.15897 232.56779
 236.12967 239.86635 243.56020 246.96153 249.88107 252.54172 255.48312 258.66843
 261.14786 263.28680 265.59695 267.94617 270.17456 272.17166 273.85699 275.50397
 277.21527 278.93280 280.47540 281.84155 283.02899 284.08179 285.04584 285.92380
 286.71948 287.43399 288.06454 288.90747
 366.78100 356.33566 345.76833 334.63499 323.03866 311.23332 299.10399 286.90765
 274.62032 262.51798 250.52765 239.82931 229.95198 221.05664 213.23931 206.24197
 200.07664 195.01530 191.59797 189.64063 188.67829 188.74296 189.57862 190.88729
 192.61295 194.70862 196.97228 199.33195 201.77761 204.25828 206.34694 208.18961
 209.81627 210.96194 211.19160 211.42027 211.35793 211.06359 210.69726 210.32792
 209.94559 209.65625 209.46492 209.32958 209.25825 209.58991 209.97658 210.36624
 211.15991 212.33857 213.58924 215.37290 217.30157 219.34523 221.44090 223.52456
 225.58522 227.66989 229.76755 231.87422 234.00388 236.17655 238.43321 240.80388
 243.42554 245.67721 247.67987 249.44554 250.86320 251.98687 252.80953 253.12620
 253.16386 252.93852 252.29919 251.24785 249.85452 248.01618 245.92585 243.75951
 241.55118 239.35584 237.17651 235.01617 232.87684 230.74450 228.77117 226.92883
 225.21250 223.68516 222.31583 221.08849 219.97115 218.93182 218.03648 217.17815
 216.42081 215.60148 214.70014 214.06481 213.51547 213.25101 212.62619 213.90852
 215.38556 217.08850 218.49524 219.02057 220.35049 223.03062 228.13705 232.51030
 236.04623 239.78542 243.45940 246.80939 249.67017 252.31567 255.28145 258.49298
 260.96423 263.09009 265.40173 267.77667 270.03735 272.05887 273.76108 275.41046
 277.10995 278.82385 280.36636 281.73123 282.91870 283.97290 284.93799 285.81595
 286.61218 287.32727 287.95856 288.80066
 366.78100 356.33527 345.76754 334.63381 323.03708 311.23135 299.10162 286.90490
 274.61717 262.51444 250.52371 239.82498 229.94725 221.05152 213.23379 206.23606
 200.07033 195.00860 191.59087 189.63314 188.67041 188.73469 189.56996 190.87823
 192.60350 194.69877 196.96204 199.32131 201.76658 204.24685 206.33512 208.17739
 209.80366 210.94893 211.17821 211.40648 211.34375 211.04902 210.68229 210.31256
 209.92983 209.64010 209.44837 209.31264 209.24091 209.57218 209.95845 210.34772
 211.14100 212.31927 213.56954 215.35281 217.28108 219.32435 221.41962 223.50289
 225.56316 227.64743 229.74470 231.85097 233.98024 236.15252 238.40879 240.77906
 243.40033 245.65160 247.65387 249.41914 250.83641 251.95968 252.78195 253.09822
 253.13549 252.90976 252.27003 251.21831 249.82458 247.98585 245.89512 243.72839
 241.51966 239.32393 237.14420 234.98347 232.84374 230.71101 228.73728 226.89455
 225.17783 223.65010 222.28037 221.05264 219.93491 218.89518 217.99945 217.14072
 216.38299 215.56326 214.66153 214.02580 213.47607 213.25702 212.73947 214.02507
 215.40234 217.11974 218.60104 219.14484 220.53506 223.07945 228.10822 232.44783
 235.96394 239.71315 243.36769 246.65993 249.45842 252.08859 255.07384 258.30200
 260.77405 262.90359 265.22021 267.61679 269.90869 271.95773 273.67822 275.32614
 277.00903 278.71185 280.25284 281.61789 282.80453 283.85953 284.82520 285.70306
 286.49811 287.21509 287.84647 288.69458
 366.78100 356.33520 345.76740 334.63360 323.03680 311.23100 299.10120 286.90440
 274.61660 262.51380 250.52300 239.82420 229.94640 221.05060 213.23279 206.23499
 200.06919 195.00739 191.58959 189.63179 188.66899 188.73319 189.56839 190.87659
 192.60179 194.69699 196.96019 199.31939 201.76459 204.24479 206.33299 208.17519
 209.80139 210.94659 211.17579 211.40399 211.34119 211.04639 210.67959 210.30979
 209.92699 209.63719 209.44538 209.30958 209.23778 209.56898 209.95518 210.34438
 211.13758 212.31578 213.56598 215.34918 217.27738 219.32058 221.41578 223.49898
 225.55918 227.64338 229.74058 231.84678 233.97598 236.14818 238.40438 240.77458
 243.39578 245.64698 247.64918 249.41438 250.83158 251.95477 252.77697 253.09317
 253.13037 252.90457 252.26477 251.21297 249.81917 247.98037 245.88957 243.72277
 241.51397 239.31817 237.13837 234.97757 232.83777 230.70497 228.73117 226.88837
 225.17157 223.64377 222.27397 221.04617 219.92837 218.88857 217.99277 217.13397
 216.37617 215.55636 214.65456 214.01876 213.46896 213.27885 212.82968 214.16574
 215.43019 217.11223 218.70953 219.25557 220.78862 223.07895 228.09206 232.41539
 235.89650 239.64270 243.26688 246.49101 249.22638 251.84892 254.85692 258.09872
 260.58517 262.73257 265.05539 267.46786 269.78793 271.86438 273.60367 275.24768
 276.90988 278.61270 280.15399 281.52036 282.70853 283.76401 284.73126 285.61530
 286.42145 287.14587 287.78220 288.62772
 366.78100 356.33492 345.76684 334.63276 323.03568 311.22961 299.09953 286.90245
 274.61437 262.51129 250.52021 239.82113 229.94305 221.04698 213.22890 206.23082
 200.06474 195.00266 191.58458 189.62650 188.66342 188.72734 189.56227 190.87019
 192.59511 194.69003 196.95295 199.31187 201.75679 204.23671 206.32463 208.16656
 209.79248 210.93740 211.16632 211.39424 211.33116 211.03608 210.66900 210.29893
 209.91585 209.62577 209.43369 209.29761 209.22553 209.55645 209.94237 210.33129
 211.12422 212.30214 213.55206 215.33498 217.26290 219.30582 221.40074 223.48366
 225.54359 227.62751 229.72443 231.83035 233.95927 236.13119 238.38711 240.75703
 243.37795 245.62888 247.63080 249.39572 250.81264 251.93556 252.75748 253.07340
 253.11032 252.88424 252.24417 251.19209 249.79801 247.95893 245.86785 243.70077
 241.49169 239.29561 237.11554 234.95446 232.81438 230.68130 228.70722 226.86414
 225.14706 223.61898 222.24890 221.02083 219.90275 218.86267 217.96659 217.10751
 216.34943 215.52935 214.62727 213.99120 213.44112 213.29201 212.93970 214.25603
 215.54845 217.08916 218.68591 219.45248 220.94508 223.28317 228.07178 232.33200
 235.79941 239.54579 243.14070 246.30209 248.98509 251.60797 254.63870 257.89099
 260.40338 262.57486 264.90341 267.32858 269.67453 271.78033 273.53751 275.17191
 276.81082 278.52490 280.06763 281.43378 282.62207 283.67798 284.64798 285.53357
 286.34146 287.06982 287.70630 288.55374
 366.78100 356.33433 345.76566 334.63099 323.03332 311.22666 299.09599 286.89832
 274.60965 262.50598 250.51431 239.81464 229.93597 221.03930 213.22064 206.22197
 200.05530 194.99263 191.57396 189.61529 188.65162 188.71495 189.54928 190.85662
 192.58095 194.67528 196.93761 199.29594 201.74027 204.21960 206.30693 208.14826
 209.77360 210.91793 211.14626 211.37359 211.30992 211.01425 210.64658 210.27591
 209.89224 209.60158 209.40891 209.27224 209.19957 209.52990 209.91523 210.30356
 211.09589 212.27322 213.52256 215.30489 217.23222 219.27455 221.36888 223.45121
 225.51054 227.59387 229.69020 231.79554 233.92387 236.09520 238.35053 240.71986
 243.34019 245.59052 247.59185 249.35618 250.77252 251.89485 252.71618 253.03151
 253.06784 252.84117 252.20050 251.14783 249.75316 247.91350 245.82183 243.65416
 241.44449 239.24782 237.06715 234.90548 232.76481 230.63114 228.65648 226.81281
 225.09514 223.56647 222.19580 220.96713 219.84846 218.80779 217.91112 217.05146
 216.29279 215.47212 214.56945 213.93278 213.38211 213.28986 213.07191 214.35434
 215.59239 217.09651 218.72681 219.65260 221.06560 223.49142 228.03748 232.22318
 235.69232 239.44754 243.01529 246.11514 248.74757 251.37140 254.42265 257.68250
 260.22787 262.42825 264.76505 267.20111 269.57028 271.70642 273.48557 275.11572
 276.72385 278.43823 279.98111 281.34778 282.53577 283.59302 284.56253 285.45038
 286.25876 286.98682 287.62457 288.47141
 366.78100 356.33372 345.76445 334.62917 323.03089 311.22362 299.09234 286.89406
 274.60479 262.50051 250.50823 239.80796 229.92868 221.03140 213.21213 206.21285
 200.04557 194.98230 191.56302 189.60374 188.63947 188.70219 189.53591 190.84264
 192.56636 194.66008 196.92181 199.27953 201.72325 204.20198 206.28870 208.12942
 209.75415 210.89787 211.12559 211.35232 211.28804 210.99176 210.62349 210.25221
 209.86793 209.57666 209.38338 209.24610 209.17283 209.50255 209.88727 210.27500
 211.06672 212.24344 213.49217 215.27389 217.20061 219.24234 221.33606 223.41778
 225.47651 227.55923 229.65495 231.75968 233.88740 236.05812 238.31285 240.68157
 243.30129 245.55102 247.55174 249.31546 250.73119 251.85291 252.67363 252.98836
 253.02408 252.79680 252.15553 251.10225 249.70697 247.86670 245.77442 243.60614
 241.39587 239.19859 237.01731 234.85504 232.71376 230.57948 228.60421 226.75993
 225.04165 223.51238 222.14110 220.91182 219.79255 218.75127 217.85399 216.99372
 216.23444 215.41316 214.50989 213.87261 213.32133 213.28571 213.20155 214.47456
 215.61893 217.10474 218.78694 219.83849 221.20894 223.65875 228.00377 232.12154
 235.59489 239.35583 242.88567 245.91434 248.49754 251.13023 254.20740 257.47318
 260.05927 262.29721 264.64426 267.08859 269.47839 271.64423 273.44220 275.06619
 276.64685 278.35938 279.90350 281.26932 282.45657 283.51492 284.48441 285.37308
 286.18271 286.90942 287.54901 288.39893
 366.78100 356.33302 345.76304 334.62706 323.02808 311.22010 299.08812 286.88914
 274.59916 262.49418 250.50119 239.80021 229.92023 221.02225 213.20227 206.20229
 200.03431 194.97033 191.55035 189.59037 188.62539 188.68741 189.52043 190.82645
 192.54947 194.64249 196.90351 199.26053 201.70354 204.18156 206.26758 208.10760
 209.73162 210.87464 211.10166 211.32768 211.26270 210.96572 210.59674 210.22476
 209.83978 209.54780 209.35382 209.21584 209.14186 209.47088 209.85490 210.24191
 211.03293 212.20895 213.45697 215.23799 217.16401 219.20503 221.29805 223.37907
 225.43709 227.51911 229.61413 231.71815 233.84517 236.01519 238.26921 240.63723
 243.25625 245.50526 247.50528 249.26830 250.68332 251.80434 252.62436 252.93838
 252.97340 252.74542 252.10344 251.04946 249.65348 247.81250 245.71952 243.55054
 241.33956 239.14158 236.95960 234.79662 232.65463 230.51965 228.54367 226.69869
 224.97971 223.44973 222.07775 220.84777 219.72779 218.68581 217.78783 216.92685
 216.16687 215.34489 214.44091 213.80293 213.25095 213.27539 213.33316 214.60153
 215.66042 217.11128 218.84444 220.01447 221.36728 223.79709 227.97186 232.03693
 235.50761 239.26016 242.73509 245.68658 248.23067 250.88383 253.99240 257.26514
 259.89963 262.18381 264.54376 266.99368 269.39865 271.59183 273.41260 275.03778
 276.58466 278.28424 279.82635 281.19250 282.38101 283.43835 284.40912 285.29562
 286.10745 286.83649 287.47592 288.32437
 366.78100 356.33231 345.76162 334.62492 323.02523 311.21654 299.08385 286.88416
 274.59346 262.48777 250.49408 239.79239 229.91170 221.01301 213.19231 206.19162
 200.02293 194.95824 191.53755 189.57685 188.61116 188.67247 189.50478 190.81009
 192.53239 194.62470 196.88501 199.24132 201.68363 204.16093 206.24624 208.08555
 209.70886 210.85117 211.07748 211.30278 211.23709 210.93940 210.56971 210.19702
 209.81132 209.51863 209.32394 209.18525 209.11056 209.43886 209.82217 210.20848
 210.99879 212.17410 213.42140 215.20171 217.12702 219.16733 221.25964 223.33995
 225.39725 227.47856 229.57287 231.67618 233.80249 235.97179 238.22510 240.59241
 243.21072 245.45903 247.45833 249.22064 250.63495 251.75526 252.57457 252.88787
 252.92218 252.69349 252.05080 250.99611 249.59942 247.75772 245.66403 243.49434
 241.28265 239.08396 236.90126 234.73757 232.59488 230.45919 228.48250 226.63680
 224.91711 223.38642 222.01373 220.78304 219.66234 218.61965 217.72096 216.85927
 216.09858 215.27589 214.37119 213.73250 213.17981 213.26317 213.46011 214.73631
 215.71646 217.12643 218.90729 220.18185 221.53036 223.91544 227.94104 231.96219
 235.42046 239.14822 242.55849 245.43990 247.95650 250.63622 253.77782 257.05795
 259.74417 262.08194 264.45969 266.91556 269.33304 271.55072 273.39474 275.02533
 276.53308 278.21790 279.75946 281.12564 282.31277 283.37045 284.34149 285.22943
 286.04089 286.77023 287.40997 288.25858
 366.78100 356.33169 345.76039 334.62308 323.02278 311.21347 299.08016 286.87986
 274.58855 262.48225 250.48794 239.78563 229.90433 221.00502 213.18372 206.18241
 200.01311 194.94780 191.52649 189.56519 188.59888 188.65958 189.49127 190.79596
 192.51766 194.60935 196.86905 199.22474 201.66643 204.14313 206.22782 208.06652
 209.68921 210.83090 211.05660 211.28129 211.21499 210.91668 210.54638 210.17307
 209.78676 209.49346 209.29815 209.15885 209.08354 209.41123 209.79393 210.17962
 210.96932 212.14401 213.39070 215.17040 217.09509 219.13479 221.22648 223.30617
 225.36287 227.44356 229.53726 231.63995 233.76564 235.93434 238.18703 240.55373
 243.17142 245.41912 247.41781 249.17950 250.59320 251.71289 252.53159 252.84428
 252.87797 252.64867 252.00536 250.95006 249.55275 247.71044 245.61614 243.44583
 241.23353 239.03422 236.85091 234.68661 232.54330 230.40700 228.42969 226.58339
 224.86308 223.33177 221.95847 220.72716 219.60586 218.56255 217.66324 216.80094
 216.03963 215.21633 214.31102 213.67171 213.11841 213.25453 213.57616 214.87744
 215.78889 217.15868 218.98080 220.34061 221.69685 224.01894 227.91338 231.88501
 235.32199 239.01285 242.35709 245.17764 247.67612 250.38649 253.56473 256.85507
 259.59555 261.98981 264.38919 266.85165 269.27753 271.51584 273.38321 275.03201
 276.54373 278.15662 279.68909 281.05573 282.24402 283.30087 284.27151 285.16013
 285.97186 286.70126 287.34177 288.18945
 366.78100 356.33110 345.75920 334.62129 323.02039 311.21049 299.07659 286.87568
 274.58378 262.47688 250.48198 239.77908 229.89717 220.99727 213.17537 206.17347
 200.00356 194.93766 191.51576 189.55386 188.58696 188.64705 189.47815 190.78225
 192.50335 194.59444 196.85354 199.20864 201.64974 204.12584 206.20993 208.04803
 209.67013 210.81123 211.03632 211.26042 211.19352 210.89462 210.52372 210.14981
 209.76291 209.46901 209.27311 209.13320 209.05730 209.38440 209.76650 210.15160
 210.94069 212.11479 213.36089 215.13999 217.06408 219.10318 221.19428 223.27338
 225.32948 227.40957 229.50267 231.60477 233.72987 235.89796 238.15006 240.51616
 243.13326 245.38035 247.37845 249.13955 250.55265 251.67175 252.48984 252.80194
 252.83504 252.60514 251.96123 250.90533 249.50743 247.66453 245.56963 243.39872
 241.18582 238.98592 236.80202 234.63711 232.49321 230.35631 228.37841 226.53151
 224.81060 223.27870 221.90480 220.67290 219.55099 218.50709 217.60719 216.74429
 215.98239 215.15848 214.25258 213.61268 213.05878 213.24600 213.68831 215.01953
 215.87279 217.20355 219.06650 220.49738 221.87201 224.11902 227.89523 231.80241
 235.21135 238.85616 242.13066 244.89484 247.38432 250.13327 253.35324 256.65887
 259.45294 261.90509 264.33109 266.80048 269.23035 271.48248 273.37509 275.04871
 276.59766 278.10953 279.62982 280.99728 282.18753 283.24414 284.21545 285.10455
 285.91763 286.64774 287.28897 288.13614
 366.78100 356.33150 345.76001 334.62251 323.02201 311.21252 299.07902 286.87852
 274.58703 262.48053 250.48603 239.78354 229.90204 221.00255 213.18105 206.17955
 200.01006 194.94456 191.52306 189.56157 188.59507 188.65557 189.48708 190.79158
 192.51308 194.60459 196.86409 199.21959 201.66110 204.13760 206.22210 208.06061
 209.68311 210.82462 211.05012 211.27462 211.20813 210.90963 210.53913 210.16564
 209.77914 209.48564 209.29015 209.15065 209.07515 209.40266 209.78516 210.17066
 210.96017 212.13467 213.38117 215.16068 217.08518 219.12469 221.21619 223.29569
 225.35220 227.43270 229.52620 231.62871 233.75421 235.92271 238.17522 240.54172
 243.15922 245.40673 247.40523 249.16673 250.58024 251.69974 252.51824 252.83075
 252.86425 252.63476 251.99126 250.93576 249.53827 247.69577 245.60127 243.43078
 241.21828 239.01878 236.83529 234.67079 232.52729 230.39080 228.41330 226.56680
 224.84631 223.31481 221.94131 220.70982 219.58832 218.54483 217.64533 216.78283
 216.02134 215.19784 214.29234 213.65285 213.09935 213.29169 213.74611 215.14177
 216.02339 217.29610 219.17145 220.63681 222.02484 224.19615 227.86266 231.70226
 235.08347 238.66554 241.85316 244.56128 247.05730 249.86511 253.14178 256.47742
 259.33383 261.83783 264.29236 266.76837 269.19666 271.45255 273.35703 275.03406
 276.58923 278.08740 279.61963 280.98895 282.17847 283.23627 284.20685 285.09866
 285.91287 286.64874 287.29575 288.14517
 366.78100 356.33250 345.76200 334.62549 323.02599 311.21749 299.08499 286.88549
 274.59498 262.48948 250.49598 239.79448 229.91398 221.01547 213.19497 206.19447
 200.02597 194.96147 191.54097 189.58046 188.61496 188.67646 189.50896 190.81446
 192.53695 194.62945 196.88995 199.24645 201.68895 204.16644 206.25194 208.09144
 209.71494 210.85744 211.08393 211.30943 211.24393 210.94643 210.57693 210.20442
 209.81892 209.52642 209.33192 209.19342 209.11891 209.44741 209.83091 210.21741
 211.00791 212.18341 213.43090 215.21140 217.13690 219.17740 221.26990 223.35039
 225.40789 227.48939 229.58389 231.68739 233.81388 235.98338 238.23688 240.60438
 243.22288 245.47137 247.47087 249.23337 250.64787 251.76837 252.58786 252.90136
 252.93586 252.70736 252.06486 251.01036 249.61385 247.77235 245.67885 243.50935
 241.29785 239.09934 236.91684 234.75334 232.61084 230.47534 228.49883 226.65333
 224.93383 223.40333 222.03083 220.80032 219.67982 218.63732 217.73882 216.87732
 216.11681 215.29431 214.38981 213.75131 213.19881 213.37524 213.80338 215.20164
 216.18993 217.39363 219.27519 220.76305 222.15753 224.22885 227.78343 231.60904
 234.94185 238.45470 241.53549 244.17883 246.68279 249.56422 252.92262 256.31482
 259.19614 261.80789 264.31964 266.78546 269.18314 271.40866 273.32239 274.99176
 276.52841 278.06406 279.57950 280.94717 282.13235 283.18781 284.15186 285.04266
 285.85306 286.60431 287.28168 288.14490
 366.78100 356.33160 345.76020 334.62280 323.02239 311.21299 299.07959 286.87919
 274.58779 262.48139 250.48699 239.78459 229.90318 221.00378 213.18238 206.18098
 200.01158 194.94618 191.52478 189.56338 188.59697 188.65757 189.48917 190.79377
 192.51537 194.60697 196.86657 199.22217 201.66376 204.14036 206.22496 208.06356
 209.68616 210.82776 211.05336 211.27796 211.21155 210.91315 210.54275 210.16935
 209.78295 209.48955 209.29415 209.15474 209.07934 209.40694 209.78954 210.17514
 210.96474 212.13934 213.38594 215.16553 217.09013 219.12973 221.22133 223.30093
 225.35753 227.43813 229.53173 231.63432 233.75992 235.92852 238.18112 240.54772
 243.16532 245.41292 247.41152 249.17311 250.58671 251.70631 252.52491 252.83751
 252.87111 252.64171 251.99830 250.94290 249.54550 247.70310 245.60870 243.43830
 241.22590 239.02650 236.84309 234.67869 232.53529 230.39889 228.42149 226.57509
 224.85469 223.32329 221.94988 220.71848 219.59708 218.55368 217.65428 216.79188
 216.03048 215.20708 214.30167 213.66227 213.10887 213.35841 213.97534 215.29919
 216.24361 217.42139 219.32069 220.88490 222.34430 224.32542 227.74701 231.58337
 234.83023 238.26122 241.23459 243.82259 246.37053 249.33434 252.73250 256.11316
 259.05823 261.71249 264.33966 266.81656 269.18915 271.36475 273.27286 274.91776
 276.46695 278.01367 279.55664 280.92456 282.11322 283.17368 284.15167 285.05246
 285.91675 286.69925 287.38284 288.25397
 366.78100 356.33023 345.75746 334.61868 323.01691 311.20614 299.07137 286.86960
 274.57683 262.46905 250.47328 239.76951 229.88674 220.98597 213.16319 206.16042
 199.98965 194.92288 191.50011 189.53734 188.56956 188.62879 189.45902 190.76225
 192.48248 194.57270 196.83093 199.18516 201.62539 204.10062 206.18385 208.02107
 209.64230 210.78253 211.00676 211.22999 211.16221 210.86244 210.49067 210.11590
 209.72813 209.43335 209.23658 209.09581 209.01904 209.34527 209.72650 210.11072
 210.89895 212.07218 213.31741 215.09564 217.01886 219.05709 221.14732 223.22555
 225.28078 227.36001 229.45223 231.55346 233.67769 235.84492 238.09615 240.46137
 243.07760 245.32383 247.32106 249.08129 250.49352 251.61174 252.42897 252.74020
 252.77243 252.54166 251.89688 250.84011 249.44134 247.59757 245.50180 243.33003
 241.11625 238.91548 236.73071 234.56494 232.42017 230.28239 228.30362 226.45585
 224.73408 223.20131 221.82654 220.59376 219.47099 218.42622 217.52545 216.66168
 215.89890 215.07413 214.16736 213.52659 212.97182 213.31041 214.14340 215.45256
 216.22383 217.36902 219.35205 221.06665 222.61990 224.55594 227.84302 231.61888
 234.74989 238.03450 240.88748 243.43159 246.04028 249.08110 252.52164 255.89302
 258.88547 261.66000 264.29059 266.78033 269.15826 271.33798 273.25894 274.93201
 276.53165 278.09335 279.62125 280.99472 282.19537 283.27310 284.27966 285.23724
 286.12143 286.90878 287.59659 288.47314
 366.78100 356.32895 345.75489 334.61484 323.01179 311.19973 299.06368 286.86063
 274.56658 262.45752 250.46047 239.75542 229.87136 220.96931 213.14526 206.14120
 199.96915 194.90110 191.47704 189.51299 188.54394 188.60188 189.43083 190.73278
 192.45173 194.54067 196.79762 199.15057 201.58951 204.06346 206.14541 207.98135
 209.60130 210.74025 210.96319 211.18514 211.11609 210.81503 210.44198 210.06593
 209.67688 209.38082 209.18277 209.04072 208.96266 209.28761 209.66756 210.05050
 210.83745 212.00940 213.25334 215.03029 216.95224 218.98919 221.07813 223.15508
 225.20903 227.28697 229.37792 231.47787 233.60081 235.76676 238.01671 240.38065
 242.99560 245.24055 247.23649 248.99544 250.40639 251.52334 252.33928 252.64923
 252.68018 252.44812 251.80207 250.74402 249.34396 247.49891 245.40186 243.22880
 241.01375 238.81170 236.62564 234.45859 232.31254 230.17349 228.19343 226.34438
 224.62133 223.08727 221.71122 220.47717 219.35311 218.30706 217.40501 216.53995
 215.77590 214.94985 214.04180 213.39974 212.84369 213.27072 214.31023 215.55693
 216.20520 217.40854 219.42245 221.21492 222.82961 224.75044 227.94414 231.63045
 234.66086 237.78911 240.52603 243.03827 245.71043 248.84196 252.32187 255.65720
 258.75058 261.61356 264.21664 266.73172 269.12491 271.32135 273.26663 275.00665
 276.62527 278.13956 279.70111 281.08063 282.28864 283.37698 284.41061 285.39386
 286.27817 287.06564 287.75357 288.63025
 366.78100 356.32985 345.75671 334.61756 323.01541 311.20426 299.06912 286.86697
 274.57382 262.46568 250.46953 239.76538 229.88223 220.98109 213.15794 206.15479
 199.98364 194.91650 191.49335 189.53020 188.56206 188.62091 189.45076 190.75361
 192.47347 194.56332 196.82117 199.17503 201.61488 204.08973 206.17258 208.00944
 209.63029 210.77014 210.99400 211.21685 211.14870 210.84855 210.47641 210.10126
 209.71311 209.41796 209.22082 209.07967 209.00252 209.32838 209.70923 210.09308
 210.88093 212.05379 213.29864 215.07649 216.99935 219.03720 221.12705 223.20490
 225.25976 227.33861 229.43046 231.53132 233.65517 235.82202 238.07287 240.43773
 243.05358 245.29943 247.29629 249.05614 250.46799 251.58584 252.40270 252.71355
 252.74540 252.51425 251.86911 250.81196 249.41281 247.56867 245.47252 243.30037
 241.08622 238.88508 236.69993 234.53378 232.38864 230.25049 228.27134 226.42319
 224.70105 223.16790 221.79275 220.55961 219.43646 218.39131 217.49016 216.62602
 215.86287 215.03772 214.13057 213.48943 212.93428 213.34125 214.34886 215.64830
 216.32782 217.56854 219.56378 221.33846 222.98553 224.92480 228.02666 231.64832
 234.56984 237.53162 240.12198 242.59422 245.33826 248.57440 252.13374 255.48549
 258.68927 261.54111 264.17624 266.73007 269.14325 271.31812 273.26013 274.99310
 276.62875 278.24271 279.80652 281.19397 282.41534 283.52179 284.60922 285.59573
 286.48300 287.27310 287.96332 288.84293
 366.78100 356.33011 345.75723 334.61834 323.01646 311.20557 299.07069 286.86880
 274.57592 262.46803 250.47214 239.76826 229.88537 220.98449 213.16160 206.15872
 199.98783 194.92095 191.49806 189.53518 188.56729 188.62640 189.45652 190.75963
 192.47975 194.56986 196.82798 199.18209 201.62221 204.09732 206.18043 208.01755
 209.63866 210.77878 211.00289 211.22601 211.15812 210.85824 210.48635 210.11147
 209.72358 209.42869 209.23181 209.09092 209.01404 209.34015 209.72127 210.10538
 210.89350 212.06661 213.31172 215.08984 217.01295 219.05107 221.14118 223.21930
 225.27441 227.35353 229.44564 231.54676 233.67087 235.83798 238.08910 240.45421
 243.07033 245.31644 247.31356 249.07367 250.48579 251.60390 252.42101 252.73213
 252.76424 252.53336 251.88847 250.83159 249.43270 247.58882 245.49293 243.32104
 241.10716 238.90627 236.72139 234.55550 232.41062 230.27273 228.29385 226.44596
 224.72408 223.19119 221.81630 220.58342 219.46053 218.41565 217.51476 216.65088
 215.88799 215.06311 214.15622 213.51533 212.96045 213.38057 214.41917 215.66504
 216.55658 217.75296 219.70161 221.53156 223.22502 225.13275 228.14224 231.66139
 234.45580 237.22879 239.66968 242.12106 244.93944 248.29424 251.97662 255.40063
 258.59351 261.49429 264.18542 266.77524 269.17340 271.31836 273.23462 274.97446
 276.60544 278.31287 279.88382 281.28598 282.52750 283.69946 284.79678 285.79086
 286.68494 287.48111 288.17664 289.06302
 366.78100 356.32953 345.75606 334.61658 323.01411 311.20264 299.06717 286.86469
 274.57122 262.46275 250.46628 239.76180 229.87833 220.97686 213.15339 206.14991
 199.97844 194.91097 191.48750 189.52403 188.55555 188.61408 189.44361 190.74614
 192.46566 194.55519 196.81272 199.16625 201.60577 204.08030 206.16283 207.99936
 209.61988 210.75941 210.98294 211.20547 211.13700 210.83652 210.46405 210.08858
 209.70011 209.40463 209.20716 209.06569 208.98822 209.31374 209.69427 210.07780
 210.86533 212.03785 213.28238 215.05991 216.98244 219.01996 221.10949 223.18702
 225.24155 227.32008 229.41160 231.51213 233.63566 235.80219 238.05271 240.41724
 243.03277 245.27830 247.27482 249.03435 250.44588 251.56341 252.37993 252.69046
 252.72199 252.49052 251.84505 250.78757 249.38810 247.54363 245.44716 243.27468
 241.06021 238.85874 236.67327 234.50679 232.36132 230.22285 228.24338 226.39490
 224.67243 223.13896 221.76349 220.53002 219.40654 218.36107 217.45960 216.59513
 215.83165 215.00618 214.09871 213.45724 212.90176 213.36978 214.51976 215.77182
 216.68732 217.88396 219.79701 221.68053 223.42914 225.31033 228.22044 231.66562
 234.33701 236.92697 239.24449 241.69366 244.58646 248.04665 251.82573 255.34615
 258.50897 261.45227 264.20639 266.82632 269.20795 271.31326 273.20599 274.97165
 276.60992 278.40628 279.98334 281.39420 282.65540 283.86520 284.96899 285.96893
 286.86829 287.66916 288.36880 289.26038
 366.78100 356.32993 345.75685 334.61778 323.01571 311.20463 299.06956 286.86748
 274.57441 262.46634 250.47026 239.76619 229.88312 220.98204 213.15897 206.15590
 199.98482 194.91775 191.49467 189.53160 188.56353 188.62245 189.45238 190.75531
 192.47523 194.56516 196.82309 199.17701 201.61694 204.09186 206.17479 208.01172
 209.63264 210.77257 210.99650 211.21942 211.15135 210.85127 210.47920 210.10413
 209.71605 209.42098 209.22391 209.08283 209.00576 209.33169 209.71261 210.09654
 210.88446 212.05739 213.30232 215.08024 217.00317 219.04110 221.13102 223.20895
 225.26388 227.34280 229.43473 231.53565 233.65958 235.82651 238.07743 240.44236
 243.05829 245.30421 247.30114 249.06107 250.47299 251.59092 252.40784 252.71877
 252.75070 252.51962 251.87455 250.81748 249.41840 247.57433 245.47826 243.30618
 241.09211 238.89103 236.70596 234.53989 232.39481 230.25674 228.27767 226.42959
 224.70752 223.17445 221.79937 220.56630 219.44322 218.39815 217.49708 216.63300
 215.86993 215.04486 214.13778 213.49671 212.94164 213.40619 214.56946 215.92744
 216.83336 218.10422 219.96576 221.75624 223.47276 225.37250 228.30438 231.65939
 234.21954 236.65154 238.84698 241.25861 244.22412 247.80951 251.67084 255.28519
 258.46436 261.41461 264.22482 266.86197 269.21841 271.27939 273.15173 274.91638
 276.74017 278.54648 280.13480 281.56277 282.89215 284.10440 285.21042 286.21237
 287.11349 287.91599 288.61700 289.51038
 366.78100 356.32818 345.75335 334.61253 323.00870 311.19588 299.05905 286.85523
 274.56040 262.45058 250.45275 239.74693 229.86210 220.95928 213.13445 206.12963
 199.95680 194.88798 191.46315 189.49833 188.52851 188.58568 189.41386 190.71503
 192.43321 194.52138 196.77756 199.12973 201.56791 204.04108 206.12226 207.95743
 209.57661 210.71478 210.93696 211.15813 211.08831 210.78648 210.41266 210.03583
 209.64601 209.34919 209.15036 209.00754 208.92871 209.25289 209.63206 210.01424
 210.80041 211.97159 213.21476 214.99094 216.91211 218.94829 221.03646 223.11264
 225.16581 227.24299 229.33316 231.43234 233.55452 235.71969 237.96887 240.33204
 242.94622 245.19039 247.18557 248.94374 250.35392 251.47009 252.28527 252.59444
 252.62462 252.39179 251.74497 250.68614 249.28532 247.43949 245.34167 243.16784
 240.95202 238.74920 236.56237 234.39455 232.24772 230.10790 228.12707 226.27725
 224.55342 223.01860 221.64177 220.40695 219.28212 218.23530 217.33247 216.46665
 215.70182 214.87500 213.96617 213.32335 212.76653 213.33269 214.73340 216.09108
 216.84729 218.30377 220.15659 221.84613 223.51323 225.45819 228.44907 231.66161
 234.15987 236.46584 238.50682 240.81934 243.85568 247.52101 251.51299 255.19244
 258.38184 261.40100 264.21085 266.84903 269.18631 271.21332 273.06653 274.85306
 276.81656 278.62872 280.22824 281.69620 283.04614 284.24048 285.33014 286.31732
 287.20514 287.99579 288.68646 289.56665
 366.78100 356.32511 345.74721 334.60332 322.99643 311.18053 299.04064 286.83374
 274.53585 262.42296 250.42206 239.71317 229.82528 220.91938 213.09149 206.08359
 199.90770 194.83581 191.40791 189.44002 188.46713 188.52123 189.34634 190.64444
 192.35955 194.44466 196.69776 199.04687 201.48198 203.95208 206.03019 207.86229
 209.47840 210.61351 210.83261 211.05072 210.97783 210.67293 210.29604 209.91614
 209.52325 209.22336 209.02146 208.87557 208.79368 209.11478 209.49089 209.86999
 210.65310 211.82121 213.06131 214.83442 216.75253 218.78563 220.87074 222.94384
 224.99395 227.06806 229.15516 231.25127 233.37038 235.53248 237.77859 240.13869
 242.74980 244.99091 246.98301 248.73812 250.14523 251.25833 252.07044 252.37654
 252.40365 252.16776 251.51786 250.45597 249.05208 247.20318 245.10229 242.92539
 240.70650 238.50061 236.31071 234.13982 231.98993 229.84703 227.86314 226.01024
 224.28335 222.74546 221.36556 220.12767 218.99978 217.94988 217.04399 216.17509
 215.40720 214.57731 213.66541 213.01952 212.45963 213.19734 214.97401 216.19331
 216.90485 218.50636 220.35913 222.03789 223.59505 225.47383 228.54683 231.52318
 234.04268 236.19572 238.10820 240.42468 243.57364 247.36005 251.45183 255.10071
 258.30984 261.47842 264.29053 266.87082 269.14456 271.10809 272.91400 274.77997
 276.88318 278.76346 280.56738 282.15222 283.52377 284.73724 285.84436 286.84732
 287.74939 288.55267 289.25439 290.14868
 366.78100 356.32602 345.74905 334.60607 323.00009 311.18512 299.04614 286.84016
 274.54318 262.43121 250.43123 239.72325 229.83628 220.93130 213.10432 206.09735
 199.92237 194.85139 191.42441 189.45744 188.48546 188.54048 189.36651 190.66553
 192.38155 194.46758 196.72160 199.07162 201.50764 203.97867 206.05769 207.89071
 209.50774 210.64376 210.86378 211.08281 211.01083 210.70685 210.33087 209.95190
 209.55992 209.26094 209.05997 208.91499 208.83401 209.15604 209.53306 209.91308
 210.69710 211.86613 213.10715 214.88117 216.80020 218.83422 220.92024 222.99427
 225.04529 227.12031 229.20833 231.30536 233.42538 235.58840 237.83543 240.19645
 242.80847 245.05050 247.04352 248.79954 250.20756 251.32159 252.13461 252.44163
 252.46966 252.23468 251.58570 250.52473 249.12175 247.27377 245.17379 242.99782
 240.77984 238.57486 236.38589 234.21591 232.06693 229.92496 227.94198 226.09000
 224.36402 222.82705 221.44807 220.21109 219.08412 218.03514 217.13016 216.26219
 215.49521 214.66623 213.75525 213.11028 212.55130 213.24826 214.97554 216.28445
 217.04909 218.59941 220.54597 222.30495 223.76251 225.45840 228.63857 231.42166
 233.73624 235.77995 237.70032 240.07439 243.32965 247.32709 251.44630 255.14696
 258.46152 261.51041 264.33328 266.93210 269.21796 271.15805 272.90189 274.93307
 277.16507 279.40506 281.34558 283.04950 284.52411 285.82874 287.01901 288.09735
 289.06717 289.93079 290.68524 291.64673
 366.78100 356.32682 345.75064 334.60847 323.00329 311.18911 299.05093 286.84575
 274.54958 262.43840 250.43922 239.73204 229.84587 220.94169 213.11551 206.10933
 199.93515 194.86498 191.43880 189.47262 188.50144 188.55726 189.38409 190.68391
 192.40073 194.48755 196.74237 199.09320 201.53002 204.00184 206.08166 207.91549
 209.53331 210.67013 210.89095 211.11077 211.03960 210.73642 210.36124 209.98306
 209.59188 209.29371 209.09353 208.94935 208.86917 209.19199 209.56982 209.95064
 210.73546 211.90528 213.14711 214.92193 216.84175 218.87657 220.96339 223.03822
 225.09004 227.16586 229.25468 231.35250 233.47333 235.63715 237.88497 240.24679
 242.85961 245.10244 247.09626 248.85308 250.26190 251.37673 252.19055 252.49837
 252.52719 252.29301 251.64484 250.58466 249.18248 247.33530 245.23612 243.06095
 240.84377 238.63959 236.45141 234.28223 232.13406 229.99288 228.01070 226.15952
 224.43435 222.89817 221.51999 220.28381 219.15763 218.10946 217.20528 216.33810
 215.57192 214.74374 213.83357 213.18939 212.63121 213.28214 214.90625 216.49200
 217.20929 218.45718 220.49976 222.32774 223.87975 225.74397 228.64099 231.51445
 233.65340 235.52298 237.34427 239.75610 243.08633 247.14758 251.26186 255.04683
 258.40909 261.49155 264.40289 267.09302 269.41620 271.44580 273.30649 275.12949
 277.00287 278.82016 280.46478 282.07159 283.50797 284.77878 285.93820 286.98856
 287.93326 288.77451 289.50940 290.44592
 366.78100 356.32426 345.74553 334.60079 322.99305 311.17632 299.03558 286.82784
 274.52910 262.41537 250.41363 239.70389 229.81516 220.90842 213.07968 206.07095
 199.89421 194.82147 191.39273 189.42400 188.45026 188.50352 189.32779 190.62505
 192.33931 194.42358 196.67584 199.02410 201.45837 203.92763 206.00489 207.83615
 209.45142 210.58568 210.80394 211.02121 210.94747 210.64173 210.26400 209.88326
 209.48952 209.18879 208.98605 208.83931 208.75657 209.07684 209.45210 209.83036
 210.61263 211.77989 213.01915 214.79142 216.70868 218.74094 220.82520 222.89747
 224.94673 227.01999 229.10626 231.20152 233.31978 235.48105 237.72631 240.08557
 242.69584 244.93610 246.92736 248.68162 250.08789 251.20015 252.01141 252.31668
 252.34294 252.10620 251.45547 250.39273 248.98799 247.13825 245.03652 242.85878
 240.63904 238.43231 236.24157 234.06983 231.91910 229.77536 227.79062 225.93689
 224.20915 222.67041 221.28967 220.05094 218.92220 217.87146 216.96473 216.09499
 215.32625 214.49552 213.58278 212.93604 212.37531 213.15111 214.99791 216.73541
 217.38199 218.36981 220.33521 222.21767 223.78000 225.66371 228.65300 231.39212
 233.61281 235.29451 236.90930 239.34552 242.83835 246.97075 251.09734 254.90961
 258.31934 261.41757 264.32248 266.99683 269.35284 271.41962 273.34283 275.19525
 276.95807 278.66367 280.21332 281.58655 282.78528 283.85852 284.84833 285.73633
 286.57837 287.32874 287.98425 288.81961
 366.78100 356.32214 345.74128 334.59442 322.98456 311.16569 299.02283 286.81297
 274.51211 262.39625 250.39239 239.68053 229.78967 220.88081 213.04994 206.03908
 199.86022 194.78536 191.35450 189.38364 188.40778 188.45892 189.28106 190.57619
 192.28833 194.37047 196.62061 198.96675 201.39889 203.86603 205.94117 207.77031
 209.38344 210.51558 210.73172 210.94686 210.87100 210.56314 210.18328 209.80042
 209.40456 209.10169 208.89683 208.74797 208.66311 208.98125 209.35439 209.73053
 210.51067 211.67580 212.91294 214.68308 216.59822 218.62836 220.71050 222.78064
 224.82778 226.89892 228.98305 231.07619 233.19233 235.35147 237.59461 239.95175
 242.55989 244.79803 246.78717 248.53930 249.94344 251.05358 251.86272 252.16586
 252.19000 251.95114 251.29828 250.23342 248.82655 246.97469 244.87083 242.69097
 240.46911 238.26025 236.06739 233.89353 231.74067 229.59480 227.60794 225.75208
 224.02222 222.48136 221.09850 219.85764 218.72678 217.67392 216.76505 215.89319
 215.12233 214.28947 213.37461 212.72575 212.16289 213.04205 215.11919 216.93587
 217.61511 218.65680 220.50836 222.29646 223.83534 225.75140 228.72223 231.31367
 233.35219 234.96552 236.54175 239.00151 242.62781 246.86838 251.02902 254.87743
 258.30124 261.39853 264.29810 266.98035 269.32227 271.32303 273.17413 275.00928
 276.82153 278.58643 280.13852 281.51028 282.70035 283.75638 284.72693 285.58127
 286.33255 287.02771 287.65234 288.48871
 366.78100 356.32088 345.73876 334.59064 322.97951 311.15939 299.01527 286.80415
 274.50203 262.38491 250.37978 239.66666 229.77454 220.86442 213.03230 206.02018
 199.84005 194.76393 191.33181 189.35969 188.38257 188.43245 189.25332 190.54720
 192.25808 194.33896 196.58784 198.93272 201.36359 203.82947 205.90335 207.73123
 209.34311 210.47399 210.68886 210.90274 210.82562 210.51650 210.13538 209.75126
 209.35413 209.05001 208.84389 208.69377 208.60765 208.92453 209.29640 209.67128
 210.45016 211.61404 212.84992 214.61880 216.53267 218.56155 220.64243 222.71131
 224.75719 226.82707 228.90994 231.00182 233.11670 235.27458 237.51646 239.87234
 242.47921 244.71609 246.70397 248.45485 249.85773 250.96661 251.77448 252.07636
 252.09924 251.85912 251.20500 250.13888 248.73075 246.87763 244.77251 242.59139
 240.36827 238.15815 235.96402 233.78890 231.63478 229.48766 227.49954 225.64242
 223.91129 222.36917 220.98505 219.74293 218.61081 217.55669 216.64656 215.77344
 215.00132 214.16720 213.25108 212.60096 212.03683 212.98048 215.20993 217.09521
 217.74599 218.71248 220.61356 222.43695 223.96953 225.86847 228.77734 231.26831
 233.14790 234.61755 236.15881 238.68813 242.45750 246.73645 250.92656 254.81741
 258.26959 261.38724 264.29034 266.96762 269.29456 271.28674 273.12070 274.94772
 276.79645 278.56680 280.12231 281.49139 282.67960 283.73468 284.70456 285.57568
 286.35034 287.04196 287.65353 288.47275
 366.78100 356.31981 345.73663 334.58744 322.97525 311.15406 299.00888 286.79669
 274.49350 262.37531 250.36913 239.65494 229.76175 220.85056 213.01738 206.00419
 199.82300 194.74582 191.31263 189.33944 188.36125 188.41007 189.22988 190.52269
 192.23250 194.31232 196.56013 198.90394 201.33375 203.79857 205.87138 207.69819
 209.30901 210.43882 210.65263 210.86544 210.78726 210.47707 210.09488 209.70969
 209.31151 209.00632 208.79913 208.64794 208.56076 208.87657 209.24738 209.62120
 210.39901 211.56182 212.79663 214.56445 216.47726 218.50507 220.58488 222.65270
 224.69751 226.76632 228.84814 230.93895 233.05276 235.20957 237.45039 239.80520
 242.41101 244.64682 246.63364 248.38345 249.78526 250.89307 251.69989 252.00070
 252.02251 251.78133 251.12614 250.05895 248.64976 246.79558 244.68939 242.50720
 240.28301 238.07183 235.87664 233.70045 231.54526 229.39708 227.40789 225.54970
 223.81752 222.27433 220.88914 219.64595 218.51277 217.45758 216.54639 215.67220
 214.89902 214.06383 213.14664 212.49545 211.93027 212.93051 215.29372 217.25064
 217.88348 218.75581 220.68457 222.56223 224.11490 225.98792 228.81606 231.19751
 232.91994 234.25227 235.77887 238.40984 242.30473 246.60107 250.82144 254.75792
 258.24112 261.37744 264.28552 266.95975 269.29553 271.31006 273.13788 274.93646
 276.75266 278.51907 280.07330 281.44006 282.62726 283.68204 284.64999 285.52414
 286.30194 286.99640 287.61011 288.43423
 366.78100 356.31916 345.73531 334.58547 322.97263 311.15079 299.00494 286.79210
 274.48826 262.36941 250.36257 239.64773 229.75388 220.84204 213.00820 205.99436
 199.81251 194.73467 191.30083 189.32698 188.34814 188.39630 189.21545 190.50761
 192.21677 194.29593 196.54308 198.88624 201.31540 203.77955 205.85171 207.67787
 209.28802 210.41718 210.63034 210.84250 210.76365 210.45281 210.06997 209.68412
 209.28528 208.97944 208.77159 208.61975 208.53191 208.84707 209.21722 209.59038
 210.36754 211.52969 212.76385 214.53101 216.44316 218.47032 220.54948 222.61664
 224.66079 226.72895 228.81011 230.90026 233.01342 235.16958 237.40973 239.76389
 242.36905 244.60421 246.59036 248.33952 249.74068 250.84783 251.65399 251.95415
 251.97530 251.73346 251.07762 250.00978 248.59993 246.74509 244.63825 242.45540
 240.23056 238.01872 235.82287 233.64603 231.49019 229.34135 227.35150 225.49266
 223.75982 222.21597 220.83013 219.58629 218.45244 217.39660 216.48476 215.60992
 214.83607 214.00023 213.08239 212.43054 211.86470 212.90559 215.36479 217.37541
 218.03778 218.85641 220.78532 222.68513 224.22855 226.07359 228.82922 231.11400
 232.65854 233.84871 235.38724 238.16721 242.17682 246.49187 250.74931 254.71455
 258.22485 261.37949 264.28683 266.94974 269.29190 271.32007 273.12299 274.88089
 276.68896 278.46002 280.01974 281.39056 282.58224 283.64249 284.61490 285.49283
 286.27527 286.96899 287.58484 288.41519
 366.78100 356.31951 345.73602 334.58654 322.97405 311.15256 299.00707 286.79458
 274.49109 262.37261 250.36612 239.65163 229.75814 220.84665 213.01316 205.99968
 199.81819 194.74070 191.30721 189.33372 188.35524 188.40375 189.22326 190.51577
 192.22528 194.30479 196.55231 198.89582 201.32533 203.78984 205.86235 207.68886
 209.29938 210.42889 210.64240 210.85491 210.77642 210.46594 210.08345 209.69796
 209.29947 208.99398 208.78649 208.63501 208.54752 208.86303 209.23354 209.60705
 210.38456 211.54708 212.78159 214.54910 216.46161 218.48912 220.56864 222.63615
 224.68066 226.74917 228.83068 230.92119 233.03471 235.19122 237.43173 239.78624
 242.39175 244.62727 246.61378 248.36329 249.76480 250.87231 251.67882 251.97934
 252.00085 251.75936 251.10387 250.03638 248.62689 246.77241 244.66592 242.48343
 240.25894 238.04745 235.85197 233.67548 231.51999 229.37150 227.38201 225.52352
 223.79104 222.24755 220.86206 219.61857 218.48508 217.42959 216.51811 215.64362
 214.87013 214.03464 213.11715 212.46567 211.90018 212.93448 215.37813 217.49754
 218.21906 218.97263 220.87202 222.82416 224.40353 226.16179 228.79758 231.00591
 232.35390 233.40140 235.01950 237.96561 242.05795 246.41185 250.69485 254.68958
 258.22818 261.39792 264.29669 266.93930 269.28110 271.32803 273.12274 274.84689
 276.61179 278.36703 279.91959 281.28528 282.46860 283.51587 284.46640 285.34409
 286.16617 286.86990 287.49100 288.32620
 366.78100 356.31944 345.73588 334.58631 322.97375 311.15219 299.00663 286.79407
 274.49051 262.37194 250.36538 239.65082 229.75726 220.84570 213.01214 205.99857
 199.81701 194.73945 191.30589 189.33233 188.35376 188.40220 189.22164 190.51408
 192.22352 194.30296 196.55039 198.89383 201.32327 203.78771 205.86015 207.68658
 209.29702 210.42646 210.63990 210.85234 210.77378 210.46321 210.08065 209.69509
 209.29653 208.99097 208.78341 208.63184 208.54428 208.85972 209.23016 209.60360
 210.38103 211.54347 212.77791 214.54535 216.45779 218.48523 220.56466 222.63210
 224.67654 226.74498 228.82642 230.91686 233.03029 235.18673 237.42717 239.78161
 242.38705 244.62248 246.60892 248.35836 249.75980 250.86724 251.67368 251.97411
 251.99555 251.75399 251.09843 250.03087 248.62130 246.76674 244.66018 242.47762
 240.25306 238.04150 235.84593 233.66937 231.51381 229.36525 227.37569 225.51713
 223.78456 222.24100 220.85544 219.61188 218.47832 217.42275 216.51119 215.63663
 214.86307 214.02751 213.10995 212.45838 211.89282 212.94400 215.42752 217.52837
 218.46335 219.14505 220.98972 222.92723 224.44450 226.22856 228.82899 230.86438
 232.00958 232.94569 234.63370 237.78433 241.95776 246.36237 250.67239 254.68513
 258.24084 261.41458 264.29514 266.91116 269.24991 271.31927 273.11118 274.81055
 276.57718 278.26950 279.81345 281.18027 282.36523 283.41702 284.37012 285.24899
 286.06558 286.78467 287.40533 288.25116
 366.78100 356.31922 345.73543 334.58565 322.97286 311.15108 299.00530 286.79251
 274.48873 262.36994 250.36316 239.64838 229.75459 220.84281 213.00902 205.99524
 199.81346 194.73567 191.30189 189.32811 188.34932 188.39754 189.21675 190.50897
 192.21819 194.29740 196.54462 198.88783 201.31705 203.78127 205.85348 207.67970
 209.28991 210.41913 210.63235 210.84456 210.76578 210.45499 210.07221 209.68643
 209.28764 208.98186 208.77407 208.62229 208.53451 208.84972 209.21994 209.59315
 210.37037 211.53259 212.76680 214.53402 216.44623 218.47345 220.55267 222.61988
 224.66410 226.73232 228.81353 230.90375 233.01696 235.17318 237.41340 239.76761
 242.37283 244.60804 246.59426 248.34348 249.74469 250.85191 251.65812 251.95834
 251.97956 251.73777 251.08199 250.01420 248.60442 246.74964 244.64285 242.46007
 240.23528 238.02350 235.82772 233.65093 231.49515 229.34636 227.35658 225.49780
 223.76501 222.22123 220.83544 219.59166 218.45788 217.40209 216.49031 215.61553
 214.84174 214.00596 213.08817 212.43639 211.87061 212.94638 215.48804 217.57501
 218.54022 219.51738 221.19543 222.90874 224.47348 226.27589 228.86502 230.77394
 231.58887 232.32257 234.32242 237.69704 241.89423 246.34706 250.66434 254.67973
 258.24722 261.42078 264.28400 266.87521 269.21414 271.30585 273.08557 274.75107
 276.45645 278.20032 279.75217 281.11865 282.30621 283.35895 284.31625 285.19565
 286.00934 286.74072 287.36087 288.21576
 366.78100 356.31955 345.73611 334.58666 322.97421 311.15276 299.00732 286.79487
 274.49142 262.37298 250.36653 239.65208 229.75864 220.84719 213.01374 206.00029
 199.81885 194.74140 191.30795 189.33451 188.35606 188.40461 189.22417 190.51672
 192.22627 194.30582 196.55338 198.89693 201.32648 203.79104 205.86359 207.69014
 209.30069 210.43025 210.64380 210.85635 210.77791 210.46746 210.08501 209.69957
 209.30112 208.99567 208.78822 208.63678 208.54933 208.86488 209.23544 209.60899
 210.38654 211.54910 212.78365 214.55120 216.46375 218.49131 220.57086 222.63841
 224.68297 226.75152 228.83307 230.92363 233.03718 235.19373 237.43428 239.78884
 242.39439 244.62994 246.61650 248.36605 249.76760 250.87515 251.68171 251.98226
 252.00381 251.76237 251.10692 250.03947 248.63003 246.77558 244.66913 242.48668
 240.26224 238.05079 235.85534 233.67890 231.52345 229.37500 227.38556 225.52711
 223.79466 222.25121 220.86577 219.62232 218.48887 217.43343 216.52198 215.64753
 214.87408 214.03864 213.12119 212.46974 211.90430 212.97615 215.50850 217.69075
 218.58098 219.79434 221.41187 222.95695 224.51938 226.27370 228.86015 230.68433
 231.21935 231.78053 234.06125 237.62251 241.85049 246.31322 250.63515 254.66095
 258.24570 261.42624 264.27850 266.84534 269.18045 271.28766 273.04575 274.68124
 276.37848 278.13318 279.69043 281.06064 282.25275 283.30792 284.26974 285.15115
 285.96603 286.70184 287.32806 288.18817
 366.78100 356.31987 345.73675 334.58762 322.97549 311.15437 299.00924 286.79711
 274.49399 262.37586 250.36974 239.65561 229.76248 220.85136 213.01823 206.00510
 199.82398 194.74685 191.31372 189.34060 188.36247 188.41134 189.23122 190.52409
 192.23397 194.31384 196.56171 198.90559 201.33546 203.80033 205.87321 207.70008
 209.31095 210.44083 210.65470 210.86757 210.78945 210.47932 210.09720 209.71207
 209.31394 209.00882 208.80169 208.65056 208.56344 208.87931 209.25018 209.62406
 210.40193 211.56480 212.79968 214.56755 216.48042 218.50830 220.58817 222.65605
 224.70092 226.76979 228.85167 230.94254 233.05641 235.21329 237.45416 239.80903
 242.41491 244.65078 246.63765 248.38753 249.78940 250.89728 251.70415 252.00502
 252.02690 251.78577 251.13064 250.06352 248.65439 246.80026 244.69414 242.51201
 240.28788 238.07676 235.88163 233.70551 231.55038 229.40225 227.41313 225.55500
 223.82287 222.27975 220.89462 219.65149 218.51837 217.46324 216.55211 215.67799
 214.90486 214.06973 213.15261 212.50148 211.93636 213.00607 215.53342 217.79221
 218.65504 219.99030 221.64070 223.11282 224.55907 226.21881 228.80112 230.54909
 230.89114 231.34627 233.82259 237.52905 241.80496 246.27550 250.60223 254.63866
 258.23880 261.42822 264.27374 266.81345 269.14301 271.26959 273.02008 274.60349
 276.32224 278.08084 279.63812 281.00854 282.19986 283.25760 284.22107 285.10434
 285.91757 286.65448 287.28812 288.15250
 366.78100 356.32004 345.73708 334.58812 322.97616 311.15520 299.01025 286.79829
 274.49533 262.37737 250.37141 239.65745 229.76449 220.85353 213.02057 206.00761
 199.82666 194.74970 191.31674 189.34378 188.36582 188.41486 189.23490 190.52794
 192.23798 194.31802 196.56606 198.91011 201.34015 203.80519 205.87823 207.70527
 209.31631 210.44635 210.66039 210.87343 210.79547 210.48551 210.10356 209.71860
 209.32064 209.01568 208.80872 208.65776 208.57080 208.88684 209.25788 209.63192
 210.40997 211.57301 212.80805 214.57609 216.48913 218.51717 220.59721 222.66525
 224.71029 226.77933 228.86137 230.95242 233.06646 235.22350 237.46454 239.81958
 242.42562 244.66166 246.64870 248.39874 249.80078 250.90883 251.71587 252.01691
 252.03895 251.79799 251.14303 250.07607 248.66711 246.81315 244.70719 242.52523
 240.30128 238.09032 235.89536 233.71940 231.56444 229.41648 227.42752 225.56956
 223.83760 222.29464 220.90969 219.66673 218.53377 217.47881 216.56785 215.69389
 214.92093 214.08597 213.16901 212.51805 211.95309 213.02959 215.57292 217.85788
 218.76920 220.15428 221.83594 223.30249 224.63426 226.17273 228.69632 230.34396
 230.58479 231.00418 233.60274 237.43144 241.75887 246.24138 250.57202 254.61668
 258.23053 261.42780 264.26520 266.77350 269.09241 271.23407 272.97202 274.61792
 276.26694 278.01761 279.57843 280.95297 282.14816 283.21152 284.18079 285.07098
 285.88629 286.62967 287.27936 288.17532
 366.78100 356.32029 345.73759 334.58888 322.97717 311.15647 299.01176 286.80005
 274.49734 262.37964 250.37393 239.66022 229.76752 220.85681 213.02410 206.01140
 199.83069 194.75398 191.32127 189.34857 188.37086 188.42015 189.24045 190.53374
 192.24403 194.32433 196.57262 198.91691 201.34720 203.81250 205.88579 207.71308
 209.32438 210.45467 210.66896 210.88226 210.80455 210.49484 210.11313 209.72843
 209.33072 209.02601 208.81931 208.66860 208.58189 208.89819 209.26948 209.64377
 210.42206 211.58536 212.82065 214.58894 216.50224 218.53053 220.61082 222.67912
 224.72441 226.79370 228.87600 230.96729 233.08158 235.23887 237.48017 239.83546
 242.44175 244.67805 246.66534 248.41563 249.81793 250.92622 251.73351 252.03480
 252.05710 251.81639 251.16168 250.09498 248.68627 246.83256 244.72686 242.54515
 240.32144 238.11073 235.91603 233.74032 231.58561 229.43791 227.44920 225.59149
 223.85979 222.31708 220.93237 219.68966 218.55696 217.50225 216.59154 215.71784
 214.94513 214.11042 213.19372 212.54301 211.97830 213.05896 215.61211 217.90411
 218.90388 220.31549 221.98419 223.46826 224.75446 226.17068 228.57582 230.08354
 230.28123 230.71931 233.39453 237.33372 241.71582 246.21033 250.53882 254.58884
 258.21451 261.41895 264.25177 266.73636 269.05627 271.22922 272.97482 274.31766
 276.25690 278.04254 279.59265 280.95737 282.14679 283.20538 284.17029 285.05661
 285.86951 286.60773 287.25870 288.15942
 366.78100 356.32079 345.73858 334.59038 322.97917 311.15896 299.01475 286.80354
 274.50134 262.38413 250.37892 239.66571 229.77351 220.86330 213.03109 206.01888
 199.83867 194.76247 191.33026 189.35805 188.38084 188.43063 189.25143 190.54522
 192.25601 194.33680 196.58560 198.93039 201.36118 203.82697 205.90076 207.72856
 209.34035 210.47114 210.68593 210.89972 210.82252 210.51331 210.13210 209.74789
 209.35069 209.04648 208.84027 208.69006 208.60385 208.92065 209.29244 209.66723
 210.44602 211.60981 212.84561 214.61440 216.52819 218.55698 220.63778 222.70657
 224.75236 226.82215 228.90494 230.99674 233.11153 235.26932 237.51111 239.86690
 242.47370 244.71049 246.69828 248.44907 249.85187 250.96066 251.76845 252.07024
 252.09303 251.85283 251.19862 250.13241 248.72420 246.87099 244.76579 242.58458
 240.36137 238.15116 235.95696 233.78175 231.62754 229.48033 227.49212 225.63492
 223.90371 222.36150 220.97729 219.73508 218.60288 217.54867 216.63846 215.76525
 214.99304 214.15884 213.24263 212.59242 212.02821 213.10190 215.63858 217.94765
 219.03586 220.47830 222.10953 223.60318 224.88388 226.20244 228.47046 229.80547
 229.96748 230.45941 233.19611 237.24251 241.67967 246.17760 250.50121 254.55371
 258.18723 261.39398 264.21780 266.67639 268.99405 271.17618 272.90280 274.43057
 276.22852 277.99814 279.55399 280.92358 282.11475 283.17496 284.14374 285.02936
 285.84229 286.57706 287.22769 288.13846
 366.78100 356.32142 345.73985 334.59227 322.98170 311.16212 299.01855 286.80797
 274.50640 262.38982 250.38525 239.67267 229.78110 220.87152 213.03995 206.02837
 199.84880 194.77322 191.34165 189.37007 188.39350 188.44392 189.26535 190.55977
 192.27120 194.35262 196.60205 198.94747 201.37890 203.84532 205.91975 207.74817
 209.36060 210.49202 210.70745 210.92187 210.84530 210.53672 210.15615 209.77257
 209.37600 209.07242 208.86685 208.71727 208.63170 208.94912 209.32155 209.69697
 210.47640 211.64082 212.87725 214.64667 216.56110 218.59052 220.67195 222.74137
 224.78780 226.85822 228.94165 231.03407 233.14950 235.30792 237.55034 239.90677
 242.51419 244.75162 246.74004 248.49147 249.89489 251.00432 251.81274 252.11517
 252.13859 251.89902 251.24544 250.17987 248.77229 246.91972 244.81514 242.63457
 240.41199 238.20242 236.00884 233.83427 231.68069 229.53412 227.54654 225.68997
 223.95939 222.41782 221.03424 219.79267 218.66109 217.60752 216.69794 215.82537
 215.05379 214.22022 213.30464 212.65507 212.09149 213.15276 215.66011 217.99815
 219.16624 220.64069 222.23735 223.72368 224.99432 226.24399 228.38440 229.53427
 229.64807 230.21564 233.01158 237.16092 241.64948 246.14429 250.46455 254.51891
 258.16003 261.37396 264.19861 266.64313 268.96408 271.16501 272.77740 274.39102
 276.20627 277.97867 279.53625 280.90631 282.09824 283.15839 284.12689 285.01202
 285.82434 286.55652 287.20505 288.11365
 366.78100 356.32211 345.74121 334.59432 322.98443 311.16554 299.02264 286.81275
 274.51186 262.39597 250.39207 239.68018 229.78929 220.88040 213.04950 206.03861
 199.85972 194.78483 191.35393 189.38304 188.40715 188.45826 189.28036 190.57547
 192.28758 194.36969 196.61979 198.96590 201.39801 203.86512 205.94022 207.76933
 209.38244 210.51455 210.73065 210.94576 210.86987 210.56198 210.18208 209.79919
 209.40330 209.10041 208.89551 208.74662 208.66173 208.97983 209.35294 209.72905
 210.50916 211.67426 212.91137 214.68148 216.59659 218.62669 220.70880 222.77891
 224.82602 226.89712 228.98123 231.07434 233.19045 235.34955 237.59266 239.94977
 242.55788 244.79598 246.78509 248.53720 249.94131 251.05141 251.86052 252.16363
 252.18774 251.94884 251.29595 250.23106 248.82417 246.97227 244.86838 242.68849
 240.46660 238.25770 236.06481 233.89092 231.73803 229.59213 227.60524 225.74935
 224.01945 222.47856 221.09567 219.85478 218.72388 217.67099 216.76210 215.89021
 215.11931 214.28642 213.37153 212.72264 212.15974 213.20634 215.67908 218.03897
 219.29083 220.79530 222.37709 223.84259 225.08739 226.28258 228.30144 229.26553
 229.32205 229.98195 232.83900 237.08118 241.61351 246.10605 250.42464 254.47948
 258.12610 261.34991 264.18262 266.62250 268.94974 271.15982 272.71930 274.27933
 276.18463 277.95987 279.51196 280.87848 282.06778 283.12411 284.09076 284.97205
 285.77441 286.49979 287.14297 288.04990
 366.78100 356.32286 345.74272 334.59658 322.98744 311.16931 299.02717 286.81803
 274.51789 262.40275 250.39961 239.68847 229.79833 220.89019 213.06006 206.04992
 199.87178 194.79764 191.36750 189.39736 188.42222 188.47408 189.29694 190.59280
 192.30567 194.38853 196.63939 198.98625 201.41911 203.88697 205.96283 207.79269
 209.40655 210.53942 210.75628 210.97214 210.89700 210.58986 210.21072 209.82858
 209.43344 209.13130 208.92717 208.77903 208.69489 209.01375 209.38761 209.76447
 210.54533 211.71119 212.94905 214.71991 216.63578 218.66664 220.74950 222.82036
 224.86822 226.94008 229.02494 231.11880 233.23566 235.39553 237.63939 239.99725
 242.60611 244.84497 246.83483 248.58769 249.99255 251.10341 251.91328 252.21714
 252.24200 252.00386 251.35172 250.28758 248.88144 247.03030 244.92716 242.74802
 240.52689 238.31875 236.12661 233.95347 231.80133 229.65619 227.67005 225.81491
 224.08577 222.54564 221.16350 219.92336 218.79322 217.74108 216.83294 215.96180
 215.19166 214.35952 213.44539 212.79725 212.23511 213.26479 215.69751 218.07016
 219.40816 220.93947 222.52550 223.96404 225.17696 226.32309 228.22258 229.01231
 229.02032 229.78481 232.69310 237.00600 241.57150 246.06194 250.37683 254.42558
 258.06915 261.29651 264.13397 266.57394 268.91333 271.12177 272.73160 274.35464
 276.18402 277.95181 279.50522 280.87189 282.06015 283.11703 284.08310 284.96414
 285.76801 286.49579 287.13660 288.05124
 366.78100 356.32365 345.74430 334.59896 322.99061 311.17326 299.03191 286.82356
 274.52421 262.40987 250.40752 239.69717 229.80782 220.90047 213.07112 206.06178
 199.88443 194.81108 191.38173 189.41238 188.43804 188.49069 189.31434 190.61099
 192.32464 194.40829 196.65995 199.00760 201.44125 203.90990 205.98655 207.81721
 209.43186 210.56551 210.78316 210.99981 210.92546 210.61912 210.24077 209.85942
 209.46507 209.16372 208.96037 208.81303 208.72968 209.04933 209.42398 209.80163
 210.58329 211.74994 212.98859 214.76024 216.67689 218.70854 220.79220 222.86385
 224.91250 226.98515 229.07080 231.16546 233.28311 235.44376 237.68841 240.04706
 242.65671 244.89637 246.88702 248.64067 250.04632 251.15797 251.96862 252.27328
 252.29893 252.06158 251.41023 250.34688 248.94154 247.09119 244.98884 242.81049
 240.59014 238.38279 236.19145 234.01910 231.86775 229.72340 227.73805 225.88371
 224.15536 222.61601 221.23466 219.99531 218.86596 217.81462 216.90727 216.03692
 215.26757 214.43622 213.52287 212.87553 212.31418 213.32742 215.72131 218.10307
 219.52026 221.07591 222.67383 224.08151 225.25926 226.35519 228.13766 228.75522
 228.72353 229.61073 232.56708 236.93379 241.52547 246.01622 250.32925 254.37125
 258.01273 261.24817 264.09598 266.54419 268.89105 271.09375 272.64453 274.15738
 276.16376 277.95737 279.51306 280.88174 282.07312 283.13287 284.10309 284.98856
 285.79837 286.53632 287.18533 288.10489
 366.78100 356.32446 345.74593 334.60139 322.99386 311.17732 299.03679 286.82925
 274.53071 262.41718 250.41564 239.70611 229.81757 220.91104 213.08250 206.07396
 199.89743 194.82489 191.39636 189.42782 188.45429 188.50775 189.33221 190.62968
 192.34414 194.42861 196.68107 199.02954 201.46400 203.93347 206.01093 207.84239
 209.45786 210.59232 210.81079 211.02825 210.95472 210.64918 210.27164 209.89111
 209.49757 209.19704 208.99450 208.84797 208.76543 209.08589 209.46136 209.83982
 210.62229 211.78975 213.02922 214.80168 216.71914 218.75161 220.83607 222.90854
 224.95800 227.03147 229.11793 231.21339 233.33186 235.49332 237.73879 240.09825
 242.70872 244.94918 246.94064 248.69511 250.10157 251.21404 252.02550 252.33097
 252.35743 252.12090 251.47036 250.40782 249.00329 247.15375 245.05222 242.87468
 240.65515 238.44861 236.25807 234.08654 231.93600 229.79247 227.80793 225.95440
 224.22686 222.68832 221.30779 220.06925 218.94072 217.89018 216.98365 216.11411
 215.34557 214.51504 213.60250 212.95597 212.39543 213.38893 215.73621 218.12643
 219.62099 221.20898 222.82288 224.20477 225.34511 226.39503 228.05486 228.49141
 228.43449 229.46072 232.46019 236.86389 241.47652 245.96768 250.28003 254.31479
 257.95319 261.19946 264.06308 266.52695 268.87744 271.05948 272.63596 274.27841
 276.19592 277.97894 279.53577 280.90500 282.09641 283.15628 284.12567 285.01471
 285.82584 286.56378 287.21439 288.13412
 366.78100 356.32538 345.74776 334.60414 322.99752 311.18190 299.04228 286.83566
 274.53804 262.42542 250.42480 239.71618 229.82856 220.92294 213.09532 206.08770
 199.91208 194.84045 191.41283 189.44521 188.47259 188.52697 189.35235 190.65073
 192.36611 194.45149 196.70487 199.05425 201.48963 203.96001 206.03839 207.87077
 209.48715 210.62253 210.84191 211.06029 210.98767 210.68305 210.30643 209.92681
 209.53419 209.23457 209.03295 208.88733 208.80571 209.12709 209.50347 209.88285
 210.66623 211.83460 213.07498 214.84836 216.76674 218.80012 220.88550 222.95888
 225.00926 227.08364 229.17102 231.26740 233.38678 235.54916 237.79554 240.15592
 242.76730 245.00868 247.00106 248.75644 250.16382 251.27720 252.08958 252.39596
 252.42334 252.18772 251.53810 250.47648 249.07286 247.22424 245.12362 242.94700
 240.72838 238.52275 236.33313 234.16251 232.01289 229.87027 227.88665 226.03403
 224.30741 222.76979 221.39017 220.15255 219.02493 217.97531 217.06969 216.20107
 215.43345 214.60383 213.69221 213.04659 212.48697 213.45775 215.75133 218.14836
 219.71765 221.34894 222.97409 224.32794 225.42451 226.43385 227.97496 228.22440
 228.14899 229.33023 232.36823 236.79782 241.42847 245.91959 250.23000 254.25459
 257.88718 261.14294 264.02240 266.50659 268.85904 271.01596 272.59000 274.32709
 276.23492 278.01456 279.57053 280.93936 282.13147 283.19049 284.16028 285.04825
 285.85876 286.59671 287.24728 288.16922
 366.78100 356.32640 345.74980 334.60720 323.00160 311.18700 299.04839 286.84279
 274.54619 262.43459 250.43499 239.72739 229.84079 220.93619 213.10959 206.10299
 199.92839 194.85779 191.43118 189.46458 188.49298 188.54838 189.37478 190.67418
 192.39058 194.47698 196.73138 199.08178 201.51818 203.98957 206.06897 207.90237
 209.51977 210.65617 210.87657 211.09597 211.02437 210.72077 210.34517 209.96657
 209.57497 209.27636 209.07576 208.93116 208.85056 209.17296 209.55036 209.93076
 210.71516 211.88456 213.12596 214.90036 216.81975 218.85415 220.94055 223.01495
 225.06635 227.14175 229.23015 231.32755 233.44795 235.61135 237.85875 240.22015
 242.83254 245.07494 247.06834 248.82474 250.23314 251.34754 252.16094 252.46834
 252.49674 252.26214 251.61354 250.55293 249.15033 247.30273 245.20313 243.02753
 240.80993 238.60533 236.41673 234.24713 232.09853 229.95693 227.97433 226.12272
 224.39712 222.86052 221.48192 220.24532 219.11872 218.07012 217.16552 216.29792
 215.53132 214.70272 213.79211 213.14751 212.58891 213.53336 215.76468 218.15535
 219.80638 221.48654 223.13202 224.47159 225.50958 226.47289 227.88211 227.95656
 227.88017 229.20439 232.28552 236.73341 241.37402 245.86427 250.17319 254.18945
 257.81821 261.08646 263.98901 266.50128 268.85446 270.98892 272.58469 274.37778
 276.26224 278.04153 279.60010 280.97089 282.16293 283.22379 284.19330 285.08014
 285.89197 286.62799 287.27686 288.20212
 366.78100 356.32714 345.75129 334.60943 323.00458 311.19072 299.05287 286.84801
 274.55215 262.44130 250.44244 239.73559 229.84973 220.94587 213.12002 206.11416
 199.94031 194.87045 191.44460 189.47874 188.50788 188.56403 189.39117 190.69132
 192.40846 194.49561 196.75075 199.10189 201.53904 204.01118 206.09133 207.92547
 209.54361 210.68076 210.90190 211.12205 211.05119 210.74834 210.37348 209.99562
 209.60477 209.30691 209.10706 208.96320 208.88335 209.20649 209.58463 209.96578
 210.75092 211.92107 213.16321 214.93836 216.85850 218.89364 220.98079 223.05593
 225.10808 227.18422 229.27336 231.37151 233.49265 235.65680 237.90494 240.26709
 242.88023 245.12337 247.11752 248.87466 250.28381 251.39895 252.21310 252.52124
 252.55038 252.31653 251.66867 250.60882 249.20696 247.36010 245.26125 243.08639
 240.86954 238.66568 236.47783 234.30897 232.16111 230.02026 228.03840 226.18755
 224.46269 222.92684 221.54898 220.31312 219.18727 218.13941 217.23556 216.36870
 215.60284 214.77499 213.86513 213.22128 212.66342 213.59451 215.79430 218.15131
 219.88451 221.62201 223.27438 224.59921 225.60696 226.54420 227.80557 227.65825
 227.58554 229.10858 232.21979 236.66986 241.32040 245.81093 250.12004 254.12616
 257.74832 261.02512 263.94818 266.48523 268.83026 270.92535 272.53082 274.41028
 276.28790 278.07123 279.63412 281.00726 282.19958 283.26160 284.22992 285.11710
 285.92960 286.66434 287.31198 288.23322
 366.78100 356.32788 345.75276 334.61164 323.00752 311.19440 299.05728 286.85316
 274.55804 262.44792 250.44980 239.74368 229.85857 220.95545 213.13033 206.12521
 199.95209 194.88297 191.45785 189.49273 188.52261 188.57949 189.40737 190.70825
 192.42613 194.51401 196.76989 199.12177 201.55965 204.03253 206.11341 207.94829
 209.56717 210.70505 210.92694 211.14782 211.07770 210.77558 210.40146 210.02434
 209.63422 209.33710 209.13798 208.99486 208.91574 209.23962 209.61850 210.00038
 210.78626 211.95714 213.20002 214.97590 216.89678 218.93266 221.02054 223.09642
 225.14931 227.22619 229.31607 231.41495 233.53683 235.70171 237.95059 240.31347
 242.92735 245.17123 247.16611 248.92399 250.33387 251.44975 252.26463 252.57351
 252.60339 252.37027 251.72315 250.66403 249.26291 247.41679 245.31868 243.14456
 240.92844 238.72532 236.53820 234.37008 232.22296 230.08284 228.10172 226.25160
 224.52748 222.99236 221.61524 220.38012 219.25500 218.20788 217.30476 216.43864
 215.67352 214.84640 213.93728 213.29416 212.73705 213.65303 215.81718 218.16760
 219.95105 221.75137 223.42496 224.74278 225.68156 226.58777 227.73671 227.45024
 227.32358 228.92354 232.14624 236.62918 241.27943 245.77216 250.08151 254.07983
 257.69711 260.98331 263.92624 266.48157 268.80521 270.85965 272.49356 274.39066
 276.30801 278.09753 279.66156 281.03369 282.22647 283.28796 284.25662 285.14294
 285.95227 286.68604 287.33356 288.25452
 366.78100 356.32882 345.75463 334.61445 323.01127 311.19908 299.06290 286.85972
 274.56553 262.45635 250.45917 239.75398 229.86980 220.96762 213.14343 206.13925
 199.96707 194.89888 191.47470 189.51052 188.54133 188.59915 189.42796 190.72978
 192.44860 194.53741 196.79423 199.14705 201.58586 204.05968 206.14150 207.97731
 209.59713 210.73595 210.95876 211.18058 211.11140 210.81021 210.43703 210.06085
 209.67166 209.37548 209.17730 209.03511 208.95693 209.28175 209.66156 210.04438
 210.83120 212.00301 213.24683 215.02365 216.94546 218.98228 221.07110 223.14791
 225.20173 227.27955 229.37036 231.47018 233.59299 235.75881 238.00863 240.37244
 242.98726 245.23208 247.22789 248.98671 250.39753 251.51434 252.33016 252.63998
 252.67079 252.43861 251.79243 250.73424 249.33406 247.48888 245.39169 243.21851
 241.00333 238.80114 236.61496 234.44778 232.30159 230.16241 228.18223 226.33304
 224.60986 223.07568 221.69949 220.46531 219.34113 218.29494 217.39276 216.52758
 215.76339 214.93721 214.02902 213.38684 212.83066 213.72148 215.82617 218.19792
 220.00378 221.85909 223.57950 224.88228 225.73700 226.60892 227.67467 227.31889
 227.13814 228.75742 232.08688 236.59288 241.23091 245.71933 250.02205 254.00476
 257.61255 260.90570 263.86993 266.45593 268.77939 270.80951 272.44391 274.36029
 276.33298 278.12680 279.68759 281.06119 282.25372 283.31412 284.28418 285.17075
 285.98059 286.71689 287.36423 288.28494
 366.78100 356.32978 345.75657 334.61735 323.01514 311.20392 299.06871 286.86649
 274.57328 262.46506 250.46885 239.76463 229.88142 220.98020 213.15699 206.15377
 199.98256 194.91534 191.49213 189.52891 188.56069 188.61948 189.44926 190.75205
 192.47183 194.56162 196.81940 199.17319 201.61297 204.08776 206.17054 208.00733
 209.62811 210.76790 210.99168 211.21447 211.14625 210.84604 210.47382 210.09861
 209.71039 209.41517 209.21796 209.07674 208.99953 209.32531 209.70610 210.08988
 210.87767 212.05045 213.29524 215.07302 216.99581 219.03359 221.12338 223.20116
 225.25595 227.33473 229.42652 231.52730 233.65108 235.81787 238.06865 240.43344
 243.04922 245.29501 247.29179 249.05158 250.46336 251.58115 252.39793 252.70872
 252.74050 252.50929 251.86407 250.80686 249.40764 247.56343 245.46721 243.29500
 241.08078 238.87956 236.69435 234.52813 232.38292 230.24470 228.26549 226.41727
 224.69506 223.16184 221.78663 220.55341 219.43020 218.38498 217.48377 216.61955
 215.85634 215.03112 214.12391 213.48269 212.92747 213.79002 215.82793 218.22002
 220.06990 221.95686 223.71434 225.00755 225.79985 226.62415 227.59431 227.19203
 226.98167 228.62350 232.04561 236.56456 241.18825 245.67255 249.96953 253.94153
 257.54453 260.84549 263.83115 266.43979 268.74646 270.74643 272.36288 274.39526
 276.42368 278.17346 279.72208 281.09033 282.27884 283.33740 284.30530 285.19189
 285.99951 286.73264 287.37897 288.30011
 366.78100 356.33083 345.75866 334.62049 323.01932 311.20916 299.07499 286.87382
 274.58165 262.47448 250.47931 239.77614 229.89397 220.99380 213.17163 206.16947
 199.99930 194.93313 191.51096 189.54879 188.58162 188.64145 189.47228 190.77611
 192.49695 194.58778 196.84661 199.20144 201.64227 204.11810 206.20193 208.03976
 209.66159 210.80242 211.02726 211.25109 211.18392 210.88475 210.51358 210.13941
 209.75224 209.45807 209.26190 209.12173 209.04557 209.37240 209.75423 210.13906
 210.92789 212.10172 213.34755 215.12638 217.05021 219.08905 221.17988 223.25871
 225.31454 227.39437 229.48720 231.58903 233.71386 235.88169 238.13352 240.49936
 243.11619 245.36302 247.36085 249.12168 250.53451 251.65334 252.47117 252.78300
 252.81584 252.58567 251.94150 250.88533 249.48716 247.64399 245.54882 243.37765
 241.16448 238.96431 236.78015 234.61498 232.47081 230.33364 228.35547 226.50830
 224.78713 223.25496 221.88079 220.64863 219.52646 218.48229 217.58212 216.71895
 215.95678 215.13261 214.22644 213.58627 213.03210 213.86298 215.82600 218.21329
 220.17102 222.07953 223.83820 225.12880 225.88979 226.64986 227.48625 227.02142
 226.79886 228.49280 232.00694 236.53841 241.15015 245.63071 249.92517 253.89304
 257.49600 260.81030 263.82010 266.44922 268.73373 270.69360 272.24887 274.36826
 276.41864 278.19614 279.74496 281.11267 282.30099 283.35715 284.32431 285.20908
 286.01639 286.74936 287.39682 288.31488
 366.78100 356.33173 345.76047 334.62320 323.02293 311.21367 299.08040 286.88014
 274.58887 262.48260 250.48834 239.78607 229.90480 221.00554 213.18427 206.18300
 200.01374 194.94847 191.52720 189.56594 188.59967 188.66041 189.49214 190.79687
 192.51861 194.61034 196.87007 199.22581 201.66754 204.14427 206.22901 208.06774
 209.69048 210.83221 211.05794 211.28268 211.21641 210.91814 210.54788 210.17461
 209.78834 209.49508 209.29981 209.16054 209.08528 209.41301 209.79575 210.18148
 210.97121 212.14595 213.39268 215.17241 217.09715 219.13688 221.22861 223.30835
 225.36508 227.44582 229.53955 231.64228 233.76802 235.93675 238.18948 240.55622
 243.17395 245.42168 247.42042 249.18215 250.59588 251.71562 252.53435 252.84709
 252.88082 252.65155 252.00829 250.95302 249.55575 247.71349 245.61922 243.44895
 241.23669 239.03742 236.85416 234.68989 232.54662 230.41036 228.43309 226.58682
 224.86656 223.33529 221.96202 220.73076 219.60949 218.56623 217.66696 216.80469
 216.04343 215.22016 214.31489 213.67563 213.12236 213.92944 215.83627 218.19307
 220.26315 222.20096 223.93712 225.23801 226.00645 226.71240 227.40298 226.87170
 226.63290 228.37125 231.96347 236.50256 241.09912 245.57285 249.85954 253.81544
 257.41187 260.72989 263.75427 266.39835 268.67169 270.63632 272.51279 274.41745
 276.43823 278.21967 279.76797 281.13254 282.31903 283.37387 284.33963 285.22363
 286.03180 286.76300 287.41116 288.32593
 366.78100 356.33220 345.76139 334.62459 323.02478 311.21598 299.08317 286.88337
 274.59257 262.48676 250.49296 239.79115 229.91035 221.01154 213.19074 206.18993
 200.02113 194.95633 191.53552 189.57472 188.60891 188.67011 189.50230 190.80750
 192.52970 194.62189 196.88209 199.23828 201.68048 204.15767 206.24287 208.08206
 209.70526 210.84746 211.07365 211.29885 211.23304 210.93524 210.56543 210.19263
 209.80683 209.51402 209.31922 209.18041 209.10561 209.43380 209.81700 210.20320
 210.99339 212.16859 213.41578 215.19598 217.12117 219.16137 221.25356 223.33376
 225.39096 227.47215 229.56635 231.66954 233.79574 235.96493 238.21813 240.58533
 243.20352 245.45172 247.45091 249.21311 250.62730 251.74750 252.56669 252.87989
 252.91409 252.68528 252.04248 250.98767 249.59087 247.74906 245.65526 243.48546
 241.27365 239.07485 236.89204 234.72824 232.58543 230.44963 228.47282 226.62702
 224.90722 223.37641 222.00361 220.77280 219.65200 218.60919 217.71039 216.84859
 216.08778 215.26498 214.36017 213.72137 213.16856 213.97186 215.86974 218.19167
 220.31480 222.28728 223.99998 225.32076 226.13271 226.81108 227.36015 226.77058
 226.51228 228.27614 231.92790 236.46976 241.05197 245.51723 249.79411 253.73601
 257.32159 260.63831 263.67410 266.33029 268.56952 270.45325 272.54120 274.42108
 276.44751 278.23737 279.78769 281.15161 282.33698 283.39008 284.35483 285.23682
 286.04276 286.77371 287.42075 288.33255
 366.78100 356.33241 345.76183 334.62524 323.02565 311.21706 299.08448 286.88489
 274.59430 262.48871 250.49513 239.79354 229.91295 221.01436 213.19378 206.19319
 200.02460 194.96001 191.53943 189.57884 188.61325 188.67466 189.50708 190.81249
 192.53490 194.62732 196.88773 199.24414 201.68655 204.16397 206.24938 208.08879
 209.71220 210.85462 211.08103 211.30644 211.24085 210.94327 210.57368 210.20109
 209.81550 209.52292 209.32833 209.18974 209.11516 209.44357 209.82698 210.21339
 211.00381 212.17922 213.42663 215.20704 217.13246 219.17287 221.26528 223.34569
 225.40311 227.48452 229.57893 231.68234 233.80876 235.97817 238.23158 240.59899
 243.21741 245.46582 247.46523 249.22765 250.64206 251.76247 252.58188 252.89530
 252.92971 252.70112 252.05853 251.00395 249.60736 247.76577 245.67218 243.50260
 241.29101 239.09242 236.90983 234.74625 232.60366 230.46807 228.49149 226.64590
 224.92631 223.39572 222.02314 220.79255 219.67196 218.62937 217.73079 216.86920
 216.10861 215.28602 214.38144 213.74285 213.19026 213.99985 215.91260 218.21819
 220.35257 222.34482 224.03459 225.36760 226.23952 226.92055 227.34520 226.71368
 226.43282 228.19965 231.89677 236.43675 241.00488 245.46080 249.72581 253.65303
 257.22751 260.54288 263.58801 266.25229 268.47180 270.37219 272.56500 274.40002
 276.42676 278.22269 279.77643 281.14151 282.32761 283.38062 284.34406 285.22714
 286.03128 286.76083 287.40829 288.31598
 366.78100 356.33276 345.76252 334.62628 323.02704 311.21881 299.08657 286.88733
 274.59709 262.49185 250.49861 239.79737 229.91713 221.01889 213.19866 206.19842
 200.03018 194.96594 191.54570 189.58546 188.62022 188.68198 189.51474 190.82051
 192.54327 194.63603 196.89679 199.25355 201.69631 204.17407 206.25983 208.09960
 209.72336 210.86612 211.09288 211.31864 211.25340 210.95616 210.58692 210.21468
 209.82945 209.53721 209.34297 209.20473 209.13049 209.45925 209.84301 210.22977
 211.02053 212.19630 213.44406 215.22482 217.15058 219.19134 221.28410 223.36486
 225.42262 227.50438 229.59915 231.70291 233.82967 235.99943 238.25319 240.62095
 243.23971 245.48847 247.48823 249.25100 250.66576 251.78652 252.60628 252.92004
 252.95480 252.72656 252.08432 251.03008 249.63385 247.79261 245.69937 243.53013
 241.31889 239.12065 236.93841 234.77517 232.63293 230.49770 228.52146 226.67622
 224.95698 223.42674 222.05450 220.82426 219.70402 218.66179 217.76355 216.90231
 216.14207 215.31983 214.41559 213.77735 213.22511 214.03256 215.94022 218.26146
 220.41060 222.39517 224.05173 225.37366 226.30391 227.01208 227.34218 226.69066
 226.39191 228.14731 231.87846 236.41714 240.97322 245.41838 249.67030 253.58224
 257.14120 260.44418 263.48608 266.14676 268.34711 270.25992 272.63492 274.35583
 276.37921 278.18185 279.73859 281.10574 282.29224 283.34705 284.30951 285.19119
 285.99475 286.72220 287.36661 288.27368
 366.78100 356.33326 345.76352 334.62778 323.02904 311.22130 299.08956 286.89082
 274.60108 262.49634 250.50359 239.80285 229.92311 221.02537 213.20563 206.20589
 200.03815 194.97441 191.55467 189.59493 188.63019 188.69245 189.52571 190.83197
 192.55523 194.64849 196.90975 199.26701 201.71027 204.18852 206.27478 208.11504
 209.73930 210.88256 211.10982 211.33608 211.27134 210.97460 210.60586 210.23412
 209.84938 209.55764 209.36390 209.22616 209.15242 209.48168 209.86594 210.25320
 211.04446 212.22071 213.46897 215.25023 217.17649 219.21775 221.31101 223.39227
 225.45053 227.53279 229.62805 231.73231 233.85957 236.02983 238.28409 240.65235
 243.27161 245.52087 247.52113 249.28439 250.69964 251.82090 252.64116 252.95542
 252.99068 252.76294 252.12120 251.06746 249.67172 247.83098 245.73824 243.56950
 241.35876 239.16102 236.97928 234.81654 232.67480 230.54006 228.56432 226.71957
 225.00083 223.47109 222.09935 220.86961 219.74987 218.70813 217.81039 216.94965
 216.18991 215.36817 214.46443 213.82669 213.27495 214.07069 215.95073 218.30711
 220.49605 222.45267 224.06265 225.35655 226.33559 227.08017 227.33826 226.66951
 226.35689 228.10393 231.86728 236.40866 240.95505 245.38742 249.62593 253.52563
 257.07086 260.36288 263.40442 266.07126 268.24683 270.10931 272.56454 274.30206
 276.31821 278.12012 279.67816 281.04675 282.23438 283.28867 284.25519 285.13406
 285.93979 286.66559 287.30981 288.21408
 366.78100 356.33381 345.76463 334.62944 323.03126 311.22407 299.09289 286.89470
 274.60552 262.50133 250.50915 239.80896 229.92978 221.03259 213.21341 206.21422
 200.04704 194.98385 191.56467 189.60548 188.64130 188.70411 189.53793 190.84474
 192.56856 194.66237 196.92419 199.28200 201.72582 204.20463 206.29145 208.13226
 209.75708 210.90089 211.12871 211.35552 211.29134 210.99515 210.62697 210.25578
 209.87160 209.58041 209.38723 209.25004 209.17686 209.50667 209.89149 210.27930
 211.07112 212.24793 213.49675 215.27856 217.20537 219.24719 221.34100 223.42282
 225.48163 227.56445 229.66026 231.76508 233.89289 236.06371 238.31852 240.68734
 243.30715 245.55697 247.55778 249.32160 250.73741 251.85923 252.68004 252.99486
 253.03067 252.80349 252.16230 251.10912 249.71393 247.87375 245.78156 243.61338
 241.40319 239.20601 237.02482 234.86264 232.72145 230.58727 228.61208 226.76790
 225.04971 223.52053 222.14934 220.92016 219.80097 218.75979 217.86260 217.00242
 216.24323 215.42205 214.51886 213.88168 213.33049 214.10980 215.95105 218.35126
 220.59062 222.51326 224.06429 225.32146 226.34601 227.13005 227.33502 226.64993
 226.32532 228.06726 231.86009 236.40901 240.94835 245.36591 249.59012 253.47876
 257.01257 260.29324 263.33682 266.02377 268.18768 269.90375 272.23392 274.22156
 276.25620 278.05173 279.60751 280.97504 282.16299 283.21683 284.18317 285.06293
 285.86804 286.59586 287.23749 288.14212
 366.78100 356.33432 345.76563 334.63095 323.03327 311.22658 299.09590 286.89822
 274.60954 262.50585 250.51417 239.81449 229.93580 221.03912 213.22044 206.22175
 200.05507 194.99239 191.57370 189.61502 188.65134 188.71466 189.54897 190.85629
 192.58061 194.67492 196.93724 199.29556 201.73987 204.21919 206.30651 208.14782
 209.77314 210.91746 211.14578 211.37309 211.30941 211.01373 210.64604 210.27536
 209.89168 209.60099 209.40831 209.27163 209.19894 209.52926 209.91458 210.30290
 211.09521 212.27253 213.52185 215.30416 217.23148 219.27380 221.36811 223.45043
 225.50975 227.59306 229.68938 231.79470 233.92301 236.09433 238.34965 240.71897
 243.33928 245.58960 247.59092 249.35523 250.77155 251.89387 252.71518 253.03050
 253.06682 252.84013 252.19945 251.14677 249.75209 247.91240 245.82072 243.65304
 241.44335 239.24667 237.06599 234.90430 232.76362 230.62994 228.65525 226.81157
 225.09389 223.56521 222.19452 220.96584 219.84716 218.80647 217.90979 217.05011
 216.29142 215.47074 214.56806 213.93137 213.38069 214.14616 215.95465 218.39374
 220.69284 222.57344 224.05905 225.27832 226.34081 227.16901 227.34120 226.63667
 226.29924 228.03867 231.85727 236.41673 240.94919 245.34798 249.55205 253.42436
 256.93982 260.20078 263.23801 265.94235 268.12115 269.89957 272.17270 274.14917
 276.17703 277.96826 279.52090 280.88678 282.07382 283.12863 284.09189 284.97275
 285.77533 286.50546 287.14764 288.04630
 366.78100 356.33475 345.76650 334.63224 323.03499 311.22874 299.09849 286.90124
 274.61299 262.50973 250.51848 239.81923 229.94098 221.04473 213.22648 206.22822
 200.06197 194.99972 191.58147 189.62322 188.65997 188.72371 189.55846 190.86621
 192.59096 194.68571 196.94846 199.30720 201.75195 204.23170 206.31945 208.16120
 209.78694 210.93169 211.16044 211.38819 211.32494 211.02969 210.66243 210.29218
 209.90893 209.61868 209.42643 209.29018 209.21792 209.54867 209.93442 210.32317
 211.11592 212.29367 213.54341 215.32616 217.25391 219.29666 221.39141 223.47416
 225.53390 227.61765 229.71440 231.82015 233.94890 236.12065 238.37639 240.74614
 243.36689 245.61764 247.61939 249.38413 250.80088 251.92363 252.74538 253.06113
 253.09788 252.87162 252.23137 251.17912 249.78487 247.94562 245.85437 243.68711
 241.47786 239.28161 237.10136 234.94011 232.79986 230.66660 228.69235 226.84910
 225.13185 223.60360 222.23335 221.00509 219.88684 218.84659 217.95034 217.09109
 216.33283 215.51258 214.61033 213.97408 213.42383 214.17827 215.96072 218.43871
 220.79576 222.63463 224.04022 225.22699 226.33391 227.20456 227.35471 226.63161
 226.28215 228.01913 231.85696 236.42921 240.95662 245.33542 249.51653 253.37148
 256.86722 260.10370 263.13132 265.85147 268.04739 269.90778 272.04001 274.03647
 276.07520 277.86465 279.41669 280.78174 281.96826 283.02206 283.98672 284.86649
 285.66943 286.39948 287.04382 287.93823
 366.78100 356.33527 345.76755 334.63382 323.03710 311.23137 299.10164 286.90492
 274.61719 262.51447 250.52374 239.82502 229.94729 221.05156 213.23384 206.23611
 200.07039 195.00866 191.59093 189.63321 188.67048 188.73476 189.57003 190.87830
 192.60358 194.69885 196.96213 199.32140 201.76667 204.24695 206.33522 208.17750
 209.80377 210.94905 211.17832 211.40659 211.34387 211.04914 210.68242 210.31269
 209.92996 209.64024 209.44851 209.31279 209.24106 209.57233 209.95861 210.34788
 211.14116 212.31943 213.56970 215.35298 217.28125 219.32453 221.41980 223.50308
 225.56335 227.64762 229.74490 231.85117 233.98045 236.15272 238.40899 240.77927
 243.40054 245.65182 247.65409 249.41936 250.83664 251.95991 252.78219 253.09846
 253.13574 252.91001 252.27028 251.21856 249.82483 247.98611 245.89538 243.72865
 241.51993 239.32420 237.14448 234.98375 232.84402 230.71130 228.73757 226.89485
 225.17812 223.65039 222.28067 221.05294 219.93522 218.89549 217.99977 217.14104
 216.38331 215.56359 214.66186 214.02614 213.47641 214.21341 215.95464 218.49814
 220.89763 222.67845 224.02469 225.17218 226.30333 227.22501 227.37291 226.63170
 226.26958 228.00470 231.85858 236.44548 240.96944 245.32709 249.48477 253.32283
 256.79797 260.00790 263.02304 265.76093 267.97308 269.87039 271.97400 273.93967
 275.96948 277.75073 279.29810 280.66296 281.84869 282.90311 283.86661 284.74680
 285.54956 286.28024 286.92435 287.81418
 366.78100 356.33572 345.76845 334.63517 323.03889 311.23362 299.10434 286.90806
 274.62079 262.51851 250.52823 239.82996 229.95268 221.05740 213.24013 206.24285
 200.07757 195.01630 191.59902 189.64174 188.67947 188.74419 189.57991 190.88864
 192.61436 194.71008 196.97381 199.33353 201.77925 204.25998 206.34870 208.19142
 209.81815 210.96387 211.19359 211.42232 211.36004 211.06576 210.69949 210.33021
 209.94793 209.65866 209.46738 209.33210 209.26083 209.59255 209.97927 210.36900
 211.16272 212.34144 213.59217 215.37589 217.30461 219.34834 221.44406 223.52778
 225.58851 227.67323 229.77095 231.87768 234.00740 236.18012 238.43685 240.80757
 243.42929 245.68102 247.68374 249.44946 250.86719 251.99091 252.81363 253.13036
 253.16808 252.94280 252.30353 251.25225 249.85897 248.02070 245.93042 243.76414
 241.55587 239.36059 237.18131 235.02104 232.88176 230.74948 228.77621 226.93393
 225.21765 223.69038 222.32110 221.09382 219.97655 218.93727 218.04199 217.18372
 216.42644 215.60716 214.70589 214.07061 213.52133 214.24356 215.94992 218.55348
 221.02568 222.72508 223.96817 225.10954 226.28482 227.23929 227.38017 226.62515
 226.26013 228.00119 231.86646 236.46933 240.99295 245.32953 249.46376 253.28549
 256.74023 259.92017 262.91803 265.67834 267.91534 269.73770 272.10367 273.88580
 275.87112 277.62769 279.16824 280.53030 281.71713 282.77029 283.73389 284.61487
 285.41861 286.14648 286.79398 287.67578
 366.78100 356.33596 345.76891 334.63587 323.03983 311.23478 299.10574 286.90970
 274.62265 262.52061 250.53057 239.83252 229.95548 221.06044 213.24339 206.24635
 200.08131 195.02026 191.60322 189.64618 188.68413 188.74909 189.58505 190.89400
 192.61996 194.71592 196.97987 199.33983 201.78579 204.26674 206.35570 208.19866
 209.82561 210.97157 211.20153 211.43048 211.36844 211.07440 210.70835 210.33931
 209.95726 209.66822 209.47718 209.34213 209.27109 209.60305 209.99000 210.37996
 211.17392 212.35287 213.60383 215.38779 217.31674 219.36070 221.45666 223.54061
 225.60157 227.68653 229.78448 231.89144 234.02140 236.19435 238.45131 240.82227
 243.44422 245.69618 247.69914 249.46509 250.88305 252.00701 252.82996 253.14692
 253.18488 252.95983 252.32079 251.26975 249.87670 248.03866 245.94862 243.78257
 241.57453 239.37949 237.20044 235.04040 232.90136 230.76931 228.79627 226.95423
 225.23818 223.71114 222.34210 221.11505 219.99801 218.95897 218.06392 217.20588
 216.44884 215.62979 214.72875 214.09371 213.54466 214.26241 215.95813 218.59058
 221.15866 222.80663 223.93053 225.04173 226.23576 227.20622 227.35283 226.61569
 226.27090 228.01877 231.88297 236.50079 241.02684 245.34216 249.45190 253.25648
 256.68817 259.83444 262.81158 265.59515 267.86810 269.75320 272.09082 273.78824
 275.75229 277.48843 279.02274 280.38477 281.56952 282.62369 283.58823 284.46878
 285.27176 286.00565 286.64880 287.53079
 366.78100 356.33618 345.76936 334.63654 323.04072 311.23590 299.10708 286.91126
 274.62444 262.52263 250.53281 239.83499 229.95817 221.06335 213.24653 206.24971
 200.08489 195.02407 191.60725 189.65043 188.68861 188.75379 189.58997 190.89915
 192.62533 194.72152 196.98570 199.34588 201.79206 204.27324 206.36242 208.20560
 209.83278 210.97896 211.20914 211.43832 211.37650 211.08268 210.71686 210.34804
 209.96622 209.67741 209.48659 209.35177 209.28095 209.61313 210.00031 210.39049
 211.18467 212.36385 213.61503 215.39921 217.32839 219.37257 221.46875 223.55293
 225.61411 227.69930 229.79748 231.90466 234.03484 236.20802 238.46520 240.83638
 243.45856 245.71074 247.71392 249.48010 250.89828 252.02246 252.84564 253.16282
 253.20100 252.97619 252.33737 251.28655 249.89373 248.05591 245.96609 243.80027
 241.59245 239.39763 237.21881 235.05899 232.92017 230.78835 228.81553 226.97371
 225.25789 223.73108 222.36226 221.13544 220.01862 218.97980 218.08498 217.22716
 216.47034 215.65152 214.75070 214.11588 213.56706 214.28043 215.96584 218.63257
 221.26819 222.89055 223.92580 224.98543 226.17035 227.13866 227.29912 226.60258
 226.29099 228.04622 231.90363 236.53746 241.06979 245.36629 249.45230 253.24434
 256.65918 259.77090 262.72311 265.53461 267.84821 269.74237 271.95444 273.69357
 275.65097 277.35120 278.88159 280.24417 281.42993 282.48492 283.44864 284.33005
 285.13245 285.86539 286.51587 287.39301
 366.78100 356.33649 345.76998 334.63747 323.04196 311.23745 299.10894 286.91343
 274.62692 262.52541 250.53589 239.83838 229.96187 221.06736 213.25085 206.25434
 200.08983 195.02932 191.61281 189.65630 188.69479 188.76028 189.59677 190.90626
 192.63275 194.72924 196.99373 199.35422 201.80070 204.28219 206.37168 208.21517
 209.84266 210.98915 211.21964 211.44913 211.38762 211.09411 210.72860 210.36009
 209.97858 209.69007 209.49956 209.36505 209.29454 209.62703 210.01452 210.40500
 211.19949 212.37898 213.63047 215.41496 217.34445 219.38894 221.48543 223.56992
 225.63141 227.71690 229.81539 231.92288 234.05337 236.22686 238.48435 240.85584
 243.47833 245.73082 247.73430 249.50079 250.91928 252.04377 252.86726 253.18475
 253.22324 252.99873 252.36022 251.30971 249.91720 248.07969 245.99018 243.82467
 241.61716 239.42265 237.24414 235.08463 232.94611 230.81460 228.84209 227.00058
 225.28507 223.75856 222.39005 221.16354 220.04703 219.00852 218.11401 217.25650
 216.49999 215.68148 214.78097 214.14646 213.59795 214.30203 215.96555 218.69142
 221.36017 222.96333 223.94257 224.94351 226.10043 227.05931 227.24129 226.57724
 226.29243 228.06494 231.92096 236.57126 241.11292 245.39319 249.45743 253.24080
 256.64484 259.72635 262.64841 265.48547 267.83063 269.70688 271.84839 273.61081
 275.54037 277.21722 278.74594 280.10895 281.29480 282.34747 283.31091 284.19269
 284.99768 285.72699 286.38251 287.25549
 366.78100 356.33681 345.77063 334.63844 323.04326 311.23907 299.11089 286.91570
 274.62951 262.52833 250.53914 239.84196 229.96577 221.07158 213.25540 206.25921
 200.09503 195.03484 191.61866 189.66247 188.70128 188.76710 189.60391 190.91373
 192.64054 194.73735 197.00217 199.36298 201.80980 204.29161 206.38143 208.22524
 209.85305 210.99987 211.23068 211.46050 211.39931 211.10612 210.74094 210.37275
 209.99157 209.70338 209.51320 209.37901 209.30882 209.64164 210.02945 210.42027
 211.21508 212.39489 213.64671 215.43152 217.36134 219.40615 221.50297 223.58778
 225.64959 227.73541 229.83422 231.94204 234.07285 236.24666 238.50448 240.87629
 243.49911 245.75192 247.75574 249.52255 250.94136 252.06618 252.88999 253.20781
 253.24662 253.02243 252.38425 251.33406 249.94188 248.10469 246.01551 243.85032
 241.64313 239.44895 237.27076 235.11158 232.97339 230.84220 228.87002 227.02883
 225.31365 223.78746 222.41928 221.19309 220.07690 219.03872 218.14453 217.28735
 216.53116 215.71297 214.81279 214.17860 213.63042 214.32477 215.96527 218.73801
 221.47675 223.05202 223.94417 224.88457 226.01410 226.96463 227.17131 226.56039
 226.31070 228.08624 231.93669 236.60493 241.15663 245.42142 249.46614 253.24228
 256.63525 259.68390 262.56924 265.42535 267.79150 269.65457 271.80087 273.51245
 275.41232 277.08075 278.60312 279.96240 281.14700 282.19891 283.16202 284.04041
 284.84308 285.57129 286.22528 287.09317
 366.78100 356.33729 345.77157 334.63986 323.04515 311.24144 299.11372 286.91901
 274.63330 262.53259 250.54387 239.84716 229.97145 221.07774 213.26202 206.26631
 200.10260 195.04289 191.62717 189.67146 188.71075 188.77704 189.61432 190.92461
 192.65190 194.74919 197.01447 199.37576 201.82305 204.30534 206.39562 208.23991
 209.86820 211.01549 211.24677 211.47706 211.41635 211.12364 210.75892 210.39121
 210.01050 209.72279 209.53307 209.39936 209.32965 209.66294 210.05122 210.44251
 211.23780 212.41809 213.67037 215.45566 217.38595 219.43124 221.52852 223.61381
 225.67610 227.76239 229.86167 231.96996 234.10125 236.27554 238.53382 240.90611
 243.52940 245.78269 247.78697 249.55426 250.97355 252.09884 252.92312 253.24141
 253.28070 253.05699 252.41927 251.36956 249.97785 248.14114 246.05242 243.88771
 241.68100 239.48729 237.30957 235.15086 233.01315 230.88244 228.91072 227.07001
 225.35530 223.82959 222.46187 221.23616 220.12045 219.08274 218.18902 217.33231
 216.57660 215.75889 214.85917 214.22546 213.67775 214.35655 215.96031 218.76567
 221.59944 223.15623 223.95869 224.83000 225.92474 226.85463 227.06781 226.51187
 226.32375 228.12483 231.96523 236.64943 241.21436 245.47108 249.49857 253.26909
 256.65692 259.67645 262.51816 265.37964 267.78165 269.65475 271.75708 273.42566
 275.29431 276.95822 278.47711 279.83737 281.02386 282.07672 283.04166 283.91953
 284.72266 285.44827 286.09888 286.96338
 366.78100 356.33784 345.77267 334.64151 323.04734 311.24418 299.11702 286.92285
 274.63769 262.53752 250.54936 239.85319 229.97803 221.08487 213.26970 206.27454
 200.11137 195.05221 191.63705 189.68188 188.72172 188.78855 189.62639 190.93723
 192.66506 194.76290 197.02873 199.39057 201.83841 204.32124 206.41208 208.25691
 209.88575 211.03358 211.26542 211.49626 211.43609 211.14393 210.77976 210.41260
 210.03244 209.74527 209.55611 209.42294 209.35378 209.68762 210.07645 210.46829
 211.26412 212.44496 213.69779 215.48363 217.41447 219.46030 221.55814 223.64397
 225.70681 227.79365 229.89348 232.00232 234.13415 236.30899 238.56783 240.94066
 243.56450 245.81833 247.82317 249.59101 251.01084 252.13668 252.96151 253.28035
 253.32018 253.09702 252.45986 251.41069 250.01953 248.18336 246.09520 243.93104
 241.72487 239.53171 237.35454 235.19638 233.05922 230.92905 228.95789 227.11772
 225.40356 223.87839 222.51123 221.28607 220.17090 219.13374 218.24057 217.38441
 216.62925 215.81208 214.91292 214.27975 213.73259 214.39322 215.95403 218.79083
 221.69600 223.25459 224.00491 224.80756 225.86366 226.76651 226.96335 226.40662
 226.26466 228.11943 231.97690 236.68161 241.28250 245.54308 249.56717 253.33879
 256.73096 259.72827 262.51831 265.36993 267.80676 269.70334 271.59146 273.41403
 275.19318 276.81668 278.30478 279.64328 280.80875 281.84302 282.78012 283.64203
 284.42261 285.12732 285.71765 286.38733
 366.78100 356.33788 345.77276 334.64164 323.04751 311.24439 299.11727 286.92315
 274.63803 262.53791 250.54979 239.85366 229.97854 221.08542 213.27030 206.27518
 200.11206 195.05294 191.63782 189.68269 188.72257 188.78945 189.62733 190.93821
 192.66609 194.76397 197.02984 199.39172 201.83960 204.32248 206.41336 208.25824
 209.88712 211.03499 211.26687 211.49775 211.43763 211.14551 210.78139 210.41427
 210.03414 209.74702 209.55790 209.42478 209.35566 209.68954 210.07842 210.47030
 211.26617 212.44705 213.69993 215.48581 217.41669 219.46257 221.56045 223.64632
 225.70920 227.79608 229.89596 232.00484 234.13672 236.31160 238.57047 240.94335
 243.56723 245.82111 247.82599 249.59387 251.01375 252.13962 252.96450 253.28338
 253.32326 253.10014 252.46302 251.41390 250.02278 248.18665 246.09853 243.93441
 241.72829 239.53517 237.35805 235.19993 233.06280 230.93268 228.96156 227.12144
 225.40732 223.88220 222.51508 221.28995 220.17483 219.13771 218.24459 217.38847
 216.63335 215.81623 214.91710 214.28398 213.73686 214.40323 215.97757 218.80930
 221.75246 223.34001 224.07040 224.82712 225.83830 226.69307 226.86772 226.31105
 226.20738 228.10976 231.97856 236.69951 241.30521 245.58853 249.61363 253.37984
 256.76837 259.75507 262.51163 265.35895 267.83203 269.75354 271.45389 273.38049
 275.11887 276.69879 278.15250 279.46140 280.60315 281.60715 282.51062 283.34879
 284.12653 284.83392 285.43542 286.08801
 366.78100 356.33767 345.77234 334.64100 323.04667 311.24334 299.11601 286.92168
 274.63634 262.53601 250.54768 239.85135 229.97602 221.08268 213.26735 206.27202
 200.10869 195.04936 191.63402 189.67869 188.71836 188.78503 189.62270 190.93337
 192.66103 194.75870 197.02437 199.38604 201.83371 204.31637 206.40704 208.25171
 209.88038 211.02805 211.25971 211.49038 211.43005 211.13772 210.77339 210.40605
 210.02572 209.73839 209.54906 209.41573 209.34639 209.68006 210.06873 210.46040
 211.25607 212.43673 213.68940 215.47507 217.40574 219.45141 221.54907 223.63474
 225.69741 227.78408 229.88375 231.99241 234.12408 236.29875 238.55742 240.93009
 243.55376 245.80742 247.81209 249.57976 250.99943 252.12510 252.94976 253.26843
 253.30810 253.08477 252.44744 251.39810 250.00677 248.17044 246.08211 243.91778
 241.71144 239.51811 237.34078 235.18245 233.04512 230.91478 228.94345 227.10312
 225.38879 223.86346 222.49612 221.27079 220.15546 219.11813 218.22480 217.36846
 216.61313 215.79580 214.89647 214.26314 213.71581 214.40157 216.02174 218.83401
 221.75166 223.39198 224.14894 224.86400 225.82948 226.64084 226.76569 226.19620
 226.14343 228.10181 231.98154 236.71968 241.33919 245.64801 249.67587 253.44203
 256.83060 259.78552 262.48746 265.33359 267.82123 269.76697 271.42542 273.30853
 275.05344 276.60870 278.03778 279.32114 280.43265 281.39154 282.25143 283.10135
 283.89313 284.60950 285.21860 285.97241
 366.78100 356.33756 345.77211 334.64067 323.04622 311.24278 299.11534 286.92089
 274.63545 262.53500 250.54656 239.85012 229.97467 221.08123 213.26578 206.27034
 200.10690 195.04745 191.63201 189.67656 188.71612 188.78268 189.62023 190.93079
 192.65835 194.75590 197.02146 199.38301 201.83057 204.31313 206.40368 208.24824
 209.87679 211.02435 211.25591 211.48646 211.42602 211.13357 210.76913 210.40169
 210.02124 209.73380 209.54435 209.41091 209.34147 209.67502 210.06358 210.45513
 211.25069 212.43125 213.68380 215.46936 217.39991 219.44547 221.54303 223.62858
 225.69114 227.77769 229.87725 231.98581 234.11736 236.29192 238.55048 240.92303
 243.54659 245.80014 247.80470 249.57226 250.99181 252.11737 252.94192 253.26048
 253.30004 253.07659 252.43915 251.38970 249.99826 248.16182 246.07337 243.90893
 241.70248 239.50904 237.33160 235.17315 233.03571 230.90526 228.93382 227.09338
 225.37893 223.85349 222.48604 221.26060 220.14516 219.10771 218.21427 217.35782
 216.60238 215.78494 214.88549 214.25205 213.70461 214.40843 216.07220 218.82460
 221.72293 223.33565 224.12358 224.88309 225.91809 226.70395 226.68314 226.08302
 225.95779 227.99185 231.95668 236.74524 241.39052 245.72440 249.77107 253.56621
 256.97610 259.91870 262.56073 265.30176 267.75531 269.66391 271.34897 273.25278
 274.92795 276.46167 277.87228 279.14331 280.26105 281.29489 282.26208 283.15195
 283.95709 284.68213 285.31573 286.12320
 366.78100 356.33696 345.77093 334.63889 323.04385 311.23981 299.11178 286.91674
 274.63070 262.52967 250.54063 239.84359 229.96755 221.07352 213.25748 206.26144
 200.09740 195.03737 191.62133 189.66529 188.70426 188.77022 189.60718 190.91714
 192.64411 194.74107 197.00603 199.36700 201.81396 204.29592 206.38588 208.22985
 209.85781 211.00477 211.23573 211.46570 211.40466 211.11162 210.74659 210.37855
 209.99751 209.70947 209.51944 209.38540 209.31536 209.64833 210.03629 210.42725
 211.22221 212.40218 213.65414 215.43910 217.36907 219.41403 221.51099 223.59595
 225.65792 227.74388 229.84284 231.95080 234.08177 236.25573 238.51369 240.88566
 243.50862 245.76158 247.76554 249.53251 250.95147 252.07643 252.90040 253.21836
 253.25732 253.03328 252.39525 251.34521 249.95317 248.11613 246.02710 243.86206
 241.65502 239.46099 237.28295 235.12391 232.98587 230.85484 228.88280 227.04176
 225.32673 223.80069 222.43265 221.20661 220.09058 219.05254 218.15850 217.30146
 216.54543 215.72739 214.82735 214.19332 213.64528 214.39337 216.19852 218.80545
 221.66406 223.20825 223.99982 224.89265 226.05428 226.85638 226.68546 226.13040
 225.69264 227.77422 231.80440 236.69260 241.39461 245.76215 249.81657 253.61417
 257.02911 259.99234 262.68423 265.34415 267.72009 269.57611 271.34109 273.18793
 274.84833 276.37381 277.73236 278.98059 280.14172 281.20032 282.20767 283.16635
 284.03806 284.81427 285.49240 286.35657
 366.78100 356.33805 345.77310 334.64215 323.04819 311.24524 299.11829 286.92434
 274.63939 262.53944 250.55149 239.85553 229.98058 221.08763 213.27268 206.27773
 200.11478 195.05583 191.64087 189.68592 188.72597 188.79302 189.63107 190.94212
 192.67017 194.76822 197.03426 199.39631 201.84436 204.32741 206.41846 208.26351
 209.89256 211.04060 211.27265 211.50370 211.44375 211.15180 210.78785 210.42090
 210.04094 209.75399 209.56504 209.43209 209.36314 209.69719 210.08624 210.47828
 211.27433 212.45538 213.70843 215.49448 217.42553 219.47158 221.56962 223.65567
 225.71872 227.80577 229.90582 232.01487 234.14692 236.32196 238.58101 240.95406
 243.57811 245.83216 247.83721 249.60526 251.02531 252.15135 252.97640 253.29545
 253.33550 253.11255 252.47560 251.42665 250.03569 248.19974 246.11179 243.94784
 241.74189 239.54894 237.37199 235.21403 233.07708 230.94713 228.97618 227.13623
 225.42228 223.89733 222.53037 221.30542 220.19047 219.15352 218.26057 217.40462
 216.64967 215.83271 214.93376 214.30081 213.75386 214.45853 216.17172 218.87482
 221.66156 223.20078 224.03670 224.87816 225.95464 226.79944 226.73360 226.21306
 225.72748 227.74411 231.79865 236.67607 241.35518 245.66513 249.75369 253.56137
 256.97623 259.94000 262.66510 265.36108 267.75140 269.67172 271.34760 273.23438
 274.89484 276.39328 277.70767 278.96432 280.13287 281.20660 282.23807 283.19983
 284.06412 284.83380 285.50616 286.36301
 366.78100 356.33846 345.77392 334.64338 323.04984 311.24730 299.12076 286.92722
 274.64268 262.54314 250.55560 239.86005 229.98551 221.09297 213.27843 206.28389
 200.12135 195.06281 191.64827 189.69373 188.73419 188.80165 189.64011 190.95157
 192.68003 194.77849 197.04495 199.40741 201.85587 204.33933 206.43079 208.27625
 209.90570 211.05416 211.28662 211.51808 211.45854 211.16700 210.80346 210.43692
 210.05738 209.77084 209.58230 209.44976 209.38122 209.71568 210.10514 210.49760
 211.29406 212.47552 213.72898 215.51544 217.44690 219.49335 221.59181 223.67827
 225.74173 227.82919 229.92965 232.03911 234.17157 236.34703 238.60649 240.97995
 243.60441 245.85887 247.86433 249.63279 251.05325 252.17971 253.00517 253.32463
 253.36509 253.14255 252.50600 251.45746 250.06692 248.23138 246.14384 243.98030
 241.77476 239.58222 237.40568 235.24814 233.11160 230.98206 229.01152 227.17198
 225.45844 223.93390 222.56736 221.34282 220.22828 219.19174 218.29920 217.44365
 216.68911 215.87257 214.97403 214.34149 213.79495 214.48952 216.19337 218.95024
 221.61978 223.16727 224.03160 224.81679 225.90364 226.80331 226.76318 226.28023
 225.61955 227.72401 231.81653 236.65517 241.32762 245.67464 249.81744 253.64133
 257.04105 259.97736 262.67572 265.35553 267.71838 269.61646 271.32394 273.17508
 274.84778 276.30206 277.61313 278.92560 280.11887 281.19064 282.18915 283.12381
 283.96442 284.71298 285.36691 286.20029
 366.78100 356.33928 345.77557 334.64585 323.05314 311.25142 299.12570 286.93299
 274.64927 262.55055 250.56384 239.86912 229.99541 221.10369 213.28997 206.29626
 200.13454 195.07682 191.66311 189.70939 188.75068 188.81896 189.65824 190.97053
 192.69981 194.79910 197.06638 199.42966 201.87895 204.36323 206.45551 208.30180
 209.93208 211.08137 211.31465 211.54693 211.48822 211.19750 210.83478 210.46907
 210.09035 209.80464 209.61692 209.48520 209.41749 209.75277 210.14305 210.53634
 211.33362 212.51591 213.77019 215.55747 217.48976 219.53704 221.63633 223.72361
 225.78789 227.87618 229.97746 232.08774 234.22103 236.39731 238.65760 241.03188
 243.65716 245.91245 247.91873 249.68801 251.10930 252.23658 253.06287 253.38315
 253.42443 253.20272 252.56700 251.51929 250.12957 248.29485 246.20814 244.04542
 241.84070 239.64899 237.47327 235.31656 233.18084 231.05212 229.08241 227.24369
 225.53097 224.00726 222.64154 221.41783 220.30411 219.26839 218.37668 217.52196
 216.76825 215.95253 215.05481 214.42310 213.87738 214.54744 216.23953 218.95155
 221.66171 223.18256 224.11507 224.84795 225.88004 226.90173 226.83400 226.38339
 225.75734 227.77693 231.82849 236.61082 241.28160 245.68030 249.84996 253.70706
 257.10010 260.04391 262.71768 265.37823 267.70337 269.59143 271.33127 273.07928
 274.71414 276.13217 277.40994 278.76703 280.01010 281.22778 282.35623 283.37851
 284.29794 285.11673 285.83197 286.74347
 366.78100 356.34064 345.77828 334.64992 323.05856 311.25820 299.13383 286.94247
 274.66011 262.56275 250.57739 239.88403 230.01167 221.12131 213.30895 206.31659
 200.15623 195.09986 191.68750 189.73514 188.77778 188.84742 189.68806 191.00170
 192.73234 194.83298 197.10162 199.46626 201.91689 204.40253 206.49617 208.34381
 209.97545 211.12609 211.36073 211.59437 211.53701 211.24765 210.88629 210.52192
 210.14456 209.86020 209.67384 209.54348 209.47712 209.81376 210.20540 210.60004
 211.39868 212.58232 213.83795 215.62659 217.56023 219.60887 221.70951 223.79815
 225.86379 227.95343 230.05607 232.16771 234.30235 236.47998 238.74162 241.11726
 243.74390 246.00054 248.00818 249.77882 251.20146 252.33010 253.15774 253.47938
 253.52201 253.30165 252.66729 251.62093 250.23257 248.39921 246.31385 244.15249
 241.94913 239.75877 237.58441 235.42904 233.29468 231.16732 229.19896 227.36160
 225.65024 224.12788 222.76352 221.54116 220.42880 219.39444 218.50407 217.65071
 216.89835 216.08399 215.18763 214.55727 214.01291 214.64468 216.30440 218.91922
 221.68651 223.43947 224.38594 224.90953 225.82330 226.72206 226.83650 226.19388
 225.91473 227.90125 231.85774 236.60205 241.26651 245.70381 249.87830 253.74243
 257.14297 260.10284 262.81808 265.43866 267.76343 269.65396 271.37051 273.02133
 274.57950 276.02585 277.61343 279.24081 280.70566 282.00168 283.18411 284.25531
 285.21875 286.07666 286.82614 287.78125
 366.78100 356.33991 345.77682 334.64772 323.05563 311.25454 299.12945 286.93736
 274.65426 262.55617 250.57008 239.87599 230.00290 221.11180 213.29871 206.30562
 200.14453 195.08744 191.67434 189.72125 188.76316 188.83207 189.67198 190.98488
 192.71479 194.81470 197.08261 199.44652 201.89643 204.38133 206.47424 208.32115
 209.95206 211.10197 211.33587 211.56878 211.51069 211.22060 210.85851 210.49341
 210.11532 209.83023 209.64314 209.51205 209.44495 209.78086 210.17177 210.56568
 211.36359 212.54649 213.80140 215.58931 217.52222 219.57013 221.67003 223.75794
 225.82285 227.91176 230.01367 232.12457 234.25848 236.43539 238.69630 241.07121
 243.69711 245.95302 247.95993 249.72984 251.15175 252.27965 253.10656 253.42747
 253.46938 253.24829 252.61320 251.56610 250.17701 248.34292 246.25683 244.09474
 241.89064 239.69955 237.52446 235.36837 233.23328 231.10518 229.13609 227.29800
 225.58591 224.06282 222.69772 221.47463 220.36154 219.32645 218.43536 217.58126
 216.82817 216.01308 215.11599 214.48490 213.93980 214.63814 216.46313 218.89294
 221.58537 223.69084 224.69167 224.96335 225.76012 226.44012 226.93506 225.77780
 225.67393 227.78029 231.87608 236.62956 241.32669 245.78615 249.98262 253.88402
 257.25720 260.14633 262.86896 265.51770 267.86017 269.74280 271.40173 273.01151
 274.76810 276.82999 278.82690 280.58032 282.09778 283.44031 284.66519 285.77484
 286.77286 287.66159 288.43796 289.42737
 366.78100 356.33812 345.77323 334.64235 323.04847 311.24559 299.11870 286.92482
 274.63994 262.54005 250.55217 239.85629 229.98141 221.08852 213.27364 206.27876
 200.11587 195.05699 191.64211 189.68723 188.72734 188.79446 189.63258 190.94369
 192.67181 194.76993 197.03605 199.39816 201.84628 204.32940 206.42051 208.26563
 209.89475 211.04286 211.27498 211.50610 211.44622 211.15433 210.79045 210.42357
 210.04368 209.75680 209.56792 209.43504 209.36615 209.70027 210.08939 210.48150
 211.27762 212.45874 213.71186 215.49797 217.42909 219.47521 221.57332 223.65944
 225.72256 227.80968 229.90979 232.01891 234.15103 236.32614 238.58526 240.95838
 243.58250 245.83661 247.84173 249.60985 251.02996 252.15608 252.98120 253.30032
 253.34043 253.11755 252.48067 251.43178 250.04090 248.20502 246.11714 243.95325
 241.74737 239.55449 237.37760 235.21972 233.08284 230.95295 228.98207 227.14219
 225.42831 223.90342 222.53654 221.31166 220.19677 219.15989 218.26701 217.41113
 216.65624 215.83936 214.94048 214.30759 213.76071 214.57687 216.62822 218.87093
 221.48308 223.74699 224.91385 225.00664 225.67879 226.39087 226.97058 225.65555
 225.79211 227.97182 231.97209 236.68181 241.39476 245.88712 250.13719 254.02528
 257.39944 260.26886 263.00479 265.63504 267.83524 269.65286 271.34589 273.37836
 275.87390 278.16098 280.14011 281.87790 283.38181 284.71240 285.92636 287.02612
 288.01523 288.89603 289.66550 290.64609
 366.78100 356.33913 345.77527 334.64540 323.05254 311.25067 299.12481 286.93194
 274.64808 262.54921 250.56234 239.86748 229.99361 221.10175 213.28788 206.29402
 200.13215 195.07429 191.66042 189.70655 188.74769 188.81582 189.65496 190.96709
 192.69623 194.79536 197.06249 199.42563 201.87476 204.35890 206.45103 208.29717
 209.92730 211.07644 211.30957 211.54170 211.48284 211.19197 210.82911 210.46324
 210.08438 209.79851 209.61065 209.47878 209.41091 209.74605 210.13618 210.52932
 211.32645 212.50859 213.76272 215.54986 217.48199 219.52912 221.62826 223.71539
 225.77953 227.86766 229.96880 232.07893 234.21207 236.38820 238.64833 241.02247
 243.64760 245.90274 247.90887 249.67801 251.09914 252.22627 253.05241 253.37254
 253.41368 253.19181 252.55595 251.50808 250.11822 248.28335 246.19648 244.03362
 241.82875 239.63689 237.46102 235.30416 233.16829 231.03943 229.06956 227.23069
 225.51783 223.99396 222.62810 221.40423 220.29037 219.25450 218.36264 217.50777
 216.75390 215.93804 215.04017 214.40831 213.86244 214.64841 216.65143 218.92509
 221.42036 223.59349 224.97672 225.20668 225.68941 226.47948 226.64851 225.44765
 225.66454 227.91791 231.97791 236.70558 241.43002 245.96484 250.25266 254.17735
 257.59445 260.48032 263.15555 265.66696 267.79694 269.47409 271.29562 273.96350
 276.51782 278.70724 280.60184 282.26541 283.70511 284.97888 286.14099 287.19379
 288.14066 288.98386 289.72043 290.65915
 366.78100 356.34200 345.78099 334.65399 323.06398 311.26498 299.14197 286.95197
 274.67097 262.57496 250.59096 239.89895 230.02795 221.13894 213.32794 206.33694
 200.17793 195.12293 191.71192 189.76092 188.80491 188.87591 189.71791 191.03290
 192.76490 194.86689 197.13689 199.50289 201.95488 204.44188 206.53687 208.38587
 210.01886 211.17086 211.40686 211.64185 211.58585 211.29784 210.93784 210.57483
 210.19883 209.91583 209.73082 209.60182 209.53681 209.87481 210.26780 210.66380
 211.46380 212.64879 213.90579 215.69578 217.63078 219.68077 221.78277 223.87277
 225.93976 228.03076 230.13475 232.24775 234.38374 236.56274 238.82574 241.20273
 243.83073 246.08872 248.09772 249.86972 251.29371 252.42371 253.25270 253.57570
 253.61969 253.40069 252.76769 251.72268 250.33568 248.50367 246.41967 244.25966
 242.05766 239.86866 237.69565 235.54165 233.40864 231.28264 229.31563 227.47963
 225.76963 224.24862 222.88562 221.66461 220.55361 219.52060 218.63160 217.77960
 217.02859 216.21559 215.32058 214.69158 214.14857 214.80368 216.57991 219.00688
 221.44356 223.39825 224.83965 225.25974 225.79208 226.69228 226.77661 225.35353
 225.39037 227.69426 231.86562 236.61848 241.35770 245.92812 250.25970 254.24571
 257.69785 260.68433 263.34552 265.83615 268.07605 269.60004 271.40231 274.36121
 277.09589 279.43997 281.46835 283.24945 284.79080 286.15454 287.39871 288.52588
 289.53961 290.44235 291.23099 292.23599
 366.78100 356.34326 345.78352 334.65777 323.06903 311.27129 299.14955 286.96081
 274.68106 262.58632 250.60358 239.91284 230.04310 221.15536 213.34561 206.35587
 200.19813 195.14439 191.73465 189.78490 188.83016 188.90242 189.74568 191.06194
 192.79519 194.89845 197.16971 199.53697 201.99023 204.47849 206.57474 208.42500
 210.05926 211.21252 211.44978 211.68603 211.63129 211.34455 210.98581 210.62407
 210.24932 209.96758 209.78384 209.65610 209.59236 209.93161 210.32587 210.72313
 211.52439 212.71065 213.96891 215.76016 217.69642 219.74768 221.85094 223.94220
 226.01045 228.10271 230.20797 232.32223 234.45949 236.63974 238.90400 241.28226
 243.91152 246.17078 248.18104 249.95429 251.37955 252.51081 253.34107 253.66533
 253.71058 253.49284 252.86110 251.81736 250.43162 248.60087 246.51813 244.35939
 242.15865 239.97091 237.79916 235.64642 233.51468 231.38994 229.42420 227.58946
 225.88071 224.36097 222.99923 221.77949 220.66975 219.63800 218.75026 217.89952
 217.14978 216.33804 215.44429 214.81655 214.27481 214.88052 216.55801 218.95020
 221.53329 223.61119 224.77727 224.97699 225.51154 226.75307 226.80978 225.71764
 225.69856 227.77364 231.84122 236.51959 241.19150 245.70490 249.96213 253.84450
 257.31747 260.47556 263.39609 266.04593 268.35568 270.14304 271.70786 274.26193
 277.11511 279.56912 281.69263 283.55725 285.17090 286.59857 287.90112 289.08112
 290.14243 291.08749 291.91312 292.96524
 366.78100 356.34227 345.78154 334.65480 323.06507 311.26634 299.14361 286.95388
 274.67315 262.57741 250.59368 239.90195 230.03122 221.14249 213.33176 206.34102
 200.18229 195.12756 191.71683 189.76610 188.81037 188.88163 189.72390 191.03917
 192.77144 194.87371 197.14398 199.51024 201.96251 204.44978 206.54505 208.39432
 210.02758 211.17985 211.41612 211.65139 211.59566 211.30793 210.94819 210.58546
 210.20973 209.92700 209.74227 209.61354 209.54880 209.88707 210.28034 210.67661
 211.47688 212.66215 213.91941 215.70968 217.64495 219.69522 221.79749 223.88775
 225.95502 228.04629 230.15056 232.26383 234.40010 236.57936 238.84263 241.21990
 243.84817 246.10644 248.11571 249.88797 251.31224 252.44251 253.27178 253.59505
 253.63932 253.42058 252.78785 251.74312 250.35639 248.52466 246.44093 244.28119
 242.07946 239.89073 237.71800 235.56427 233.43153 231.30580 229.33907 227.50334
 225.79361 224.27288 222.91014 221.68941 220.57868 219.54595 218.65722 217.80549
 217.05475 216.24202 215.34729 214.71856 214.17583 214.85226 216.64250 218.87805
 221.43903 223.75990 224.93188 225.10611 225.43152 226.39726 226.37807 225.64597
 225.90352 228.03333 232.00095 236.62381 241.28210 245.78873 250.01224 253.80191
 257.12189 260.12186 262.97089 265.65601 268.08676 270.13293 271.81348 274.19455
 276.80893 279.21274 281.29285 283.11932 284.69998 286.09845 287.37436 288.53024
 289.56982 290.49557 291.30429 292.33490
 366.78100 356.34199 345.78099 334.65398 323.06397 311.26496 299.14196 286.95195
 274.67094 262.57493 250.59093 239.89892 230.02791 221.13890 213.32790 206.33689
 200.17788 195.12287 191.71187 189.76086 188.80485 188.87584 189.71784 191.03283
 192.76482 194.86681 197.13681 199.50280 201.95479 204.44178 206.53678 208.38577
 210.01876 211.17075 211.40675 211.64174 211.58573 211.29772 210.93772 210.57471
 210.19870 209.91569 209.73069 209.60168 209.53667 209.87466 210.26766 210.66365
 211.46364 212.64863 213.90563 215.69562 217.63061 219.68060 221.78260 223.87259
 225.93958 228.03058 230.13457 232.24756 234.38355 236.56255 238.82554 241.20253
 243.83052 246.08852 248.09751 249.86950 251.29349 252.42349 253.25248 253.57547
 253.61946 253.40046 252.76745 251.72244 250.33543 248.50343 246.41942 244.25941
 242.05740 239.86840 237.69539 235.54138 233.40837 231.28237 229.31536 227.47935
 225.76934 224.24834 222.88533 221.66432 220.55331 219.52031 218.63130 217.77929
 217.02828 216.21528 215.32027 214.69126 214.14825 214.85326 216.70488 218.89265
 221.31624 223.57610 224.90091 225.33662 225.75374 226.41866 226.37018 225.24533
 225.57837 227.94246 232.07236 236.75426 241.45596 246.01292 250.28754 254.13422
 257.48624 260.41968 263.11578 265.60187 267.86115 269.90549 271.86276 274.40778
 277.26663 279.71713 281.83762 283.69955 285.31091 286.73654 288.03720 289.21555
 290.27530 291.21902 292.04346 293.09409
 366.78100 356.34277 345.78254 334.65631 323.06708 311.26885 299.14662 286.95739
 274.67716 262.58193 250.59870 239.90747 230.03724 221.14901 213.33878 206.34855
 200.19032 195.13609 191.72586 189.77563 188.82040 188.89217 189.73494 191.05071
 192.78348 194.88625 197.15702 199.52379 201.97656 204.46432 206.56009 208.40986
 210.04363 211.19640 211.43317 211.66894 211.61371 211.32648 210.96725 210.60502
 210.22979 209.94756 209.76333 209.63510 209.57087 209.90964 210.30341 210.70018
 211.50095 212.68672 213.94449 215.73526 217.67103 219.72180 221.82457 223.91534
 225.98311 228.07488 230.17965 232.29342 234.43019 236.60996 238.87373 241.25150
 243.88027 246.13904 248.14881 249.92158 251.34635 252.47712 253.30689 253.63066
 253.67543 253.45720 252.82497 251.78074 250.39451 248.56328 246.48005 244.32082
 242.11959 239.93136 237.75913 235.60590 233.47367 231.34844 229.38221 227.54697
 225.83774 224.31751 222.95528 221.73505 220.62482 219.59259 218.70436 217.85313
 217.10290 216.29067 215.39644 214.76821 214.22598 214.88826 216.63199 218.94994
 221.29466 223.34485 224.68456 225.28508 225.93259 226.73010 226.37697 224.97757
 225.07109 227.54886 231.91956 236.66461 241.39856 245.98955 250.30699 254.19585
 257.57452 260.55853 263.33939 265.93329 268.22232 270.26715 272.23782 274.08200
 276.15717 278.16434 280.08090 281.76379 283.22021 284.50876 285.68436 286.74936
 287.70724 288.56021 289.30536 290.25497
 366.78100 356.34148 345.77996 334.65244 323.06191 311.26239 299.13887 286.94835
 274.66683 262.57031 250.58579 239.89326 230.02174 221.13222 213.32070 206.32918
 200.16966 195.11414 191.70262 189.75109 188.79457 188.86505 189.70653 191.02101
 192.75249 194.85397 197.12344 199.48892 201.94040 204.42688 206.52136 208.36984
 210.00232 211.15379 211.38927 211.62375 211.56723 211.27871 210.91819 210.55467
 210.17815 209.89462 209.70910 209.57958 209.51406 209.85154 210.24402 210.63950
 211.43897 212.62345 213.87993 215.66941 217.60389 219.65337 221.75485 223.84432
 225.91080 228.00128 230.10476 232.21724 234.35272 236.53120 238.79367 241.17015
 243.79763 246.05511 248.06359 249.83507 251.25855 252.38803 253.21650 253.53898
 253.58246 253.36294 252.72942 251.68390 250.29638 248.46385 246.37933 244.21881
 242.01629 239.82677 237.65325 235.49873 233.36520 231.23868 229.27116 227.43464
 225.72412 224.20260 222.83908 221.61756 220.50603 219.47251 218.58299 217.73047
 216.97895 216.16543 215.26991 214.64038 214.09686 214.81937 216.57947 218.94789
 221.16180 222.87479 224.53911 225.19536 225.69682 226.49686 226.90541 225.02660
 225.43671 227.56862 231.74754 236.50427 241.21602 245.77235 250.04503 253.90877
 257.33292 260.42413 263.29294 265.94571 268.32971 270.46704 272.47440 274.34775
 275.99442 277.40790 278.68958 279.91608 281.04330 282.10333 283.13879 284.09189
 284.94913 285.71246 286.37933 287.22916
 366.78100 356.34022 345.77743 334.64865 323.05687 311.25608 299.13130 286.93952
 274.65673 262.55895 250.57317 239.87938 230.00660 221.11582 213.30303 206.31025
 200.14947 195.09268 191.67990 189.72712 188.76933 188.83855 189.67877 190.99198
 192.72220 194.82242 197.09063 199.45485 201.90507 204.39029 206.48350 208.33072
 209.96194 211.11215 211.34637 211.57959 211.52180 211.23202 210.87024 210.50545
 210.12767 209.84289 209.65610 209.52532 209.45854 209.79475 210.18597 210.58019
 211.37840 212.56162 213.81684 215.60505 217.53827 219.58649 221.68670 223.77492
 225.84014 227.92935 230.03157 232.14279 234.27700 236.45422 238.71544 241.09065
 243.71687 245.97309 247.98030 249.75052 251.17274 252.30095 253.12817 253.44939
 253.49160 253.27082 252.63604 251.58925 250.20047 248.36669 246.28090 244.11912
 241.91534 239.72455 237.54977 235.39399 233.25920 231.13142 229.16264 227.32486
 225.61307 224.09029 222.72551 221.50272 220.38994 219.35516 218.46437 217.61059
 216.85781 216.04302 215.14624 214.51546 213.97067 214.76175 216.63074 218.92371
 221.26295 223.07433 224.63782 225.30321 225.65628 226.22697 226.56342 225.26265
 225.50093 227.70966 231.74913 236.47704 241.20741 245.78711 250.09094 253.97371
 257.36566 260.38937 263.23413 265.89468 268.29153 270.39233 272.34076 274.21417
 275.92471 277.41702 278.71927 279.81885 280.67484 281.46655 282.29633 283.14600
 283.94470 284.71317 285.38754 286.24698
 366.78100 356.34022 345.77745 334.64867 323.05690 311.25612 299.13135 286.93957
 274.65679 262.55902 250.57324 239.87947 230.00669 221.11592 213.30314 206.31037
 200.14959 195.09281 191.68004 189.72726 188.76949 188.83871 189.67894 190.99216
 192.72238 194.82261 197.09083 199.45506 201.90528 204.39051 206.48373 208.33096
 209.96218 211.11240 211.34663 211.57985 211.52208 211.23230 210.87053 210.50575
 210.12797 209.84320 209.65642 209.52565 209.45887 209.79510 210.18632 210.58054
 211.37877 212.56199 213.81722 215.60544 217.53867 219.58689 221.68712 223.77534
 225.84056 227.92979 230.03201 232.14324 234.27746 236.45469 238.71591 241.09113
 243.71736 245.97358 247.98081 249.75103 251.17326 252.30148 253.12870 253.44993
 253.49215 253.27138 252.63660 251.58983 250.20105 248.36728 246.28150 244.11972
 241.91595 239.72517 237.55040 235.39462 233.25985 231.13207 229.16329 227.32552
 225.61374 224.09097 222.72619 221.50342 220.39064 219.35587 218.46509 217.61131
 216.85854 216.04376 215.14699 214.51621 213.97144 214.77089 216.65970 218.95952
 221.15005 223.02850 224.74632 225.34605 225.61711 226.06764 226.31935 225.32787
 225.66287 227.87915 231.82341 236.49857 241.22603 245.81279 250.12444 254.01669
 257.39276 260.39188 263.22610 265.88571 268.28268 270.36829 272.30780 274.18030
 275.88577 277.37430 278.70334 279.89514 280.83362 281.53198 282.18713 283.01617
 283.81433 284.58124 285.26593 286.13846
 366.78100 356.34112 345.77924 334.65136 323.06048 311.26060 299.13672 286.94584
 274.66396 262.56707 250.58219 239.88931 230.01743 221.12755 213.31567 206.32379
 200.16391 195.10803 191.69615 189.74427 188.78739 188.85751 189.69863 191.01275
 192.74387 194.84499 197.11411 199.47922 201.93034 204.41646 206.51058 208.35870
 209.99082 211.14194 211.37706 211.61118 211.55430 211.26542 210.90454 210.54066
 210.16378 209.87990 209.69402 209.56414 209.49826 209.83537 210.22749 210.62261
 211.42173 212.60585 213.86197 215.65109 217.58521 219.63433 221.73545 223.82457
 225.89069 227.98081 230.08393 232.19605 234.33117 236.50929 238.77141 241.14752
 243.77464 246.03176 248.03988 249.81100 251.23412 252.36324 253.19136 253.51348
 253.55660 253.33672 252.70284 251.65696 250.26908 248.43620 246.35132 244.19044
 241.98755 239.79767 237.62379 235.46891 233.33503 231.20815 229.24027 227.40339
 225.69251 224.17063 222.80675 221.58487 220.47299 219.43911 218.54923 217.69635
 216.94447 216.13059 215.23470 214.60482 214.06094 214.82472 216.62926 219.02405
 221.09219 222.91594 224.73022 225.34027 225.60773 225.98959 226.19548 225.30655
 225.75743 228.03348 231.87749 236.49301 241.21120 245.79669 250.10590 253.98381
 257.34415 260.35159 263.20255 265.87665 268.28146 270.38208 272.35336 274.24622
 275.96167 277.45273 278.73737 279.85349 280.87479 281.66272 282.30280 283.12509
 283.93604 284.72784 285.42038 286.30292
 366.78100 356.34191 345.78081 334.65372 323.06363 311.26454 299.14144 286.95135
 274.67026 262.57417 250.59007 239.89798 230.02689 221.13780 213.32670 206.33561
 200.17652 195.12143 191.71033 189.75924 188.80315 188.87406 189.71596 191.03087
 192.76278 194.86468 197.13459 199.50050 201.95241 204.43931 206.53422 208.38313
 210.01604 211.16794 211.40385 211.63876 211.58267 211.29457 210.93448 210.57139
 210.19530 209.91220 209.72711 209.59802 209.53293 209.87083 210.26374 210.65965
 211.45956 212.64446 213.90137 215.69128 217.62618 219.67609 221.77800 223.86791
 225.93481 228.02572 230.12963 232.24254 234.37844 236.55735 238.82026 241.19717
 243.82507 246.08298 248.09189 249.86380 251.28770 252.41761 253.24652 253.56943
 253.61333 253.39424 252.76115 251.71605 250.32896 248.49687 246.41278 244.25268
 242.05059 239.86150 237.68841 235.53431 233.40122 231.27513 229.30804 227.47194
 225.76185 224.24076 222.87767 221.65657 220.54548 219.51239 218.62330 217.77120
 217.02011 216.20702 215.31193 214.68283 214.13974 214.87346 216.60695 219.06229
 221.06583 222.88603 224.70129 225.29820 225.51649 225.83870 226.09224 225.56978
 225.95805 228.02907 231.87965 236.48215 241.19388 245.77859 250.08459 253.95630
 257.31436 260.32907 263.19415 265.88153 268.29382 270.39755 272.37640 274.27536
 275.99570 277.49527 278.78299 279.86298 280.95673 281.88446 282.47998 283.28345
 284.09631 284.89087 285.58496 286.46951
 366.78100 356.34167 345.78034 334.65301 323.06268 311.26335 299.14002 286.94969
 274.66836 262.57203 250.58770 239.89536 230.02403 221.13470 213.32337 206.33204
 200.17271 195.11738 191.70605 189.75472 188.79839 188.86906 189.71073 191.02540
 192.75707 194.85874 197.12841 199.49408 201.94575 204.43242 206.52709 208.37575
 210.00842 211.16009 211.39576 211.63043 211.57410 211.28577 210.92544 210.56211
 210.18578 209.90245 209.71712 209.58779 209.52246 209.86013 210.25280 210.64847
 211.44814 212.63281 213.88948 215.67915 217.61381 219.66348 221.76515 223.85482
 225.92149 228.01216 230.11583 232.22850 234.36417 236.54284 238.80551 241.18218
 243.80985 246.06752 248.07619 249.84786 251.27153 252.40120 253.22987 253.55254
 253.59621 253.37687 252.74354 251.69821 250.31088 248.47855 246.39422 244.23389
 242.03156 239.84223 237.66890 235.51457 233.38124 231.25491 229.28758 227.45125
 225.74092 224.21959 222.85626 221.63493 220.52360 219.49026 218.60093 217.74860
 216.99727 216.18394 215.28861 214.65928 214.11595 214.87000 216.65147 219.05136
 221.05930 222.95538 224.70245 225.25696 225.36913 225.60107 225.97180 225.83444
 226.17143 228.07323 231.89594 236.49257 241.19394 245.77425 250.07275 253.94753
 257.31442 260.33237 263.20337 265.89929 268.32022 270.41882 272.38251 274.26169
 275.96344 277.45261 278.73361 279.89578 281.03885 282.09979 282.86658 283.56009
 284.34378 285.08188 285.76843 286.64340
 366.78100 356.34082 345.77865 334.65047 323.05930 311.25912 299.13494 286.94377
 274.66159 262.56441 250.57924 239.88606 230.01389 221.12371 213.31153 206.31936
 200.15918 195.10301 191.69083 189.73865 188.78148 188.85130 189.69213 191.00595
 192.73677 194.83760 197.10642 199.47124 201.92207 204.40789 206.50172 208.34954
 209.98136 211.13219 211.36701 211.60084 211.54366 211.25448 210.89331 210.52913
 210.15195 209.86778 209.68160 209.55143 209.48525 209.82207 210.21390 210.60872
 211.40755 212.59137 213.84719 215.63602 217.56984 219.61867 221.71949 223.80831
 225.87414 227.96396 230.06678 232.17861 234.31343 236.49126 238.75308 241.12890
 243.75573 246.01255 248.02038 249.79120 251.21402 252.34285 253.17067 253.49250
 253.53532 253.31514 252.68097 251.63479 250.24661 248.41344 246.32826 244.16709
 241.96391 239.77373 237.59956 235.44438 233.31021 231.18303 229.21485 227.37768
 225.66650 224.14432 222.78015 221.55797 220.44580 219.41162 218.52144 217.66827
 216.91609 216.10192 215.20574 214.57556 214.03139 214.83601 216.73708 218.99747
 221.06638 223.03319 224.70496 225.23427 225.23508 225.35722 225.82010 226.00349
 226.36777 228.15372 231.91576 236.51555 241.20702 245.78313 250.07443 253.94315
 257.31650 260.34744 263.21808 265.91364 268.33734 270.44897 272.41006 274.27188
 275.96613 277.46326 278.77753 279.92419 280.94022 281.97812 282.96683 283.79266
 284.37415 285.01129 285.64139 286.46655
 366.78100 356.34046 345.77793 334.64939 323.05786 311.25732 299.13278 286.94125
 274.65871 262.56117 250.57564 239.88210 230.00957 221.11903 213.30649 206.31396
 200.15342 195.09688 191.68435 189.73181 188.77428 188.84374 189.68420 190.99767
 192.72813 194.82859 197.09706 199.46152 201.91199 204.39745 206.49091 208.33838
 209.96984 211.12030 211.35477 211.58823 211.53070 211.24116 210.87962 210.51509
 210.13755 209.85301 209.66648 209.53594 209.46941 209.80587 210.19733 210.59180
 211.39026 212.57372 213.82919 215.61765 217.55112 219.59958 221.70004 223.78851
 225.85397 227.94343 230.04590 232.15736 234.29183 236.46929 238.73075 241.10622
 243.73268 245.98914 247.99661 249.76707 251.18954 252.31800 253.14546 253.46693
 253.50939 253.28885 252.65432 251.60778 250.21925 248.38571 246.30017 244.13864
 241.93510 239.74457 237.57003 235.41449 233.27996 231.15242 229.18388 227.34635
 225.63481 224.11228 222.74774 221.52520 220.41267 219.37813 218.48759 217.63406
 216.88152 216.06699 215.17045 214.53991 213.99538 214.82733 216.79292 218.97058
 221.05516 223.04059 224.69034 225.21225 225.12466 225.15869 225.66524 226.10107
 226.54753 228.24477 231.94646 236.54012 241.22710 245.80353 250.09425 253.96310
 257.33704 260.37146 263.23770 265.92780 268.34344 270.46194 272.42169 274.26590
 275.95724 277.46878 278.81693 280.02844 281.01019 282.04599 283.02390 283.92566
 284.71045 285.39398 285.99866 286.77957
 366.78100 356.34079 345.77858 334.65038 323.05917 311.25896 299.13475 286.94354
 274.66134 262.56413 250.57892 239.88571 230.01351 221.12330 213.31109 206.31888
 200.15867 195.10247 191.69026 189.73805 188.78084 188.85063 189.69143 191.00522
 192.73601 194.83680 197.10560 199.47039 201.92118 204.40697 206.50076 208.34856
 209.98035 211.13114 211.36593 211.59972 211.54252 211.25331 210.89210 210.52789
 210.15069 209.86648 209.68027 209.55006 209.48385 209.82065 210.21244 210.60723
 211.40602 212.58981 213.84561 215.63440 217.56819 219.61698 221.71778 223.80657
 225.87236 227.96215 230.06494 232.17674 234.31153 236.48932 238.75111 241.12690
 243.75370 246.01049 248.01828 249.78907 251.21187 252.34066 253.16845 253.49024
 253.53303 253.31283 252.67862 251.63241 250.24420 248.41099 246.32579 244.16458
 241.96137 239.77116 237.59696 235.44175 233.30754 231.18033 229.21212 227.37492
 225.66371 224.14150 222.77729 221.55508 220.44288 219.40867 218.51846 217.66525
 216.91304 216.09884 215.20263 214.57242 214.02821 214.85385 216.80452 218.97792
 221.03033 223.02589 224.66272 225.14647 225.00177 225.00418 225.52711 226.14034
 226.69524 228.35509 231.99098 236.56592 241.25337 245.83333 250.12582 253.99806
 257.37451 260.40848 263.27075 265.95496 268.35992 270.47861 272.42416 274.24008
 275.91568 277.42969 278.80078 280.03403 281.20102 282.25427 283.23383 284.12836
 284.92795 285.62976 286.23795 287.01617
 366.78100 356.34119 345.77937 334.65156 323.06075 311.26093 299.13712 286.94631
 274.66449 262.56768 250.58287 239.89005 230.01824 221.12843 213.31661 206.32480
 200.16499 195.10917 191.69736 189.74555 188.78873 188.85892 189.70011 191.01429
 192.74548 194.84667 197.11585 199.48104 201.93223 204.41842 206.51260 208.36079
 209.99298 211.14416 211.37935 211.61354 211.55672 211.26791 210.90710 210.54328
 210.16647 209.88266 209.69684 209.56703 209.50122 209.83840 210.23059 210.62578
 211.42496 212.60915 213.86534 215.65452 217.58871 219.63790 221.73908 223.82827
 225.89446 227.98464 230.08783 232.20002 234.33520 236.51339 238.77558 241.15176
 243.77895 246.03614 248.04432 249.81551 251.23870 252.36788 253.19607 253.51826
 253.56144 253.34163 252.70782 251.66200 250.27419 248.44138 246.35656 244.19575
 241.99294 239.80312 237.62931 235.47450 233.34069 231.21387 229.24606 227.40925
 225.69843 224.17662 222.81281 221.59099 220.47918 219.44537 218.55555 217.70274
 216.95093 216.13711 215.24130 214.61149 214.06767 214.88432 216.81378 218.97835
 221.01096 223.02451 224.61824 225.03969 224.87160 224.88081 225.40262 226.13657
 226.79729 228.46072 232.04213 236.59891 241.29247 245.87706 250.17000 254.04156
 257.42114 260.45486 263.31036 265.98126 268.37668 270.50116 272.44308 274.24792
 275.92654 277.45691 278.85107 280.11716 281.23999 282.26056 283.21277 284.08246
 284.87646 285.60297 286.23322 287.02145
 366.78100 356.34139 345.77979 334.65218 323.06158 311.26197 299.13836 286.94776
 274.66615 262.56955 250.58494 239.89234 230.02073 221.13112 213.31952 206.32791
 200.16831 195.11270 191.70109 189.74949 188.79288 188.86328 189.70467 191.01906
 192.75046 194.85185 197.12125 199.48664 201.93803 204.42443 206.51882 208.36722
 209.99961 211.15101 211.38640 211.62079 211.56419 211.27558 210.91498 210.55137
 210.17476 209.89116 209.70555 209.57595 209.51034 209.84773 210.24013 210.63552
 211.43492 212.61931 213.87570 215.66510 217.59949 219.64889 221.75028 223.83968
 225.90607 227.99646 230.09986 232.21225 234.34765 236.52604 238.78843 241.16483
 243.79222 246.04962 248.05801 249.82940 251.25280 252.38219 253.21059 253.53298
 253.57637 253.35677 252.72316 251.67756 250.28995 248.45735 246.37274 244.21213
 242.00953 239.81992 237.64632 235.49171 233.35810 231.23150 229.26389 227.42729
 225.71668 224.19507 222.83147 221.60986 220.49826 219.46465 218.57504 217.72244
 216.97083 216.15723 215.26162 214.63202 214.08841 214.90555 216.83609 218.96288
 221.00221 223.01694 224.56474 224.93346 224.74762 224.75801 225.28014 226.09909
 226.85115 228.55190 232.10251 236.64783 241.35135 245.93893 250.22765 254.09650
 257.47885 260.51157 263.35767 266.00589 268.38214 270.50790 272.44675 274.24835
 275.93628 277.48752 278.90408 280.18958 281.31271 282.30411 283.25119 284.11636
 284.90305 285.61102 286.23483 287.04300
 366.78100 356.34151 345.78001 334.65252 323.06202 311.26253 299.13904 286.94854
 274.66705 262.57056 250.58606 239.89357 230.02207 221.13258 213.32109 206.32959
 200.17010 195.11461 191.70311 189.75162 188.79512 188.86563 189.70714 191.02164
 192.75315 194.85466 197.12416 199.48967 201.94117 204.42768 206.52219 208.37069
 210.00320 211.15471 211.39021 211.62472 211.56822 211.27973 210.91924 210.55574
 210.17925 209.89576 209.71026 209.58077 209.51527 209.85278 210.24529 210.64079
 211.44030 212.62481 213.88131 215.67082 217.60532 219.65483 221.75634 223.84584
 225.91235 228.00286 230.10636 232.21887 234.35437 236.53288 238.79539 241.17189
 243.79940 246.05691 248.06541 249.83692 251.26042 252.38993 253.21844 253.54094
 253.58445 253.36496 252.73146 251.68597 250.29847 248.46598 246.38149 244.22099
 242.01850 239.82901 237.65551 235.50102 233.36752 231.24103 229.27354 227.43704
 225.72655 224.20506 222.84156 221.62007 220.50857 219.47508 218.58559 217.73309
 216.98160 216.16811 215.27261 214.64312 214.09962 214.92174 216.86404 218.95134
 220.98320 222.99657 224.52306 224.84824 224.62033 224.60475 225.15450 226.03679
 226.86815 228.64143 232.18137 236.71620 241.42621 246.01332 250.29535 254.15974
 257.54358 260.57483 263.40710 266.03174 268.38962 270.51224 272.44717 274.24500
 275.93930 277.50424 278.93143 280.21820 281.34775 282.37653 283.33063 284.19885
 284.98474 285.69708 286.32028 287.12424
 366.78100 356.34161 345.78022 334.65283 323.06244 311.26305 299.13966 286.94928
 274.66789 262.57150 250.58711 239.89472 230.02333 221.13394 213.32255 206.33116
 200.17177 195.11638 191.70499 189.75360 188.79722 188.86783 189.70944 191.02405
 192.75566 194.85727 197.12688 199.49249 201.94410 204.43071 206.52532 208.37393
 210.00654 211.15816 211.39377 211.62838 211.57199 211.28360 210.92321 210.55982
 210.18343 209.90004 209.71465 209.58526 209.51987 209.85748 210.25010 210.64571
 211.44532 212.62993 213.88654 215.67615 217.61076 219.66037 221.76198 223.85159
 225.91820 228.00881 230.11242 232.22504 234.36065 236.53926 238.80187 241.17848
 243.80609 246.06370 248.07231 249.84392 251.26753 252.39714 253.22575 253.54836
 253.59198 253.37259 252.73920 251.69381 250.30642 248.47403 246.38964 244.22925
 242.02686 239.83747 237.66408 235.50969 233.37630 231.24992 229.28253 227.44614
 225.73575 224.21436 222.85097 221.62958 220.51819 219.48480 218.59541 217.74302
 216.99163 216.17824 215.28286 214.65347 214.11008 214.93730 216.89166 218.95270
 220.94502 222.96977 224.49040 224.76993 224.48216 224.42938 225.02901 225.96313
 226.86905 228.73550 232.27609 236.79813 241.50943 246.09457 250.36861 254.22675
 257.60858 260.63632 263.45502 266.05588 268.40015 270.52158 272.45432 274.24994
 275.94888 277.51822 278.94165 280.21432 281.37326 282.41980 283.37695 284.24750
 285.03717 285.75131 286.37860 287.18082
 366.78100 356.34184 345.78067 334.65351 323.06334 311.26418 299.14102 286.95085
 274.66969 262.57352 250.58936 239.89720 230.02603 221.13687 213.32570 206.33454
 200.17538 195.12021 191.70905 189.75788 188.80172 188.87256 189.71439 191.02923
 192.76106 194.86290 197.13274 199.49857 201.95041 204.43724 206.53208 208.38092
 210.01375 211.16559 211.40142 211.63626 211.58010 211.29193 210.93177 210.56860
 210.19244 209.90928 209.72411 209.59495 209.52978 209.86762 210.26046 210.65629
 211.45613 212.64096 213.89780 215.68764 217.62247 219.67231 221.77414 223.86398
 225.93082 228.02165 230.12549 232.23832 234.37416 236.55300 238.81583 241.19267
 243.82050 246.07834 248.08718 249.85901 251.28285 252.41268 253.24152 253.56436
 253.60819 253.38903 252.75586 251.71070 250.32354 248.49137 246.40721 244.24704
 242.04488 239.85572 237.68255 235.52839 233.39522 231.26906 229.30190 227.46573
 225.75557 224.23440 222.87124 221.65007 220.53891 219.50575 218.61658 217.76442
 217.01325 216.20009 215.30493 214.67576 214.13260 214.95857 216.91002 218.96388
 220.90871 222.93137 224.44502 224.69569 224.35133 224.24783 224.90408 225.89400
 226.86081 228.82098 232.37877 236.88936 241.59904 246.18182 250.44745 254.29594
 257.67267 260.69537 263.50262 266.08191 268.41562 270.53476 272.46649 274.26276
 275.96515 277.53122 278.93460 280.20297 281.37064 282.41867 283.37628 284.24799
 285.04062 285.75629 286.38394 287.18784
 366.78100 356.34212 345.78123 334.65435 323.06446 311.26558 299.14270 286.95281
 274.67193 262.57605 250.59216 239.90028 230.02939 221.14051 213.32963 206.33874
 200.17986 195.12497 191.71409 189.76321 188.80732 188.87844 189.72056 191.03567
 192.76779 194.86990 197.14002 199.50614 201.95825 204.44537 206.54048 208.38960
 210.02272 211.17483 211.41095 211.64606 211.59018 211.30230 210.94241 210.57953
 210.20365 209.92076 209.73588 209.60699 209.54211 209.88023 210.27334 210.66946
 211.46957 212.65469 213.91181 215.70192 217.63704 219.68716 221.78927 223.87939
 225.94650 228.03762 230.14174 232.25485 234.39097 236.57008 238.83320 241.21032
 243.83843 246.09655 248.10567 249.87778 251.30190 252.43201 253.26113 253.58425
 253.62836 253.40948 252.77659 251.73171 250.34483 248.51294 246.42906 244.26918
 242.06729 239.87841 237.70552 235.55164 233.41876 231.29287 229.32599 227.49010
 225.78022 224.25934 222.89645 221.67557 220.56468 219.53180 218.64292 217.79103
 217.04015 216.22727 215.33238 214.70350 214.16061 214.98210 216.92296 218.96922
 220.88965 222.89090 224.37202 224.61150 224.24284 224.08884 224.76389 225.82268
 226.85347 228.89262 232.48178 236.99028 241.69736 246.27473 250.53006 254.36627
 257.73538 260.75143 263.55106 266.11337 268.43607 270.55087 272.48105 274.28043
 275.98434 277.53796 278.91724 280.16898 281.33459 282.38342 283.34085 284.21442
 285.00717 285.72195 286.35291 287.15723
 366.78100 356.34237 345.78174 334.65510 323.06547 311.26684 299.14421 286.95458
 274.67394 262.57831 250.59468 239.90305 230.03242 221.14378 213.33315 206.34252
 200.18389 195.12926 191.71863 189.76799 188.81236 188.88373 189.72610 191.04147
 192.77383 194.87620 197.14657 199.51294 201.96531 204.45267 206.54804 208.39741
 210.03078 211.18315 211.41951 211.65488 211.59925 211.31162 210.95199 210.58935
 210.21372 209.93109 209.74646 209.61783 209.55319 209.89156 210.28493 210.68130
 211.48167 212.66704 213.92440 215.71477 217.65014 219.70051 221.80288 223.89324
 225.96061 228.05198 230.15635 232.26972 234.40608 236.58545 238.84882 241.22619
 243.85456 246.11292 248.12229 249.89466 251.31903 252.44940 253.27876 253.60213
 253.64650 253.42787 252.79524 251.75060 250.36397 248.53234 246.44871 244.28908
 242.08745 239.89881 237.72618 235.57255 233.43992 231.31429 229.34765 227.51202
 225.80239 224.28176 222.91913 221.69849 220.58786 219.55523 218.66660 217.81497
 217.06433 216.25170 215.35707 214.72844 214.18581 215.00427 216.93797 218.96756
 220.87538 222.85677 224.29741 224.51399 224.12071 223.93074 224.63771 225.75522
 226.82193 228.94479 232.59337 237.10619 241.80730 246.37437 250.61568 254.43690
 257.79474 260.80505 263.59991 266.14874 268.45929 270.56720 272.49817 274.30258
 276.00296 277.53629 278.88583 280.11761 281.27811 282.32617 283.28296 284.15598
 284.94980 285.66711 286.29919 287.09930
 366.78100 356.34279 345.78257 334.65636 323.06714 311.26893 299.14671 286.95750
 274.67728 262.58207 250.59886 239.90764 230.03743 221.14921 213.33900 206.34878
 200.19057 195.13635 191.72614 189.77593 188.82071 188.89250 189.73528 191.05107
 192.78385 194.88664 197.15742 199.52421 201.97700 204.46478 206.56057 208.41035
 210.04414 211.19692 211.43371 211.66949 211.61428 211.32707 210.96785 210.60564
 210.23042 209.94821 209.76399 209.63578 209.57156 209.91035 210.30413 210.70092
 211.50171 212.68749 213.94528 215.73606 217.67185 219.72263 221.82542 223.91620
 225.98399 228.07578 230.18056 232.29435 234.43113 236.61092 238.87470 241.25249
 243.88127 246.14006 248.14985 249.92263 251.34742 252.47820 253.30799 253.63177
 253.67656 253.45834 252.82613 251.78192 250.39570 248.56449 246.48127 244.32206
 242.12084 239.93263 237.76041 235.60720 233.47499 231.34977 229.38356 227.54834
 225.83913 224.31891 222.95670 221.73648 220.62627 219.59406 218.70584 217.85463
 217.10441 216.29220 215.39798 214.76977 214.22755 215.03563 216.94478 218.97511
 220.85913 222.80458 224.23012 224.44254 224.01250 223.74266 224.44659 225.71974
 226.85896 228.99843 232.70416 237.23517 241.92686 246.47807 250.70203 254.50671
 257.85052 260.85510 263.64828 266.18753 268.48456 270.58508 272.51755 274.32736
 276.02112 277.53122 278.85376 280.05728 281.20642 282.25146 283.20911 284.08182
 284.87601 285.59375 286.22470 287.03546
 366.78100 356.34341 345.78382 334.65823 323.06964 311.27205 299.15046 286.96187
 274.68229 262.58770 250.60511 239.91452 230.04493 221.15734 213.34775 206.35816
 200.20057 195.14698 191.73739 189.78780 188.83321 188.90562 189.74904 191.06545
 192.79886 194.90227 197.17368 199.54109 201.99450 204.48291 206.57932 208.42973
 210.06414 211.21755 211.45496 211.69137 211.63679 211.35020 210.99161 210.63002
 210.25543 209.97384 209.79025 209.66266 209.59907 209.93848 210.33289 210.73030
 211.53171 212.71812 213.97653 215.76795 217.70436 219.75577 221.85918 223.95059
 226.01900 228.11141 230.21682 232.33123 234.46864 236.64905 238.91346 241.29187
 243.92128 246.18070 248.19111 249.96452 251.38993 252.52134 253.35175 253.67616
 253.72157 253.50398 252.87239 251.82880 250.44321 248.61262 246.53003 244.37144
 242.17086 239.98327 237.81168 235.65909 233.52750 231.40291 229.43732 227.60273
 225.89414 224.37455 223.01296 221.79337 220.68378 219.65219 218.76461 217.91402
 217.16443 216.35284 215.45925 214.83166 214.29007 215.07820 216.94026 218.98924
 220.85263 222.73315 224.13693 224.38190 223.95465 223.61092 224.24950 225.53027
 226.80492 229.10649 232.84665 237.37439 242.05284 246.58482 250.78906 254.57457
 257.90417 260.90479 263.69791 266.23050 268.51627 270.60617 272.53931 274.35172
 276.03522 277.52341 278.82059 279.99249 281.12680 282.17065 283.12726 283.99902
 284.79312 285.51099 286.14444 286.95178
 366.78100 356.34399 345.78498 334.65998 323.07197 311.27496 299.15395 286.96594
 274.68694 262.59293 250.61092 239.92091 230.05190 221.16490 213.35589 206.36688
 200.20987 195.15686 191.74786 189.79885 188.84484 188.91783 189.76183 191.07882
 192.81281 194.91680 197.18879 199.55679 202.01078 204.49977 206.59676 208.44775
 210.08275 211.23674 211.47473 211.71172 211.65771 211.37171 211.01370 210.65269
 210.27868 209.99767 209.81467 209.68766 209.62465 209.96464 210.35963 210.75763
 211.55962 212.74661 214.00560 215.79759 217.73459 219.78658 221.89057 223.98256
 226.05156 228.14455 230.25054 232.36553 234.50352 236.68452 238.94951 241.32850
 243.95849 246.21848 248.22948 250.00347 251.42946 252.56145 253.39244 253.71744
 253.76343 253.54642 252.91541 251.87240 250.48740 248.65739 246.57538 244.41737
 242.21736 240.03036 237.85935 235.70734 233.57633 231.45232 229.48732 227.65331
 225.94530 224.42629 223.06529 221.84628 220.73727 219.70626 218.81925 217.96925
 217.22024 216.40923 215.51622 214.88921 214.34821 215.11920 216.94073 218.98955
 220.85378 222.67342 224.02180 224.28975 223.89421 223.52283 224.10315 225.32805
 226.70076 229.18648 232.98830 237.51857 242.18292 246.69191 250.87433 254.64000
 257.95526 260.95392 263.75064 266.27805 268.55164 270.62924 272.56146 274.37439
 276.04727 277.51242 278.78333 279.92883 281.04581 282.08670 283.04224 283.91403
 284.70712 285.42450 286.05594 286.87128
 366.78100 356.34443 345.78586 334.66129 323.07372 311.27715 299.15658 286.96901
 274.69044 262.59687 250.61530 239.92573 230.05716 221.17059 213.36202 206.37345
 200.21688 195.16431 191.75575 189.80718 188.85361 188.92704 189.77147 191.08890
 192.82333 194.92776 197.20019 199.56862 202.02305 204.51248 206.60991 208.46134
 210.09677 211.25120 211.48963 211.72706 211.67349 211.38792 211.03035 210.66978
 210.29621 210.01564 209.83307 209.70650 209.64393 209.98436 210.37979 210.77822
 211.58065 212.76808 214.02751 215.81994 217.75737 219.80981 221.91424 224.00667
 226.07610 228.16953 230.27596 232.39139 234.52982 236.71125 238.97668 241.35611
 243.98654 246.24697 248.25840 250.03283 251.45926 252.59169 253.42312 253.74855
 253.79498 253.57841 252.94784 251.90527 250.52070 248.69113 246.60956 244.45199
 242.25242 240.06585 237.89528 235.74371 233.61314 231.48957 229.52500 227.69144
 225.98387 224.46530 223.10473 221.88616 220.77759 219.74702 218.86045 218.01088
 217.26231 216.45174 215.55917 214.93260 214.39203 215.15279 216.95013 218.97560
 220.85017 222.63184 223.91228 224.17430 223.80389 223.42964 223.97591 225.15512
 226.60565 229.24904 233.12495 237.66779 242.31624 246.80092 250.96115 254.70668
 258.00601 261.00290 263.80402 266.32581 268.58676 270.65259 272.58203 274.39569
 276.05820 277.50366 278.75333 279.87350 280.96555 282.00058 282.95901 283.82947
 284.62125 285.33740 285.96790 286.78223
 366.78100 356.34487 345.78673 334.66260 323.07546 311.27933 299.15920 286.97206
 274.69393 262.60079 250.61966 239.93053 230.06239 221.17626 213.36813 206.37999
 200.22386 195.17172 191.76359 189.81546 188.86232 188.93619 189.78105 191.09892
 192.83379 194.93865 197.21152 199.58038 202.03525 204.52512 206.62298 208.47485
 210.11071 211.26558 211.50445 211.74231 211.68918 211.40404 211.04691 210.68678
 210.31364 210.03351 209.85138 209.72524 209.66311 210.00397 210.39984 210.79871
 211.60157 212.78944 214.04930 215.84217 217.78004 219.83290 221.93777 224.03063
 226.10050 228.19437 230.30123 232.41710 234.55596 236.73783 239.00370 241.38356
 244.01443 246.27530 248.28716 250.06203 251.48889 252.62176 253.45363 253.77949
 253.82636 253.61022 252.98009 251.93796 250.55382 248.72469 246.64355 244.48642
 242.28729 240.10115 237.93102 235.77988 233.64975 231.52662 229.56248 227.72935
 226.02221 224.50408 223.14395 221.92581 220.81768 219.78755 218.90141 218.05228
 217.30414 216.49401 215.60188 214.97574 214.43561 215.18570 216.95790 218.96133
 220.84303 222.59636 223.81126 224.05095 223.69499 223.32207 223.83591 224.99770
 226.53560 229.31474 233.26248 237.82301 242.45357 246.91228 251.05206 254.77861
 258.06067 261.05521 263.85883 266.37506 268.62271 270.67606 272.60410 274.41852
 276.07352 277.50229 278.73077 279.82919 280.89261 281.92383 282.88040 283.75024
 284.54089 285.25555 285.88577 286.70184
 366.78100 356.34535 345.78770 334.66404 323.07739 311.28174 299.16209 286.97544
 274.69779 262.60513 250.62448 239.93583 230.06818 221.18253 213.37488 206.38722
 200.23157 195.17992 191.77227 189.82462 188.87197 188.94631 189.79166 191.11001
 192.84536 194.95071 197.22405 199.59340 202.04875 204.53910 206.63745 208.48980
 210.12614 211.28149 211.52084 211.75919 211.70654 211.42189 211.06523 210.70558
 210.33293 210.05328 209.87163 209.74598 209.68432 210.02567 210.42202 210.82137
 211.62472 212.81306 214.07341 215.86676 217.80511 219.85846 221.96381 224.05715
 226.12750 228.22185 230.32920 232.44555 234.58490 236.76724 239.03359 241.41394
 244.04529 246.30664 248.31898 250.09433 251.52168 252.65503 253.48738 253.81373
 253.86107 253.64542 253.01577 251.97412 250.59047 248.76182 246.68116 244.52451
 242.32586 240.14021 237.97056 235.81991 233.69025 231.56760 229.60395 227.77130
 226.06465 224.54699 223.18734 221.96969 220.86204 219.83239 218.94674 218.09808
 217.35043 216.54078 215.64913 215.02348 214.48383 215.22034 216.96042 218.95078
 220.83630 222.55939 223.71118 223.92079 223.57663 223.21004 223.68596 224.84648
 226.47623 229.38658 233.40738 237.98453 242.59436 247.02603 251.14737 254.85555
 258.11862 261.10849 263.91418 266.42422 268.65958 270.69925 272.62555 274.44202
 276.09348 277.51233 278.72125 279.79437 280.83057 281.85373 282.80856 283.67770
 284.46875 285.18353 285.81226 286.63116
 366.78100 356.34585 345.78871 334.66556 323.07941 311.28426 299.16512 286.97897
 274.70182 262.60967 250.62953 239.94138 230.07423 221.18908 213.38194 206.39479
 200.23964 195.18849 191.78135 189.83420 188.88205 188.95690 189.80276 191.12161
 192.85746 194.96331 197.23717 199.60702 202.06287 204.55372 206.65258 208.50543
 210.14228 211.29813 211.53799 211.77684 211.72469 211.44054 211.08440 210.72525
 210.35310 210.07395 209.89281 209.76766 209.70651 210.04837 210.44522 210.84507
 211.64892 212.83778 214.09863 215.89248 217.83133 219.88519 221.99104 224.08489
 226.15574 228.25060 230.35845 232.47530 234.61515 236.79801 239.06486 241.44571
 244.07756 246.33942 248.35227 250.12812 251.55597 252.68983 253.52268 253.84953
 253.89738 253.68224 253.05309 252.01194 250.62879 248.80065 246.72050 244.56435
 242.36620 240.18106 238.01191 235.86176 233.73262 231.61047 229.64732 227.81517
 226.10903 224.59188 223.23273 222.01558 220.90844 219.87929 218.99414 218.14599
 217.39885 216.58970 215.69855 215.07340 214.53426 215.25645 216.96271 218.93643
 220.82649 222.52435 223.61615 223.78783 223.44743 223.08804 223.53087 224.69846
 226.41650 229.46375 233.56360 238.15015 242.73593 247.14261 251.24646 254.93544
 258.18008 261.16223 263.96835 266.47095 268.69440 270.72202 272.64322 274.46713
 276.12067 277.53613 278.73572 279.78583 280.78464 281.79340 282.74548 283.61636
 284.40427 285.11606 285.74478 286.55850
 366.78100 356.34623 345.78947 334.66670 323.08094 311.28617 299.16740 286.98164
 274.70487 262.61310 250.63334 239.94557 230.07881 221.19404 213.38727 206.40051
 200.24574 195.19498 191.78821 189.84144 188.88968 188.96491 189.81115 191.13038
 192.86661 194.97285 197.24708 199.61731 202.07355 204.56478 206.66402 208.51725
 210.15448 211.31072 211.55095 211.79019 211.73842 211.45465 211.09889 210.74012
 210.36836 210.08959 209.90882 209.78406 209.72329 210.06552 210.46276 210.86299
 211.66723 212.85646 214.11769 215.91193 217.85116 219.90540 222.01163 224.10586
 226.17710 228.27233 230.38056 232.49780 234.63803 236.82127 239.08850 241.46973
 244.10197 246.36420 248.37744 250.15367 251.58190 252.71614 253.54937 253.87661
 253.92484 253.71007 253.08131 252.04054 250.65777 248.83001 246.75024 244.59448
 242.39671 240.21194 238.04318 235.89341 233.76465 231.64288 229.68011 227.84835
 226.14258 224.62582 223.26705 222.05028 220.94352 219.91475 219.02998 218.18222
 217.43545 216.62669 215.73592 215.11115 214.57239 215.28345 216.96341 218.92329
 220.81993 222.49577 223.52666 223.64967 223.30409 222.94850 223.36894 224.55104
 226.35829 229.54675 233.72841 238.31908 242.87999 247.26372 251.35048 255.01976
 258.24750 261.22293 264.02835 266.52158 268.72836 270.74634 272.66171 274.48132
 276.15308 277.56662 278.76477 279.80246 280.77063 281.74713 282.69379 283.56192
 284.34955 285.06024 285.68710 286.50864
 366.78100 356.34646 345.78991 334.66737 323.08183 311.28729 299.16874 286.98320
 274.70666 262.61512 250.63557 239.94803 230.08149 221.19694 213.39040 206.40386
 200.24932 195.19877 191.79223 189.84569 188.89415 188.96960 189.81606 191.13552
 192.87197 194.97843 197.25289 199.62335 202.07980 204.57126 206.67072 208.52418
 210.16163 211.31809 211.55855 211.79800 211.74646 211.46292 211.10738 210.74883
 210.37729 210.09875 209.91821 209.79366 209.73312 210.07558 210.47303 210.87349
 211.67795 212.86741 214.12886 215.92332 217.86278 219.91724 222.02369 224.11815
 226.18961 228.28506 230.39352 232.51098 234.65144 236.83489 239.10235 241.48381
 244.11626 246.37872 248.39218 250.16864 251.59709 252.73155 253.56501 253.89247
 253.94092 253.72638 253.09784 252.05729 250.67475 248.84721 246.76767 244.61212
 242.41458 240.23004 238.06150 235.91195 233.78341 231.66187 229.69932 227.86778
 226.16224 224.64570 223.28715 222.07061 220.96407 219.93553 219.05098 218.20344
 217.45690 216.64835 215.75781 215.13327 214.59473 215.29767 216.95847 218.91571
 220.81754 222.47043 223.44046 223.50325 223.14075 222.78403 223.19664 224.40991
 226.31320 229.63884 233.89934 238.49226 243.03142 247.39516 251.46477 255.11285
 258.32217 261.28912 264.08945 266.57135 268.76782 270.78717 272.66824 274.50684
 276.19186 277.60284 278.80060 279.83408 280.78879 281.73242 282.67023 283.53821
 284.32297 285.03198 285.65750 286.47775
 366.78100 356.34682 345.79065 334.66847 323.08329 311.28911 299.17094 286.98576
 274.70958 262.61840 250.63923 239.95205 230.08587 221.20169 213.39552 206.40934
 200.25516 195.20498 191.79881 189.85263 188.90145 188.97727 189.82410 191.14392
 192.88074 194.98756 197.26239 199.63321 202.09003 204.58185 206.68168 208.53550
 210.17332 211.33014 211.57097 211.81079 211.75961 211.47643 211.12126 210.76308
 210.39190 210.11373 209.93355 209.80937 209.74919 210.09202 210.48984 210.89066
 211.69548 212.88531 214.14713 215.94195 217.88177 219.93660 222.04342 224.13824
 226.21006 228.30589 230.41471 232.53253 234.67335 236.85718 239.12500 241.50682
 244.13964 246.40247 248.41629 250.19311 251.62193 252.75676 253.59058 253.91840
 253.96722 253.75305 253.12487 252.08469 250.70251 248.87534 246.79616 244.64098
 242.44380 240.25963 238.09145 235.94227 233.81410 231.69292 229.73074 227.89956
 226.19439 224.67821 223.32003 222.10385 220.99768 219.96950 219.08532 218.23814
 217.49197 216.68379 215.79361 215.16943 214.63126 215.32396 216.96056 218.89583
 220.80261 222.43997 223.36513 223.36322 222.97070 222.60136 223.01047 224.27086
 226.27911 229.73595 234.06926 238.66995 243.19305 247.54143 251.59543 255.21983
 258.40851 261.36304 264.15298 266.62671 268.81500 270.76221 272.63828 274.58014
 276.25089 277.65652 278.85144 279.88193 280.83310 281.77316 282.70361 283.56729
 284.35172 285.05902 285.68219 286.49167
 366.78100 356.34729 345.79157 334.66986 323.08514 311.29143 299.17371 286.98900
 274.71329 262.62257 250.64386 239.95714 230.09143 221.20772 213.40200 206.41629
 200.26257 195.21286 191.80714 189.86143 188.91072 188.98700 189.83429 191.15457
 192.89186 194.99915 197.27443 199.64572 202.10300 204.59529 206.69557 208.54986
 210.18815 211.34543 211.58672 211.82700 211.77629 211.49358 211.13886 210.78115
 210.41043 210.13272 209.95300 209.82929 209.76958 210.11286 210.51115 210.91243
 211.71772 212.90801 214.17029 215.96558 217.90586 219.96115 222.06843 224.16372
 226.23601 228.33229 230.44158 232.55986 234.70115 236.88543 239.15372 241.53601
 244.16929 246.43258 248.44686 250.22415 251.65344 252.78872 253.62301 253.95129
 254.00058 253.78686 253.15915 252.11944 250.73772 248.91101 246.83229 244.67758
 242.48087 240.29715 238.12944 235.98072 233.85301 231.73229 229.77058 227.93987
 226.23515 224.71944 223.36172 222.14601 221.04030 220.01258 219.12887 218.28215
 217.53644 216.72872 215.83901 215.21530 214.67758 215.35632 216.95992 218.86317
 220.78871 222.41690 223.29715 223.23491 222.79945 222.39867 222.79918 224.12860
 226.25288 229.83371 234.23520 238.85002 243.36501 247.70302 251.74142 255.33940
 258.50815 261.45093 264.22763 266.68814 268.87540 270.66757 272.64670 274.62952
 276.28653 277.69141 278.88394 279.91809 280.88248 281.84094 282.78006 283.64655
 284.43198 285.14044 285.76456 286.57361
 366.78100 356.34775 345.79250 334.67125 323.08701 311.29376 299.17651 286.99226
 274.71701 262.62676 250.64851 239.96226 230.09702 221.21377 213.40852 206.42327
 200.27002 195.22077 191.81552 189.87028 188.92003 188.99678 189.84453 191.16528
 192.90303 195.01078 197.28654 199.65829 202.11604 204.60879 206.70954 208.56429
 210.20304 211.36079 211.60255 211.84330 211.79305 211.51080 211.15655 210.79930
 210.42905 210.15181 209.97256 209.84931 209.79006 210.13381 210.53256 210.93431
 211.74007 212.93082 214.19357 215.98932 217.93007 219.98582 222.09357 224.18932
 226.26208 228.35883 230.46858 232.58733 234.72908 236.91383 239.18258 241.56534
 244.19909 246.46284 248.47759 250.25534 251.68509 252.82084 253.65560 253.98435
 254.03410 253.82085 253.19360 252.15435 250.77310 248.94685 246.86861 244.71436
 242.51811 240.33486 238.16761 236.01936 233.89211 231.77187 229.81062 227.98037
 226.27612 224.76087 223.40362 222.18837 221.08313 220.05588 219.17263 218.32638
 217.58113 216.77388 215.88463 215.26138 214.72414 215.38756 216.95497 218.83650
 220.77730 222.40044 223.22672 223.09973 222.62593 222.18533 222.55991 223.96783
 226.23058 229.93895 234.40433 239.03712 243.55055 247.88536 251.91068 255.47552
 258.61224 261.53024 264.28027 266.71799 268.85678 270.67462 272.73273 274.63217
 276.29037 277.70145 278.89499 279.94653 280.93951 281.92813 282.87552 283.74390
 284.53137 285.24323 285.87082 286.68469
 366.78100 356.34810 345.79321 334.67231 323.08842 311.29552 299.17863 286.99473
 274.71984 262.62994 250.65205 239.96615 230.10126 221.21836 213.41346 206.42857
 200.27567 195.22678 191.82188 189.87699 188.92709 189.00420 189.85230 191.17341
 192.91151 195.01962 197.29572 199.66782 202.12593 204.61903 206.72014 208.57524
 210.21435 211.37245 211.61456 211.85566 211.80577 211.52387 211.16997 210.81308
 210.44318 210.16629 209.98739 209.86450 209.80560 210.14971 210.54881 210.95092
 211.75702 212.94813 214.21123 216.00733 217.94844 220.00454 222.11265 224.20875
 226.28186 228.37896 230.48907 232.60817 234.75028 236.93538 239.20449 241.58759
 244.22169 246.48580 248.50090 250.27901 251.70911 252.84522 253.68032 254.00943
 254.05953 253.84664 253.21974 252.18085 250.79995 248.97405 246.89616 244.74226
 242.54637 240.36347 238.19658 236.04868 233.92179 231.80189 229.84100 228.01110
 226.30721 224.79231 223.43541 222.22052 221.11562 220.08873 219.20583 218.35994
 217.61504 216.80815 215.91925 215.29636 214.75946 215.41052 216.94875 218.81799
 220.76512 222.37912 223.15457 222.96877 222.45499 221.97339 222.30251 223.79257
 226.21048 230.04648 234.56784 239.21259 243.73270 248.07434 252.09653 255.63936
 258.74930 261.63260 264.33911 266.72961 268.85623 270.74368 272.79019 274.63522
 276.26898 277.67578 278.88483 279.96182 280.98624 281.99298 282.94467 283.81284
 284.60391 285.32019 285.95322 286.77390
 366.78100 356.34819 345.79339 334.67258 323.08878 311.29597 299.17917 286.99536
 274.72056 262.63075 250.65295 239.96714 230.10234 221.21953 213.41473 206.42992
 200.27712 195.22831 191.82351 189.87870 188.92890 189.00609 189.85429 191.17548
 192.91368 195.02187 197.29807 199.67026 202.12846 204.62165 206.72285 208.57804
 210.21724 211.37543 211.61763 211.85882 211.80902 211.52721 211.17341 210.81660
 210.44680 210.16999 209.99119 209.86838 209.80958 210.15377 210.55297 210.95516
 211.76136 212.95255 214.21575 216.01194 217.95314 220.00933 222.11753 224.21372
 226.28692 228.38411 230.49431 232.61350 234.75570 236.94089 239.21009 241.59328
 244.22748 246.49167 248.50687 250.28506 251.71526 252.85145 253.68665 254.01584
 254.06604 253.85323 253.22643 252.18762 250.80682 248.98101 246.90321 244.74940
 242.55359 240.37079 238.20398 236.05618 233.92937 231.80957 229.84876 228.01896
 226.31515 224.80035 223.44354 222.22874 221.12393 220.09713 219.21432 218.36852
 217.62371 216.81691 215.92810 215.30530 214.76849 215.41794 216.95230 218.79639
 220.74426 222.36830 223.08469 222.80760 222.27278 221.77118 222.06070 223.62617
 226.18683 230.15578 234.72618 239.38319 243.91521 248.25722 252.26822 255.79645
 258.90094 261.76740 264.43970 266.76578 268.76031 270.90543 272.78839 274.64450
 276.25076 277.64642 278.87433 279.94760 280.96335 281.96979 282.92166 283.79123
 284.58417 285.30411 285.94128 286.76682
 366.78100 356.34817 345.79334 334.67251 323.08868 311.29585 299.17902 286.99519
 274.72036 262.63053 250.65270 239.96687 230.10204 221.21921 213.41438 206.42955
 200.27672 195.22789 191.82306 189.87823 188.92840 189.00557 189.85374 191.17491
 192.91308 195.02125 197.29742 199.66959 202.12776 204.62093 206.72210 208.57727
 210.21644 211.37461 211.61678 211.85795 211.80812 211.52629 211.17246 210.81563
 210.44580 210.16897 209.99014 209.86731 209.80848 210.15265 210.55182 210.95399
 211.76016 212.95133 214.21450 216.01067 217.95184 220.00801 222.11618 224.21235
 226.28552 228.38269 230.49286 232.61203 234.75420 236.93937 239.20854 241.59171
 244.22588 246.49005 248.50522 250.28339 251.71356 252.84973 253.68490 254.01407
 254.06424 253.85141 253.22458 252.18575 250.80492 248.97909 246.90127 244.74744
 242.55161 240.36878 238.20195 236.05412 233.92729 231.80746 229.84663 228.01680
 226.31297 224.79814 223.44131 222.22648 221.12165 220.09482 219.21199 218.36616
 217.62133 216.81450 215.92567 215.30284 214.76601 215.41814 216.95889 218.76897
 220.70418 222.35857 223.06520 222.65880 222.02826 221.54462 221.82565 223.47215
 226.17950 230.26906 234.89693 239.56114 244.08781 248.42471 252.41624 255.92807
 259.04260 261.91620 264.57703 266.90753 268.66144 270.92670 272.83643 274.69629
 276.28464 277.64539 278.86481 279.89493 280.86789 281.86624 282.81558 283.68607
 284.48276 285.20462 285.84451 286.67947
 366.78100 356.34822 345.79344 334.67266 323.08888 311.29610 299.17933 286.99555
 274.72077 262.63099 250.65321 239.96743 230.10265 221.21987 213.41509 206.43031
 200.27753 195.22875 191.82398 189.87920 188.92942 189.00664 189.85486 191.17608
 192.91430 195.02252 197.29874 199.67096 202.12918 204.62241 206.72363 208.57885
 210.21807 211.37629 211.61851 211.85973 211.80995 211.52817 211.17439 210.81761
 210.44784 210.17106 209.99228 209.86950 209.81072 210.15494 210.55416 210.95638
 211.76260 212.95382 214.21704 216.01326 217.95449 220.01071 222.11893 224.21515
 226.28837 228.38559 230.49581 232.61503 234.75725 236.94247 239.21169 241.59492
 244.22914 246.49336 248.50858 250.28680 251.71702 252.85324 253.68846 254.01768
 254.06790 253.85512 253.22834 252.18957 250.80879 248.98301 246.90523 244.75145
 242.55567 240.37289 238.20611 236.05833 233.93155 231.81177 229.85100 228.02122
 226.31744 224.80266 223.44588 222.23110 221.12632 220.09954 219.21676 218.37098
 217.62620 216.81943 215.93065 215.30787 214.77109 215.42006 216.95334 218.75168
 220.66322 222.31424 223.04433 222.60303 221.84061 221.12878 221.51273 223.42546
 226.25615 230.40910 235.08858 239.76817 244.28380 248.60826 252.56848 256.05322
 259.16528 262.04068 264.67133 266.96851 268.54214 270.81619 272.89795 274.75262
 276.34824 277.70663 278.91208 279.91171 280.80026 281.71042 282.64716 283.51706
 284.31497 285.04062 285.68573 286.53104
 366.78100 356.34836 345.79371 334.67307 323.08943 311.29678 299.18014 286.99650
 274.72185 262.63221 250.65457 239.96892 230.10428 221.22164 213.41699 206.43235
 200.27971 195.23106 191.82642 189.88178 188.93213 189.00949 189.85785 191.17920
 192.91756 195.02592 197.30227 199.67463 202.13299 204.62634 206.72770 208.58306
 210.22241 211.38077 211.62313 211.86448 211.81484 211.53320 211.17955 210.82291
 210.45327 210.17662 209.99798 209.87534 209.81669 210.16105 210.56041 210.96276
 211.76912 212.96048 214.22383 216.02019 217.96155 220.01790 222.12626 224.22262
 226.29597 228.39333 230.50369 232.62304 234.76540 236.95076 239.22011 241.60347
 244.23783 246.50218 248.51754 250.29590 251.72625 252.86261 253.69797 254.02732
 254.07768 253.86504 253.23839 252.19975 250.81911 248.99346 246.91582 244.76218
 242.56653 240.38389 238.21725 236.06960 233.94296 231.82332 229.86267 228.03303
 226.32939 224.81474 223.45810 222.24346 221.13881 220.11217 219.22953 218.38388
 217.63924 216.83260 215.94395 215.32131 214.78467 215.42462 216.93658 218.75377
 220.63976 222.24602 222.97131 222.53976 221.70193 220.75264 221.18323 223.33606
 226.31161 230.55917 235.28680 239.98112 244.49673 248.81154 252.73727 256.18527
 259.27756 262.14160 264.73248 266.88531 268.70288 270.89487 272.87781 274.73148
 276.33487 277.69290 278.82547 279.77271 280.71924 281.69818 282.64749 283.51755
 284.31543 285.04462 285.68942 286.53574
 366.78100 356.34838 345.79375 334.67313 323.08950 311.29688 299.18025 286.99663
 274.72200 262.63238 250.65475 239.96913 230.10450 221.22188 213.41725 206.43263
 200.28000 195.23138 191.82676 189.88213 188.93251 189.00988 189.85826 191.17963
 192.91801 195.02638 197.30276 199.67513 202.13351 204.62688 206.72826 208.58363
 210.22301 211.38138 211.62376 211.86514 211.81551 211.53389 211.18026 210.82364
 210.45401 210.17739 209.99876 209.87614 209.81751 210.16189 210.56126 210.96364
 211.77001 212.96139 214.22476 216.02114 217.96252 220.01889 222.12727 224.22364
 226.29702 228.39439 230.50477 232.62414 234.76652 236.95189 239.22127 241.60464
 244.23902 246.50339 248.51877 250.29714 251.72752 252.86390 253.69927 254.02865
 254.07902 253.86640 253.23977 252.20115 250.82052 248.99490 246.91727 244.76365
 242.56802 240.38540 238.21877 236.07115 233.94452 231.82490 229.86428 228.03465
 226.33103 224.81640 223.45978 222.24515 221.14053 220.11390 219.23128 218.38565
 217.64103 216.83440 215.94578 215.32315 214.78653 215.42221 216.92404 218.74767
 220.62991 222.18890 222.85918 222.42445 221.57213 220.47701 220.89041 223.20160
 226.33217 230.69981 235.47830 240.17773 244.68295 248.99405 252.90387 256.31491
 259.38913 262.23932 264.83676 266.96866 268.70288 270.95767 272.86768 274.77264
 276.36636 277.68771 278.77396 279.71402 280.62784 281.59436 282.53894 283.40695
 284.20233 284.92914 285.57120 286.42587
 366.78100 356.34819 345.79338 334.67257 323.08875 311.29594 299.17913 286.99532
 274.72051 262.63070 250.65289 239.96707 230.10226 221.21945 213.41464 206.42983
 200.27702 195.22820 191.82339 189.87858 188.92877 189.00596 189.85415 191.17534
 192.91352 195.02171 197.29790 199.67009 202.12828 204.62147 206.72266 208.57784
 210.21703 211.37522 211.61741 211.85860 211.80879 211.52698 211.17316 210.81635
 210.44654 210.16973 209.99092 209.86811 209.80930 210.15348 210.55267 210.95486
 211.76105 212.95224 214.21543 216.01161 217.95280 220.00899 222.11718 224.21337
 226.28656 228.38375 230.49393 232.61312 234.75531 236.94050 239.20969 241.59288
 244.22707 246.49125 248.50644 250.28463 251.71482 252.85101 253.68620 254.01539
 254.06557 253.85276 253.22595 252.18714 250.80633 248.98052 246.90271 244.74889
 242.55308 240.37027 238.20346 236.05565 233.92884 231.80902 229.84821 228.01840
 226.31459 224.79978 223.44297 222.22816 221.12334 220.09653 219.21372 218.36791
 217.62310 216.81629 215.92748 215.30466 214.76785 215.40820 216.92108 218.71719
 220.61478 222.16682 222.74187 222.26413 221.40294 220.25435 220.63493 223.06284
 226.35364 230.84244 235.65956 240.36169 244.86760 249.15756 253.04779 256.42773
 259.48151 262.30124 264.89328 267.11694 268.75034 270.85568 272.95871 274.88974
 276.45395 277.73724 278.81265 279.73486 280.53540 281.41251 282.33191 283.19781
 283.99139 284.71606 285.35925 286.22693
 366.78100 356.34796 345.79293 334.67189 323.08786 311.29482 299.17779 286.99375
 274.71871 262.62868 250.65064 239.96461 230.09957 221.21653 213.41150 206.42646
 200.27343 195.22439 191.81936 189.87432 188.92428 189.00125 189.84921 191.17018
 192.90814 195.01611 197.29207 199.66403 202.12200 204.61496 206.71593 208.57089
 210.20986 211.36782 211.60978 211.85075 211.80071 211.51868 211.16464 210.80760
 210.43757 210.16053 209.98150 209.85846 209.79943 210.14339 210.54235 210.94432
 211.75028 212.94125 214.20421 216.00018 217.94114 219.99710 222.10507 224.20103
 226.27400 228.37096 230.48092 232.59989 234.74185 236.92682 239.19578 241.57875
 244.21271 246.47667 248.49164 250.26960 251.69957 252.83553 253.67050 253.99946
 254.04942 253.83639 253.20935 252.17032 250.78928 248.96325 246.88521 244.73117
 242.53514 240.35210 238.18507 236.03703 233.90999 231.78996 229.82892 227.99889
 226.29485 224.77982 223.42278 222.20774 221.10271 220.07567 219.19264 218.34660
 217.60157 216.79453 215.90549 215.28246 214.74542 215.38948 216.91112 218.69254
 220.59470 222.14417 222.66206 222.07341 221.17047 220.01164 220.40312 222.93208
 226.38647 230.99118 235.84717 240.54788 245.05591 249.33629 253.19821 256.55496
 259.59686 262.37152 264.88745 267.11890 268.95087 270.92017 273.05341 274.92215
 276.45584 277.72330 278.78751 279.69702 280.48074 281.28818 282.20490 283.07245
 283.86691 284.60156 285.25598 286.14185
 366.78100 356.34773 345.79246 334.67119 323.08692 311.29365 299.17638 286.99212
 274.71685 262.62658 250.64831 239.96204 230.09677 221.21350 213.40823 206.42296
 200.26969 195.22042 191.81515 189.86988 188.91962 188.99635 189.84408 191.16481
 192.90254 195.01027 197.28600 199.65773 202.11546 204.60819 206.70892 208.56365
 210.20238 211.36012 211.60185 211.84258 211.79231 211.51004 211.15577 210.79850
 210.42823 210.15096 209.97169 209.84842 209.78915 210.13288 210.53162 210.93335
 211.73908 212.92981 214.19254 215.98827 217.92900 219.98473 222.09246 224.18819
 226.26092 228.35765 230.46738 232.58612 234.72785 236.91258 239.18131 241.56404
 244.19777 246.46150 248.47623 250.25396 251.68369 252.81942 253.65415 253.98288
 254.03262 253.81935 253.19208 252.15281 250.77154 248.94527 246.86700 244.71273
 242.51646 240.33319 238.16592 236.01765 233.89038 231.77011 229.80885 227.97858
 226.27431 224.75904 223.40177 222.18650 221.08123 220.05396 219.17069 218.32442
 217.57915 216.77188 215.88261 215.25935 214.72208 215.37279 216.91019 218.66745
 220.55170 222.08052 222.57399 221.91521 220.95781 219.72369 220.11734 222.77065
 226.40794 231.10539 236.04239 240.77258 245.26572 249.53822 253.40237 256.73480
 259.74802 262.48914 264.92657 267.09055 269.07028 271.03845 273.08124 274.88104
 276.39835 277.65067 278.69772 279.58853 280.33853 281.14087 282.05823 282.93283
 283.73843 284.48596 285.19366 286.09555
 354.97500 345.04800 334.58700 324.11500 313.32600 302.53700 291.65000 280.76700
 269.93100 259.19300 248.62200 238.61700 229.08700 220.35500 212.54000 205.53500
 199.46400 194.49300 191.14300 189.19000 188.08900 188.01400 188.72400 189.90600
 191.46900 193.38200 195.40300 197.55600 199.80700 202.06000 204.28800 206.47900
 208.55200 210.37800 212.02500 213.65900 214.99800 216.11800 217.17200 218.25900
 219.49400 220.64500 221.67900 222.61400 223.54500 224.98200 226.57100 228.19000
 229.79700 231.81100 233.86500 235.97200 238.24200 240.55300 242.89900 245.25300
 247.48800 249.53500 251.36600 252.84800 254.09800 255.16700 256.02700 256.25300
 256.09500 255.54300 253.93500 252.56600 251.38400 250.24500 249.05200 247.70100
 246.01600 243.99600 241.78400 239.39300 236.81300 234.22300 231.65800 229.14400
 226.74000 224.47300 222.33500 220.32500 218.44000 216.67700 214.96200 213.47200
 212.20000 211.10800 210.26000 209.63900 209.24400 209.03100 209.05800 209.33300
 209.78400 210.62600 211.33100 212.39100 213.62500 214.84668 217.72949 219.47640
 220.32566 220.86828 220.88710 220.27371 219.43733 218.84250 219.04934 220.86203
 222.60583 225.72206 229.03064 232.61777 236.12270 239.51333 242.70767 245.68587
 248.41061 250.90679 253.19353 254.91714 256.48655 257.94920 259.39966 260.69384
 261.81714 262.77997 263.71679 264.54570 265.26305 265.89772 266.47676 267.00133
 267.47312 267.89325 268.26027 268.72800
