|-------------------------------------------------------------------------|
|   File Name : in_temp.dat
|   Subject   : temperature profiles used for initial guess atmosphere
|   File Type : input of gmtr
|   Data Type : atmospherical data
|   Author/s  : WRF-Chem
|   Date      : Fri Jul 26 15:39:24 2024
|-------------------------------------------------------------------------|

 WRF-Chem temperature
#
 values of T (K)    (8f10.5)
#
 354.97500 345.04800 334.58700 324.11500 313.32600 302.53700 291.65000 280.76700
 269.93100 259.19300 248.62200 238.61700 229.08700 220.35500 212.54000 205.53500
 199.46400 194.49300 191.14300 189.19000 188.08900 188.01400 188.72400 189.90600
 191.46900 193.38200 195.40300 197.55600 199.80700 202.06000 204.28800 206.47900
 208.55200 210.37800 212.02500 213.65900 214.99800 216.11800 217.17200 218.25900
 219.49400 220.64500 221.67900 222.61400 223.54500 224.98200 226.57100 228.19000
 229.79700 231.81100 233.86500 235.97200 238.24200 240.55300 242.89900 245.25300
 247.48800 249.53500 251.36600 252.84800 254.09800 255.16700 256.02700 256.25300
 256.09500 255.54300 253.93500 252.56600 251.38400 250.24500 249.05200 247.70100
 246.01600 243.99600 241.78400 239.39300 236.81300 234.22300 231.65800 229.14400
 226.74000 224.47300 222.33500 220.32500 218.44000 216.67700 214.96200 213.47200
 212.20000 211.10800 210.26000 209.63900 209.24400 209.03100 209.05800 209.33300
 209.78400 210.62600 211.33100 212.39100 213.62500 214.84668 217.72949 219.47640
 220.32566 220.86828 220.88710 220.27371 219.43733 218.84250 219.04934 220.86203
 222.60583 225.72206 229.03064 232.61777 236.12270 239.51333 242.70767 245.68587
 248.41061 250.90679 253.19353 254.91714 256.48655 257.94920 259.39966 260.69384
 261.81714 262.77997 263.71679 264.54570 265.26305 265.89772 266.47676 267.00133
 267.47312 267.89325 268.26027 268.72800
 366.78100 356.33500 345.76700 334.63300 323.03600 311.23000 299.10000 286.90300
 274.61500 262.51200 250.52100 239.82200 229.94400 221.04800 213.23000 206.23200
 200.06600 195.00400 191.58600 189.62800 188.66500 188.72900 189.56400 190.87200
 192.59700 194.69200 196.95500 199.31400 201.75900 204.23900 206.32700 208.16900
 209.79500 210.94000 211.16900 211.39700 211.33400 211.03900 210.67200 210.30200
 209.91900 209.62900 209.43700 209.30100 209.22900 209.56000 209.94600 210.33500
 211.12800 212.30600 213.55600 215.33900 217.26700 219.31000 221.40500 223.48800
 225.54800 227.63200 229.72900 231.83500 233.96400 236.13600 238.39200 240.76200
 243.38300 245.63400 247.63600 249.40100 250.81800 251.94100 252.76300 253.07900
 253.11600 252.89000 252.25000 251.19800 249.80400 247.96500 245.87400 243.70700
 241.49800 239.30200 237.12200 234.96100 232.82100 230.68800 228.71400 226.87100
 225.15400 223.62600 222.25600 221.02800 219.91000 218.87000 217.97400 217.11500
 216.35700 215.53700 214.63500 213.99900 213.44900 212.85855 212.01316 212.61654
 214.26826 216.08686 218.14273 220.53346 223.40855 226.78828 231.49734 235.90155
 239.42278 243.28576 247.23140 251.11907 254.80144 258.23331 261.38913 264.27520
 266.89312 269.26852 271.44504 273.08845 274.58484 275.98591 277.39845 278.65879
 279.75272 280.69038 281.56708 282.34086 283.01050 283.60295 284.14348 284.63317
 285.07358 285.46577 285.80838 286.24500
 381.81900 372.39900 361.20600 349.77600 337.62200 324.85300 311.81000 298.35300
 284.86000 271.32400 258.56100 246.30400 236.08700 226.79600 218.44800 211.29000
 205.52200 200.89400 197.38100 194.84800 193.01500 192.31500 192.25000 192.43100
 192.91200 193.53700 194.13600 194.71200 195.26200 195.83100 196.39300 196.97600
 197.60400 198.14900 198.58400 199.05700 199.69500 200.37800 201.05400 201.70800
 202.31300 202.85700 203.35500 203.86200 204.56900 205.29700 206.02600 206.98700
 208.19300 209.44100 210.96900 212.57600 214.46200 216.51300 218.63000 220.85300
 223.34100 225.96200 228.73900 231.69700 234.70600 237.70600 240.69200 243.65700
 246.73700 249.69900 252.52100 255.06300 257.29000 259.23300 260.63300 261.68000
 262.46100 262.79800 262.69100 262.22400 261.06900 259.52500 257.70700 255.50700
 253.00100 250.30200 247.39800 244.45200 241.65400 239.05400 236.73300 234.59000
 232.59500 230.72500 228.83400 226.82600 224.66600 222.38700 220.10400 217.71500
 215.45900 213.06600 210.54600 208.09300 205.35400 202.08130 196.05959 200.71215
 209.01611 216.90438 223.84126 229.78593 235.00632 240.20838 245.98943 250.68668
 254.32982 257.93487 261.55666 264.96801 268.15192 271.06452 273.76717 276.25691
 278.57680 280.74479 282.77456 284.60533 286.27232 287.81705 289.31715 290.65561
 291.81734 292.81312 293.70701 294.49387 295.17482 295.77730 296.32696 296.82492
 297.27278 297.67160 298.02000 298.46400
 399.33000 389.90700 379.81300 368.66800 357.52200 345.30100 333.07400 320.22700
 307.21600 293.84800 280.37600 267.29600 254.61000 242.98700 232.15100 221.97700
 212.67200 204.28600 197.66900 192.82100 189.48600 187.45200 186.81400 187.08900
 187.78100 189.05400 190.64800 192.54200 194.63000 196.75200 198.67100 200.15800
 201.53500 202.48700 202.97500 203.34000 203.53900 203.49700 203.38500 203.24700
 203.00500 202.78600 202.60300 202.43700 202.42600 202.88800 203.42000 203.95100
 204.89500 205.99200 207.30100 208.95800 210.73800 213.10000 215.56400 218.18000
 220.96600 223.91800 226.96100 230.09200 233.29300 236.55700 239.95500 243.53700
 246.84500 249.39000 251.54200 253.47400 255.19500 256.48400 257.43100 258.05900
 258.21200 258.04000 257.58200 256.64300 255.23900 253.50700 251.40800 249.05600
 246.57600 243.99400 241.38900 238.83000 236.34400 233.98600 231.96900 230.11800
 228.42300 226.89900 225.54800 224.29700 223.10500 221.96500 220.95800 220.11300
 219.49000 218.92000 218.32500 217.88100 217.42300 216.96366 216.35568 216.80261
 217.73415 218.28582 218.64258 219.10077 220.44626 222.53987 226.38451 230.35736
 233.59734 237.39164 241.29814 245.22796 248.98002 252.51130 255.78595 258.80109
 261.54781 264.05210 266.34239 268.04198 269.58951 271.01303 272.35754 273.55718
 274.59842 275.49092 276.28989 276.99307 277.60161 278.14001 278.63122 279.07623
 279.47646 279.83287 280.14422 280.54100
 399.73800 389.78500 379.66200 368.15100 356.64100 344.35000 331.79200 318.88800
 305.72600 292.49300 279.20900 266.73800 254.69600 244.21100 234.45700 225.43300
 217.56900 210.45100 204.30000 199.30600 195.45800 192.57600 191.02700 190.38600
 190.23900 190.53400 191.16600 191.92500 192.79500 193.76600 194.73200 195.31200
 195.80000 196.05200 196.11500 196.11500 196.03900 195.72300 195.34000 194.98900
 194.75100 194.79200 195.13300 195.59800 196.50600 198.13600 199.85800 201.56600
 204.17900 206.82300 209.89300 213.28400 216.82800 220.60500 224.38700 228.20900
 232.03200 235.82500 239.56000 243.25800 246.84500 250.20100 253.70900 257.46800
 261.53000 264.22100 266.60100 268.68100 270.32900 271.74100 272.83600 273.47400
 273.89800 274.00200 273.75700 273.28800 272.37100 271.10000 269.58900 267.77900
 265.81600 263.72100 261.39300 258.91600 256.29800 253.42300 250.33100 247.11400
 243.83700 240.52900 237.24900 233.99900 230.72800 227.51500 224.25400 220.95200
 217.62700 213.65600 210.12100 206.78900 204.01000 201.99491 199.07309 198.76551
 199.40006 200.48994 201.46112 202.31912 203.45100 204.96110 207.47502 210.85391
 213.70530 217.29629 220.99574 224.72316 228.28753 231.64854 234.68024 237.40893
 239.70644 241.60899 243.46854 245.67368 247.68154 249.52395 251.24767 252.78566
 254.12057 255.26479 256.23740 257.09036 257.82852 258.48160 259.07744 259.61723
 260.10271 260.53504 260.91270 261.39400
 399.73800 389.78500 379.66200 368.15100 356.64100 344.35000 331.79200 318.88800
 305.72600 292.49300 279.20900 266.73800 254.69600 244.21100 234.45700 225.43300
 217.56900 210.45100 204.30000 199.30600 195.45800 192.57600 191.02700 190.38600
 190.23900 190.53400 191.16600 191.92500 192.79500 193.76600 194.73200 195.31200
 195.80000 196.05200 196.11500 196.11500 196.03900 195.72300 195.34000 194.98900
 194.75100 194.79200 195.13300 195.59800 196.50600 198.13600 199.85800 201.56600
 204.17900 206.82300 209.89300 213.28400 216.82800 220.60500 224.38700 228.20900
 232.03200 235.82500 239.56000 243.25800 246.84500 250.20100 253.70900 257.46800
 261.53000 264.22100 266.60100 268.68100 270.32900 271.74100 272.83600 273.47400
 273.89800 274.00200 273.75700 273.28800 272.37100 271.10000 269.58900 267.77900
 265.81600 263.72100 261.39300 258.91600 256.29800 253.42300 250.33100 247.11400
 243.83700 240.52900 237.24900 233.99900 230.72800 227.51500 224.25400 220.95200
 217.62700 213.65600 210.12100 206.78900 204.01000 201.99491 199.07309 198.76551
 199.40006 200.48994 201.46112 202.31912 203.45100 204.96110 207.47502 210.85391
 213.70530 217.29629 220.99574 224.72316 228.28753 231.64854 234.68024 237.40893
 239.70644 241.60899 243.46854 245.67368 247.68154 249.52395 251.24767 252.78566
 254.12057 255.26479 256.23740 257.09036 257.82852 258.48160 259.07744 259.61723
 260.10271 260.53504 260.91270 261.39400
 399.33000 389.90700 379.81300 368.66800 357.52200 345.30100 333.07400 320.22700
 307.21600 293.84800 280.37600 267.29600 254.61000 242.98700 232.15100 221.97700
 212.67200 204.28600 197.66900 192.82100 189.48600 187.45200 186.81400 187.08900
 187.78100 189.05400 190.64800 192.54200 194.63000 196.75200 198.67100 200.15800
 201.53500 202.48700 202.97500 203.34000 203.53900 203.49700 203.38500 203.24700
 203.00500 202.78600 202.60300 202.43700 202.42600 202.88800 203.42000 203.95100
 204.89500 205.99200 207.30100 208.95800 210.73800 213.10000 215.56400 218.18000
 220.96600 223.91800 226.96100 230.09200 233.29300 236.55700 239.95500 243.53700
 246.84500 249.39000 251.54200 253.47400 255.19500 256.48400 257.43100 258.05900
 258.21200 258.04000 257.58200 256.64300 255.23900 253.50700 251.40800 249.05600
 246.57600 243.99400 241.38900 238.83000 236.34400 233.98600 231.96900 230.11800
 228.42300 226.89900 225.54800 224.29700 223.10500 221.96500 220.95800 220.11300
 219.49000 218.92000 218.32500 217.88100 217.42300 216.96366 216.35568 216.80261
 217.73415 218.28582 218.64258 219.10077 220.44626 222.53987 226.38451 230.35736
 233.59734 237.39164 241.29814 245.22796 248.98002 252.51130 255.78595 258.80109
 261.54781 264.05210 266.34239 268.04198 269.58951 271.01303 272.35754 273.55718
 274.59842 275.49092 276.28989 276.99307 277.60161 278.14001 278.63122 279.07623
 279.47646 279.83287 280.14422 280.54100
 381.81900 372.39900 361.20600 349.77600 337.62200 324.85300 311.81000 298.35300
 284.86000 271.32400 258.56100 246.30400 236.08700 226.79600 218.44800 211.29000
 205.52200 200.89400 197.38100 194.84800 193.01500 192.31500 192.25000 192.43100
 192.91200 193.53700 194.13600 194.71200 195.26200 195.83100 196.39300 196.97600
 197.60400 198.14900 198.58400 199.05700 199.69500 200.37800 201.05400 201.70800
 202.31300 202.85700 203.35500 203.86200 204.56900 205.29700 206.02600 206.98700
 208.19300 209.44100 210.96900 212.57600 214.46200 216.51300 218.63000 220.85300
 223.34100 225.96200 228.73900 231.69700 234.70600 237.70600 240.69200 243.65700
 246.73700 249.69900 252.52100 255.06300 257.29000 259.23300 260.63300 261.68000
 262.46100 262.79800 262.69100 262.22400 261.06900 259.52500 257.70700 255.50700
 253.00100 250.30200 247.39800 244.45200 241.65400 239.05400 236.73300 234.59000
 232.59500 230.72500 228.83400 226.82600 224.66600 222.38700 220.10400 217.71500
 215.45900 213.06600 210.54600 208.09300 205.35400 202.08130 196.05959 200.71215
 209.01611 216.90438 223.84126 229.78593 235.00632 240.20838 245.98943 250.68668
 254.32982 257.93487 261.55666 264.96801 268.15192 271.06452 273.76717 276.25691
 278.57680 280.74479 282.77456 284.60533 286.27232 287.81705 289.31715 290.65561
 291.81734 292.81312 293.70701 294.49387 295.17482 295.77730 296.32696 296.82492
 297.27278 297.67160 298.02000 298.46400
 366.78100 356.33269 345.76239 334.62608 323.02677 311.21846 299.08616 286.88685
 274.59654 262.49123 250.49793 239.79662 229.91631 221.01801 213.19770 206.19739
 200.02908 194.96478 191.54447 189.58416 188.61886 188.68055 189.51324 190.81893
 192.54163 194.63432 196.89501 199.25170 201.69440 204.17209 206.25778 208.09748
 209.72117 210.86386 211.09055 211.31625 211.25094 210.95363 210.58433 210.21202
 209.82671 209.53440 209.34010 209.20179 209.12748 209.45617 209.83987 210.22656
 211.01725 212.19295 213.44064 215.22133 217.14702 219.18772 221.28041 223.36110
 225.41880 227.50049 229.59518 231.69887 233.82557 235.99526 238.24895 240.61664
 243.23534 245.48403 247.48372 249.24642 250.66111 251.78180 252.60149 252.91519
 252.94988 252.72157 252.07926 251.02496 249.62865 247.78734 245.69404 243.52473
 241.31342 239.11511 236.93281 234.76950 232.62719 230.49189 228.51558 226.67027
 224.95096 223.42066 222.04835 220.81804 219.69773 218.65543 217.75712 216.89581
 216.13551 215.31320 214.40889 213.77058 213.21828 212.83324 211.92647 211.92937
 212.81699 214.71960 216.35478 217.04092 218.63188 222.68645 228.71713 233.67183
 237.47641 241.21326 244.96758 248.75975 252.52963 255.68204 258.27020 260.75436
 263.49844 266.14856 268.53595 270.63257 272.58276 274.44318 276.09756 277.72186
 279.39169 281.02182 282.52145 283.87747 285.05869 286.10654 287.06497 287.93851
 288.72842 289.43701 290.06137 290.89648
 366.78100 356.33102 345.75905 334.62107 323.02010 311.21012 299.07614 286.87517
 274.58319 262.47621 250.48124 239.77826 229.89629 220.99631 213.17433 206.17236
 200.00238 194.93640 191.51443 189.55245 188.58548 188.64550 189.47652 190.78055
 192.50157 194.59259 196.85162 199.20664 201.64767 204.12369 206.20771 208.04574
 209.66776 210.80878 211.03381 211.25783 211.19086 210.89188 210.52090 210.14693
 209.75995 209.46597 209.27000 209.13002 209.05405 209.38107 209.76309 210.14812
 210.93714 212.11116 213.35719 215.13621 217.06024 219.09926 221.19028 223.26931
 225.32533 227.40535 229.49838 231.60040 233.72543 235.89345 238.14547 240.51150
 243.12852 245.37554 247.37357 249.13459 250.54762 251.66664 252.48466 252.79669
 252.82971 252.59973 251.95576 250.89978 249.50181 247.65883 245.56385 243.39288
 241.17990 238.97992 236.79595 234.63097 232.48700 230.35002 228.37204 226.52507
 224.80409 223.27211 221.89814 220.66616 219.54419 218.50021 217.60023 216.73726
 215.97528 215.15131 214.24533 213.60535 213.05138 212.75143 212.04483 212.06854
 212.91649 214.78661 216.37242 217.12210 218.58409 222.62479 228.67372 233.59319
 237.38980 241.14160 244.92241 248.71338 252.43250 255.55676 258.14444 260.63901
 263.33704 265.98666 268.41940 270.52618 272.46274 274.30731 275.95859 277.58560
 279.26068 280.90320 282.40985 283.76764 284.94843 285.99673 286.95676 287.83075
 288.62064 289.32971 289.95535 290.78983
 366.78100 356.32944 345.75588 334.61633 323.01377 311.20221 299.06665 286.86409
 274.57053 262.46198 250.46542 239.76086 229.87730 220.97574 213.15218 206.14863
 199.97707 194.90951 191.48595 189.52239 188.55383 188.61228 189.44172 190.74416
 192.46360 194.55304 196.81049 199.16393 201.60337 204.07781 206.16025 207.99669
 209.61714 210.75658 210.98002 211.20246 211.13390 210.83334 210.46079 210.08523
 209.69667 209.40111 209.20355 209.06199 208.98444 209.30988 209.69032 210.07376
 210.86120 212.03364 213.27809 215.05553 216.97797 219.01541 221.10485 223.18230
 225.23674 227.31518 229.40662 231.50706 233.63050 235.79695 238.04739 240.41183
 243.02727 245.27271 247.26915 249.02860 250.44004 251.55748 252.37392 252.68436
 252.71580 252.48425 251.83869 250.78113 249.38157 247.53701 245.44046 243.26790
 241.05334 238.85178 236.66622 234.49966 232.35411 230.21555 228.23599 226.38743
 224.66487 223.13131 221.75576 220.52220 219.39864 218.35308 217.45152 216.58696
 215.82341 214.99785 214.09029 213.44873 212.89317 212.67268 212.15321 212.21298
 213.01285 214.85913 216.39421 217.19658 218.54433 222.59169 228.62508 233.51385
 237.30174 241.06555 244.87041 248.65955 252.32498 255.42577 258.02438 260.53534
 263.18344 265.82611 268.29828 270.41357 272.33826 274.17047 275.82135 277.45184
 279.13971 280.78925 282.30301 283.66098 284.84299 285.89163 286.85135 287.72620
 288.51666 289.22733 289.85129 290.69357
 366.78100 356.32787 345.75275 334.61162 323.00750 311.19437 299.05725 286.85312
 274.55800 262.44787 250.44975 239.74362 229.85850 220.95537 213.13025 206.12512
 199.95199 194.88287 191.45774 189.49262 188.52249 188.57937 189.40724 190.70812
 192.42599 194.51387 196.76974 199.12162 201.55949 204.03236 206.11324 207.94811
 209.56699 210.70486 210.92674 211.14761 211.07749 210.77536 210.40124 210.02411
 209.63399 209.33686 209.13774 208.99461 208.91548 209.23936 209.61823 210.00011
 210.78598 211.95686 213.19973 214.97561 216.89648 218.93236 221.02023 223.09611
 225.14898 227.22586 229.31573 231.41460 233.53648 235.70135 237.95023 240.31310
 242.92698 245.17085 247.16573 248.92360 250.33348 251.44935 252.26423 252.57310
 252.60298 252.36985 251.72272 250.66360 249.26247 247.41635 245.31822 243.14410
 240.92797 238.72485 236.53772 234.36960 232.22247 230.08235 228.10122 226.25109
 224.52697 222.99184 221.61472 220.37959 219.25447 218.20734 217.30422 216.43809
 215.67297 214.84584 213.93672 213.29359 212.73647 212.59399 212.25829 212.35326
 213.11116 214.93166 216.43274 217.25467 218.51921 222.58147 228.56920 233.43338
 237.21300 240.98834 244.81403 248.60022 252.20874 255.28943 257.90726 260.43903
 263.03467 265.66129 268.16736 270.29276 272.21066 274.03503 275.68781 277.32687
 279.02811 280.68149 282.20276 283.56259 284.74387 285.79364 286.75586 287.62973
 288.41962 289.13013 289.76001 290.59399
 366.78100 356.32638 345.74976 334.60714 323.00151 311.18689 299.04827 286.84265
 274.54603 262.43441 250.43479 239.72717 229.84054 220.93592 213.10930 206.10268
 199.92806 194.85744 191.43082 189.46419 188.49257 188.54795 189.37433 190.67371
 192.39009 194.47647 196.73085 199.08122 201.51760 203.98898 206.06836 207.90174
 209.51912 210.65550 210.87588 211.09525 211.02363 210.72001 210.34439 209.96577
 209.57415 209.27553 209.07490 208.93028 208.84966 209.17204 209.54942 209.92980
 210.71418 211.88356 213.12493 214.89931 216.81869 218.85307 220.93945 223.01383
 225.06521 227.14058 229.22896 231.32634 233.44672 235.61010 237.85748 240.21886
 242.83124 245.07361 247.06699 248.82337 250.23175 251.34613 252.15951 252.46689
 252.49527 252.26064 251.61202 250.55140 249.14878 247.30116 245.20154 243.02592
 240.80829 238.60367 236.41505 234.24543 232.09681 229.95519 227.97257 226.12095
 224.39532 222.85870 221.48008 220.24346 219.11684 218.06822 217.16360 216.29597
 215.52935 214.70073 213.79011 213.14549 212.58687 212.51872 212.35822 212.49002
 213.21432 215.00426 216.48141 217.29250 218.53622 222.59142 228.51256 233.35289
 237.12575 240.91093 244.75499 248.53642 252.08461 255.14516 257.78754 260.34299
 262.88663 265.49146 268.02539 270.16479 272.08487 273.90921 275.56436 277.21167
 278.92050 280.58145 282.10876 283.46945 284.65198 285.70068 286.66321 287.53781
 288.33179 289.04047 289.66815 290.50833
 366.78100 356.32507 345.74713 334.60320 322.99626 311.18033 299.04039 286.83346
 274.53552 262.42259 250.42166 239.71272 229.82479 220.91885 213.09092 206.08298
 199.90705 194.83511 191.40718 189.43924 188.46631 188.52038 189.34544 190.64351
 192.35857 194.44364 196.69670 199.04577 201.48083 203.95090 206.02897 207.86103
 209.47710 210.61216 210.83123 211.04929 210.97636 210.67142 210.29449 209.91455
 209.52162 209.22169 209.01975 208.87382 208.79188 209.11295 209.48901 209.86808
 210.65114 211.81921 213.05928 214.83234 216.75041 218.78347 220.86854 222.94160
 224.99167 227.06573 229.15280 231.24887 233.36793 235.53000 237.77606 240.13613
 242.74719 244.98826 246.98032 248.73539 250.14245 251.25552 252.06759 252.37365
 252.40072 252.16478 251.51485 250.45291 249.04898 247.20004 245.09911 242.92218
 240.70324 238.49731 236.30737 234.13644 231.98650 229.84357 227.85963 226.00670
 224.27977 222.74183 221.36190 220.12396 218.99603 217.94609 217.04016 216.17122
 215.40329 214.57335 213.66142 213.01549 212.45555 212.45242 212.44531 212.62773
 213.32608 215.07803 216.52794 217.31177 218.58020 222.60770 228.46237 233.27606
 237.04166 240.83470 244.69293 248.46829 251.95326 254.99380 257.66379 260.24551
 262.73969 265.31717 267.87085 270.02338 271.95551 273.79190 275.45819 277.11328
 278.82336 280.49307 282.02200 283.38266 284.56570 285.61475 286.57730 287.45218
 288.24496 288.95627 289.58392 290.42252
 366.78100 356.32397 345.74493 334.59990 322.99187 311.17483 299.03380 286.82576
 274.52673 262.41270 250.41066 239.70063 229.81160 220.90456 213.07553 206.06649
 199.88946 194.81643 191.38739 189.41836 188.44433 188.49729 189.32126 190.61822
 192.33219 194.41616 196.66812 199.01609 201.45006 203.91902 205.99599 207.82695
 209.44192 210.57589 210.79385 211.01082 210.93679 210.63075 210.25272 209.87168
 209.47765 209.17662 208.97358 208.82655 208.74352 209.06348 209.43845 209.81641
 210.59838 211.76535 213.00431 214.77628 216.69325 218.72521 220.80918 222.88114
 224.93011 227.00308 229.08904 231.18401 233.30198 235.46294 237.70791 240.06687
 242.67684 244.91681 246.90777 248.66174 250.06771 251.17967 251.99064 252.29561
 252.32157 252.08454 251.43350 250.37047 248.96544 247.11540 245.01337 242.83534
 240.61530 238.40827 236.21723 234.04520 231.89417 229.75013 227.76510 225.91107
 224.18303 222.64400 221.26296 220.02393 218.89490 217.84386 216.93683 216.06680
 215.29776 214.46673 213.55369 212.90666 212.34563 212.39735 212.51971 212.76680
 213.44583 215.15500 216.56900 217.32980 218.64322 222.62463 228.42207 233.20546
 236.95901 240.75909 244.62854 248.39558 251.81538 254.83389 257.53543 260.14508
 262.59494 265.14038 267.70294 269.86444 271.81418 273.67090 275.35880 277.03708
 278.75375 280.41745 281.94629 283.30844 284.49149 285.54163 286.50415 287.38013
 288.17233 288.88663 289.51361 290.35550
 366.78100 356.32305 345.74309 334.59714 322.98819 311.17024 299.02828 286.81933
 274.51938 262.40442 250.40147 239.69052 229.80056 220.89261 213.06266 206.05271
 199.87475 194.80080 191.37085 189.40089 188.42594 188.47799 189.30104 190.59708
 192.31013 194.39318 196.64422 198.99127 201.42432 203.89237 205.96841 207.79846
 209.41251 210.54555 210.76260 210.97865 210.90369 210.59674 210.21779 209.83584
 209.44088 209.13893 208.93498 208.78702 208.70307 209.02212 209.39617 209.77321
 210.55426 211.72031 212.95835 214.72940 216.64545 218.67650 220.75954 222.83059
 224.87864 226.95068 229.03573 231.12978 233.24682 235.40687 237.65092 240.00897
 242.61801 244.85706 246.84711 248.60015 250.00520 251.11625 251.92630 252.23034
 252.25539 252.01744 251.36548 250.30153 248.89558 247.04463 244.94167 242.76272
 240.54177 238.33381 236.14186 233.96891 231.81695 229.67200 227.68605 225.83110
 224.10214 222.56219 221.18024 219.94028 218.81033 217.75838 216.85043 215.97947
 215.20952 214.37757 213.46361 212.81566 212.25371 212.35217 212.58485 212.90395
 213.57329 215.23242 216.60875 217.35562 218.71880 222.64157 228.38864 233.14062
 236.87964 240.68576 244.56435 248.32071 251.67218 254.66478 257.39899 260.03790
 262.45404 264.96527 267.52832 269.69916 271.66757 273.53925 275.24164 276.94162
 278.67484 280.36230 281.90137 283.26587 284.44907 285.50000 286.46408 287.33997
 288.13361 288.84592 289.47525 290.32108
 366.78100 356.32233 345.74165 334.59498 322.98531 311.16663 299.02396 286.81428
 274.51361 262.39794 250.39426 239.68259 229.79192 220.88324 213.05257 206.04190
 199.86322 194.78855 191.35788 189.38720 188.41153 188.46285 189.28518 190.58051
 192.29283 194.37516 196.62549 198.97181 201.40414 203.87147 205.94679 207.77612
 209.38944 210.52177 210.73810 210.95342 210.87775 210.57008 210.19040 209.80773
 209.41206 209.10938 208.90471 208.75604 208.67136 208.98969 209.36301 209.73934
 210.51967 211.68499 212.92232 214.69265 216.60797 218.63830 220.72063 222.79095
 224.83828 226.90961 228.99393 231.08726 233.20358 235.36291 237.60624 239.96356
 242.57189 244.81022 246.79954 248.55187 249.95620 251.06652 251.87585 252.17917
 252.20350 251.96483 251.31215 250.24748 248.84081 246.98913 244.88546 242.70579
 240.48411 238.27544 236.08277 233.90909 231.75642 229.61074 227.62407 225.76840
 224.03872 222.49805 221.11538 219.87470 218.74403 217.69136 216.78268 215.91101
 215.14033 214.30766 213.39299 212.74431 212.18164 212.31808 212.64043 213.03821
 213.70306 215.31839 216.65149 217.38408 218.80261 222.66479 228.35876 233.07547
 236.79944 240.61240 244.50105 248.24237 251.52252 254.48520 257.25119 259.92209
 262.31601 264.79388 267.34912 269.53098 271.52597 273.41687 275.12894 276.83960
 278.59183 280.32468 281.87064 283.23730 284.42160 285.47427 286.43884 287.31882
 288.11249 288.82806 289.45868 290.30783
 366.78100 356.32182 345.74064 334.59346 322.98328 311.16411 299.02093 286.81075
 274.50957 262.39339 250.38921 239.67703 229.78585 220.87668 213.04550 206.03432
 199.85514 194.77996 191.34878 189.37760 188.40142 188.45224 189.27407 190.56889
 192.28071 194.36253 196.61235 198.95817 201.38999 203.85681 205.93164 207.76046
 209.37328 210.50510 210.72092 210.93574 210.85956 210.55138 210.17121 209.78803
 209.39185 209.08867 208.88349 208.73431 208.64913 208.96695 209.33977 209.71560
 210.49542 211.66024 212.89706 214.66688 216.58170 218.61152 220.69334 222.76317
 224.80999 226.88081 228.96463 231.05745 233.17327 235.33209 237.57491 239.93173
 242.53956 244.77738 246.76620 248.51802 249.92184 251.03166 251.84048 252.14330
 252.16713 251.92795 251.27477 250.20959 248.80241 246.95023 244.84605 242.66587
 240.44370 238.23452 236.04134 233.86716 231.71398 229.56780 227.58062 225.72444
 223.99426 222.45309 221.06991 219.82873 218.69755 217.64437 216.73519 215.86301
 215.09183 214.25866 213.34348 212.69430 212.13112 212.29636 212.68677 213.16884
 213.83652 215.40477 216.71176 217.42253 218.88481 222.69351 228.33046 233.00777
 236.71860 240.54062 244.43816 248.15891 251.36490 254.29330 257.08881 259.79269
 262.17429 264.62207 267.16489 269.36176 271.39325 273.31546 275.04126 276.75885
 278.53183 280.28525 281.83508 283.20126 284.38760 285.44305 286.40970 287.29404
 288.10016 288.82312 289.45627 290.30859
 366.78100 356.32123 345.73947 334.59170 322.98093 311.16117 299.01740 286.80663
 274.50486 262.38810 250.38333 239.67056 229.77880 220.86903 213.03726 206.02550
 199.84573 194.76996 191.33820 189.36643 188.38966 188.43990 189.26113 190.55536
 192.26659 194.34783 196.59706 198.94229 201.37353 203.83976 205.91399 207.74223
 209.35446 210.48569 210.70093 210.91516 210.83839 210.52963 210.14886 209.76509
 209.36832 209.06456 208.85879 208.70902 208.62326 208.94049 209.31272 209.68796
 210.46719 211.63142 212.86766 214.63689 216.55112 218.58036 220.66159 222.73082
 224.77705 226.84729 228.93052 231.02275 233.13799 235.29622 237.53845 239.89469
 242.50192 244.73915 246.72739 248.47862 249.88185 250.99108 251.79932 252.10155
 252.12478 251.88502 251.23125 250.16548 248.75772 246.90495 244.80018 242.61942
 240.39665 238.18688 235.99312 233.81835 231.66458 229.51781 227.53005 225.67328
 223.94251 222.40075 221.01698 219.77521 218.64345 217.58968 216.67991 215.80715
 215.03538 214.20161 213.28585 212.63608 212.07231 212.27199 212.74374 213.28450
 213.96333 215.50819 216.77690 217.47253 218.99503 222.73036 228.29504 232.93793
 236.63881 240.46960 244.37231 248.06567 251.19319 254.08522 256.90872 259.64688
 262.02646 264.45203 266.98227 269.20047 271.27713 273.23672 274.97449 276.69299
 278.48199 280.24127 281.79321 283.16083 284.34933 285.40298 286.37253 287.25800
 288.06680 288.79001 289.42422 290.27713
 366.78100 356.32081 345.73863 334.59044 322.97926 311.15907 299.01489 286.80370
 274.50152 262.38433 250.37914 239.66596 229.77377 220.86359 213.03140 206.01922
 199.83903 194.76285 191.33066 189.35847 188.38129 188.43110 189.25192 190.54573
 192.25655 194.33736 196.58617 198.93099 201.36180 203.82762 205.90143 207.72925
 209.34106 210.47188 210.68669 210.90050 210.82332 210.51413 210.13295 209.74876
 209.35158 209.04739 208.84121 208.69102 208.60483 208.92165 209.29346 209.66828
 210.44709 211.61091 212.84672 214.61554 216.52935 218.55816 220.63898 222.70779
 224.75361 226.82342 228.90624 230.99805 233.11286 235.27068 237.51249 239.86831
 242.47512 244.71194 246.69975 248.45057 249.85338 250.96219 251.77001 252.07182
 252.09464 251.85445 251.20027 250.13408 248.72590 246.87271 244.76752 242.58634
 240.36315 238.15297 235.95878 233.78360 231.62941 229.48223 227.49404 225.63685
 223.90567 222.36348 220.97930 219.73711 218.60493 217.55074 216.64055 215.76737
 214.99518 214.16100 213.24481 212.59463 212.03044 212.25722 212.79297 213.41551
 214.06361 215.61557 216.91280 217.52286 219.07086 222.76700 228.27388 232.86455
 236.54814 240.38678 244.29182 247.95389 251.00330 253.86302 256.71780 259.49402
 261.88492 264.29581 266.81262 269.05524 271.17938 273.17990 274.93219 276.65024
 278.43625 280.19629 281.74847 283.11566 284.30389 285.36005 286.32764 287.21384
 288.02179 288.74652 289.38309 290.23639
 366.78100 356.32108 345.73916 334.59124 322.98032 311.16040 299.01648 286.80556
 274.50364 262.38672 250.38180 239.66888 229.77696 220.86703 213.03511 206.02319
 199.84327 194.76735 191.33543 189.36351 188.38659 188.43667 189.25775 190.55183
 192.26291 194.34399 196.59307 198.93815 201.36923 203.83531 205.90939 207.73747
 209.34955 210.48063 210.69571 210.90979 210.83287 210.52395 210.14303 209.75910
 209.36218 209.05826 208.85234 208.70242 208.61650 208.93358 209.30566 209.68074
 210.45982 211.62390 212.85998 214.62906 216.54314 218.57222 220.65330 222.72238
 224.76846 226.83854 228.92162 231.01370 233.12878 235.28686 237.52894 239.88502
 242.49210 244.72917 246.71725 248.46833 249.87141 250.98049 251.78857 252.09065
 252.11373 251.87381 251.21989 250.15397 248.74605 246.89313 244.78821 242.60729
 240.38437 238.17445 235.98053 233.80561 231.65169 229.50477 227.51685 225.65993
 223.92901 222.38709 221.00316 219.76124 218.62932 217.57540 216.66548 215.79256
 215.02064 214.18672 213.27080 212.62088 212.05696 212.27930 212.80457 213.55487
 214.20078 215.65971 217.09306 217.68240 219.15648 222.74725 228.21222 232.75659
 236.43320 240.28989 244.20276 247.83635 250.81354 253.64348 256.53015 259.34482
 261.75757 264.15454 266.65143 268.91690 271.08591 273.13120 274.90039 276.62006
 278.39243 280.15439 281.70657 283.07605 284.26297 285.32068 286.28900 287.17560
 287.98407 288.71024 289.34714 290.20511
 366.78100 356.32154 345.74009 334.59263 322.98218 311.16272 299.01926 286.80881
 274.50735 262.39089 250.38644 239.67398 229.78253 220.87307 213.04161 206.03016
 199.85070 194.77524 191.34379 189.37233 188.39588 188.44642 189.26796 190.56251
 192.27405 194.35559 196.60514 198.95068 201.38223 203.84877 205.92331 207.75186
 209.36440 210.49594 210.71149 210.92603 210.84958 210.54112 210.16066 209.77721
 209.38075 209.07730 208.87184 208.72238 208.63693 208.95447 209.32701 209.70256
 210.48210 211.64665 212.88319 214.65273 216.56728 218.59682 220.67836 222.74791
 224.79445 226.86500 228.94854 231.04108 233.15663 235.31517 237.55771 239.91426
 242.52180 244.75935 246.74789 248.49943 249.90298 251.01252 251.82106 252.12361
 252.14715 251.90770 251.25424 250.18878 248.78133 246.92887 244.82442 242.64396
 240.42150 238.21205 236.01859 233.84413 231.69068 229.54422 227.55677 225.70031
 223.96985 222.42840 221.04494 219.80348 218.67203 217.61857 216.70912 215.83666
 215.06520 214.23175 213.31629 212.66683 212.10338 212.31546 212.81656 213.66008
 214.37576 215.71152 217.20755 217.84485 219.25243 222.72958 228.14922 232.66760
 236.34256 240.21629 244.13132 247.73155 250.63452 253.42752 256.33911 259.18698
 261.62527 264.01074 266.48535 268.77377 270.99109 273.08163 274.87326 276.60321
 278.35733 280.11465 281.66678 283.03494 284.22116 285.27802 286.24744 287.13361
 287.94598 288.67041 289.31049 290.16812
 366.78100 356.32207 345.74113 334.59420 322.98426 311.16533 299.02239 286.81246
 274.51152 262.39559 250.39165 239.67972 229.78878 220.87985 213.04891 206.03798
 199.85904 194.78411 191.35317 189.38224 188.40630 188.45737 189.27943 190.57450
 192.28656 194.36863 196.61869 198.96476 201.39682 203.86389 205.93896 207.76802
 209.38109 210.51315 210.72922 210.94428 210.86835 210.56041 210.18048 209.79754
 209.40161 209.09867 208.89374 208.74480 208.65987 208.97793 209.35100 209.72706
 210.50713 211.67219 212.90926 214.67932 216.59439 218.62445 220.70652 222.77658
 224.82365 226.89472 228.97878 231.07185 233.18791 235.34698 237.59004 239.94711
 242.55517 244.79324 246.78230 248.53437 249.93843 251.04850 251.85756 252.16063
 252.18469 251.94576 251.29282 250.22789 248.82095 246.96902 244.86508 242.68515
 240.46321 238.25428 236.06134 233.88741 231.73447 229.58854 227.60161 225.74567
 224.01574 222.47480 221.09187 219.85093 218.72000 217.66706 216.75813 215.88619
 215.11526 214.28232 213.36739 212.71845 212.15552 212.35936 212.84096 213.72511
 214.54996 215.80916 217.25468 217.99910 219.40445 222.74487 228.11823 232.61067
 236.27116 240.15273 244.05804 247.61528 250.44258 253.19698 256.12982 259.00525
 261.47183 263.85474 266.31082 268.63077 270.90131 273.04037 274.85452 276.58734
 278.32269 280.07645 281.62723 282.99329 284.18103 285.23700 286.20590 287.09390
 287.90485 288.63406 289.27158 290.13181
 366.78100 356.32284 345.74268 334.59651 322.98735 311.16919 299.02703 286.81786
 274.51770 262.40254 250.39938 239.68821 229.79805 220.88989 213.05973 206.04956
 199.87140 194.79724 191.36708 189.39691 188.42175 188.47359 189.29643 190.59226
 192.30510 194.38794 196.63878 198.98561 201.41845 203.88629 205.96213 207.79196
 209.40580 210.53864 210.75548 210.97132 210.89615 210.58899 210.20983 209.82767
 209.43250 209.13034 208.92618 208.77802 208.69385 209.01269 209.38653 209.76337
 210.54420 211.71004 212.94788 214.71872 216.63455 218.66539 220.74823 222.81907
 224.86690 226.93874 229.02358 231.11742 233.23425 235.39409 237.63793 239.99577
 242.60460 244.84344 246.83328 248.58612 249.99096 251.10179 251.91163 252.21547
 252.24031 252.00214 251.34998 250.28582 248.87966 247.02849 244.92533 242.74617
 240.52501 238.31684 236.12468 233.95152 231.79936 229.65419 227.66803 225.81287
 224.08371 222.54354 221.16138 219.92122 218.79106 217.73889 216.83073 215.95957
 215.18941 214.35724 213.44308 212.79492 212.23276 212.42007 212.86263 213.77066
 214.72032 215.94424 217.28381 218.14748 219.60109 222.77464 228.11000 232.55742
 236.18985 240.07243 243.96179 247.47113 250.22694 252.95001 255.90550 258.80783
 261.31079 263.70007 266.14511 268.50256 270.82645 273.01447 274.85657 276.59464
 278.33929 280.03333 281.57773 282.94586 284.13428 285.19141 286.16208 287.05078
 287.86334 288.59286 289.23465 290.09250
 366.78100 356.32346 345.74393 334.59839 322.98986 311.17232 299.03079 286.82225
 274.52272 262.40818 250.40565 239.69511 229.80557 220.89804 213.06850 206.05897
 199.88143 194.80790 191.37836 189.40883 188.43429 188.48676 189.31022 190.60668
 192.32015 194.40361 196.65508 199.00254 201.43601 203.90447 205.98094 207.81140
 209.42587 210.55933 210.77680 210.99326 210.91872 210.61219 210.23365 209.85212
 209.45758 209.15605 208.95251 208.80498 208.72144 209.04091 209.41537 209.79283
 210.57430 211.74076 212.97923 214.75069 216.66716 218.69862 220.78209 222.85355
 224.90202 226.97448 229.05994 231.15441 233.27187 235.43234 237.67680 240.03527
 242.64473 244.88420 246.87466 248.62813 250.03359 251.14505 251.95552 252.25998
 252.28545 252.04791 251.39638 250.33284 248.92731 247.07677 244.97424 242.79570
 240.57516 238.36763 236.17609 234.00356 231.85202 229.70749 227.72195 225.86742
 224.13888 222.59935 221.21781 219.97827 218.84874 217.79720 216.88967 216.01913
 215.24960 214.41806 213.50453 212.85699 212.29546 212.47456 212.89772 213.82417
 214.88383 216.07834 217.31161 218.29362 219.80644 222.80994 228.09865 232.48834
 236.09412 239.97710 243.84599 247.30183 249.99072 252.69258 255.67252 258.60660
 261.15530 263.56198 266.00461 268.40125 270.77176 273.00345 274.87762 276.62457
 278.38843 279.99484 281.53122 282.89862 284.08554 285.14288 286.11182 287.00208
 287.81482 288.54520 289.18750 290.04465
 366.78100 356.32344 345.74389 334.59833 322.98978 311.17222 299.03067 286.82211
 274.52256 262.40800 250.40545 239.69489 229.80534 220.89778 213.06823 206.05867
 199.88112 194.80756 191.37801 189.40845 188.43389 188.48634 189.30978 190.60623
 192.31967 194.40312 196.65456 199.00201 201.43545 203.90390 205.98034 207.81079
 209.42523 210.55868 210.77612 210.99257 210.91801 210.61145 210.23290 209.85134
 209.45679 209.15523 208.95168 208.80412 208.72057 209.04001 209.41446 209.79190
 210.57335 211.73979 212.97824 214.74968 216.66613 218.69757 220.78102 222.85246
 224.90090 226.97335 229.05879 231.15324 233.27068 235.43113 237.67557 240.03402
 242.64346 244.88291 246.87335 248.62680 250.03224 251.14369 251.95413 252.25858
 252.28402 252.04646 251.39491 250.33135 248.92580 247.07524 244.97269 242.79413
 240.57358 238.36602 236.17447 234.00191 231.85036 229.70580 227.72025 225.86569
 224.13714 222.59758 221.21603 219.97647 218.84691 217.79536 216.88780 216.01725
 215.24769 214.41614 213.50258 212.85503 212.29347 212.49449 212.96945 213.90521
 215.02061 216.16312 217.33345 218.44470 220.00253 222.86769 228.07492 232.41736
 236.00162 239.88652 243.72908 247.12720 249.75676 252.44350 255.44643 258.41113
 261.01236 263.44391 265.88712 268.31668 270.72366 272.99033 274.89041 276.64624
 278.41318 279.97327 281.50131 282.86676 284.05203 285.10681 286.07620 286.96436
 287.77844 288.50677 289.15076 290.00757
 366.78100 356.32294 345.74289 334.59683 322.98777 311.16972 299.02766 286.81860
 274.51854 262.40349 250.40043 239.68937 229.79932 220.89126 213.06120 206.05115
 199.87309 194.79903 191.36897 189.39892 188.42386 188.47580 189.29875 190.59469
 192.30763 194.39058 196.64152 198.98846 201.42140 203.88935 205.96529 207.79523
 209.40918 210.54212 210.75906 210.97501 210.89995 210.59289 210.21383 209.83178
 209.43672 209.13466 208.93061 208.78255 208.69849 209.01744 209.39138 209.76832
 210.54926 211.71521 212.95315 214.72409 216.64004 218.67098 220.75392 222.82487
 224.87281 226.94475 229.02969 231.12364 233.24058 235.40052 237.64447 240.00241
 242.61135 244.85030 246.84024 248.59318 249.99812 251.10907 251.91901 252.22295
 252.24790 252.00984 251.35778 250.29373 248.88767 247.03661 244.93356 242.75450
 240.53344 238.32538 236.13333 233.96027 231.80821 229.66316 227.67710 225.82204
 224.09299 222.55293 221.17087 219.93081 218.80076 217.74870 216.84064 215.96959
 215.19953 214.36747 213.45342 212.80536 212.24330 212.48866 213.06839 214.01067
 215.10326 216.21294 217.39030 218.59787 220.17747 222.94969 228.04391 232.35927
 235.92027 239.80417 243.61272 246.95009 249.53694 252.21214 255.23241 258.22412
 260.87610 263.33508 265.78125 268.24109 270.67822 272.96573 274.88422 276.64679
 278.41879 279.97931 281.48096 282.83853 284.02225 285.07513 286.04282 286.93109
 287.74341 288.47351 289.11871 289.97299
 366.78100 356.32294 345.74288 334.59681 322.98775 311.16969 299.02763 286.81856
 274.51850 262.40344 250.40038 239.68931 229.79925 220.89119 213.06113 206.05106
 199.87300 194.79894 191.36888 189.39881 188.42375 188.47569 189.29863 190.59456
 192.30750 194.39044 196.64138 198.98831 201.42125 203.88919 205.96513 207.79506
 209.40900 210.54194 210.75888 210.97481 210.89975 210.59269 210.21363 209.83156
 209.43650 209.13444 208.93038 208.78231 208.69825 209.01719 209.39113 209.76806
 210.54900 211.71494 212.95288 214.72381 216.63975 218.67069 220.75363 222.82456
 224.87250 226.94444 229.02938 231.12331 233.24025 235.40019 237.64413 240.00206
 242.61100 244.84994 246.83988 248.59281 249.99775 251.10869 251.91863 252.22256
 252.24750 252.00944 251.35738 250.29331 248.88725 247.03619 244.93313 242.75406
 240.53300 238.32494 236.13288 233.95981 231.80775 229.66269 227.67663 225.82156
 224.09250 222.55244 221.17038 219.93031 218.80025 217.74819 216.84013 215.96906
 215.19900 214.36694 213.45288 212.80481 212.24275 212.50906 213.13826 214.12218
 215.16393 216.28729 217.51022 218.74026 220.32585 223.04906 228.01064 232.30695
 235.84464 239.71625 243.47752 246.74579 249.30936 251.97595 255.01096 258.02747
 260.72855 263.22543 265.69229 268.18713 270.64526 272.94107 274.87668 276.64725
 278.42319 280.01694 281.44159 282.79630 283.98175 285.03613 286.00452 286.89285
 287.70679 288.43982 289.08014 289.93570
 366.78100 356.32396 345.74491 334.59987 322.99183 311.17479 299.03374 286.82570
 274.52666 262.41262 250.41057 239.70053 229.81149 220.90444 213.07540 206.06636
 199.88932 194.81627 191.38723 189.41819 188.44415 188.49710 189.32106 190.61802
 192.33197 194.41593 196.66789 199.01585 201.44980 203.91876 205.99572 207.82668
 209.44163 210.57559 210.79355 211.01050 210.93646 210.63042 210.25238 209.87133
 209.47729 209.17625 208.97321 208.82616 208.74312 209.06308 209.43803 209.81599
 210.59795 211.76491 213.00386 214.77582 216.69278 218.72474 220.80869 222.88065
 224.92961 227.00256 229.08852 231.18348 233.30144 235.46239 237.70735 240.06631
 242.67627 244.91622 246.90718 248.66114 250.06709 251.17905 251.99001 252.29497
 252.32092 252.08388 251.43284 250.36979 248.96475 247.11471 245.01267 242.83462
 240.61458 238.40754 236.21650 234.04445 231.89341 229.74937 227.76432 225.91028
 224.18224 222.64320 221.26215 220.02311 218.89407 217.84303 216.93598 216.06594
 215.29690 214.46585 213.55281 212.90577 212.34473 212.58327 213.14688 214.24039
 215.24066 216.39355 217.66013 218.88521 220.47968 223.14935 227.98444 232.25450
 235.77205 239.61441 243.30998 246.49666 249.04501 251.71233 254.76418 257.81091
 260.57367 263.12692 265.63141 268.15552 270.62680 272.93066 274.88577 276.66412
 278.43121 280.02036 281.41214 282.76291 283.94766 284.99829 285.96323 286.85052
 287.66547 288.39517 289.01678 289.85541
 366.78100 356.32556 345.74813 334.60469 322.99825 311.18282 299.04338 286.83694
 274.53951 262.42707 250.42663 239.71820 229.83076 220.92532 213.09789 206.09045
 199.91501 194.84358 191.41614 189.44870 188.47627 188.53083 189.35639 190.65496
 192.37052 194.45609 196.70965 199.05921 201.49478 203.96534 206.04390 207.87647
 209.49303 210.62859 210.84816 211.06672 210.99428 210.68985 210.31341 209.93397
 209.54154 209.24210 209.04066 208.89523 208.81379 209.13535 209.51192 209.89148
 210.67504 211.84361 213.08417 214.85773 216.77630 218.80986 220.89542 222.96899
 225.01955 227.09411 229.18168 231.27824 233.39780 235.56037 237.80693 240.16749
 242.77906 245.02062 247.01318 248.76875 250.17631 251.28987 252.10244 252.40900
 252.43657 252.20113 251.55169 250.49026 249.08682 247.23838 245.13795 242.96151
 240.74307 238.53764 236.34820 234.17776 232.02833 229.88589 227.90245 226.05002
 224.32358 222.78614 221.40671 220.16927 219.04183 217.99240 217.08696 216.21852
 215.45109 214.62165 213.71021 213.06478 212.50534 212.69026 213.12720 214.34019
 215.35291 216.51704 217.78929 219.03711 220.66920 223.25601 227.97285 232.20079
 235.70113 239.49953 243.11427 246.21375 248.74985 251.42892 254.50407 257.59293
 260.42896 263.04739 265.58881 268.13309 270.61584 272.92813 274.89948 276.68161
 278.43948 280.02512 281.38095 282.72638 283.90872 284.95963 285.92307 286.80908
 287.62366 288.35712 288.97559 289.80750
 366.78100 356.32728 345.75155 334.60983 323.00511 311.19138 299.05366 286.84894
 274.55321 262.44249 250.44377 239.73704 229.85132 220.94759 213.12187 206.11615
 199.94242 194.87270 191.44698 189.48125 188.51053 188.56681 189.39408 190.69436
 192.41164 194.49891 196.75419 199.10547 201.54274 204.01502 206.09530 207.92957
 209.54785 210.68512 210.90640 211.12668 211.05595 210.75323 210.37851 210.00078
 209.61006 209.31234 209.11261 208.96889 208.88917 209.21244 209.59072 209.97200
 210.75727 211.92755 213.16983 214.94510 216.86538 218.90066 220.98793 223.06321
 225.11548 227.19176 229.28104 231.37931 233.50059 235.66487 237.91314 240.27542
 242.88870 245.13197 247.12625 248.88353 250.29280 251.40808 252.22236 252.53063
 252.55991 252.32619 251.67846 250.61874 249.21701 247.37029 245.27157 243.09684
 240.88012 238.67640 236.48867 234.31995 232.17223 230.03150 228.04978 226.19906
 224.47433 222.93861 221.56089 220.32516 219.19944 218.15172 217.24799 216.38127
 215.61554 214.78782 213.87810 213.23437 212.67665 212.80618 213.11226 214.39909
 215.48047 216.67084 217.91437 219.18413 220.86429 223.37714 227.97694 232.15314
 235.63763 239.38217 242.90506 245.91278 248.43555 251.13608 254.24086 257.37698
 260.28699 262.96939 265.54800 268.11386 270.60733 272.92264 274.90210 276.69196
 278.44922 280.04135 281.40738 282.67758 283.85022 284.89789 285.85895 286.74466
 287.56558 288.29236 288.90948 289.74344
 366.78100 356.32901 345.75502 334.61504 323.01205 311.20006 299.06407 286.86109
 274.56710 262.45811 250.46112 239.75614 229.87215 220.97016 213.14617 206.14219
 199.97020 194.90221 191.47822 189.51423 188.54525 188.60326 189.43227 190.73428
 192.45330 194.54231 196.79932 199.15233 201.59135 204.06536 206.14737 207.98338
 209.60340 210.74241 210.96542 211.18743 211.11844 210.81746 210.44447 210.06848
 209.67949 209.38351 209.18552 209.04353 208.96554 209.29056 209.67057 210.05358
 210.84059 212.01261 213.25662 215.03363 216.95564 218.99265 221.08167 223.15868
 225.21269 227.29070 229.38172 231.48173 233.60474 235.77075 238.02077 240.38478
 242.99979 245.24480 247.24082 248.99983 250.41084 251.52785 252.34386 252.65388
 252.68489 252.45290 251.80691 250.74893 249.34894 247.50395 245.40696 243.23398
 241.01899 238.81700 236.63101 234.46403 232.31804 230.17905 228.19906 226.35007
 224.62709 223.09310 221.71711 220.48312 219.35914 218.31315 217.41116 216.54617
 215.78219 214.95620 214.04821 213.40622 212.85023 212.92674 213.10748 214.41107
 215.62125 216.85774 218.07010 219.32985 221.05458 223.49686 227.99673 232.12546
 235.58075 239.26176 242.67815 245.58557 248.09563 250.82820 253.96799 257.15042
 260.12823 262.87595 265.50031 268.10153 270.60626 272.92310 274.91638 276.71796
 278.47217 280.06268 281.44913 282.63437 283.79678 284.84271 285.80011 286.68652
 287.51080 288.22867 288.84567 289.67801
 366.78100 356.33010 345.75720 334.61830 323.01639 311.20549 299.07059 286.86869
 274.57579 262.46789 250.47199 239.76808 229.88518 220.98428 213.16138 206.15848
 199.98758 194.92068 191.49778 189.53487 188.56697 188.62607 189.45617 190.75927
 192.47937 194.56947 196.82756 199.18166 201.62176 204.09686 206.17996 208.01706
 209.63816 210.77825 211.00235 211.22545 211.15755 210.85765 210.48575 210.11085
 209.72294 209.42804 209.23114 209.09024 209.01334 209.33944 209.72054 210.10464
 210.89273 212.06583 213.31093 215.08903 217.01213 219.05023 221.14033 223.21842
 225.27352 227.35262 229.44472 231.54582 233.66992 235.83702 238.08811 240.45321
 243.06931 245.31541 247.31251 249.07261 250.48471 251.60280 252.41990 252.73100
 252.76310 252.53220 251.88730 250.83040 249.43150 247.58759 245.49169 243.31979
 241.10589 238.90499 236.72009 234.55419 232.40928 230.27138 228.29248 226.44458
 224.72268 223.18978 221.81488 220.58197 219.45907 218.41417 217.51327 216.64937
 215.88647 215.06157 214.15467 213.51376 212.95886 213.01497 213.14751 214.38402
 215.75385 217.06375 218.23914 219.49168 221.22957 223.61501 228.01433 232.10417
 235.52846 239.14523 242.44810 245.24596 247.74083 250.51093 253.69014 256.91504
 259.95163 262.76733 265.45404 268.10092 270.61572 272.93063 274.93631 276.75198
 278.50278 280.08676 281.47311 282.62778 283.78613 284.82980 285.78494 286.66742
 287.48566 288.19211 288.80499 289.63144
 366.78100 356.33098 345.75895 334.62093 323.01991 311.20989 299.07586 286.87484
 274.58282 262.47580 250.48077 239.77775 229.89573 220.99570 213.17368 206.17166
 200.00164 194.93561 191.51359 189.55157 188.58454 188.64452 189.47550 190.77948
 192.50045 194.59143 196.85041 199.20539 201.64636 204.12234 206.20632 208.04429
 209.66627 210.80725 211.03223 211.25620 211.18918 210.89016 210.51913 210.14511
 209.75809 209.46407 209.26804 209.12802 209.05200 209.37898 209.76095 210.14593
 210.93491 212.10888 213.35486 215.13384 217.05782 219.09679 221.18777 223.26675
 225.32272 227.40270 229.49568 231.59766 233.72263 235.89061 238.14259 240.50857
 243.12554 245.37252 247.37050 249.13147 250.54445 251.66343 252.48141 252.79338
 252.82636 252.59634 251.95231 250.89629 249.49827 247.65525 245.56022 243.38920
 241.17618 238.97616 236.79213 234.62711 232.48309 230.34606 228.36804 226.52102
 224.80000 223.26797 221.89395 220.66193 219.53990 218.49588 217.59586 216.73284
 215.97081 215.14679 214.24077 213.60075 213.04672 213.08990 213.19193 214.39096
 215.88675 217.22244 218.31195 219.61113 221.44681 223.73224 228.06821 232.14987
 235.51236 239.05267 242.23056 244.91132 247.38632 250.19196 253.40947 256.67404
 259.77304 262.66931 265.42834 268.11557 270.62885 272.93018 274.94095 276.77130
 278.52698 280.10867 281.49432 282.68192 283.72415 284.75339 285.70480 286.59079
 287.41266 288.11407 288.72906 289.55695
 366.78100 356.33197 345.76094 334.62390 323.02387 311.21484 299.08181 286.88177
 274.59074 262.48471 250.49068 239.78864 229.90761 221.00858 213.18755 206.18652
 200.01748 194.95245 191.53142 189.57039 188.60435 188.66532 189.49729 190.80226
 192.52422 194.61619 196.87616 199.23213 201.67409 204.15106 206.23603 208.07500
 209.69797 210.83993 211.06590 211.29087 211.22484 210.92680 210.55677 210.18374
 209.79771 209.50467 209.30964 209.17061 209.09558 209.42355 209.80651 210.19248
 210.98245 212.15742 213.40438 215.18435 217.10932 219.14929 221.24125 223.32122
 225.37819 227.45916 229.55312 231.65609 233.78206 235.95103 238.20400 240.57096
 243.18893 245.43690 247.43587 249.19783 250.61180 251.73177 252.55074 252.86370
 252.89767 252.66864 252.02561 250.97058 249.57354 247.73151 245.63748 243.46745
 241.25541 239.05638 236.87335 234.70932 232.56628 230.43025 228.45322 226.60719
 224.88716 223.35612 221.98309 220.75206 219.63103 218.58799 217.68896 216.82693
 216.06590 215.24286 214.33783 213.69880 213.14577 213.16815 213.22102 214.45766
 215.94188 217.29068 218.43365 219.73506 221.64685 223.98598 228.14717 232.19368
 235.50647 238.96130 241.99629 244.55231 247.01540 249.86789 253.13152 256.44525
 259.61572 262.59485 265.41254 268.11716 270.61691 272.89728 274.91205 276.75854
 278.52576 280.10660 281.49142 282.68680 283.71536 284.75354 285.72659 286.60486
 287.38605 288.07745 288.68640 289.52078
 366.78100 356.33295 345.76290 334.62685 323.02780 311.21975 299.08770 286.88865
 274.59860 262.49355 250.50050 239.79945 229.91940 221.02135 213.20130 206.20125
 200.03320 194.96915 191.54910 189.58905 188.62400 188.68595 189.51890 190.82485
 192.54780 194.64075 196.90170 199.25865 201.70160 204.17955 206.26550 208.10545
 209.72940 210.87235 211.09930 211.32525 211.26020 210.96315 210.59410 210.22205
 209.83700 209.54495 209.35089 209.21284 209.13879 209.46774 209.85169 210.23864
 211.02959 212.20554 213.45349 215.23444 217.16039 219.20134 221.29429 223.37524
 225.43319 227.51514 229.61009 231.71404 233.84099 236.01094 238.26489 240.63284
 243.25179 245.50074 247.50069 249.26364 250.67859 251.79954 252.61949 252.93344
 252.96839 252.74034 252.09829 251.04424 249.64819 247.80714 245.71409 243.54504
 241.33399 239.13594 236.95389 234.79084 232.64879 230.51374 228.53769 226.69264
 224.97359 223.44354 222.07149 220.84144 219.72139 218.67934 217.78129 216.92024
 216.16019 215.33814 214.43409 213.79604 213.24399 213.24605 213.25095 214.51933
 215.99571 217.32094 218.59576 219.95531 221.83290 224.20599 228.20398 232.21236
 235.48877 238.85384 241.73904 244.17265 246.64272 249.56004 252.88103 256.24551
 259.48428 262.53247 265.39407 268.10733 270.59552 272.85959 274.88156 276.74261
 278.51437 280.09256 281.47287 282.67703 283.66592 284.69583 285.65991 286.53198
 287.29504 287.98239 288.59067 289.43472
 366.78100 356.33415 345.76530 334.63045 323.03261 311.22576 299.09491 286.89706
 274.60821 262.50436 250.51252 239.81267 229.93382 221.03697 213.21812 206.21927
 200.05243 194.98958 191.57073 189.61188 188.64803 188.71118 189.54534 190.85249
 192.57664 194.67079 196.93294 199.29109 201.73525 204.21440 206.30155 208.14270
 209.76785 210.91200 211.14016 211.36731 211.30346 211.00761 210.63976 210.26891
 209.88507 209.59422 209.40137 209.26452 209.19167 209.52182 209.90698 210.29513
 211.08728 212.26443 213.51358 215.29573 217.22289 219.26504 221.35919 223.44134
 225.50049 227.58364 229.67980 231.78495 233.91310 236.08425 238.33940 240.70855
 243.32871 245.57886 247.58001 249.34416 250.76031 251.88246 252.70362 253.01877
 253.05492 252.82807 252.18722 251.13437 249.73953 247.89968 245.80783 243.63998
 241.43013 239.23328 237.05244 234.89059 232.74974 230.61589 228.64104 226.79719
 225.07935 223.55050 222.17965 220.95080 219.83195 218.79110 217.89426 217.03441
 216.27556 215.45471 214.55186 213.91501 213.36417 213.33522 213.26685 214.57141
 216.08763 217.36800 218.74127 220.17090 221.99268 224.37982 228.26067 232.21928
 235.45561 238.72395 241.47948 243.81879 246.30992 249.28568 252.64908 256.05563
 259.35641 262.46509 265.36609 268.09009 270.56451 272.80688 274.82944 276.70233
 278.47937 280.05994 281.44412 282.65048 283.63037 284.66360 285.63104 286.48996
 287.12015 287.80051 288.41806 289.28375
 366.78100 356.33514 345.76728 334.63341 323.03655 311.23069 299.10083 286.90397
 274.61611 262.51324 250.52238 239.82352 229.94566 221.04980 213.23194 206.23407
 200.06821 195.00635 191.58849 189.63063 188.66777 188.73190 189.56704 190.87518
 192.60032 194.69546 196.95860 199.31773 201.76287 204.24301 206.33115 208.17329
 209.79943 210.94456 211.17370 211.40184 211.33898 211.04412 210.67726 210.30739
 209.92453 209.63467 209.44281 209.30695 209.23509 209.56622 209.95236 210.34150
 211.13464 212.31278 213.56291 215.34605 217.27419 219.31733 221.41247 223.49561
 225.55574 227.63988 229.73702 231.84316 233.97230 236.14444 238.40057 240.77071
 243.39185 245.64299 247.64513 249.41027 250.82740 251.95054 252.77268 253.08882
 253.12596 252.90010 252.26023 251.20837 249.81451 247.97565 245.88479 243.71793
 241.50906 239.31320 237.13334 234.97248 232.83262 230.69976 228.72589 226.88303
 225.16617 223.63831 222.26845 221.04058 219.92272 218.88286 217.98700 217.12814
 216.37028 215.55041 214.64855 214.01269 213.46283 213.41182 213.29128 214.62373
 216.18060 217.44753 218.87671 220.32353 222.11009 224.53288 228.35295 232.27190
 235.42618 238.59590 241.23164 243.48386 245.98962 249.01112 252.41020 255.86594
 259.23279 262.40076 265.33304 268.05713 270.50903 272.73038 274.75439 276.63907
 278.41776 279.99619 281.38324 282.58795 283.63248 284.68390 285.67114 286.25552
 286.93689 287.62918 288.25806 289.12378
 366.78100 356.33567 345.76833 334.63500 323.03866 311.23333 299.10399 286.90766
 274.62032 262.51799 250.52765 239.82932 229.95199 221.05665 213.23932 206.24198
 200.07665 195.01531 191.59798 189.64064 188.67831 188.74298 189.57864 190.88731
 192.61297 194.70864 196.97230 199.33197 201.77763 204.25830 206.34696 208.18963
 209.81630 210.96196 211.19163 211.42029 211.35796 211.06362 210.69729 210.32795
 209.94562 209.65628 209.46495 209.32962 209.25828 209.58995 209.97661 210.36628
 211.15994 212.33861 213.58927 215.37294 217.30161 219.34527 221.44094 223.52460
 225.58527 227.66993 229.76760 231.87426 234.00393 236.17659 238.43326 240.80393
 243.42559 245.67726 247.67992 249.44559 250.86325 251.98692 252.80958 253.12625
 253.16392 252.93858 252.29925 251.24791 249.85458 248.01624 245.92591 243.75957
 241.55124 239.35590 237.17657 235.01624 232.87690 230.74457 228.77123 226.92890
 225.21256 223.68523 222.31589 221.08856 219.97122 218.93189 218.03656 217.17822
 216.42089 215.60155 214.70022 214.06488 213.51555 213.46097 213.33205 214.68867
 216.27533 217.54225 219.00487 220.46655 222.21887 224.67664 228.46774 232.30797
 235.39749 238.46693 240.97075 243.12415 245.64900 248.72522 252.17023 255.68204
 259.11072 262.32443 265.28052 268.01324 270.46295 272.68298 274.71600 276.59763
 278.36169 279.92389 281.30353 282.51276 283.55618 284.61038 285.60562 286.11285
 286.81021 287.50162 288.12747 288.99063
 366.78100 356.33614 345.76927 334.63641 323.04055 311.23568 299.10682 286.91095
 274.62409 262.52223 250.53236 239.83450 229.95764 221.06277 213.24591 206.24905
 200.08418 195.02332 191.60645 189.64959 188.68773 188.75286 189.58900 190.89814
 192.62427 194.72041 196.98455 199.34468 201.79082 204.27195 206.36109 208.20423
 209.83136 210.97750 211.20764 211.43677 211.37491 211.08105 210.71518 210.34632
 209.96445 209.67559 209.48473 209.34986 209.27900 209.61114 209.99827 210.38841
 211.18255 212.36168 213.61282 215.39696 217.32609 219.37023 221.46636 223.55050
 225.61164 227.69677 229.79491 231.90205 234.03218 236.20532 238.46246 240.83359
 243.45573 245.70786 247.71100 249.47714 250.89527 252.01941 252.84255 253.15968
 253.19782 252.97296 252.33409 251.28323 249.89036 248.05250 245.96264 243.79677
 241.58891 239.39405 237.21518 235.05532 232.91646 230.78459 228.81173 226.96986
 225.25400 223.72714 222.35827 221.13141 220.01455 218.97568 218.08082 217.22296
 216.46609 215.64723 214.74636 214.11150 213.56264 213.51404 213.41821 214.69336
 216.37534 217.60266 219.05473 220.57433 222.28690 224.71950 228.46655 232.27055
 235.31723 238.34879 240.73315 242.73112 245.22536 248.39636 251.94174 255.53656
 259.02316 262.27249 265.24658 267.98343 270.43851 272.64786 274.67389 276.55060
 278.27908 279.83209 281.21307 282.39069 283.42676 284.47757 285.44345 286.29059
 287.06274 287.79492 288.43735 289.25601
 366.78100 356.33658 345.77015 334.63773 323.04231 311.23789 299.10946 286.91404
 274.62762 262.52619 250.53677 239.83935 229.96293 221.06850 213.25208 206.25566
 200.09124 195.03081 191.61439 189.65797 188.69654 188.76212 189.59870 190.90828
 192.63485 194.73143 196.99601 199.35658 201.80316 204.28474 206.37432 208.21789
 209.84547 210.99205 211.22262 211.45220 211.39078 211.09736 210.73193 210.36351
 209.98209 209.69367 209.50324 209.36882 209.29840 209.63097 210.01855 210.40913
 211.20371 212.38328 213.63486 215.41944 217.34901 219.39359 221.49017 223.57475
 225.63632 227.72190 229.82048 231.92805 234.05863 236.23221 238.48979 240.86136
 243.48394 245.73652 247.74010 249.50667 250.92525 252.04983 252.87340 253.19098
 253.22956 253.00514 252.36671 251.31629 249.92387 248.08644 245.99702 243.83160
 241.62418 239.42975 237.25133 235.09191 232.95348 230.82206 228.84964 227.00822
 225.29279 223.76637 222.39795 221.17153 220.05510 219.01668 218.12226 217.26483
 216.50841 215.68999 214.78957 214.15514 213.60672 213.58253 213.62552 214.74667
 216.32869 217.60716 219.17372 220.81448 222.57393 224.94888 228.58687 232.27397
 235.17201 238.05807 240.43782 242.58307 245.11510 248.26868 251.82149 255.44864
 258.95065 262.20010 265.18845 267.91388 270.35199 272.54446 274.55441 276.41895
 278.13358 279.69913 281.25217 282.66763 283.96286 285.14798 286.22922 287.20874
 288.08972 288.87424 289.55957 290.43295
 366.78100 356.33933 345.77567 334.64600 323.05333 311.25166 299.12600 286.93333
 274.64966 262.55099 250.56433 239.86966 229.99599 221.10432 213.29066 206.29699
 200.13532 195.07765 191.66399 189.71032 188.75165 188.81999 189.65932 190.97165
 192.70098 194.80032 197.06765 199.43098 201.88031 204.36465 206.45698 208.30331
 209.93364 211.08298 211.31631 211.54864 211.48997 211.19931 210.83664 210.47097
 210.09231 209.80664 209.61897 209.48730 209.41964 209.75497 210.14530 210.53863
 211.33597 212.51830 213.77263 215.55996 217.49230 219.53963 221.63896 223.72629
 225.79063 227.87896 229.98029 232.09063 234.22396 236.40029 238.66062 241.03496
 243.66029 245.91562 247.92195 249.69129 251.11262 252.23995 253.06628 253.38662
 253.42795 253.20628 252.57061 251.52295 250.13328 248.29861 246.21195 244.04928
 241.84461 239.65294 237.47728 235.32061 233.18494 231.05627 229.08661 227.24794
 225.53527 224.01160 222.64594 221.42227 220.30860 219.27293 218.38127 217.52660
 216.77293 215.95727 215.05960 214.42793 213.88226 213.76781 213.69305 214.85896
 216.46777 217.88145 219.43364 220.99362 222.67377 224.93839 228.74199 232.17757
 235.05684 237.84145 240.17148 242.36646 244.98849 248.21356 251.80211 255.42508
 258.90344 262.13336 265.10248 267.79834 270.21552 272.38309 274.35901 276.15927
 278.05933 279.96097 281.75439 283.32916 284.69199 285.89774 286.99780 287.99438
 288.89069 289.68887 290.38614 291.27472
 366.78100 356.34357 345.78413 334.65870 323.07026 311.27283 299.15140 286.96296
 274.68353 262.58909 250.60666 239.91622 230.04679 221.15936 213.34992 206.36049
 200.20305 195.14962 191.74019 189.79075 188.83632 188.90888 189.75245 191.06902
 192.80258 194.90615 197.17771 199.54528 201.99884 204.48741 206.58398 208.43454
 210.06911 211.22267 211.46024 211.69681 211.64237 211.35594 210.99750 210.63607
 210.26164 209.98020 209.79677 209.66933 209.60590 209.94546 210.34003 210.73760
 211.53916 212.72573 213.98429 215.77586 217.71243 219.76399 221.86756 223.95912
 226.02769 228.12026 230.22582 232.34039 234.47795 236.65852 238.92308 241.30165
 243.93122 246.19078 248.20135 249.97491 251.40048 252.53205 253.36261 253.68718
 253.73274 253.51531 252.88387 251.84044 250.45501 248.62457 246.54214 244.38370
 242.18327 239.99584 237.82440 235.67197 233.54053 231.41610 229.45067 227.61623
 225.90780 224.38836 223.02693 221.80749 220.69806 219.66663 218.77919 217.92876
 217.17932 216.36789 215.47446 214.84702 214.30559 214.00746 213.61650 214.93018
 216.61501 218.09911 219.59029 221.05853 222.67139 224.88280 228.70352 232.07924
 234.85745 237.53224 239.83295 242.09171 244.71793 248.07504 251.81761 255.48552
 258.95508 262.15265 265.06903 267.68005 269.97745 272.03519 273.99066 275.72263
 277.73026 279.79504 281.58862 283.16354 284.52646 285.73233 286.83249 287.82916
 288.72556 289.52377 290.22110 291.10977
 366.78100 356.34544 345.78789 334.66433 323.07778 311.28222 299.16266 286.97611
 274.69855 262.60600 250.62544 239.93688 230.06933 221.18377 213.37622 206.38866
 200.23311 195.18155 191.77399 189.82644 188.87388 188.94833 189.79377 191.11221
 192.84766 194.95310 197.22655 199.59599 202.05143 204.54188 206.64032 208.49277
 210.12921 211.28465 211.52410 211.76254 211.70999 211.42543 211.06888 210.70932
 210.33676 210.05721 209.87565 209.75010 209.68854 210.02998 210.42643 210.82587
 211.62932 212.81776 214.07820 215.87165 217.81009 219.86354 221.96898 224.06242
 226.13287 228.22731 230.33476 232.45120 234.59064 236.77309 239.03953 241.41998
 244.05142 246.31287 248.32531 250.10075 251.52820 252.66164 253.49409 253.82053
 253.86797 253.65242 253.02286 251.98131 250.59775 248.76919 246.68864 244.53208
 242.33353 240.14797 237.97841 235.82786 233.69830 231.57575 229.61219 227.77964
 226.07308 224.55552 223.19597 221.97841 220.87086 219.84130 218.95574 218.10719
 217.35963 216.55008 215.65852 215.03296 214.49341 214.10999 213.48642 214.99486
 216.71516 218.06937 219.68268 221.22107 222.86168 225.11615 228.65721 232.07112
 234.84369 237.43524 239.57260 241.65918 244.32932 247.99838 251.72511 255.40694
 258.88953 262.07895 264.97784 267.54919 269.85715 271.89670 273.81888 275.65509
 277.32120 278.88812 280.53128 282.10696 283.47058 284.67703 285.77774 286.77490
 287.67175 288.47040 289.16806 290.05716
 366.78100 356.34259 345.78217 334.65576 323.06634 311.26793 299.14552 286.95610
 274.67569 262.58027 250.59686 239.90545 230.03503 221.14662 213.33620 206.34579
 200.18738 195.13296 191.72255 189.77213 188.81672 188.88831 189.73089 191.04648
 192.77906 194.88165 197.15223 199.51882 201.97141 204.45899 206.55458 208.40416
 210.03775 211.19034 211.42692 211.66251 211.60709 211.31968 210.96027 210.59785
 210.22244 209.94002 209.75561 209.62720 209.56278 209.90137 210.29495 210.69154
 211.49213 212.67771 213.93530 215.72588 217.66147 219.71206 221.81464 223.90523
 225.97281 228.06440 230.16899 232.28257 234.41916 236.59874 238.86233 241.23992
 243.86850 246.12709 248.13667 249.90926 251.33385 252.46443 253.29402 253.61760
 253.66219 253.44377 252.81136 251.76695 250.38053 248.54912 246.46570 244.30629
 242.10488 239.91646 237.74405 235.59063 233.45822 231.33281 229.36639 227.53098
 225.82156 224.30115 222.93874 221.71832 220.60791 219.57549 218.68708 217.83567
 217.08525 216.27284 215.37842 214.75001 214.20760 213.97426 213.49269 214.96776
 216.92540 217.86104 219.61653 221.28706 222.95009 225.15378 228.62752 232.04034
 234.83533 237.34570 239.36409 241.34468 244.07506 247.68126 251.51540 255.22701
 258.76074 261.99228 264.90692 267.52017 269.79129 271.82642 273.73169 275.55484
 277.23120 278.78354 280.16504 281.51126 282.69553 283.75708 284.74634 285.67212
 286.51562 287.26678 287.92300 288.75925
 366.78100 356.33967 345.77634 334.64701 323.05467 311.25334 299.12801 286.93568
 274.65235 262.55402 250.56768 239.87335 230.00002 221.10869 213.29536 206.30203
 200.14070 195.08336 191.67003 189.71670 188.75837 188.82704 189.66671 190.97937
 192.70904 194.80871 197.07638 199.44005 201.88972 204.37439 206.46705 208.31372
 209.94439 211.09406 211.32773 211.56040 211.50207 211.21173 210.84940 210.48407
 210.10574 209.82041 209.63308 209.50174 209.43441 209.77008 210.16075 210.55442
 211.35209 212.53476 213.78942 215.57709 217.50976 219.55743 221.65710 223.74477
 225.80943 227.89810 229.99977 232.11044 234.24411 236.42078 238.68145 241.05611
 243.68178 245.93745 247.94412 249.71379 251.13546 252.26312 253.08979 253.41046
 253.45213 253.23080 252.59547 251.54814 250.15880 248.32447 246.23814 244.07581
 241.87148 239.68015 237.50482 235.34848 233.21315 231.08482 229.11549 227.27716
 225.56483 224.04149 222.67616 221.45283 220.33950 219.30417 218.41284 217.55851
 216.80517 215.98984 215.09251 214.46118 213.91585 213.83347 213.63881 215.09680
 217.12939 217.98502 219.78529 221.52325 223.19589 225.34143 228.75943 232.02219
 234.75969 237.14140 239.01016 240.92223 243.70419 247.36856 251.26112 255.06766
 258.66751 261.93640 264.84805 267.48331 269.74780 271.74200 273.61694 275.42975
 277.17343 278.76453 280.20740 281.54285 282.72681 283.78729 284.77039 285.64825
 286.33212 286.79227 287.39005 288.17053
 366.78100 356.33825 345.77350 334.64276 323.04901 311.24626 299.11951 286.92577
 274.64102 262.54127 250.55352 239.85778 229.98303 221.09028 213.27553 206.28078
 200.11804 195.05929 191.64454 189.68979 188.73005 188.79730 189.63555 190.94680
 192.67506 194.77331 197.03956 199.40181 201.85006 204.33332 206.42457 208.26982
 209.89907 211.04733 211.27958 211.51083 211.45108 211.15934 210.79559 210.42884
 210.04909 209.76234 209.57360 209.44085 209.37210 209.70635 210.09561 210.48786
 211.28411 212.46536 213.71862 215.50487 217.43612 219.48237 221.58062 223.66688
 225.73013 227.81738 229.91763 232.02689 234.15914 236.33439 238.59364 240.96690
 243.59115 245.84540 247.85065 249.61890 251.03916 252.16541 252.99066 253.30991
 253.35017 253.12742 252.49067 251.44192 250.05118 248.21543 246.12768 243.96393
 241.75818 239.56544 237.38869 235.23094 233.09419 230.96445 228.99370 227.15395
 225.44020 223.91546 222.54871 221.32396 220.20921 219.17246 218.27972 217.42397
 216.66922 215.85247 214.95373 214.32098 213.77423 213.78114 213.79745 215.16800
 217.15532 218.01744 219.93127 221.80331 223.44991 225.51848 228.80281 232.04552
 234.63971 236.86542 238.62479 240.56264 243.48022 247.18004 251.11371 254.95656
 258.57156 261.84528 264.76764 267.42441 269.70660 271.70477 273.56299 275.34244
 277.04758 278.60510 280.06784 281.42419 282.60928 283.66946 284.65640 285.53928
 286.31772 286.83463 287.40250 288.18069
 366.78100 356.33645 345.76990 334.63735 323.04180 311.23725 299.10870 286.91315
 274.62660 262.52505 250.53550 239.83795 229.96140 221.06685 213.25030 206.25375
 200.08920 195.02865 191.61210 189.65555 188.69400 188.75945 189.59590 190.90535
 192.63179 194.72824 196.99269 199.35314 201.79959 204.28104 206.37049 208.21394
 209.84139 210.98784 211.21829 211.44774 211.38619 211.09264 210.72709 210.35854
 209.97699 209.68844 209.49789 209.36334 209.29279 209.62524 210.01269 210.40314
 211.19759 212.37704 213.62849 215.41294 217.34239 219.38684 221.48329 223.56774
 225.62919 227.71464 229.81309 231.92054 234.05099 236.22444 238.48189 240.85334
 243.47579 245.72824 247.73169 249.49814 250.91659 252.04104 252.86449 253.18194
 253.22038 252.99583 252.35728 251.30673 249.91418 248.07663 245.98708 243.82153
 241.61398 239.41943 237.24088 235.08133 232.94278 230.81123 228.83868 226.99713
 225.28158 223.75503 222.38648 221.15993 220.04338 219.00483 218.11028 217.25273
 216.49618 215.67763 214.77708 214.14253 213.59398 213.71365 213.99637 215.19379
 217.06702 218.23410 220.10832 221.97563 223.61540 225.64218 228.81407 232.03238
 234.49411 236.56000 238.25269 240.25499 243.28671 247.06226 251.02022 254.87144
 258.48676 261.75305 264.67517 267.35092 269.64716 271.64362 273.47391 275.21643
 276.88837 278.42441 279.89322 281.24857 282.41812 283.45764 284.39758 285.27628
 286.09128 286.79019 287.39703 288.17691
 366.78100 356.33624 345.76948 334.63672 323.04097 311.23621 299.10745 286.91169
 274.62493 262.52317 250.53342 239.83566 229.95890 221.06414 213.24738 206.25062
 200.08586 195.02511 191.60835 189.65159 188.68983 188.75507 189.59131 190.90055
 192.62680 194.72304 196.98728 199.34752 201.79376 204.27500 206.36425 208.20749
 209.83473 210.98097 211.21121 211.44045 211.37869 211.08494 210.71918 210.35042
 209.96866 209.67990 209.48914 209.35438 209.28363 209.61587 210.00311 210.39335
 211.18759 212.36683 213.61808 215.40232 217.33156 219.37580 221.47204 223.55628
 225.61752 227.70277 229.80101 231.90825 234.03849 236.21173 238.46897 240.84021
 243.46246 245.71470 247.71794 249.48418 250.90242 252.02666 252.84991 253.16715
 253.20539 252.98063 252.34187 251.29111 249.89835 248.06060 245.97084 243.80508
 241.59732 239.40256 237.22380 235.06405 232.92529 230.79353 228.82077 226.97901
 225.26325 223.73649 222.36774 221.14098 220.02422 218.98546 218.09070 217.23294
 216.47618 215.65743 214.75667 214.12191 213.57315 213.73282 214.11003 215.21684
 217.04718 218.44774 220.28249 222.10303 223.71829 225.71248 228.79549 232.00339
 234.32578 236.22914 237.85780 239.92186 243.08070 246.93298 250.93301 254.81369
 258.43454 261.68539 264.58966 267.26398 269.55728 271.53159 273.32669 275.04031
 276.69083 278.25604 279.74442 281.10590 282.28503 283.33102 284.28955 285.17480
 285.99265 286.70163 287.32733 288.12521
 366.78100 356.33715 345.77130 334.63946 323.04461 311.24076 299.11291 286.91806
 274.63222 262.53137 250.54252 239.84567 229.96982 221.07598 213.26013 206.26428
 200.10043 195.04058 191.62474 189.66889 188.70804 188.77419 189.61134 190.92150
 192.64865 194.74580 197.01095 199.37210 201.81926 204.30141 206.39156 208.23571
 209.86386 211.01102 211.24217 211.47232 211.41147 211.11862 210.75378 210.38593
 210.00508 209.71723 209.52738 209.39354 209.32369 209.65684 210.04499 210.43614
 211.23130 212.41145 213.66360 215.44875 217.37890 219.42406 221.52121 223.60636
 225.66851 227.75466 229.85382 231.96197 234.09312 236.26727 238.52542 240.89758
 243.52073 245.77388 247.77803 249.54518 250.96434 252.08949 252.91364 253.23179
 253.27094 253.04710 252.40925 251.35940 249.96755 248.13070 246.04186 243.87701
 241.67016 239.47631 237.29846 235.13962 233.00177 230.87092 228.89907 227.05822
 225.34338 223.81753 222.44968 221.22383 220.10798 219.07014 218.17629 217.31944
 216.56359 215.74574 214.84590 214.21205 213.66420 213.80939 214.15242 215.24730
 217.05762 218.60999 220.48566 222.24512 223.82535 225.82228 228.84973 231.97243
 234.16220 235.90834 237.49579 239.65892 242.94102 246.84233 250.87776 254.77847
 258.39352 261.61813 264.49966 267.15399 269.41415 271.34918 273.11316 274.82770
 276.51651 278.12018 279.65421 281.02072 282.20499 283.25406 284.21597 285.09912
 285.91193 286.62573 287.24973 288.04788
 366.78100 356.33752 345.77205 334.64057 323.04609 311.24262 299.11514 286.92066
 274.63519 262.53471 250.54623 239.84976 229.97428 221.08080 213.26533 206.26985
 200.10637 195.04690 191.63142 189.67594 188.71547 188.78199 189.61951 190.93004
 192.65756 194.75508 197.02061 199.38213 201.82966 204.31218 206.40270 208.24723
 209.87575 211.02327 211.25480 211.48532 211.42484 211.13237 210.76789 210.40041
 210.01994 209.73246 209.54298 209.40951 209.34003 209.67355 210.06208 210.45360
 211.24912 212.42965 213.68217 215.46769 217.39822 219.44374 221.54126 223.62679
 225.68931 227.77583 229.87536 231.98388 234.11540 236.28993 238.54845 240.92097
 243.54450 245.79802 247.80254 249.57007 250.98959 252.11511 252.93964 253.25816
 253.29768 253.07421 252.43673 251.38725 249.99578 248.15930 246.07082 243.90635
 241.69987 239.50640 237.32892 235.17044 233.03297 230.90249 228.93101 227.09054
 225.37606 223.85058 222.48311 221.25763 220.14215 219.10468 218.21120 217.35472
 216.59925 215.78177 214.88229 214.24882 213.70134 213.85762 214.22682 215.31682
 217.06662 218.71225 220.67810 222.39810 223.95253 225.96194 228.94263 231.91052
 233.97369 235.57155 237.14931 239.45345 242.83586 246.79129 250.84387 254.74190
 258.33377 261.53473 264.40558 267.03699 269.26978 271.18521 272.94794 274.68240
 276.40045 278.03574 279.57156 280.93805 282.12234 283.17145 284.13135 285.01105
 285.81641 286.53625 287.14771 287.94083
 366.78100 356.33740 345.77180 334.64020 323.04560 311.24200 299.11440 286.91981
 274.63421 262.53361 250.54501 239.84841 229.97281 221.07921 213.26361 206.26801
 200.10441 195.04481 191.62921 189.67361 188.71301 188.77942 189.61682 190.92722
 192.65462 194.75202 197.01742 199.37882 201.82622 204.30862 206.39902 208.24342
 209.87182 211.01922 211.25062 211.48103 211.42043 211.12783 210.76323 210.39563
 210.01503 209.72743 209.53783 209.40423 209.33463 209.66803 210.05643 210.44783
 211.24323 212.42364 213.67604 215.46144 217.39184 219.43724 221.53464 223.62004
 225.68244 227.76884 229.86824 231.97664 234.10804 236.28244 238.54084 240.91325
 243.53665 245.79005 247.79445 249.56185 250.98125 252.10665 252.93105 253.24945
 253.28885 253.06525 252.42765 251.37805 249.98645 248.14986 246.06126 243.89666
 241.69006 239.49646 237.31886 235.16026 233.02266 230.89206 228.92046 227.07986
 225.36526 223.83966 222.47206 221.24647 220.13087 219.09327 218.19967 217.34307
 216.58747 215.76987 214.87027 214.23667 213.68907 213.88239 214.33911 215.38800
 217.07455 218.78131 220.82751 222.53964 224.07350 226.07748 229.00642 231.84402
 233.76021 235.21332 236.79810 239.25128 242.73364 246.73618 250.80228 254.69894
 258.27609 261.46063 264.31760 266.93094 269.13535 271.03247 272.80783 274.56076
 276.29578 277.95880 279.49390 280.86108 282.04489 283.09576 284.05630 284.93494
 285.73688 286.45596 287.07056 287.86392
 366.78100 356.33694 345.77088 334.63882 323.04376 311.23970 299.11164 286.91658
 274.63053 262.52947 250.54041 239.84335 229.96729 221.07323 213.25717 206.26111
 200.09705 195.03699 191.62093 189.66487 188.70381 188.76975 189.60669 190.91664
 192.64358 194.74052 197.00546 199.36640 201.81334 204.29528 206.38522 208.22916
 209.85710 211.00404 211.23498 211.46492 211.40386 211.11080 210.74575 210.37769
 209.99663 209.70857 209.51851 209.38445 209.31439 209.64733 210.03527 210.42621
 211.22115 212.40109 213.65303 215.43797 217.36791 219.41286 221.50980 223.59474
 225.65668 227.74262 229.84156 231.94950 234.08044 236.25438 238.51232 240.88426
 243.50720 245.76014 247.76408 249.53102 250.94997 252.07491 252.89885 253.21679
 253.25573 253.03167 252.39361 251.34355 249.95149 248.11443 246.02537 243.86031
 241.65325 239.45919 237.28113 235.12208 232.98402 230.85296 228.88090 227.03984
 225.32478 223.79872 222.43066 221.20460 220.08854 219.05048 218.15642 217.29936
 216.54330 215.72524 214.82519 214.19113 213.64307 213.88644 214.46149 215.46951
 217.07251 218.83348 220.94641 222.67412 224.19144 226.17343 229.06050 231.79041
 233.56409 234.88846 236.48880 239.07745 242.65097 246.68665 250.76340 254.66144
 258.22751 261.39154 264.22427 266.80899 268.98978 270.88315 272.65674 274.43289
 276.21289 277.88425 279.42026 280.78561 281.96957 283.02148 283.98212 284.86020
 285.65945 286.37320 286.99542 287.78906
 366.78100 356.33630 345.76959 334.63689 323.04119 311.23648 299.10778 286.91208
 274.62537 262.52367 250.53397 239.83626 229.95956 221.06486 213.24815 206.25145
 200.08675 195.02604 191.60934 189.65264 188.69093 188.75623 189.59252 190.90182
 192.62812 194.72441 196.98871 199.34901 201.79530 204.27660 206.36590 208.20919
 209.83649 210.98279 211.21308 211.44238 211.38068 211.08697 210.72127 210.35257
 209.97086 209.68216 209.49146 209.35675 209.28605 209.61835 210.00564 210.39594
 211.19024 212.36953 213.62083 215.40513 217.33442 219.37872 221.47502 223.55931
 225.62061 227.70591 229.80420 231.91150 234.04180 236.21509 238.47239 240.84369
 243.46598 245.71828 247.72157 249.48787 250.90617 252.03046 252.85376 253.17106
 253.20935 252.98465 252.34595 251.29524 249.90254 248.06484 245.97513 243.80943
 241.60173 239.40702 237.22832 235.06862 232.92991 230.79821 228.82551 226.98380
 225.26810 223.74140 222.37269 221.14599 220.02929 218.99058 218.09588 217.23818
 216.48147 215.66277 214.76207 214.12736 213.57866 213.87779 214.58455 215.56915
 217.07756 218.86786 221.03998 222.79773 224.30484 226.24283 229.09270 231.74094
 233.38405 234.59026 236.20619 238.91519 242.57277 246.64113 250.72887 254.62752
 258.18420 261.33218 264.15140 266.73050 268.89026 270.69199 272.34702 274.37814
 276.16110 277.83444 279.36896 280.73352 281.91711 282.96744 283.92896 284.80594
 285.60187 286.31558 286.93814 287.75671
 366.78100 356.33560 345.76820 334.63480 323.03840 311.23300 299.10360 286.90720
 274.61980 262.51739 250.52699 239.82859 229.95119 221.05579 213.23839 206.24099
 200.07559 195.01419 191.59679 189.63939 188.67699 188.74159 189.57719 190.88579
 192.61139 194.70699 196.97058 199.33018 201.77578 204.25638 206.34498 208.18758
 209.81418 210.95978 211.18938 211.41798 211.35558 211.06118 210.69478 210.32538
 209.94298 209.65358 209.46218 209.32677 209.25537 209.58697 209.97357 210.36317
 211.15677 212.33537 213.58597 215.36957 217.29817 219.34177 221.43737 223.52097
 225.58157 227.66617 229.76377 231.87037 233.99996 236.17256 238.42916 240.79976
 243.42136 245.67296 247.67556 249.44116 250.85876 251.98236 252.80496 253.12156
 253.15916 252.93376 252.29436 251.24296 249.84956 248.01116 245.92075 243.75435
 241.54595 239.35055 237.17115 235.01075 232.87135 230.73895 228.76555 226.92315
 225.20675 223.67935 222.30995 221.08255 219.96515 218.92575 218.03035 217.17194
 216.41454 215.59514 214.69374 214.05834 213.50894 213.86447 214.70445 215.67358
 217.09686 218.88304 221.11365 222.91220 224.42023 226.30336 229.11015 231.69167
 233.21338 234.30972 235.94095 238.76106 242.49666 246.59683 250.69519 254.59393
 258.14154 261.27771 264.08691 266.64667 268.73328 270.45868 272.34659 274.26819
 276.12064 277.78442 279.31207 280.67493 281.85715 282.90558 283.86789 284.74380
 285.53970 286.25385 286.87833 287.69852
 366.78100 356.33457 345.76614 334.63172 323.03429 311.22786 299.09743 286.90000
 274.61158 262.50815 250.51672 239.81729 229.93886 221.04244 213.22401 206.22558
 200.05915 194.99672 191.57830 189.61987 188.65644 188.72001 189.55458 190.86216
 192.58673 194.68130 196.94387 199.30245 201.74702 204.22659 206.31416 208.15573
 209.78131 210.92588 211.15445 211.38202 211.31859 211.02317 210.65574 210.28531
 209.90188 209.61145 209.41903 209.28260 209.21017 209.54074 209.92631 210.31489
 211.10746 212.28503 213.53460 215.31717 217.24475 219.28732 221.38189 223.46446
 225.52403 227.60761 229.70418 231.80975 233.93832 236.10989 238.36547 240.73504
 243.35561 245.60618 247.60775 249.37233 250.78890 251.91147 252.73304 253.04861
 253.08519 252.85876 252.21833 251.16590 249.77148 247.93205 245.84062 243.67319
 241.46376 239.26734 237.08691 234.92548 232.78505 230.65162 228.67720 226.83377
 225.11634 223.58791 222.21748 220.98906 219.87063 218.83020 217.93377 217.07434
 216.31592 215.49549 214.59306 213.95663 213.40620 213.83148 214.83627 215.78944
 217.11525 218.87688 221.16183 223.00056 224.52193 226.35535 229.11722 231.64133
 233.05856 234.06308 235.71300 238.63113 242.43523 246.55659 250.65771 254.55411
 258.09229 261.21774 264.02234 266.56613 268.61615 270.33969 272.30075 274.18277
 276.04861 277.70886 279.23294 280.59277 281.77209 282.81821 283.77515 284.65042
 285.45032 286.16519 286.77933 287.57916
 366.78100 356.33341 345.76382 334.62823 323.02965 311.22206 299.09047 286.89188
 274.60229 262.49770 250.50511 239.80453 229.92494 221.02735 213.20776 206.20817
 200.04058 194.97699 191.55741 189.59782 188.63323 188.69564 189.52905 190.83546
 192.55888 194.65229 196.91370 199.27111 201.71452 204.19293 206.27934 208.11976
 209.74417 210.88758 211.11499 211.34140 211.27681 210.98022 210.61164 210.24005
 209.85546 209.56387 209.37028 209.23269 209.15910 209.48852 209.87293 210.26034
 211.05175 212.22816 213.47657 215.25798 217.18440 219.22581 221.31922 223.40063
 225.45904 227.54145 229.63686 231.74128 233.86869 236.03910 238.29351 240.66192
 243.28133 245.53074 247.53116 249.29457 250.70998 251.83139 252.65180 252.96621
 253.00163 252.77404 252.13245 251.07886 249.68327 247.84268 245.75009 243.58151
 241.37092 239.17333 236.99174 234.82915 232.68756 230.55297 228.57739 226.73280
 225.01421 223.48462 222.11303 220.88344 219.76385 218.72227 217.82468 216.96409
 216.20450 215.38291 214.47932 213.84173 213.29015 213.78815 214.96471 215.92801
 217.16327 218.86597 221.17725 223.05962 224.60472 226.39189 229.10126 231.55905
 232.88734 233.83592 235.52155 238.52631 242.38773 246.53311 250.63420 254.51953
 258.04239 261.16257 263.96957 266.50427 268.54755 270.28247 272.21591 274.14691
 275.96707 277.62418 279.14920 280.50790 281.68423 282.72827 283.68219 284.55984
 285.36499 286.07864 286.69186 287.49054
 366.78100 356.33255 345.76211 334.62566 323.02622 311.21777 299.08533 286.88588
 274.59543 262.48999 250.49654 239.79510 229.91465 221.01621 213.19576 206.19532
 200.02687 194.96242 191.54198 189.58153 188.61609 188.67764 189.51020 190.81575
 192.53830 194.63086 196.89141 199.24797 201.69052 204.16808 206.25363 208.09319
 209.71674 210.85929 211.08585 211.31140 211.24596 210.94851 210.57907 210.20662
 209.82117 209.52873 209.33428 209.19584 209.12139 209.44995 209.83350 210.22006
 211.01061 212.18616 213.43372 215.21427 217.13983 219.18038 221.27294 223.35349
 225.41104 227.49260 229.58715 231.69071 233.81726 235.98682 238.24037 240.60793
 243.22648 245.47503 247.47459 249.23714 250.65170 251.77225 252.59181 252.90536
 252.93991 252.71147 252.06902 251.01458 249.61813 247.77669 245.68324 243.51380
 241.30235 239.10390 236.92146 234.75801 232.61557 230.48012 228.50368 226.65823
 224.93878 223.40834 222.03589 220.80545 219.68500 218.64256 217.74411 216.88267
 216.12222 215.29977 214.39533 213.75688 213.20444 213.75604 215.05928 216.09254
 217.22815 218.87280 221.23468 223.12360 224.65675 226.40283 229.05292 231.42143
 232.67696 233.60193 235.34447 238.44125 242.35310 246.52531 250.62994 254.49998
 257.99985 261.10550 263.90973 266.43463 268.48438 270.27045 272.19183 274.13098
 275.93842 277.55243 279.05609 280.40863 281.58609 282.63510 283.60831 284.49500
 285.28992 285.98376 286.59052 287.39005
 366.78100 356.33157 345.76014 334.62271 323.02228 311.21284 299.07941 286.87898
 274.58755 262.48112 250.48669 239.78426 229.90283 221.00339 213.18196 206.18053
 200.01110 194.94567 191.52424 189.56281 188.59638 188.65694 189.48851 190.79308
 192.51465 194.60622 196.86579 199.22136 201.66293 204.13950 206.22406 208.06263
 209.68520 210.82677 211.05234 211.27691 211.21048 210.91205 210.54161 210.16818
 209.78175 209.48832 209.29289 209.15346 209.07803 209.40560 209.78817 210.17373
 210.96330 212.13787 213.38444 215.16401 217.08858 219.12815 221.21972 223.29928
 225.35585 227.43642 229.52999 231.63256 233.75813 235.92670 238.17927 240.54583
 243.16340 245.41097 247.40954 249.17111 250.58468 251.70425 252.52282 252.83539
 252.86895 252.63952 251.99609 250.94066 249.54323 247.70080 245.60637 243.43594
 241.22350 239.02407 236.84064 234.67621 232.53278 230.39635 228.41892 226.57249
 224.85206 223.32062 221.94719 220.71576 219.59433 218.55090 217.65147 216.78904
 216.02761 215.20417 214.29874 213.65931 213.10588 213.71477 215.15329 216.25923
 217.28323 218.89583 221.34091 223.19757 224.68539 226.40479 229.00687 231.26180
 232.43307 233.36028 235.18591 238.37610 242.34409 246.53268 250.63429 254.48839
 257.96021 261.04758 263.85556 266.39682 268.44016 270.17703 272.19455 274.10941
 275.90045 277.49011 278.99023 280.34326 281.51907 282.56723 283.54581 284.43298
 285.21576 285.90497 286.50894 287.31119
 366.78100 356.33095 345.75890 334.62085 323.01981 311.20976 299.07571 286.87466
 274.58261 262.47556 250.48052 239.77747 229.89542 220.99537 213.17332 206.17127
 200.00123 194.93518 191.51313 189.55108 188.58403 188.64398 189.47493 190.77889
 192.49984 194.59079 196.84974 199.20469 201.64564 204.12160 206.20555 208.04350
 209.66545 210.80640 211.03135 211.25531 211.18826 210.88921 210.51816 210.14411
 209.75706 209.46302 209.26697 209.12692 209.05087 209.37782 209.75977 210.14472
 210.93368 212.10763 213.35358 215.13253 217.05648 219.09543 221.18639 223.26534
 225.32129 227.40124 229.49419 231.59614 233.72110 235.88905 238.14100 240.50695
 243.12390 245.37085 247.36880 249.12976 250.54271 251.66166 252.47961 252.79156
 252.82451 252.59447 251.95042 250.89437 249.49632 247.65327 245.55822 243.38718
 241.17413 238.97408 236.79003 234.62498 232.48093 230.34389 228.36584 226.51879
 224.79774 223.26569 221.89164 220.65959 219.53755 218.49350 217.59345 216.73040
 215.96835 215.14430 214.23826 213.59821 213.04416 213.69380 215.22865 216.44363
 217.36269 218.93512 221.41731 223.26210 224.74159 226.42659 228.95033 231.05438
 232.15666 233.11043 235.03580 238.32761 242.34427 246.54468 250.64565 254.49295
 257.94720 261.02002 263.82932 266.39029 268.40765 269.97168 272.23734 274.07471
 275.89273 277.50128 278.97568 280.29529 281.43326 282.47516 283.46158 284.33072
 285.00159 285.68744 286.29807 287.10504
 366.78100 356.33100 345.75899 334.62099 323.01998 311.20998 299.07597 286.87497
 274.58296 262.47596 250.48096 239.77795 229.89595 220.99594 213.17394 206.17193
 200.00193 194.93592 191.51392 189.55192 188.58491 188.64491 189.47590 190.77990
 192.50089 194.59189 196.85088 199.20588 201.64687 204.12287 206.20687 208.04486
 209.66686 210.80785 211.03285 211.25684 211.18984 210.89083 210.51983 210.14583
 209.75882 209.46482 209.26881 209.12881 209.05280 209.37980 209.76179 210.14679
 210.93579 212.10978 213.35578 215.13477 217.05877 219.09776 221.18876 223.26775
 225.32375 227.40375 229.49674 231.59874 233.72373 235.89173 238.14372 240.50972
 243.12671 245.37371 247.37171 249.13270 250.54570 251.66469 252.48269 252.79468
 252.82768 252.59767 251.95367 250.89767 249.49966 247.65666 245.56165 243.39065
 241.17764 238.97764 236.79363 234.62863 232.48462 230.34762 228.36962 226.52261
 224.80161 223.26960 221.89560 220.66359 219.54159 218.49758 217.59758 216.73458
 215.97257 215.14857 214.24256 213.60256 213.04855 213.71143 215.27753 216.56850
 217.58018 219.05290 221.49684 223.29044 224.73198 226.40176 228.86327 230.85100
 231.82343 232.77007 234.84366 238.28633 242.35658 246.55544 250.65268 254.50562
 257.96323 261.03333 263.84793 266.43521 268.46704 270.01785 272.10172 274.02878
 275.82767 277.47864 278.94937 280.24902 281.40973 282.45938 283.44019 284.26733
 284.90231 285.58344 286.19315 286.99493
 366.78100 356.33007 345.75714 334.61820 323.01627 311.20534 299.07041 286.86848
 274.57555 262.46761 250.47168 239.76775 229.88482 220.98389 213.16096 206.15802
 199.98709 194.92016 191.49723 189.53430 188.56637 188.62543 189.45550 190.75857
 192.47864 194.56871 196.82677 199.18084 201.62091 204.09598 206.17905 208.01612
 209.63718 210.77725 211.00132 211.22439 211.15646 210.85653 210.48459 210.10966
 209.72173 209.42680 209.22987 209.08894 209.01200 209.33807 209.71914 210.10321
 210.89128 212.06434 213.30941 215.08748 217.01055 219.04862 221.13869 223.21675
 225.27182 227.35089 229.44296 231.54403 233.66810 235.83516 238.08623 240.45130
 243.06737 245.31344 247.31051 249.07057 250.48264 251.60071 252.41778 252.72885
 252.76091 252.52998 251.88505 250.82812 249.42919 247.58526 245.48932 243.31739
 241.10346 238.90253 236.71760 234.55167 232.40673 230.26880 228.28987 226.44194
 224.72001 223.18707 221.81214 220.57921 219.45628 218.41135 217.51042 216.64648
 215.88355 215.05862 214.15169 213.51076 212.95583 213.68340 215.40237 216.57825
 217.69658 219.29935 221.55719 223.24577 224.65569 226.29002 228.71265 230.59769
 231.43898 232.46686 234.63818 238.20346 242.36621 246.60611 250.70650 254.55498
 257.99600 261.03540 263.83057 266.41962 268.47528 270.11609 272.08643 274.01102
 275.73181 277.32315 278.79297 280.07343 281.21744 282.26712 283.23450 283.98776
 284.75165 285.45905 286.09006 286.89420
 366.78100 356.32958 345.75616 334.61674 323.01432 311.20290 299.06748 286.86506
 274.57163 262.46321 250.46679 239.76237 229.87895 220.97753 213.15411 206.15069
 199.97927 194.91185 191.48843 189.52501 188.55659 188.61517 189.44475 190.74733
 192.46690 194.55648 196.81406 199.16764 201.60722 204.08180 206.16438 208.00096
 209.62154 210.76112 210.98470 211.20728 211.13886 210.83844 210.46602 210.09060
 209.70217 209.40675 209.20933 209.06791 208.99049 209.31607 209.69665 210.08023
 210.86781 212.04039 213.28497 215.06255 216.98513 219.02271 221.11229 223.18987
 225.24444 227.32302 229.41460 231.51518 233.63876 235.80534 238.05592 240.42050
 243.03608 245.28166 247.27824 249.03782 250.44940 251.56698 252.38356 252.69414
 252.72571 252.49429 251.84887 250.79145 249.39203 247.54761 245.45119 243.27877
 241.06435 238.86293 236.67751 234.51109 232.36567 230.22725 228.24783 226.39940
 224.67698 223.14356 221.76814 220.53472 219.41130 218.36588 217.46446 216.60004
 215.83662 215.01120 214.10378 213.46236 212.90694 213.68007 215.50113 216.66162
 217.73703 219.33835 221.44902 223.16553 224.62238 226.17323 228.50026 230.42058
 231.02678 232.22134 234.53209 238.15851 242.38799 246.68170 250.80647 254.63055
 258.05505 261.11295 263.93051 266.47336 268.54483 270.30417 272.00439 273.88425
 275.61465 277.20370 278.46719 279.59216 280.66098 281.61520 282.54813 283.44058
 284.24979 284.97037 285.59988 286.40210
 366.78100 356.32945 345.75590 334.61635 323.01381 311.20226 299.06671 286.86416
 274.57061 262.46206 250.46551 239.76096 229.87742 220.97587 213.15232 206.14877
 199.97722 194.90967 191.48612 189.52258 188.55403 188.61248 189.44193 190.74438
 192.46383 194.55328 196.81073 199.16419 201.60364 204.07809 206.16054 207.99699
 209.61744 210.75689 210.98035 211.20280 211.13425 210.83370 210.46115 210.08560
 209.69705 209.40151 209.20396 209.06241 208.98486 209.31031 209.69076 210.07421
 210.86166 212.03412 213.27857 215.05602 216.97847 219.01592 221.10537 223.18282
 225.23728 227.31573 229.40718 231.50763 233.63108 235.79753 238.04798 240.41243
 243.02789 245.27334 247.26979 249.02924 250.44069 251.55814 252.37459 252.68505
 252.71650 252.48495 251.83940 250.78185 249.38230 247.53775 245.44120 243.26866
 241.05411 238.85256 236.66701 234.50046 232.35491 230.21636 228.23682 226.38827
 224.66572 223.13217 221.75662 220.52307 219.39952 218.35398 217.45243 216.58788
 215.82433 214.99878 214.09123 213.44968 212.89413 213.69327 215.57518 216.80423
 217.82463 219.36562 221.38715 223.11496 224.62447 226.16272 228.36217 230.20502
 230.80957 232.15128 234.57228 238.18961 242.41425 246.71570 250.83772 254.65282
 258.06812 261.11389 263.91550 266.45090 268.54211 270.31680 272.06140 274.05136
 275.59494 277.12442 278.34628 279.42093 280.39612 281.38553 282.33832 283.21674
 284.00674 284.71027 285.32486 286.10806
 366.78100 356.32927 345.75554 334.61581 323.01308 311.20135 299.06562 286.86289
 274.56917 262.46044 250.46371 239.75898 229.87525 220.97352 213.14979 206.14606
 199.97433 194.90660 191.48287 189.51914 188.55041 188.60868 189.43795 190.74023
 192.45950 194.54877 196.80604 199.15931 201.59858 204.07285 206.15512 207.99139
 209.61166 210.75093 210.97420 211.19647 211.12774 210.82702 210.45429 210.07856
 209.68983 209.39410 209.19637 209.05464 208.97691 209.30218 209.68245 210.06572
 210.85299 212.02526 213.26953 215.04680 216.96908 219.00635 221.09562 223.17289
 225.22716 227.30543 229.39670 231.49697 233.62024 235.78651 238.03678 240.40105
 243.01632 245.26159 247.25786 249.01714 250.42841 251.54568 252.36195 252.67222
 252.70349 252.47176 251.82603 250.76830 249.36857 247.52384 245.42711 243.25438
 241.03965 238.83793 236.65220 234.48547 232.33974 230.20101 228.22128 226.37255
 224.64982 223.11609 221.74036 220.50663 219.38290 218.33717 217.43544 216.57071
 215.80699 214.98126 214.07353 213.43180 212.87607 213.68222 215.58615 216.93700
 218.01498 219.53972 221.47380 223.11977 224.60521 226.15511 228.25632 230.03470
 230.52586 231.88562 234.43672 238.16653 242.44197 246.75926 250.87999 254.68872
 258.09024 261.11990 263.90768 266.45105 268.55798 270.33850 272.13724 274.12332
 275.60510 277.09470 278.31760 279.32602 280.22131 281.02881 281.90305 282.76923
 283.54941 284.24417 284.85107 285.62451
 366.78100 356.32985 345.75669 334.61754 323.01538 311.20423 299.06907 286.86692
 274.57377 262.46561 250.46946 239.76530 229.88215 220.98100 213.15784 206.15469
 199.98353 194.91638 191.49322 189.53007 188.56192 188.62076 189.45061 190.75345
 192.47330 194.56314 196.82099 199.17484 201.61468 204.08953 206.17237 208.00922
 209.63007 210.76991 210.99376 211.21660 211.14845 210.84829 210.47614 210.10099
 209.71283 209.41768 209.22052 209.07937 209.00221 209.32806 209.70891 210.09275
 210.88060 212.05344 213.29829 215.07614 216.99898 219.03683 221.12667 223.20452
 225.25936 227.33821 229.43006 231.53090 233.65475 235.82159 238.07244 240.43728
 243.05313 245.29898 247.29582 249.05567 250.46751 251.58536 252.40220 252.71305
 252.74490 252.51374 251.86859 250.81143 249.41228 247.56813 245.47197 243.29982
 241.08566 238.88451 236.69935 234.53320 232.38805 230.24989 228.27074 226.42258
 224.70043 223.16727 221.79212 220.55897 219.43581 218.39066 217.48950 216.62535
 215.86220 215.03704 214.12989 213.48873 212.93358 213.71657 215.57291 217.00812
 218.19646 219.70569 221.55086 223.11530 224.55154 226.11935 228.07390 229.76535
 230.31728 231.80373 234.47899 238.24182 242.50949 246.81982 250.94330 254.72864
 258.09625 261.09433 263.88098 266.43668 268.54358 270.38416 272.35245 274.09854
 275.50485 276.90854 278.14188 279.11887 280.01627 280.96683 281.92139 282.78616
 283.56393 284.25653 284.86157 285.63263
 366.78100 356.33090 345.75880 334.62071 323.01961 311.20951 299.07541 286.87432
 274.58222 262.47512 250.48002 239.77693 229.89483 220.99473 213.17263 206.17053
 200.00044 194.93434 191.51224 189.55014 188.58305 188.64295 189.47385 190.77775
 192.49866 194.58956 196.84846 199.20336 201.64426 204.12017 206.20407 208.04197
 209.66387 210.80478 211.02968 211.25358 211.18648 210.88739 210.51629 210.14219
 209.75509 209.46099 209.26490 209.12480 209.04870 209.37560 209.75751 210.14241
 210.93131 212.10521 213.35112 215.13002 217.05392 219.09282 221.18372 223.26263
 225.31853 227.39843 229.49133 231.59324 233.71814 235.88604 238.13794 240.50385
 243.12075 245.36765 247.36555 249.12645 250.53936 251.65826 252.47616 252.78806
 252.82097 252.59087 251.94677 250.89067 249.49258 247.64948 245.55438 243.38328
 241.17018 238.97009 236.78599 234.62089 232.47679 230.33970 228.36160 226.51450
 224.79340 223.26131 221.88721 220.65511 219.53301 218.48891 217.58882 216.72572
 215.96362 215.13952 214.23343 213.59333 213.03923 213.78058 215.55424 217.05406
 218.39177 219.97983 221.76793 223.23976 224.59966 226.08481 227.98210 229.47235
 230.14391 231.74388 234.51591 238.30603 242.58566 246.89561 251.00652 254.78510
 258.13086 261.12119 263.91687 266.45850 268.59424 270.29443 272.19556 274.00092
 275.52017 276.78500 277.94052 279.07858 280.32938 281.46677 282.50446 283.44455
 284.29007 285.04297 285.70071 286.53894
 366.78100 356.32902 345.75505 334.61507 323.01209 311.20011 299.06414 286.86116
 274.56718 262.45821 250.46123 239.75625 229.87227 220.97030 213.14632 206.14234
 199.97037 194.90239 191.47841 189.51443 188.54546 188.60348 189.43250 190.73453
 192.45355 194.54257 196.79959 199.15262 201.59164 204.06566 206.14769 207.98371
 209.60373 210.74275 210.96578 211.18780 211.11882 210.81785 210.44487 210.06889
 209.67992 209.38394 209.18596 209.04398 208.96601 209.29103 209.67105 210.05408
 210.84110 212.01312 213.25714 215.03417 216.95619 218.99321 221.08224 223.15926
 225.21328 227.29130 229.38233 231.48235 233.60537 235.77140 238.02142 240.38544
 243.00046 245.24549 247.24151 249.00053 250.41156 251.52858 252.34460 252.65462
 252.68565 252.45367 251.80769 250.74972 249.34974 247.50476 245.40778 243.23481
 241.01983 238.81785 236.63188 234.46490 232.31892 230.17994 228.19997 226.35099
 224.62801 223.09404 221.71806 220.48408 219.36010 218.31413 217.41215 216.54717
 215.78320 214.95722 214.04924 213.40726 212.85129 213.69606 215.68712 217.10599
 218.44302 220.11346 221.94937 223.43303 224.75572 226.14226 228.01532 229.29326
 229.89931 231.48853 234.35182 238.25781 242.61967 246.94162 251.04839 254.81268
 258.15036 261.11328 263.88312 266.45593 268.57993 270.26456 272.36200 274.03195
 275.51068 276.68210 277.96439 279.38965 280.69281 281.84579 282.89771 283.85065
 284.70773 285.47095 286.13770 286.98740
 366.78100 356.32786 345.75273 334.61159 323.00746 311.19432 299.05718 286.85305
 274.55791 262.44778 250.44964 239.74350 229.85837 220.95523 213.13010 206.12496
 199.95182 194.88269 191.45755 189.49242 188.52228 188.57914 189.40701 190.70787
 192.42574 194.51360 196.76946 199.12133 201.55919 204.03206 206.11292 207.94778
 209.56665 210.70451 210.92638 211.14724 211.07710 210.77497 210.40083 210.02369
 209.63356 209.33642 209.13729 208.99415 208.91501 209.23888 209.61774 209.99961
 210.78547 211.95633 213.19920 214.97506 216.89593 218.93179 221.01965 223.09552
 225.14838 227.22525 229.31511 231.41397 233.53584 235.70070 237.94957 240.31243
 242.92629 245.17016 247.16502 248.92289 250.33275 251.44861 252.26348 252.57234
 252.60221 252.36907 251.72193 250.66280 249.26166 247.41553 245.31739 243.14325
 240.92712 238.72398 236.53685 234.36871 232.22157 230.08144 228.10030 226.25017
 224.52603 222.99089 221.61376 220.37862 219.25349 218.20635 217.30321 216.43708
 215.67194 214.84481 213.93567 213.29253 212.73540 213.64964 215.78723 217.22940
 218.57161 220.22942 222.07251 223.57224 224.87138 226.12640 228.14340 229.04883
 229.58887 231.17503 234.12578 238.16753 242.59361 246.92603 251.04883 254.81403
 258.16327 261.13477 263.86560 266.43149 268.23639 270.21631 272.27798 273.98849
 275.41501 276.70447 278.31778 279.78363 281.05219 282.17453 283.19852 284.12616
 284.96048 285.70346 286.35251 287.17963
 366.78100 356.33119 345.75937 334.62156 323.02075 311.21094 299.07712 286.87631
 274.58450 262.47769 250.48287 239.78006 229.89825 220.99844 213.17662 206.17481
 200.00500 194.93918 191.51737 189.55556 188.58875 188.64893 189.48012 190.78431
 192.50550 194.59668 196.85587 199.21106 201.65225 204.12843 206.21262 208.05081
 209.67299 210.81418 211.03937 211.26356 211.19674 210.89793 210.52712 210.15331
 209.76649 209.47268 209.27687 209.13706 209.06124 209.38843 209.77062 210.15580
 210.94499 212.11918 213.36537 215.14455 217.06874 219.10793 221.19912 223.27830
 225.33449 227.41468 229.50787 231.61005 233.73524 235.90343 238.15561 240.52180
 243.13899 245.38618 247.38436 249.14555 250.55874 251.67793 252.49611 252.80830
 252.84149 252.61168 251.96786 250.91205 249.51424 247.67142 245.57661 243.40580
 241.19299 238.99317 236.80936 234.64455 232.50074 230.36392 228.38611 226.53930
 224.81849 223.28667 221.91286 220.68105 219.55924 218.51542 217.61561 216.75280
 215.99098 215.16717 214.26136 213.62155 213.06773 213.81793 215.67255 217.39241
 218.83044 220.39702 222.14151 223.56743 224.85204 225.93201 228.21127 228.75320
 229.30482 231.01637 234.15077 238.23630 242.65335 247.02594 251.18175 254.97397
 258.32343 261.27548 263.97476 266.50897 268.31012 270.06085 272.26071 274.05475
 275.37073 277.22409 278.95532 280.47549 281.79105 282.95499 284.01691 284.97894
 285.84418 286.61469 287.28775 288.14554
 366.78100 356.33413 345.76527 334.63040 323.03253 311.22567 299.09480 286.89693
 274.60807 262.50420 250.51233 239.81247 229.93360 221.03673 213.21787 206.21900
 200.05213 194.98927 191.57040 189.61153 188.64767 188.71080 189.54493 190.85207
 192.57620 194.67033 196.93247 199.29060 201.73473 204.21387 206.30100 208.14213
 209.76727 210.91140 211.13953 211.36667 211.30280 211.00693 210.63907 210.26820
 209.88433 209.59347 209.40060 209.26373 209.19087 209.52100 209.90613 210.29427
 211.08640 212.26353 213.51267 215.29480 217.22193 219.26407 221.35820 223.44033
 225.49947 227.58260 229.67873 231.78387 233.91200 236.08313 238.33827 240.70740
 243.32753 245.57767 247.57880 249.34293 250.75907 251.88120 252.70233 253.01747
 253.05360 252.82673 252.18587 251.13300 249.73813 247.89827 245.80640 243.63853
 241.42867 239.23180 237.05093 234.88907 232.74820 230.61433 228.63947 226.79560
 225.07773 223.54887 222.17800 220.94914 219.83027 218.78940 217.89254 217.03267
 216.27380 215.45294 214.55007 213.91320 213.36234 213.96027 215.52318 217.47855
 219.14978 220.65001 222.27411 223.56485 224.67581 225.91870 227.72258 228.39720
 228.86450 230.63176 233.98582 238.20337 242.68777 247.09267 251.27026 255.11165
 258.49982 261.52719 264.24850 266.78879 268.95239 270.32477 272.08127 273.96805
 275.64059 277.54172 279.56033 281.33286 282.86679 284.22397 285.46216 286.58389
 287.59274 288.49115 289.27597 290.27612
 366.78100 356.33347 345.76394 334.62841 323.02988 311.22235 299.09082 286.89229
 274.60277 262.49824 250.50571 239.80518 229.92565 221.02812 213.20859 206.20906
 200.04153 194.97800 191.55847 189.59894 188.63441 188.69688 189.53035 190.83683
 192.56030 194.65377 196.91524 199.27271 201.71618 204.19465 206.28112 208.12159
 209.74606 210.88953 211.11700 211.34347 211.27894 210.98241 210.61389 210.24236
 209.85783 209.56630 209.37277 209.23524 209.16171 209.49118 209.87565 210.26312
 211.05459 212.23106 213.47953 215.26100 217.18747 219.22895 221.32242 223.40389
 225.46236 227.54483 229.64030 231.74477 233.87224 236.04271 238.29718 240.66565
 243.28512 245.53459 247.53506 249.29853 250.71401 251.83548 252.65595 252.97042
 253.00589 252.77836 252.13683 251.08330 249.68777 247.84724 245.75471 243.58618
 241.37565 239.17812 236.99659 234.83407 232.69254 230.55801 228.58248 226.73795
 225.01942 223.48989 222.11836 220.88883 219.76930 218.72777 217.83024 216.96971
 216.21018 215.38865 214.48512 213.84760 213.29607 213.92552 215.52832 217.50807
 219.27727 220.81964 222.45911 223.69765 224.71204 225.94409 227.46536 228.12761
 228.57025 230.41669 233.85832 238.12170 242.62097 247.02826 251.17459 254.96524
 258.34952 261.39142 264.18228 266.73883 268.97891 270.73743 272.04736 274.03137
 275.73907 277.45337 279.11032 280.78848 282.24075 283.52567 284.69794 285.75995
 286.71509 287.56567 288.30872 289.25562
 366.78100 356.33379 345.76458 334.62936 323.03115 311.22394 299.09273 286.89451
 274.60530 262.50109 250.50888 239.80866 229.92945 221.03224 213.21303 206.21381
 200.04660 194.98339 191.56418 189.60496 188.64075 188.70354 189.53733 190.84411
 192.56790 194.66169 196.92348 199.28126 201.72505 204.20384 206.29063 208.13142
 209.75620 210.89999 211.12778 211.35457 211.29035 210.99414 210.62593 210.25472
 209.87050 209.57929 209.38608 209.24887 209.17565 209.50544 209.89023 210.27802
 211.06980 212.24659 213.49538 215.27717 217.20395 219.24574 221.33953 223.42132
 225.48010 227.56289 229.65868 231.76347 233.89126 236.06204 238.31683 240.68562
 243.30541 245.55519 247.55598 249.31977 250.73556 251.85734 252.67813 252.99292
 253.02871 252.80149 252.16028 251.10707 249.71186 247.87164 245.77943 243.61122
 241.40101 239.20379 237.02258 234.86037 232.71916 230.58494 228.60973 226.76552
 225.04731 223.51810 222.14688 220.91767 219.79846 218.75725 217.86003 216.99982
 216.24061 215.41940 214.51618 213.87897 213.32776 213.94972 215.56152 217.55928
 219.36070 221.00232 222.62645 223.77849 224.78452 225.92641 227.53275 227.93741
 228.25092 230.16592 233.73679 238.08290 242.59541 246.99675 251.14494 254.92159
 258.22195 261.29333 264.06641 266.62222 268.85614 270.63501 272.05112 273.82581
 275.67575 277.47342 279.38040 281.06412 282.52121 283.81036 284.98654 286.05206
 287.01038 287.86377 288.60928 289.55933
 366.78100 356.33630 345.76960 334.63690 323.04120 311.23649 299.10779 286.91209
 274.62539 262.52369 250.53399 239.83629 229.95959 221.06489 213.24818 206.25148
 200.08678 195.02608 191.60938 189.65268 188.69098 188.75628 189.59258 190.90187
 192.62817 194.72447 196.98877 199.34907 201.79537 204.27667 206.36597 208.20927
 209.83656 210.98286 211.21316 211.44246 211.38076 211.08706 210.72136 210.35266
 209.97096 209.68225 209.49155 209.35685 209.28615 209.61845 210.00575 210.39605
 211.19035 212.36965 213.62094 215.40524 217.33454 219.37884 221.47514 223.55944
 225.62074 227.70604 229.80434 231.91163 234.04193 236.21523 238.47253 240.84383
 243.46613 245.71843 247.72173 249.48802 250.90632 252.03062 252.85392 253.17122
 253.20952 252.98482 252.34612 251.29542 249.90271 248.06501 245.97531 243.80961
 241.60191 239.40721 237.22851 235.06881 232.93011 230.79840 228.82570 226.98400
 225.26830 223.74160 222.37290 221.14620 220.02950 218.99080 218.09609 217.23839
 216.48169 215.66299 214.76229 214.12759 213.57889 214.08598 215.48366 217.57631
 219.55901 221.26918 222.76654 223.78838 224.72836 225.88228 227.45026 227.70421
 227.95447 229.97221 233.73499 238.12195 242.65393 247.08974 251.28160 255.10876
 258.48126 261.47534 264.22974 266.76624 268.99240 270.82956 272.12289 273.86279
 275.88617 278.05890 280.16003 282.00497 283.60162 285.01422 286.30304 287.47058
 288.52069 289.45581 290.27271 291.31375
 366.78100 356.33819 345.77338 334.64256 323.04875 311.24594 299.11913 286.92532
 274.64050 262.54069 250.55288 239.85707 229.98226 221.08944 213.27463 206.27982
 200.11701 195.05819 191.64338 189.68857 188.72876 188.79595 189.63413 190.94532
 192.67351 194.77170 197.03789 199.40007 201.84826 204.33145 206.42264 208.26783
 209.89701 211.04520 211.27739 211.50858 211.44877 211.15695 210.79314 210.42633
 210.04652 209.75970 209.57089 209.43808 209.36927 209.70346 210.09264 210.48483
 211.28102 212.46221 213.71540 215.50158 217.43277 219.47896 221.57715 223.66334
 225.72652 227.81371 229.91390 232.02309 234.15528 236.33046 238.58965 240.96284
 243.58703 245.84121 247.84640 249.61459 251.03478 252.16097 252.98615 253.30534
 253.34553 253.12272 252.48591 251.43709 250.04628 248.21047 246.12266 243.95885
 241.75303 239.56022 237.38341 235.22560 233.08879 230.95897 228.98816 227.14835
 225.43454 223.90972 222.54291 221.31810 220.20329 219.16648 218.27366 217.41785
 216.66304 215.84623 214.94742 214.31460 213.76779 214.19693 215.40804 217.54105
 219.83209 221.59691 222.93367 223.83502 224.69432 225.87039 227.02486 227.25810
 227.57635 229.69585 233.58795 238.05614 242.62930 247.09724 251.31268 255.16910
 258.61026 261.62885 264.38428 266.90518 269.18866 271.11163 272.56265 274.11758
 276.19434 278.16266 280.41418 282.39120 284.10211 285.61584 286.99692 288.24805
 289.37332 290.37537 291.25073 292.36630
 366.78100 356.33917 345.77535 334.64552 323.05270 311.25087 299.12505 286.93222
 274.64840 262.54957 250.56275 239.86792 229.99410 221.10227 213.28845 206.29462
 200.13280 195.07497 191.66114 189.70732 188.74849 188.81667 189.65584 190.96802
 192.69719 194.79637 197.06354 199.42672 201.87589 204.36007 206.45224 208.29842
 209.92859 211.07777 211.31094 211.54311 211.48429 211.19346 210.83064 210.46481
 210.08599 209.80016 209.61234 209.48051 209.41269 209.74786 210.13804 210.53121
 211.32839 212.51056 213.76474 215.55191 217.48408 219.53126 221.63043 223.71761
 225.78178 227.86996 229.97113 232.08131 234.21448 236.39066 238.65083 241.02501
 243.65018 245.90536 247.91153 249.68071 251.10188 252.22905 253.05523 253.37540
 253.41658 253.19475 252.55893 251.51110 250.12128 248.28645 246.19963 244.03680
 241.83198 239.64015 237.46433 235.30750 233.17168 231.04285 229.07302 227.23420
 225.52137 223.99755 222.63172 221.40790 220.29407 219.25825 218.36642 217.51160
 216.75777 215.94195 215.04412 214.41230 213.86647 214.26738 215.38936 217.47130
 219.97580 221.86571 223.13380 223.95844 224.78641 225.89093 226.78163 226.90593
 227.30312 229.54030 233.45647 237.96483 242.56390 247.03795 251.24937 255.10785
 258.53885 261.61359 264.33160 266.82986 269.10217 271.04852 272.72000 274.33234
 276.43243 278.31631 280.22009 281.96014 283.46603 284.79837 286.01392 287.11511
 288.10553 288.98749 289.75793 290.73981
 366.78100 356.33873 345.77447 334.64420 323.05094 311.24867 299.12241 286.92914
 274.64488 262.54561 250.55834 239.86308 229.98881 221.09655 213.28228 206.28802
 200.12575 195.06749 191.65322 189.69896 188.73969 188.80742 189.64616 190.95789
 192.68663 194.78536 197.05210 199.41483 201.86357 204.34730 206.43903 208.28477
 209.91450 211.06324 211.29597 211.52771 211.46844 211.17718 210.81391 210.44765
 210.06838 209.78211 209.59385 209.46158 209.39332 209.72805 210.11779 210.51052
 211.30726 212.48899 213.74272 215.52946 217.46119 219.50793 221.60666 223.69340
 225.75713 227.84487 229.94560 232.05533 234.18807 236.36380 238.62354 240.99727
 243.62201 245.87674 247.88248 249.65121 251.07195 252.19868 253.02441 253.34415
 253.38488 253.16262 252.52635 251.47809 250.08782 248.25256 246.16529 244.00202
 241.79676 239.60449 237.42823 235.27096 233.13470 231.00543 229.03517 227.19590
 225.48263 223.95837 222.59210 221.36784 220.25357 219.21731 218.32504 217.46978
 216.71551 215.89925 215.00098 214.36871 213.82245 214.26253 215.43726 217.39716
 219.92781 222.01396 223.35928 224.16701 224.96313 225.97200 226.66273 226.59468
 227.05724 229.39136 233.36354 237.90874 242.53404 247.02411 251.24751 255.12202
 258.57541 261.64832 264.39200 266.85236 269.10541 271.04819 272.78854 274.46695
 276.47757 278.31641 280.03412 281.71783 283.17496 284.46414 285.64032 286.70587
 287.66418 288.51761 289.26312 290.21320
 366.78100 356.33731 345.77162 334.63994 323.04525 311.24156 299.11387 286.91918
 274.63350 262.53281 250.54412 239.84743 229.97174 221.07806 213.26237 206.26668
 200.10299 195.04331 191.62762 189.67193 188.71124 188.77755 189.61487 190.92518
 192.65249 194.74980 197.01511 199.37643 201.82374 204.30605 206.39636 208.24067
 209.86899 211.01630 211.24761 211.47792 211.41723 211.12455 210.75986 210.39217
 210.01148 209.72379 209.53411 209.40042 209.33073 209.66404 210.05235 210.44367
 211.23898 212.41929 213.67160 215.45692 217.38723 219.43254 221.52985 223.61516
 225.67748 227.76379 229.86310 231.97141 234.10272 236.27704 238.53535 240.90766
 243.53097 245.78428 247.78860 249.55591 250.97522 252.10053 252.92484 253.24316
 253.28247 253.05878 252.42109 251.37140 249.97972 248.14303 246.05434 243.88965
 241.68297 239.48928 237.31159 235.15290 233.01521 230.88453 228.91284 227.07215
 225.35746 223.83177 222.46409 221.23840 220.12271 219.08502 218.19133 217.33465
 216.57896 215.76127 214.86158 214.22789 213.68021 214.20697 215.53380 217.33113
 219.84033 222.08319 223.56763 224.43063 225.15886 226.04637 226.58546 226.28764
 226.78571 229.18753 233.23260 237.82368 242.46634 246.97211 251.20895 255.09854
 258.57632 261.66415 264.42477 266.92212 269.16699 271.11734 272.86749 274.54114
 276.46344 278.28152 279.90073 281.48587 282.91916 284.18723 285.34415 286.39224
 287.33487 288.17432 288.90762 289.84213
 366.78100 356.33664 345.77027 334.63791 323.04254 311.23818 299.10982 286.91445
 274.62809 262.52672 250.53736 239.84000 229.96363 221.06927 213.25290 206.25654
 200.09218 195.03181 191.61545 189.65908 188.69772 188.76335 189.59999 190.90963
 192.63626 194.73290 196.99753 199.35817 201.80481 204.28644 206.37608 208.21971
 209.84735 210.99399 211.22462 211.45426 211.39289 211.09953 210.73417 210.36580
 209.98444 209.69607 209.50571 209.37135 209.30098 209.63362 210.02125 210.41189
 211.20653 212.38616 213.63780 215.42243 217.35207 219.39671 221.49334 223.57798
 225.63961 227.72525 229.82388 231.93152 234.06216 236.23579 238.49343 240.86506
 243.48770 245.74034 247.74397 249.51061 250.92924 252.05388 252.87752 253.19515
 253.23379 253.00942 252.37106 251.32070 249.92833 248.09097 246.00160 243.83624
 241.62888 239.43451 237.25615 235.09678 232.95842 230.82706 228.85469 227.01333
 225.29796 223.77160 222.40324 221.17687 220.06051 219.02214 218.12778 217.27041
 216.51405 215.69569 214.79532 214.16096 213.61259 214.18797 215.60420 217.32019
 219.79294 222.05281 223.65080 224.61584 225.32069 226.13651 226.64369 226.14015
 226.60458 229.00659 233.10120 237.71448 242.35974 246.85745 251.08914 254.97951
 258.46753 261.58716 264.37405 266.92276 269.19754 271.17847 272.94699 274.63422
 276.46286 278.27167 279.86591 281.32080 282.74417 284.00348 285.15240 286.19324
 287.12939 287.96301 288.69125 289.61932
 366.78100 356.33598 345.76895 334.63593 323.03991 311.23489 299.10586 286.90984
 274.62282 262.52080 250.53077 239.83275 229.95573 221.06070 213.24368 206.24666
 200.08164 195.02061 191.60359 189.64657 188.68454 188.74952 189.58550 190.89448
 192.62045 194.71643 196.98041 199.34039 201.78636 204.26734 206.35632 208.19929
 209.82627 210.97225 211.20223 211.43120 211.36918 211.07516 210.70913 210.34011
 209.95809 209.66907 209.47804 209.34302 209.27200 209.60398 209.99095 210.38093
 211.17491 212.35388 213.60486 215.38884 217.31782 219.36179 221.45777 223.54175
 225.60272 227.68770 229.78568 231.89266 234.02263 236.19561 238.45259 240.82357
 243.44554 245.69752 247.70050 249.46647 250.88445 252.00843 252.83141 253.14838
 253.18636 252.96134 252.32231 251.27129 249.87827 248.04025 245.95022 243.78420
 241.57618 239.38116 237.20213 235.04211 232.90309 230.77106 228.79804 226.95602
 225.24000 223.71297 222.34395 221.11693 219.99990 218.96088 218.06586 217.20784
 216.45081 215.63179 214.73077 214.09575 213.54672 214.16223 215.66296 217.38745
 219.71600 221.93857 223.57144 224.60825 225.37164 226.23602 226.86287 226.14906
 226.54283 228.88490 233.00325 237.62148 242.26471 246.75000 250.96404 254.84418
 258.34778 261.48788 264.30688 266.86584 269.19714 271.24609 273.05554 274.73981
 276.47366 278.25662 279.82755 281.22961 282.51691 283.75815 284.89056 285.91647
 286.83917 287.66083 288.37860 289.29333
 366.78100 356.33514 345.76728 334.63343 323.03657 311.23071 299.10085 286.90399
 274.61613 262.51328 250.52242 239.82356 229.94570 221.04984 213.23199 206.23413
 200.06827 195.00641 191.58855 189.63069 188.66784 188.73198 189.56712 190.87526
 192.60040 194.69555 196.95869 199.31783 201.76297 204.24311 206.33125 208.17340
 209.79954 210.94468 211.17382 211.40196 211.33910 211.04425 210.67739 210.30753
 209.92467 209.63481 209.44296 209.30710 209.23524 209.56638 209.95252 210.34166
 211.13481 212.31295 213.56309 215.34623 217.27437 219.31752 221.41266 223.49580
 225.55594 227.64008 229.73722 231.84337 233.97251 236.14465 238.40079 240.77093
 243.39208 245.64322 247.64536 249.41050 250.82764 251.95078 252.77293 253.08907
 253.12621 252.90035 252.26049 251.20864 249.81478 247.97592 245.88506 243.71820
 241.50934 239.31349 237.13363 234.97277 232.83291 230.70005 228.72620 226.88334
 225.16648 223.63862 222.26876 221.04090 219.92305 218.88319 217.98733 217.12847
 216.37061 215.55076 214.64890 214.01304 213.46318 214.11905 215.70645 217.53310
 219.60104 221.74254 223.42624 224.51274 225.35490 226.30981 227.15503 226.09621
 226.44417 228.75229 232.92706 237.54399 242.19058 246.66776 250.87175 254.74469
 258.25052 261.39804 264.23215 266.79886 269.15955 271.27194 273.15170 274.86148
 276.51929 278.22144 279.77612 281.15558 282.37570 283.48428 284.59320 285.59784
 286.50137 287.30600 288.00888 288.90463
 366.78100 356.33526 345.76753 334.63379 323.03706 311.23132 299.10159 286.90485
 274.61712 262.51438 250.52365 239.82491 229.94718 221.05144 213.23370 206.23597
 200.07023 195.00850 191.59076 189.63303 188.67029 188.73456 189.56982 190.87809
 192.60335 194.69862 196.96188 199.32115 201.76641 204.24667 206.33494 208.17720
 209.80347 210.94873 211.17800 211.40626 211.34353 211.04879 210.68206 210.31232
 209.92959 209.63985 209.44811 209.31238 209.24064 209.57191 209.95817 210.34744
 211.14070 212.31897 213.56923 215.35250 217.28076 219.32403 221.41929 223.50256
 225.56282 227.64708 229.74435 231.85061 233.97988 236.15214 238.40841 240.77867
 243.39994 245.65120 247.65347 249.41873 250.83600 251.95926 252.78152 253.09779
 253.13505 252.90932 252.26958 251.21785 249.82411 247.98538 245.89464 243.72791
 241.51917 239.32344 237.14370 234.98297 232.84323 230.71049 228.73676 226.89402
 225.17729 223.64955 222.27982 221.05208 219.93435 218.89461 217.99888 217.14014
 216.38241 215.56267 214.66093 214.02520 213.47546 214.12814 215.69586 217.66469
 219.68222 221.73805 223.40111 224.48308 225.37393 226.34621 227.22583 225.96294
 226.27533 228.59300 232.85486 237.48061 242.14052 246.61942 250.82419 254.70811
 258.23163 261.38940 264.21918 266.79321 269.14761 271.28091 273.18677 274.94241
 276.60126 278.22198 279.75800 281.12894 282.32684 283.41327 284.42877 285.40845
 286.32053 287.13272 287.84225 288.74646
 366.78100 356.33560 345.76820 334.63480 323.03841 311.23301 299.10361 286.90721
 274.61981 262.51741 250.52702 239.82862 229.95122 221.05582 213.23842 206.24102
 200.07562 195.01423 191.59683 189.63943 188.67703 188.74163 189.57723 190.88584
 192.61144 194.70704 196.97064 199.33024 201.77584 204.25645 206.34505 208.18765
 209.81425 210.95985 211.18945 211.41805 211.35566 211.06126 210.69486 210.32546
 209.94306 209.65366 209.46227 209.32687 209.25547 209.58707 209.97367 210.36327
 211.15687 212.33548 213.58608 215.36968 217.29828 219.34188 221.43748 223.52109
 225.58169 227.66629 229.76389 231.87049 234.00009 236.17269 238.42930 240.79990
 243.42150 245.67310 247.67570 249.44130 250.85891 251.98251 252.80511 253.12171
 253.15931 252.93391 252.29451 251.24312 249.84972 248.01132 245.92092 243.75452
 241.54612 239.35073 237.17133 235.01093 232.87153 230.73913 228.76573 226.92334
 225.20694 223.67954 222.31014 221.08274 219.96534 218.92594 218.03055 217.17215
 216.41475 215.59535 214.69395 214.05855 213.50916 214.15515 215.69044 217.71860
 219.82657 221.83641 223.40382 224.49762 225.42177 226.37141 227.10539 225.92856
 226.22592 228.64157 232.80040 237.42719 242.09766 246.58379 250.80002 254.70453
 258.25720 261.43546 264.25562 266.82108 269.18964 271.33533 273.24368 274.98743
 276.64319 278.21066 279.73001 281.09103 282.27960 283.34549 284.33710 285.22403
 286.06183 286.84476 287.52869 288.40033
 366.78100 356.33589 345.76878 334.63567 323.03956 311.23445 299.10534 286.90923
 274.62212 262.52001 250.52990 239.83179 229.95468 221.05957 213.24246 206.24535
 200.08024 195.01913 191.60202 189.64491 188.68280 188.74769 189.58358 190.89247
 192.61836 194.71425 196.97814 199.33803 201.78392 204.26481 206.35370 208.19659
 209.82348 210.96937 211.19926 211.42815 211.36604 211.07193 210.70582 210.33671
 209.95460 209.66549 209.47438 209.33927 209.26816 209.60005 209.98694 210.37683
 211.17072 212.34961 213.60050 215.38439 217.31329 219.35718 221.45307 223.53696
 225.59785 227.68274 229.78063 231.88752 234.01741 236.19030 238.44719 240.81808
 243.43997 245.69186 247.69475 249.46064 250.87853 252.00242 252.82531 253.14220
 253.18009 252.95498 252.31587 251.26476 249.87165 248.03354 245.94343 243.77732
 241.56921 239.37410 237.19499 235.03488 232.89577 230.76366 228.79055 226.94844
 225.23233 223.70522 222.33611 221.10900 219.99189 218.95278 218.05767 217.19956
 216.44245 215.62334 214.72223 214.08712 213.53801 214.18167 215.70282 217.78117
 219.88730 221.87556 223.41673 224.51485 225.46393 226.42157 227.04929 225.88695
 226.12370 228.61047 232.75525 237.37303 242.03143 246.51845 250.74902 254.67191
 258.25677 261.46259 264.28366 266.84573 269.22726 271.40027 273.31641 275.03278
 276.66861 278.22687 279.70245 281.05426 282.23840 283.29865 284.28015 285.16135
 285.95163 286.71286 287.38580 288.24341
 366.78100 356.33659 345.77018 334.63778 323.04237 311.23796 299.10955 286.91414
 274.62773 262.52633 250.53692 239.83951 229.96310 221.06869 213.25228 206.25588
 200.09147 195.03106 191.61465 189.65824 188.69683 188.76243 189.59902 190.90861
 192.63520 194.73179 196.99638 199.35698 201.80357 204.28516 206.37475 208.21834
 209.84593 210.99253 211.22312 211.45271 211.39130 211.09789 210.73248 210.36408
 209.98267 209.69426 209.50385 209.36944 209.29903 209.63163 210.01922 210.40981
 211.20440 212.38399 213.63558 215.42018 217.34977 219.39436 221.49095 223.57554
 225.63713 227.72273 229.82132 231.92891 234.05950 236.23309 238.49069 240.86228
 243.48487 245.73746 247.74105 249.50764 250.92624 252.05083 252.87442 253.19201
 253.23060 253.00619 252.36779 251.31738 249.92497 248.08756 245.99815 243.83274
 241.62534 239.43093 237.25252 235.09311 232.95470 230.82329 228.85089 227.00948
 225.29407 223.76766 222.39925 221.17284 220.05644 219.01803 218.12362 217.26621
 216.50980 215.69139 214.79099 214.15658 213.60817 214.22914 215.69624 217.87199
 219.91855 221.86278 223.43422 224.52208 225.49211 226.46657 227.05666 225.91801
 226.07224 228.57112 232.71233 237.30104 241.93944 246.41359 250.64694 254.59033
 258.20605 261.44229 264.28677 266.86246 269.26050 271.46417 273.40536 275.11533
 276.72452 278.25812 279.69745 281.03641 282.21786 283.27310 284.25388 285.12659
 285.90829 286.64001 287.30017 288.14148
 366.78100 356.33734 345.77168 334.64002 323.04536 311.24170 299.11404 286.91938
 274.63372 262.53306 250.54440 239.84773 229.97207 221.07841 213.26275 206.26709
 200.10343 195.04377 191.62811 189.67245 188.71179 188.77813 189.61547 190.92581
 192.65315 194.75049 197.01583 199.37717 201.82451 204.30685 206.39719 208.24153
 209.86986 211.01720 211.24854 211.47888 211.41822 211.12556 210.76090 210.39324
 210.01258 209.72492 209.53526 209.40160 209.33194 209.66528 210.05362 210.44496
 211.24030 212.42064 213.67298 215.45832 217.38866 219.43400 221.53133 223.61667
 225.67901 227.76535 229.86469 231.97303 234.10437 236.27871 238.53705 240.90939
 243.53273 245.78607 247.79041 249.55775 250.97709 252.10243 252.92677 253.24511
 253.28445 253.06079 252.42313 251.37346 249.98180 248.14514 246.05648 243.89182
 241.68516 239.49150 237.31384 235.15518 233.01752 230.88686 228.91520 227.07454
 225.35988 223.83422 222.46656 221.24090 220.12524 219.08758 218.19392 217.33726
 216.58159 215.76393 214.86427 214.23061 213.68295 214.28038 215.69185 217.93536
 220.01297 221.86499 223.42253 224.52147 225.51140 226.49692 227.08270 226.02086
 226.06892 228.54926 232.66461 237.23068 241.83403 246.29065 250.52646 254.48381
 258.11981 261.38345 264.26016 266.85559 269.26956 271.49805 273.46136 275.18445
 276.78659 278.30533 279.70789 281.02295 282.20114 283.25412 284.22391 285.09338
 285.86157 286.55688 287.20068 288.03214
 366.78100 356.33756 345.77213 334.64069 323.04625 311.24282 299.11538 286.92095
 274.63551 262.53507 250.54664 239.85020 229.97476 221.08133 213.26589 206.27046
 200.10702 195.04758 191.63215 189.67671 188.71627 188.78284 189.62040 190.93096
 192.65853 194.75609 197.02166 199.38322 201.83078 204.31335 206.40391 208.24847
 209.87704 211.02460 211.25617 211.48673 211.42629 211.13386 210.76942 210.40198
 210.02155 209.73411 209.54467 209.41124 209.34180 209.67537 210.06393 210.45549
 211.25106 212.43162 213.68418 215.46975 217.40031 219.44588 221.54344 223.62900
 225.69157 227.77813 229.87769 231.98626 234.11782 236.29238 238.55095 240.92351
 243.54708 245.80064 247.80520 249.57277 250.99233 252.11789 252.94246 253.26102
 253.30058 253.07715 252.43971 251.39028 249.99884 248.16240 246.07397 243.90953
 241.70309 239.50966 237.33222 235.17379 233.03635 230.90591 228.93448 227.09404
 225.37960 223.85417 222.48673 221.26129 220.14586 219.10842 218.21499 217.35855
 216.60311 215.78568 214.88624 214.25280 213.70537 214.30594 215.72487 217.96654
 220.09471 221.87558 223.34856 224.49341 225.55498 226.57553 227.13232 226.11697
 226.05537 228.51636 232.61324 237.15106 241.72632 246.17487 250.41673 254.38940
 258.04251 261.32370 264.22543 266.84091 269.26523 271.49420 273.43637 275.16171
 276.79987 278.32831 279.71054 281.00970 282.18301 283.23547 284.20444 285.06760
 285.77887 286.45837 287.06461 287.87189
 366.78100 356.33845 345.77391 334.64336 323.04982 311.24727 299.12073 286.92718
 274.64264 262.54309 250.55555 239.86000 229.98546 221.09291 213.27836 206.28382
 200.12127 195.06273 191.64818 189.69364 188.73409 188.80155 189.64000 190.95146
 192.67991 194.77837 197.04482 199.40728 201.85573 204.33918 206.43064 208.27609
 209.90555 211.05400 211.28646 211.51791 211.45837 211.16682 210.80328 210.43673
 210.05719 209.77064 209.58209 209.44955 209.38100 209.71546 210.10491 210.49737
 211.29382 212.47528 213.72873 215.51519 217.44664 219.49310 221.59155 223.67801
 225.74146 227.82891 229.92937 232.03882 234.17128 236.34673 238.60619 240.97964
 243.60410 245.85855 247.86401 249.63246 251.05292 252.17937 253.00482 253.32428
 253.36473 253.14219 252.50564 251.45710 250.06655 248.23101 246.14346 243.97992
 241.77437 239.58183 237.40528 235.24774 233.11119 230.98164 229.01110 227.17155
 225.45801 223.93346 222.56692 221.34237 220.22783 219.19128 218.29874 217.44319
 216.68865 215.87210 214.97355 214.34101 213.79446 214.36583 215.71576 218.02211
 220.17422 221.84589 223.23413 224.40764 225.55260 226.62364 227.21791 226.28383
 226.14604 228.49904 232.57233 237.10466 241.64700 246.06702 250.29883 254.27274
 257.93060 261.22598 264.16019 266.81284 269.26517 271.51511 273.46524 275.18298
 276.80899 278.32700 279.70038 280.98560 282.15610 283.20908 284.18588 285.05325
 285.66611 286.32260 286.92075 287.71484
 366.78100 356.33944 345.77588 334.64632 323.05376 311.25220 299.12664 286.93408
 274.65052 262.55196 250.56540 239.87084 229.99728 221.10572 213.29216 206.29860
 200.13704 195.07948 191.66592 189.71236 188.75380 188.82224 189.66168 190.97412
 192.70356 194.80300 197.07044 199.43388 201.88332 204.36776 206.46020 208.30664
 209.93708 211.08652 211.31996 211.55240 211.49384 211.20328 210.84072 210.47516
 210.09660 209.81104 209.62348 209.49192 209.42436 209.75980 210.15024 210.54368
 211.34112 212.52356 213.77800 215.56544 217.49788 219.54532 221.64476 223.73220
 225.79664 227.88508 229.98652 232.09696 234.23040 236.40684 238.66728 241.04172
 243.66716 245.92260 247.92904 249.69848 251.11992 252.24736 253.07380 253.39424
 253.43568 253.21412 252.57856 251.53100 250.14144 248.30688 246.22032 244.05776
 241.85320 239.66164 237.48608 235.32952 233.19396 231.06540 229.09584 227.25728
 225.54472 224.02116 222.65560 221.43204 220.31848 219.28292 218.39137 217.53681
 216.78325 215.96769 215.07013 214.43857 213.89301 214.43272 215.70787 218.03320
 220.29417 221.92815 223.13541 224.18648 225.36456 226.60696 227.33586 226.49933
 226.30177 228.55565 232.59125 237.06142 241.55629 245.96075 250.19516 254.18153
 257.85684 261.15665 264.08844 266.74130 269.21677 271.48761 273.39847 275.10138
 276.79166 278.35788 279.72336 280.99002 282.15820 283.20560 284.17160 285.03824
 285.73373 286.35681 286.94714 287.74701
 366.78100 356.34078 345.77856 334.65033 323.05911 311.25889 299.13467 286.94345
 274.66122 262.56400 250.57878 239.88556 230.01334 221.12311 213.31089 206.31867
 200.15845 195.10223 191.69000 189.73778 188.78056 188.85034 189.69111 191.00489
 192.73567 194.83645 197.10523 199.47000 201.92078 204.40656 206.50034 208.34812
 209.97989 211.13067 211.36545 211.59923 211.54201 211.25278 210.89156 210.52734
 210.15012 209.86590 209.67967 209.54945 209.48323 209.82001 210.21179 210.60656
 211.40534 212.58912 213.84490 215.63368 217.56745 219.61623 221.71701 223.80579
 225.87156 227.96134 230.06412 232.17590 234.31068 236.48845 238.75023 241.12601
 243.75279 246.00957 248.01734 249.78812 251.21090 252.33968 253.16746 253.48923
 253.53201 253.31179 252.67757 251.63135 250.24312 248.40990 246.32468 244.16346
 241.96024 239.77001 237.59579 235.44057 233.30635 231.17913 229.21090 227.37368
 225.66246 224.14024 222.77601 221.55379 220.44157 219.40735 218.51713 217.66390
 216.91168 216.09746 215.20124 214.57102 214.02679 214.52531 215.70729 217.97530
 220.38162 221.84818 223.01167 224.07886 225.26248 226.55469 227.34804 226.74779
 226.32805 228.41434 232.50363 237.05045 241.55220 245.94348 250.19266 254.21063
 257.92609 261.26840 264.20435 266.80865 269.18909 271.36911 273.24927 274.92709
 276.56924 278.13287 279.55530 280.88141 282.05984 283.10620 284.06412 284.93210
 285.70639 286.38156 286.97134 287.72296
 366.78100 356.33981 345.77662 334.64743 323.05524 311.25405 299.12886 286.93667
 274.65348 262.55529 250.56910 239.87491 230.00172 221.11053 213.29734 206.30415
 200.14296 195.08577 191.67258 189.71939 188.76120 188.83001 189.66982 190.98262
 192.71243 194.81224 197.08005 199.44386 201.89367 204.37848 206.47129 208.31810
 209.94891 211.09872 211.33253 211.56534 211.50715 211.21696 210.85477 210.48958
 210.11139 209.82620 209.63901 209.50782 209.44063 209.77644 210.16725 210.56106
 211.35887 212.54168 213.79649 215.58430 217.51711 219.56492 221.66473 223.75254
 225.81735 227.90616 230.00797 232.11878 234.25259 236.42940 238.69021 241.06502
 243.69083 245.94664 247.95345 249.72325 251.14506 252.27287 253.09968 253.42049
 253.46230 253.24111 252.60592 251.55873 250.16954 248.33535 246.24916 244.08697
 241.88278 239.69159 237.51640 235.36021 233.22502 231.09683 229.12764 227.28945
 225.57726 224.05407 222.68888 221.46569 220.35250 219.31731 218.42612 217.57193
 216.81874 216.00355 215.10636 214.47517 213.92998 214.51135 215.94925 217.88316
 220.21863 221.76596 223.11363 224.24199 225.34555 226.47328 227.02568 226.79645
 226.36407 228.52202 232.50598 237.03578 241.55940 245.98941 250.28268 254.34717
 258.10785 261.49396 264.45663 267.05374 269.37668 271.41431 273.14313 274.77954
 276.39178 277.99319 279.51663 280.89273 282.13037 283.36343 284.48843 285.50757
 286.42419 287.24045 287.95352 288.86224
 366.78100 356.33988 345.77675 334.64763 323.05550 311.25438 299.12925 286.93713
 274.65401 262.55588 250.56976 239.87563 230.00251 221.11138 213.29826 206.30514
 200.14401 195.08689 191.67376 189.72064 188.76251 188.83139 189.67127 190.98414
 192.71402 194.81389 197.08177 199.44564 201.89552 204.38040 206.47327 208.32015
 209.95102 211.10090 211.33477 211.56765 211.50952 211.21940 210.85728 210.49215
 210.11403 209.82890 209.64178 209.51065 209.44353 209.77941 210.17028 210.56416
 211.36203 212.54491 213.79978 215.58766 217.52054 219.56841 221.66829 223.75616
 225.82104 227.90991 230.01179 232.12267 234.25654 236.43342 238.69429 241.06917
 243.69504 245.95092 247.95780 249.72767 251.14955 252.27742 253.10430 253.42517
 253.46705 253.24593 252.61080 251.56368 250.17455 248.34043 246.25430 244.09218
 241.88806 239.69693 237.52181 235.36568 233.23056 231.10243 229.13331 227.29519
 225.58306 224.05994 222.69481 221.47169 220.35856 219.32344 218.43232 217.57819
 216.82507 216.00994 215.11282 214.48169 213.93657 214.53392 216.02719 217.93654
 220.04323 221.95654 223.31335 224.26324 225.30138 226.38081 227.12158 226.73351
 226.35277 228.46501 232.45720 237.00558 241.49571 245.90843 250.22612 254.34296
 258.16776 261.63986 264.71289 267.39856 269.79105 271.91525 273.64529 275.11093
 276.54770 278.11041 279.67087 281.11725 282.53046 283.78079 284.92151 285.95496
 286.88440 287.71207 288.43512 289.35657
 366.78100 356.34162 345.78024 334.65286 323.06247 311.26309 299.13971 286.94933
 274.66795 262.57157 250.58719 239.89480 230.02342 221.13404 213.32266 206.33128
 200.17190 195.11652 191.70513 189.75375 188.79737 188.86799 189.70961 191.02423
 192.75585 194.85746 197.12708 199.49270 201.94432 204.43094 206.52556 208.37418
 210.00679 211.15841 211.39403 211.62865 211.57227 211.28389 210.92350 210.56012
 210.18374 209.90036 209.71498 209.58560 209.52022 209.85783 210.25045 210.64607
 211.44569 212.63031 213.88693 215.67655 217.61116 219.66078 221.76240 223.85202
 225.91864 228.00926 230.11288 232.22549 234.36111 236.53973 238.80235 241.17897
 243.80659 246.06421 248.07282 249.84444 251.26806 252.39768 253.22630 253.54892
 253.59254 253.37315 252.73977 251.69439 250.30701 248.47463 246.39025 244.22987
 242.02748 239.83810 237.66472 235.51034 233.37696 231.25058 229.28320 227.44681
 225.73643 224.21505 222.85167 221.63029 220.51891 219.48553 218.59614 217.74376
 216.99238 216.17900 215.28362 214.65424 214.11086 214.62233 215.89825 218.07570
 219.92245 221.69553 223.26167 224.16719 225.14674 226.32658 227.36855 226.86490
 226.41693 228.37776 232.39296 236.94498 241.37457 245.72079 249.99095 254.05760
 257.85074 261.35553 264.55606 267.43842 270.02866 272.34601 274.32816 275.94922
 277.30789 278.54941 279.75943 281.08044 282.27188 283.36169 284.44058 285.42624
 286.31274 287.10217 287.79181 288.67065
 366.78100 356.34191 345.78082 334.65374 323.06365 311.26456 299.14147 286.95138
 274.67029 262.57421 250.59012 239.89803 230.02694 221.13785 213.32676 206.33568
 200.17659 195.12150 191.71041 189.75932 188.80323 188.87415 189.71606 191.03097
 192.76288 194.86479 197.13470 199.50062 201.95253 204.43944 206.53435 208.38326
 210.01617 211.16809 211.40400 211.63891 211.58282 211.29473 210.93464 210.57156
 210.19547 209.91238 209.72729 209.59820 209.53311 209.87103 210.26394 210.65985
 211.45976 212.64467 213.90158 215.69150 217.62641 219.67632 221.77823 223.86814
 225.93505 228.02597 230.12988 232.24279 234.37870 236.55761 238.82052 241.19744
 243.82535 246.08326 248.09217 249.86408 251.28799 252.41791 253.24682 253.56973
 253.61364 253.39455 252.76146 251.71638 250.32929 248.49720 246.41311 244.25302
 242.05093 239.86185 237.68876 235.53467 233.40158 231.27549 229.30840 227.47232
 225.76223 224.24114 222.87805 221.65696 220.54587 219.51279 218.62370 217.77161
 217.02052 216.20743 215.31234 214.68326 214.14017 214.63850 215.81589 218.16499
 220.22537 221.74040 223.17422 224.16737 225.15640 226.30145 227.40204 226.77626
 226.63361 228.48134 232.37602 236.92780 241.30235 245.60910 249.87994 253.93069
 257.69391 261.13846 264.27112 267.12860 269.74808 272.11310 274.17758 275.97394
 277.54266 278.90259 280.10135 281.20325 282.26401 283.29715 284.25061 285.12799
 285.93164 286.67761 287.33640 288.17599
 366.78100 356.34121 345.77942 334.65164 323.06085 311.26106 299.13727 286.94649
 274.66470 262.56791 250.58312 239.89034 230.01855 221.12876 213.31697 206.32519
 200.16540 195.10961 191.69782 189.74603 188.78925 188.85946 189.70067 191.01488
 192.74610 194.84731 197.11652 199.48173 201.93295 204.41916 206.51337 208.36158
 209.99380 211.14501 211.38022 211.61443 211.55765 211.26886 210.90807 210.54428
 210.16749 209.88371 209.69792 209.56813 209.50234 209.83956 210.23177 210.62698
 211.42619 212.61041 213.86662 215.65583 217.59004 219.63926 221.74047 223.82968
 225.89589 227.98610 230.08932 232.20153 234.33674 236.51495 238.77717 241.15338
 243.78059 246.03780 248.04602 249.81723 251.24044 252.36965 253.19787 253.52008
 253.56329 253.34350 252.70971 251.66393 250.27614 248.44335 246.35856 244.19778
 241.99499 239.80520 237.63141 235.47663 233.34284 231.21605 229.24826 227.41148
 225.70069 224.17890 222.81511 221.59332 220.48154 219.44775 218.55796 217.70517
 216.95339 216.13960 215.24381 214.61402 214.07024 214.60655 215.87367 218.16475
 220.37886 221.84285 223.04691 224.04314 225.07736 226.28947 227.42188 226.90303
 226.65759 228.50429 232.36134 236.93875 241.30713 245.59204 249.85680 253.92003
 257.69034 261.12494 264.21698 267.00955 269.58838 271.91605 273.88083 275.62198
 277.25699 278.72220 280.01361 281.16821 282.23782 283.26089 284.21048 285.07867
 285.87357 286.59064 287.20789 288.03363
 366.78100 356.34127 345.77953 334.65180 323.06106 311.26133 299.13759 286.94686
 274.66512 262.56839 250.58366 239.89092 230.01919 221.12945 213.31772 206.32598
 200.16625 195.11052 191.69878 189.74705 188.79031 188.86058 189.70184 191.01611
 192.74737 194.84864 197.11791 199.48317 201.93444 204.42070 206.51497 208.36323
 209.99550 211.14677 211.38203 211.61630 211.55956 211.27083 210.91009 210.54636
 210.16962 209.88589 209.70016 209.57042 209.50469 209.84195 210.23422 210.62948
 211.42875 212.61302 213.86928 215.65855 217.59281 219.64208 221.74334 223.83261
 225.89887 227.98914 230.09241 232.20467 234.33994 236.51820 238.78047 241.15673
 243.78400 246.04126 248.04953 249.82080 251.24406 252.37333 253.20159 253.52386
 253.56712 253.34739 252.71366 251.66792 250.28019 248.44745 246.36272 244.20198
 241.99925 239.80951 237.63578 235.48105 233.34731 231.22058 229.25284 227.41611
 225.70537 224.18364 222.81991 221.59817 220.48644 219.45270 218.56297 217.71023
 216.95850 216.14476 215.24903 214.61930 214.07556 214.61812 215.89999 218.15787
 220.43083 221.91060 222.97722 223.87680 224.88828 226.17728 227.40866 227.02228
 226.75395 228.51259 232.37112 236.98976 241.35493 245.61667 249.86685 253.93575
 257.71100 261.14365 264.22617 266.99310 269.55783 271.87726 273.76141 275.41556
 277.04376 278.54242 279.87244 281.06061 282.19043 283.22937 284.18509 285.05951
 285.86014 286.58786 287.20245 288.01895
 366.78100 356.34208 345.78116 334.65423 323.06431 311.26539 299.14247 286.95254
 274.67162 262.57570 250.59178 239.89985 230.02893 221.14001 213.32909 206.33817
 200.17924 195.12432 191.71340 189.76248 188.80655 188.87763 189.71971 191.03479
 192.76686 194.86894 197.13902 199.50510 201.95718 204.44425 206.53933 208.38841
 210.02149 211.17356 211.40964 211.64472 211.58880 211.30087 210.94095 210.57803
 210.20211 209.91919 209.73426 209.60534 209.54042 209.87850 210.27157 210.66765
 211.46773 212.65281 213.90988 215.69996 217.63504 219.68512 221.78720 223.87727
 225.94435 228.03543 230.13951 232.25258 234.38866 236.56774 238.83082 241.20789
 243.83597 246.09405 248.10313 249.87521 251.29928 252.42936 253.25844 253.58152
 253.62559 253.40667 252.77375 251.72883 250.34190 248.50998 246.42606 244.26614
 242.06422 239.87529 237.70237 235.54845 233.41553 231.28960 229.32268 227.48676
 225.77684 224.25591 222.89299 221.67207 220.56115 219.52822 218.63930 217.78738
 217.03646 216.22354 215.32861 214.69969 214.15677 214.67245 215.89084 218.14482
 220.47266 222.00087 223.01010 223.78223 224.67975 225.97136 227.31323 227.08801
 226.85164 228.55286 232.40192 237.05702 241.43497 245.65616 249.88710 253.94907
 257.71350 261.13596 264.21429 266.98083 269.55740 271.89624 273.74963 275.34872
 276.95853 278.46457 279.80807 281.01801 282.17383 283.21954 284.17822 285.05582
 285.85995 286.58356 287.20380 288.02158
 366.78100 356.34273 345.78246 334.65619 323.06692 311.26865 299.14638 286.95711
 274.67684 262.58157 250.59830 239.90703 230.03676 221.14849 213.33822 206.34795
 200.18968 195.13541 191.72514 189.77487 188.81960 188.89133 189.73406 191.04979
 192.78252 194.88525 197.15598 199.52271 201.97544 204.46317 206.55890 208.40863
 210.04236 211.19509 211.43182 211.66755 211.61228 211.32501 210.96574 210.60347
 210.22820 209.94593 209.76166 209.63339 209.56912 209.90785 210.30158 210.69831
 211.49904 212.68477 213.94250 215.73323 217.66896 219.71969 221.82242 223.91315
 225.98088 228.07261 230.17734 232.29107 234.42780 236.60753 238.87126 241.24899
 243.87772 246.13645 248.14618 249.91891 251.34364 252.47437 253.30410 253.62783
 253.67256 253.45429 252.82202 251.77775 250.39148 248.56021 246.47694 244.31767
 242.11640 239.92813 237.75586 235.60259 233.47032 231.34505 229.37878 227.54351
 225.83424 224.31397 222.95170 221.73143 220.62116 219.58889 218.70062 217.84935
 217.09908 216.28681 215.39254 214.76427 214.22200 214.71964 215.89537 218.12411
 220.48796 222.07637 223.07153 223.74304 224.52161 225.76395 227.16968 227.10326
 226.93048 228.59470 232.42961 237.11369 241.51776 245.71661 249.92006 253.96411
 257.70676 261.10834 264.17560 266.94238 269.53482 271.88605 273.72574 275.30084
 276.90216 278.41489 279.76306 281.00729 282.17365 283.22214 284.18243 285.06161
 285.86591 286.59058 287.21530 288.03461
 366.78100 356.34283 345.78267 334.65650 323.06733 311.26917 299.14700 286.95783
 274.67767 262.58250 250.59933 239.90817 230.03800 221.14983 213.33967 206.34950
 200.19134 195.13717 191.72700 189.77684 188.82167 188.89350 189.73634 191.05217
 192.78500 194.88784 197.15867 199.52550 201.97834 204.46617 206.56200 208.41184
 210.04567 211.19850 211.43534 211.67117 211.61600 211.32884 210.96967 210.60750
 210.23234 209.95017 209.76601 209.63784 209.57367 209.91251 210.30634 210.70317
 211.50401 212.68984 213.94767 215.73851 217.67434 219.72517 221.82801 223.91884
 225.98667 228.07851 230.18334 232.29717 234.43401 236.61384 238.87767 241.25551
 243.88434 246.14317 248.15301 249.92584 251.35067 252.48151 253.31134 253.63518
 253.68001 253.46184 252.82968 251.78551 250.39934 248.56818 246.48501 244.32584
 242.12468 239.93651 237.76434 235.61118 233.47901 231.35384 229.38768 227.55251
 225.84334 224.32318 222.96101 221.74084 220.63068 219.59851 218.71034 217.85918
 217.10901 216.29685 215.40268 214.77451 214.23235 214.73668 215.92821 218.11246
 220.46674 222.11372 223.13020 223.72505 224.38219 225.57367 227.03790 227.11314
 226.99556 228.63261 232.46573 237.17642 241.60765 245.78911 249.96791 253.99271
 257.70819 261.08435 264.13708 266.90244 269.50568 271.85980 273.68793 275.25424
 276.85706 278.37460 279.72751 281.00876 282.18100 283.23035 284.19135 285.07373
 285.87918 286.60556 287.23273 288.06110
 366.78100 356.34284 345.78267 334.65651 323.06735 311.26918 299.14702 286.95786
 274.67769 262.58253 250.59937 239.90820 230.03804 221.14988 213.33971 206.34955
 200.19139 195.13722 191.72706 189.77690 188.82173 188.89357 189.73641 191.05224
 192.78508 194.88792 197.15875 199.52559 201.97843 204.46626 206.56210 208.41194
 210.04577 211.19861 211.43545 211.67128 211.61612 211.32896 210.96979 210.60763
 210.23247 209.95030 209.76614 209.63798 209.57381 209.91265 210.30649 210.70332
 211.50416 212.69000 213.94783 215.73867 217.67451 219.72534 221.82818 223.91902
 225.98685 228.07869 230.18353 232.29736 234.43420 236.61404 238.87787 241.25571
 243.88455 246.14338 248.15322 249.92606 251.35089 252.48173 253.31157 253.63540
 253.68024 253.46208 252.82991 251.78575 250.39959 248.56842 246.48526 244.32610
 242.12493 239.93677 237.76461 235.61144 233.47928 231.35412 229.38795 227.55279
 225.84363 224.32346 222.96130 221.74114 220.63097 219.59881 218.71065 217.85948
 217.10932 216.29716 215.40299 214.77483 214.23267 214.74774 215.96468 218.11031
 220.44002 222.13170 223.17183 223.71400 224.27693 225.37662 226.86580 227.11653
 227.08929 228.69446 232.50441 237.23233 241.69157 245.87294 250.02696 254.02626
 257.71582 261.06882 264.10706 266.87070 269.48154 271.83530 273.65280 275.21460
 276.81989 278.34131 279.69635 281.01587 282.19431 283.24460 284.20743 285.09033
 285.89700 286.62698 287.25751 288.08612
 366.78100 356.34302 345.78305 334.65707 323.06809 311.27011 299.14814 286.95916
 274.67918 262.58421 250.60123 239.91025 230.04028 221.15230 213.34232 206.35234
 200.19437 195.14039 191.73041 189.78044 188.82546 188.89748 189.74051 191.05653
 192.78955 194.89257 197.16360 199.53062 201.98364 204.47167 206.56769 208.41771
 210.05174 211.20476 211.44178 211.67780 211.62283 211.33585 210.97687 210.61490
 210.23992 209.95794 209.77396 209.64599 209.58201 209.92103 210.31506 210.71208
 211.51310 212.69913 213.95715 215.74817 217.68419 219.73522 221.83824 223.92926
 225.99729 228.08931 230.19433 232.30836 234.44538 236.62540 238.88942 241.26745
 243.89647 246.15549 248.16552 249.93854 251.36356 252.49458 253.32461 253.64863
 253.69365 253.47568 252.84370 251.79972 250.41375 248.58277 246.49979 244.34081
 242.13984 239.95186 237.77988 235.62691 233.49493 231.36995 229.40398 227.56900
 225.86002 224.34004 222.97807 221.75809 220.64811 219.61614 218.72816 217.87718
 217.12721 216.31523 215.42125 214.79327 214.25130 214.76938 215.99341 218.10039
 220.42363 222.16290 223.21547 223.67143 224.12543 225.19205 226.72194 227.10909
 227.14093 228.72400 232.55138 237.30319 241.78455 245.97087 250.10341 254.07628
 257.73615 261.06183 264.08301 266.84265 269.45752 271.80911 273.61569 275.17496
 276.78546 278.30908 279.68207 281.02127 282.20615 283.25912 284.22421 285.11057
 285.91815 286.64880 287.28842 288.11749
 366.78100 356.34332 345.78363 334.65795 323.06926 311.27158 299.14989 286.96121
 274.68152 262.58684 250.60415 239.91347 230.04378 221.15610 213.34641 206.35673
 200.19904 195.14536 191.73567 189.78599 188.83130 188.90362 189.74693 191.06325
 192.79656 194.89988 197.17119 199.53851 201.99182 204.48014 206.57646 208.42677
 210.06109 211.21440 211.45172 211.68803 211.63335 211.34666 210.98798 210.62629
 210.25161 209.96992 209.78624 209.65855 209.59487 209.93418 210.32850 210.72581
 211.52713 212.71344 213.97176 215.76307 217.69939 219.75070 221.85402 223.94533
 226.01365 228.10597 230.21128 232.32560 234.46291 236.64323 238.90754 241.28586
 243.91517 246.17449 248.18480 249.95812 251.38343 252.51475 253.34506 253.66938
 253.71469 253.49701 252.86532 251.82164 250.43595 248.60527 246.52258 244.36390
 242.16321 239.97553 237.80384 235.65116 233.51947 231.39479 229.42911 227.59442
 225.88574 224.36605 223.00437 221.78468 220.67500 219.64331 218.75563 217.90494
 217.15526 216.34357 215.44989 214.82220 214.28052 214.79834 216.02176 218.07977
 220.40462 222.20319 223.27434 223.66138 223.99123 224.89249 226.48213 227.09505
 227.25655 228.85492 232.63164 237.38101 241.88972 246.08887 250.20186 254.13387
 257.75488 261.04761 264.04779 266.80460 269.42267 271.76511 273.56042 275.12396
 276.74585 278.27438 279.68124 281.03076 282.21802 283.27328 284.24426 285.13080
 285.93979 286.67477 287.31232 288.15051
 366.78100 356.34358 345.78416 334.65875 323.07033 311.27291 299.15149 286.96308
 274.68366 262.58924 250.60682 239.91640 230.04699 221.15957 213.35015 206.36073
 200.20332 195.14990 191.74048 189.79106 188.83664 188.90923 189.75281 191.06939
 192.80297 194.90656 197.17814 199.54572 201.99930 204.48788 206.58447 208.43505
 210.06963 211.22321 211.46079 211.69738 211.64296 211.35654 210.99812 210.63671
 210.26229 209.98087 209.79745 209.67003 209.60662 209.94620 210.34078 210.73836
 211.53995 212.72653 213.98511 215.77669 217.71327 219.76486 221.86844 223.96002
 226.02860 228.12119 230.22677 232.34135 234.47893 236.65951 238.92410 241.30268
 243.93226 246.19184 248.20243 249.97601 251.40159 252.53317 253.36375 253.68834
 253.73392 253.51650 252.88508 251.84167 250.45625 248.62583 246.54341 244.38499
 242.18458 239.99716 237.82574 235.67332 233.54191 231.41749 229.45207 227.61765
 225.90923 224.38982 223.02840 221.80898 220.69956 219.66815 218.78073 217.93031
 217.18089 216.36947 215.47606 214.84864 214.30722 214.82698 216.05498 218.05566
 220.37416 222.23323 223.33719 223.67421 223.88232 224.59264 226.20729 227.03835
 227.36792 229.01678 232.72926 237.46370 242.00996 246.21123 250.29868 254.19348
 257.77417 261.03040 264.00879 266.76270 269.38257 271.71240 273.49786 275.06824
 276.70294 278.24115 279.68430 281.04089 282.22958 283.28723 284.25983 285.14737
 285.95871 286.69019 287.32944 288.17380
 366.78100 356.34377 345.78454 334.65931 323.07108 311.27385 299.15262 286.96439
 274.68516 262.59093 250.60870 239.91847 230.04923 221.16200 213.35277 206.36354
 200.20631 195.15308 191.74385 189.79462 188.84039 188.91316 189.75693 191.07370
 192.80747 194.91124 197.18301 199.55078 202.00455 204.49332 206.59009 208.44086
 210.07563 211.22940 211.46717 211.70394 211.64970 211.36347 211.00524 210.64401
 210.26978 209.98855 209.80532 209.67809 209.61486 209.95463 210.34940 210.74717
 211.54894 212.73571 213.99448 215.78625 217.72302 219.77479 221.87856 223.97033
 226.03910 228.13187 230.23764 232.35241 234.49017 236.67094 238.93571 241.31448
 243.94425 246.20402 248.21479 249.98856 251.41433 252.54610 253.37687 253.70164
 253.74741 253.53018 252.89895 251.85572 250.47049 248.64026 246.55803 244.39980
 242.19957 240.01234 237.84111 235.68888 233.55764 231.43341 229.46818 227.63395
 225.92572 224.40649 223.04526 221.82603 220.71680 219.68557 218.79834 217.94811
 217.19888 216.38765 215.49442 214.86719 214.32596 214.85155 216.09332 218.03467
 220.33292 222.24673 223.39391 223.69456 223.79056 224.32977 225.93379 226.94168
 227.45244 229.17624 232.83150 237.54691 242.13075 246.34003 250.40375 254.26094
 257.80014 261.01913 263.97427 266.72412 269.34186 271.65973 273.43692 275.01425
 276.66425 278.21008 279.69144 281.05215 282.24118 283.30167 284.27347 285.16397
 285.97467 286.71072 287.35645 288.21423
 366.78100 356.34385 345.78470 334.65955 323.07140 311.27425 299.15310 286.96494
 274.68579 262.59164 250.60949 239.91934 230.05019 221.16304 213.35389 206.36474
 200.20759 195.15444 191.74529 189.79614 188.84198 188.91483 189.75868 191.07553
 192.80938 194.91323 197.18508 199.55293 202.00678 204.49563 206.59248 208.44333
 210.07818 211.23202 211.46987 211.70672 211.65257 211.36642 211.00827 210.64712
 210.27297 209.99182 209.80867 209.68152 209.61837 209.95822 210.35306 210.75091
 211.55276 212.73961 213.99846 215.79031 217.72716 219.77901 221.88286 223.97471
 226.04356 228.13641 230.24226 232.35710 234.49495 236.67580 238.94065 241.31950
 243.94935 246.20920 248.22005 249.99390 251.41975 252.55160 253.38245 253.70730
 253.75314 253.53599 252.90484 251.86169 250.47654 248.64639 246.56424 244.40609
 242.20594 240.01879 237.84764 235.69549 233.56434 231.44018 229.47503 227.64088
 225.93273 224.41358 223.05243 221.83328 220.72413 219.69298 218.80583 217.95568
 217.20653 216.39538 215.50222 214.87507 214.33392 214.86993 216.13631 218.02034
 220.28096 222.24594 223.44406 223.71765 223.71181 224.10495 225.66653 226.80103
 227.49901 229.33148 232.94473 237.63890 242.25102 246.47705 250.51686 254.33414
 257.83112 261.01276 263.94492 266.68924 269.30219 271.60776 273.37958 274.96640
 276.62869 278.17200 279.69687 281.06662 282.25720 283.31857 284.29239 285.18127
 285.99466 286.72714 287.37045 288.23279
 366.78100 356.34390 345.78480 334.65970 323.07160 311.27450 299.15340 286.96530
 274.68620 262.59209 250.60999 239.91989 230.05079 221.16369 213.35459 206.36549
 200.20839 195.15529 191.74619 189.79709 188.84299 188.91589 189.75979 191.07669
 192.81059 194.91449 197.18639 199.55428 202.00818 204.49708 206.59398 208.44488
 210.07978 211.23368 211.47158 211.70848 211.65438 211.36828 211.01018 210.64908
 210.27498 209.99388 209.81078 209.68368 209.62058 209.96047 210.35537 210.75327
 211.55517 212.74207 214.00097 215.79287 217.72977 219.78167 221.88557 223.97747
 226.04637 228.13927 230.24517 232.36007 234.49797 236.67887 238.94376 241.32266
 243.95256 246.21246 248.22336 249.99726 251.42316 252.55506 253.38596 253.71086
 253.75676 253.53966 252.90856 251.86546 250.48036 248.65026 246.56816 244.41006
 242.20995 240.02285 237.85175 235.69965 233.56855 231.44445 229.47935 227.64525
 225.93715 224.41805 223.05695 221.83785 220.72875 219.69765 218.81055 217.96045
 217.21135 216.40025 215.50714 214.88004 214.33894 214.88608 216.17877 218.01279
 220.22467 222.22864 223.48024 223.73511 223.64417 223.92073 225.41656 226.62721
 227.50464 229.47055 233.06766 237.74217 242.37524 246.61919 250.63461 254.41135
 257.86557 261.01019 263.91989 266.65784 269.26416 271.55563 273.32254 274.92148
 276.59470 278.16049 279.69553 281.07138 282.26672 283.32977 284.30441 285.19553
 286.00287 286.73495 287.37637 288.23889
 366.78100 356.34401 345.78503 334.66004 323.07205 311.27506 299.15408 286.96609
 274.68710 262.59312 250.61113 239.92114 230.05215 221.16517 213.35618 206.36719
 200.21020 195.15722 191.74823 189.79924 188.84526 188.91827 189.76228 191.07929
 192.81331 194.91732 197.18933 199.55735 202.01136 204.50037 206.59738 208.44840
 210.08341 211.23742 211.47544 211.71245 211.65846 211.37247 211.01449 210.65350
 210.27951 209.99853 209.81554 209.68855 209.62556 209.96558 210.36059 210.75860
 211.56061 212.74763 214.00664 215.79865 217.73567 219.78768 221.89169 223.98370
 226.05272 228.14573 230.25174 232.36676 234.50477 236.68578 238.95079 241.32981
 243.95982 246.21983 248.23085 250.00486 251.43087 252.56288 253.39390 253.71891
 253.76492 253.54793 252.91695 251.87396 250.48897 248.65899 246.57700 244.41901
 242.21902 240.03204 237.86105 235.70906 233.57808 231.45409 229.48910 227.65511
 225.94713 224.42814 223.06715 221.84817 220.73918 219.70819 218.82120 217.97122
 217.22223 216.41124 215.51826 214.89127 214.35028 214.90598 216.21889 218.00728
 220.17209 222.20258 223.49782 223.73207 223.57236 223.76605 225.19064 226.44884
 227.49298 229.59341 233.18767 237.85358 242.50606 246.76338 250.75365 254.49013
 257.90149 261.01047 263.89908 266.63007 269.22733 271.50272 273.26633 274.87704
 276.56070 278.15735 279.69748 281.07428 282.27167 283.33566 284.31122 285.20020
 286.00732 286.73615 287.37350 288.23630
 366.78100 356.34418 345.78537 334.66055 323.07273 311.27592 299.15510 286.96728
 274.68846 262.59465 250.61283 239.92301 230.05420 221.16738 213.35856 206.36975
 200.21293 195.16011 191.75130 189.80248 188.84866 188.92185 189.76603 191.08321
 192.81739 194.92158 197.19376 199.56194 202.01613 204.50531 206.60249 208.45368
 210.08886 211.24304 211.48123 211.71841 211.66459 211.37877 211.02096 210.66014
 210.28632 210.00551 209.82269 209.69587 209.63306 209.97324 210.36842 210.76661
 211.56879 212.75597 214.01515 215.80734 217.74452 219.79670 221.90089 223.99307
 226.06225 228.15544 230.26162 232.37680 234.51499 236.69617 238.96135 241.34054
 243.97072 246.23090 248.24208 250.01627 251.44245 252.57463 253.40582 253.73100
 253.77718 253.56037 252.92955 251.88673 250.50192 248.67210 246.59028 244.43246
 242.23265 240.04583 237.87501 235.72320 233.59238 231.46856 229.50375 227.66993
 225.96211 224.44330 223.08248 221.86366 220.75484 219.72403 218.83721 217.98739
 217.23858 216.42776 215.53494 214.90813 214.36731 214.93007 216.25966 217.99950
 220.11919 222.17116 223.50620 223.71359 223.49176 223.62756 224.97835 226.26585
 227.47043 229.70758 233.30870 237.96924 242.63982 246.91043 250.88028 254.57904
 257.94977 261.02460 263.89093 266.61069 269.19318 271.45193 273.21240 274.83380
 276.52753 278.15463 279.70053 281.07730 282.27509 283.33780 284.31210 285.19992
 286.00562 286.72833 287.36639 288.22754
 366.78100 356.34427 345.78555 334.66082 323.07310 311.27637 299.15565 286.96792
 274.68920 262.59547 250.61374 239.92402 230.05529 221.16857 213.35984 206.37112
 200.21439 195.16167 191.75294 189.80422 188.85049 188.92376 189.76804 191.08531
 192.81959 194.92386 197.19614 199.56441 202.01869 204.50796 206.60523 208.45651
 210.09178 211.24606 211.48433 211.72161 211.66788 211.38216 211.02443 210.66371
 210.28998 210.00925 209.82653 209.69980 209.63708 209.97735 210.37263 210.77090
 211.57318 212.76045 214.01972 215.81200 217.74927 219.80155 221.90582 223.99810
 226.06737 228.16065 230.26692 232.38220 234.52047 236.70174 238.96702 241.34629
 243.97657 246.23684 248.24812 250.02239 251.44867 252.58094 253.41221 253.73749
 253.78376 253.56704 252.93631 251.89359 250.50886 248.67914 246.59741 244.43969
 242.23996 240.05323 237.88251 235.73078 233.60006 231.47633 229.51161 227.67788
 225.97016 224.45143 223.09070 221.87198 220.76325 219.73253 218.84580 217.99608
 217.24735 216.43663 215.54390 214.91718 214.37645 214.95021 216.30580 217.99596
 220.05614 222.11815 223.49542 223.69554 223.43063 223.52731 224.78801 226.06561
 227.41638 229.79704 233.42509 238.08452 242.76701 247.05142 251.00806 254.67604
 258.01349 261.05893 263.90234 266.60699 269.16953 271.40930 273.16638 274.79556
 276.49542 278.15442 279.70251 281.07864 282.27484 283.33722 284.31018 285.19577
 285.99957 286.72336 287.36221 288.22324
 366.78100 356.34439 345.78578 334.66116 323.07355 311.27694 299.15633 286.96872
 274.69010 262.59649 250.61488 239.92527 230.05665 221.17004 213.36143 206.37282
 200.21621 195.16359 191.75498 189.80637 188.85276 188.92615 189.77053 191.08792
 192.82231 194.92670 197.19908 199.56747 202.02186 204.51125 206.60864 208.46002
 210.09541 211.24980 211.48819 211.72558 211.67196 211.38635 211.02874 210.66813
 210.29451 210.01390 209.83129 209.70468 209.64207 209.98245 210.37784 210.77623
 211.57862 212.76601 214.02539 215.81778 217.75517 219.80756 221.91194 224.00433
 226.07372 228.16711 230.27350 232.38888 234.52727 236.70866 238.97405 241.35344
 243.98382 246.24421 248.25560 250.02999 251.45638 252.58876 253.42015 253.74554
 253.79193 253.57531 252.94470 251.90209 250.51748 248.68787 246.60625 244.44864
 242.24903 240.06242 237.89181 235.74019 233.60958 231.48597 229.52136 227.68774
 225.98013 224.46152 223.10091 221.88230 220.77368 219.74307 218.85646 218.00685
 217.25824 216.44762 215.55501 214.92840 214.38779 214.97072 216.34796 218.00629
 219.98996 222.03809 223.45491 223.66698 223.39464 223.47861 224.63298 225.86203
 227.33800 229.86681 233.53606 238.19711 242.88164 247.17178 251.11787 254.76028
 258.07248 261.09589 263.92358 266.61536 269.15891 271.38229 273.13882 274.77353
 276.46179 278.16519 279.71237 281.08450 282.27945 283.33908 284.31201 285.19791
 286.00278 286.73029 287.36880 288.22815
 366.78100 356.34478 345.78655 334.66233 323.07511 311.27888 299.15866 286.97143
 274.69321 262.59999 250.61876 239.92954 230.06132 221.17509 213.36687 206.37865
 200.22242 195.17020 191.76197 189.81375 188.86053 188.93430 189.77908 191.09686
 192.83163 194.93641 197.20919 199.57796 202.03274 204.52251 206.62029 208.47207
 210.10784 211.26262 211.50140 211.73917 211.68595 211.40073 211.04350 210.68328
 210.31005 210.02983 209.84761 209.72138 209.65916 209.99994 210.39571 210.79449
 211.59727 212.78504 214.04482 215.83759 217.77537 219.82815 221.93292 224.02570
 226.09548 228.18925 230.29603 232.41181 234.55058 236.73236 238.99813 241.37791
 244.00869 246.26946 248.28124 250.05602 251.48279 252.61557 253.44735 253.77312
 253.81990 253.60367 252.97345 251.93123 250.54700 248.71778 246.63656 244.47933
 242.28011 240.09388 237.92366 235.77244 233.64221 231.51899 229.55477 227.72154
 226.01432 224.49610 223.13587 221.91765 220.80942 219.77920 218.89298 218.04375
 217.29553 216.48531 215.59308 214.96686 214.42664 215.00575 216.37399 218.01274
 219.94379 221.95978 223.39192 223.60434 223.33434 223.43518 224.50175 225.67883
 227.26654 229.94424 233.65826 238.31279 242.98866 247.27919 251.21657 254.83746
 258.12659 261.13321 263.94583 266.62619 269.14764 271.35040 273.10733 274.74808
 276.43237 278.17383 279.72858 281.10187 282.29419 283.35373 284.32343 285.20914
 286.01266 286.74091 287.37842 288.22559
 366.78100 356.34527 345.78754 334.66381 323.07709 311.28136 299.16163 286.97490
 274.69717 262.60444 250.62371 239.93498 230.06726 221.18153 213.37380 206.38607
 200.23034 195.17861 191.77088 189.82316 188.87043 188.94470 189.78997 191.10824
 192.84351 194.94878 197.22206 199.59133 202.04660 204.53687 206.63514 208.48741
 210.12368 211.27895 211.51823 211.75650 211.70377 211.41904 211.06231 210.70258
 210.32985 210.05013 209.86840 209.74267 209.68094 210.02221 210.41848 210.81775
 211.62102 212.80930 214.06957 215.86284 217.80111 219.85438 221.95965 224.05292
 226.12320 228.21747 230.32474 232.44101 234.58028 236.76255 239.02882 241.40910
 244.04037 246.30164 248.31391 250.08918 251.51645 252.64972 253.48199 253.80827
 253.85554 253.63981 253.01008 251.96835 250.58462 248.75589 246.67517 244.51844
 242.31971 240.13398 237.96425 235.81352 233.68379 231.56106 229.59734 227.76461
 226.05788 224.54015 223.18042 221.96269 220.85496 219.82524 218.93951 218.09078
 217.34305 216.53332 215.64159 215.01586 214.47614 215.04611 216.39275 218.00847
 219.90891 221.90340 223.32797 223.51270 223.23940 223.37280 224.37657 225.51686
 227.20410 230.01817 233.78447 238.43385 243.09793 247.38907 251.32616 254.93132
 258.20065 261.18283 263.97644 266.63828 269.13010 271.30438 273.06540 274.72278
 276.42313 278.17847 279.73907 281.11417 282.30594 283.36526 284.33365 285.21533
 286.01917 286.74838 287.38181 288.22348
 366.78100 356.34570 345.78839 334.66509 323.07879 311.28348 299.16418 286.97788
 274.70057 262.60827 250.62797 239.93966 230.07236 221.18706 213.37975 206.39245
 200.23715 195.18584 191.77854 189.83124 188.87893 188.95363 189.79933 191.11802
 192.85372 194.95942 197.23311 199.60281 202.05851 204.54920 206.64790 208.50060
 210.13729 211.29299 211.53268 211.77138 211.71908 211.43477 211.07847 210.71917
 210.34686 210.06756 209.88626 209.76095 209.69965 210.04135 210.43804 210.83774
 211.64144 212.83013 214.09083 215.88453 217.82322 219.87692 221.98262 224.07631
 226.14701 228.24171 230.34940 232.46610 234.60580 236.78849 239.05519 241.43589
 244.06758 246.32928 248.34198 250.11767 251.54537 252.67907 253.51176 253.83846
 253.88616 253.67085 253.04155 252.00025 250.61694 248.78864 246.70834 244.55203
 242.35373 240.16843 237.99912 235.84882 233.71952 231.59721 229.63391 227.80161
 226.09530 224.57800 223.21870 222.00139 220.89409 219.86479 218.97948 218.13118
 217.38388 216.57457 215.68327 215.05796 214.51866 215.08153 216.41135 218.00847
 219.87164 221.84401 223.26323 223.41336 223.11955 223.29973 224.26564 225.37489
 227.14503 230.08290 233.90608 238.55324 243.20091 247.49568 251.43669 255.03270
 258.28162 261.25058 264.01682 266.65613 269.11169 271.25031 273.01025 274.68744
 276.42728 278.19028 279.75500 281.13248 282.32538 283.38489 284.35175 285.23203
 286.03491 286.76599 287.38965 288.23206
 366.78100 356.34618 345.78936 334.66655 323.08073 311.28591 299.16709 286.98128
 274.70446 262.61264 250.63282 239.94500 230.07819 221.19337 213.38655 206.39973
 200.24491 195.19410 191.78728 189.84046 188.88864 188.96383 189.81001 191.12919
 192.86537 194.97155 197.24574 199.61592 202.07210 204.56328 206.66246 208.51565
 210.15283 211.30901 211.54919 211.78838 211.73656 211.45274 211.09692 210.73810
 210.36629 210.08747 209.90665 209.78183 209.72101 210.06320 210.46038 210.86056
 211.66474 212.85393 214.11511 215.90929 217.84847 219.90265 222.00884 224.10302
 226.17420 228.26938 230.37756 232.49475 234.63493 236.81811 239.08529 241.46648
 244.09866 246.36084 248.37402 250.15020 251.57839 252.71257 253.54575 253.87293
 253.92111 253.70630 253.07748 252.03666 250.65384 248.82603 246.74621 244.59039
 242.39257 240.20775 238.03894 235.88912 233.76030 231.63848 229.67566 227.84385
 226.13803 224.62121 223.26239 222.04558 220.93876 219.90994 219.02512 218.17730
 217.43049 216.62167 215.73085 215.10603 214.56721 215.11917 216.42323 218.00452
 219.85617 221.80118 223.17697 223.27831 222.97517 223.20195 224.14932 225.26109
 227.11391 230.14964 234.02887 238.67705 243.31125 247.60800 251.56064 255.15347
 258.39224 261.32281 264.06485 266.67630 269.08456 271.17883 272.94403 274.65454
 276.42807 278.19421 279.75812 281.13562 282.32727 283.38388 284.34628 285.22409
 286.02533 286.75586 287.37735 288.21011
 366.78100 356.34678 345.79056 334.66834 323.08312 311.28890 299.17067 286.98545
 274.70923 262.61801 250.63879 239.95157 230.08535 221.20113 213.39491 206.40869
 200.25447 195.20424 191.79802 189.85180 188.90058 188.97636 189.82314 191.14292
 192.87970 194.98648 197.26126 199.63203 202.08881 204.58059 206.68037 208.53415
 210.17193 211.32871 211.56949 211.80927 211.75805 211.47483 211.11960 210.76138
 210.39016 210.11194 209.93172 209.80750 209.74728 210.09006 210.48784 210.88862
 211.69340 212.88317 214.14495 215.93973 217.87951 219.93429 222.04107 224.13585
 226.20763 228.30341 230.41219 232.52997 234.67074 236.85452 239.12230 241.50408
 244.13686 246.39964 248.41342 250.19020 251.61898 252.75376 253.58754 253.91531
 253.96409 253.74987 253.12165 252.08143 250.69921 248.87199 246.79277 244.63755
 242.44033 240.25610 238.08788 235.93866 233.81044 231.68922 229.72700 227.89578
 226.19056 224.67434 223.31612 222.09990 220.99367 219.96545 219.08123 218.23401
 217.48779 216.67957 215.78935 215.16513 214.62691 215.16685 216.44255 217.96638
 219.82541 221.77872 223.12122 223.11674 222.75951 223.08754 224.01524 225.10272
 227.07712 230.19810 234.14719 238.80750 243.43413 247.75124 251.72466 255.32202
 258.54364 261.47284 264.15103 266.71198 269.06793 271.10992 272.84909 274.57739
 276.40393 278.20700 279.77185 281.15036 282.34576 283.40118 284.36453 285.24762
 286.05991 286.78464 287.42841 288.27371
 366.78100 356.34710 345.79120 334.66930 323.08440 311.29050 299.17260 286.98770
 274.71180 262.62090 250.64200 239.95510 230.08920 221.20530 213.39940 206.41350
 200.25960 195.20970 191.80380 189.85791 188.90701 188.98311 189.83021 191.15031
 192.88741 194.99451 197.26961 199.64071 202.09781 204.58991 206.69001 208.54411
 210.18221 211.33931 211.58041 211.82051 211.76961 211.48671 211.13181 210.77391
 210.40301 210.12511 209.94521 209.82131 209.76141 210.10451 210.50261 210.90371
 211.70881 212.89891 214.16101 215.95611 217.89621 219.95131 222.05841 224.15351
 226.22562 228.32172 230.43082 232.54892 234.69002 236.87412 239.14222 241.52432
 244.15742 246.42052 248.43462 250.21172 251.64082 252.77592 253.61002 253.93812
 253.98722 253.77332 253.14542 252.10552 250.72362 248.89672 246.81782 244.66292
 242.46602 240.28212 238.11422 235.96532 233.83742 231.71652 229.75462 227.92372
 226.21882 224.70292 223.34502 222.12912 221.02322 219.99533 219.11143 218.26453
 217.51863 216.71073 215.82083 215.19693 214.65903 215.20258 216.48679 217.91353
 219.73135 221.70895 223.08711 223.06094 222.62556 222.87491 223.80931 225.02351
 227.06718 230.21942 234.24847 238.93335 243.54349 247.87267 251.87654 255.48587
 258.71533 261.58084 264.31607 266.84152 269.13788 271.12015 272.85672 274.60043
 276.42322 278.19589 279.75876 281.13724 282.33002 283.38699 284.35419 285.22919
 286.01080 286.68399 287.25742 287.98822
 366.78100 356.34681 345.79062 334.66844 323.08325 311.28906 299.17087 286.98568
 274.70950 262.61831 250.63912 239.95193 230.08574 221.20156 213.39537 206.40918
 200.25499 195.20480 191.79862 189.85243 188.90124 188.97705 189.82386 191.14368
 192.88049 194.98730 197.26211 199.63292 202.08974 204.58155 206.68136 208.53517
 210.17299 211.32980 211.57061 211.81042 211.75923 211.47605 211.12086 210.76267
 210.39148 210.11329 209.93311 209.80892 209.74873 210.09154 210.48935 210.89017
 211.69498 212.88479 214.14660 215.94141 217.88123 219.93604 222.04285 224.13766
 226.20947 228.30529 230.41410 232.53191 234.67272 236.85653 239.12435 241.50616
 244.13897 246.40178 248.41559 250.19241 251.62122 252.75603 253.58984 253.91765
 253.96647 253.75228 253.12409 252.08390 250.70171 248.87453 246.79534 244.64015
 242.44296 240.25877 238.09059 235.94140 233.81321 231.69202 229.72983 227.89865
 226.19346 224.67727 223.31908 222.10289 220.99671 219.96852 219.08433 218.23714
 217.49096 216.68277 215.79258 215.16839 214.63020 215.19992 216.54590 217.89296
 219.63029 221.58887 223.02403 223.08810 222.60789 222.69533 223.62128 224.93530
 226.99568 230.23779 234.35803 239.03859 243.64207 247.94203 251.98602 255.60201
 258.82526 261.68060 264.44107 266.93442 269.18500 271.12579 272.87018 274.61572
 276.43222 278.19171 279.75180 281.12485 282.31390 283.36438 284.32031 285.18561
 285.95807 286.64160 287.23865 287.99951
 366.78100 356.34655 345.79011 334.66766 323.08222 311.28777 299.16932 286.98388
 274.70743 262.61599 250.63654 239.94910 230.08265 221.19820 213.39176 206.40531
 200.25087 195.20042 191.79397 189.84753 188.89608 188.97164 189.81819 191.13775
 192.87430 194.98085 197.25541 199.62596 202.08252 204.57407 206.67362 208.52718
 210.16473 211.32129 211.56184 211.80140 211.74995 211.46650 211.11106 210.75261
 210.38117 210.10272 209.92227 209.79783 209.73738 210.07994 210.47749 210.87805
 211.68260 212.87215 214.13371 215.92826 217.86782 219.92237 222.02892 224.12348
 226.19503 228.29059 230.39914 232.51670 234.65725 236.84080 239.10836 241.48991
 244.12247 246.38502 248.39857 250.17513 251.60368 252.73824 253.57179 253.89935
 253.94790 253.73345 253.10501 252.06456 250.68212 248.85467 246.77522 244.61978
 242.42233 240.23789 238.06944 235.92000 233.79155 231.67010 229.70766 227.87621
 226.17077 224.65432 223.29587 222.07943 220.97298 219.94454 219.06009 218.21265
 217.46620 216.65775 215.76731 215.14286 214.60442 215.19337 216.58485 217.90434
 219.56506 221.45636 222.91763 223.10422 222.62776 222.56345 223.45976 224.81892
 226.90985 230.25641 234.45906 239.12569 243.68761 248.01357 252.10188 255.73232
 258.89423 261.77856 264.53778 266.98648 269.18320 271.08087 272.83649 274.61026
 276.43042 278.18338 279.73502 281.10074 282.28052 283.32025 284.26779 285.12567
 285.89322 286.57242 287.16574 287.92191
 366.78100 356.34672 345.79044 334.66816 323.08288 311.28860 299.17032 286.98504
 274.70876 262.61747 250.63819 239.95091 230.08463 221.20035 213.39407 206.40779
 200.25351 195.20323 191.79695 189.85067 188.89939 188.97511 189.82183 191.14155
 192.87827 194.98499 197.25970 199.63042 202.08714 204.57886 206.67858 208.53230
 210.17002 211.32674 211.56746 211.80718 211.75590 211.47262 211.11734 210.75906
 210.38778 210.10950 209.92922 209.80493 209.74465 210.08737 210.48509 210.88581
 211.69053 212.88025 214.14197 215.93669 217.87641 219.93113 222.03785 224.13257
 226.20429 228.30001 230.40873 232.52645 234.66716 236.85088 239.11860 241.50032
 244.13304 246.39576 248.40948 250.18620 251.61492 252.74964 253.58336 253.91108
 253.95980 253.74552 253.11724 252.07696 250.69468 248.86739 246.78811 244.63283
 242.43555 240.25127 238.08299 235.93371 233.80543 231.68415 229.72187 227.89059
 226.18531 224.66903 223.31075 222.09447 220.98819 219.95991 219.07562 218.22834
 217.48206 216.67378 215.78350 215.15922 214.62094 215.20677 216.59085 217.90857
 219.54250 221.35466 222.78920 223.05487 222.59003 222.44075 223.34723 224.73593
 226.85210 230.29037 234.54868 239.19122 243.71700 248.10461 252.19443 255.84167
 259.01553 261.94812 264.63446 267.05618 269.22089 271.07993 272.82080 274.61075
 276.42441 278.14124 279.65543 281.00177 282.16718 283.19019 284.11975 284.95334
 285.68652 286.32663 286.88580 287.59845
 366.78100 356.34692 345.79083 334.66875 323.08367 311.28959 299.17150 286.98642
 274.71034 262.61926 250.64017 239.95309 230.08701 221.20293 213.39684 206.41076
 200.25668 195.20659 191.80051 189.85443 188.90335 188.97926 189.82618 191.14610
 192.88302 194.98993 197.26485 199.63577 202.09268 204.58460 206.68452 208.53844
 210.17635 211.33327 211.57419 211.81411 211.76302 211.47994 211.12486 210.76678
 210.39569 210.11761 209.93753 209.81344 209.75336 210.09628 210.49420 210.89511
 211.70003 212.88995 214.15187 215.94678 217.88670 219.94162 222.04854 224.14345
 226.21537 228.31129 230.42020 232.53812 234.67904 236.86296 239.13087 241.51279
 244.14571 246.40863 248.42254 250.19946 251.62838 252.76329 253.59721 253.92513
 253.97405 253.75996 253.13188 252.09180 250.70972 248.88263 246.80355 244.64847
 242.45139 240.26730 238.09922 235.95014 233.82205 231.70097 229.73889 227.90781
 226.20272 224.68664 223.32856 222.11248 221.00639 219.97831 219.09423 218.24715
 217.50106 216.69298 215.80290 215.17881 214.64073 215.22435 216.60321 217.89038
 219.51047 221.27106 222.65088 222.95422 222.50208 222.32246 223.23915 224.66524
 226.80498 230.34163 234.64706 239.26060 243.78183 248.15652 252.24191 255.90179
 259.12091 262.08951 264.73499 267.17767 269.32834 271.15436 272.86688 274.63940
 276.42953 278.09668 279.54901 280.86075 282.00333 283.00534 283.91776 284.75104
 285.51001 286.20041 286.80353 287.57211
 366.78100 356.34708 345.79116 334.66923 323.08431 311.29039 299.17247 286.98755
 274.71163 262.62070 250.64178 239.95486 230.08894 221.20502 213.39909 206.41317
 200.25925 195.20933 191.80341 189.85748 188.90656 188.98264 189.82972 191.14980
 192.88688 194.99395 197.26903 199.64011 202.09719 204.58927 206.68934 208.54342
 210.18150 211.33858 211.57966 211.81974 211.76881 211.48589 211.13097 210.77305
 210.40213 210.12420 209.94428 209.82036 209.76044 210.10352 210.50159 210.90267
 211.70775 212.89783 214.15991 215.95499 217.89506 219.95014 222.05722 224.15230
 226.22438 228.32045 230.42953 232.54761 234.68869 236.87277 239.14085 241.52292
 244.15600 246.41908 248.43316 250.21024 251.63931 252.77439 253.60847 253.93655
 253.98563 253.77170 253.14378 252.10386 250.72194 248.89502 246.81610 244.66117
 242.46425 240.28033 238.11241 235.96349 233.83556 231.71464 229.75272 227.92180
 226.21688 224.70095 223.34303 222.12711 221.02119 219.99327 219.10935 218.26242
 217.51650 216.70858 215.81866 215.19474 214.65681 215.23773 216.61179 217.87503
 219.46898 221.17503 222.48985 222.81848 222.37520 222.19441 223.12663 224.61855
 226.76297 230.39360 234.78508 239.35358 243.86378 248.20723 252.28993 255.94513
 259.19205 262.14594 264.81271 267.26279 269.40689 271.23013 272.93362 274.68201
 276.45267 278.09460 279.52228 280.78427 281.90366 282.90903 283.83426 284.68744
 285.48523 286.19675 286.81836 287.61050
 366.78100 356.34744 345.79189 334.67033 323.08577 311.29221 299.17466 286.99010
 274.71454 262.62399 250.64543 239.95887 230.09332 221.20976 213.40420 206.41864
 200.26509 195.21553 191.80997 189.86442 188.91386 188.99030 189.83775 191.15819
 192.89563 195.00307 197.27852 199.64996 202.10740 204.59985 206.70029 208.55473
 210.19318 211.35062 211.59206 211.83250 211.78195 211.49939 211.14483 210.78728
 210.41672 210.13916 209.95961 209.83605 209.77649 210.11993 210.51838 210.91982
 211.72526 212.91571 214.17815 215.97359 217.91404 219.96948 222.07692 224.17236
 226.24481 228.34125 230.45069 232.56914 234.71058 236.89502 239.16346 241.54591
 244.17935 246.44279 248.45724 250.23468 251.66412 252.79957 253.63401 253.96245
 254.01189 253.79834 253.17078 252.13122 250.74967 248.92311 246.84455 244.69000
 242.49344 240.30988 238.14232 235.99377 233.86621 231.74565 229.78410 227.95354
 226.24898 224.73343 223.37587 222.16031 221.05475 220.02720 219.14364 218.29708
 217.55153 216.74397 215.85441 215.23086 214.69330 215.25826 216.59619 217.87408
 219.44746 221.13657 222.35992 222.62227 222.18257 222.04495 223.02098 224.53732
 226.75545 230.47086 234.94991 239.47629 243.96716 248.29364 252.36893 256.02414
 259.25653 262.14346 264.89679 267.33774 269.45663 271.25879 272.96448 274.72293
 276.48022 278.07608 279.45233 280.70029 281.81989 282.82510 283.74817 284.60580
 285.39322 286.09439 286.70694 287.48755
 366.78100 356.34740 345.79179 334.67019 323.08559 311.29199 299.17438 286.98978
 274.71418 262.62357 250.64497 239.95837 230.09276 221.20916 213.40356 206.41796
 200.26435 195.21475 191.80915 189.86354 188.91294 188.98934 189.83674 191.15713
 192.89453 195.00193 197.27732 199.64872 202.10612 204.59851 206.69891 208.55331
 210.19171 211.34910 211.59050 211.83090 211.78029 211.49769 211.14309 210.78549
 210.41488 210.13728 209.95768 209.83407 209.77447 210.11787 210.51626 210.91766
 211.72306 212.91346 214.17585 215.97125 217.91165 219.96704 222.07444 224.16984
 226.24224 228.33863 230.44803 232.56643 234.70782 236.89222 239.16062 241.54301
 244.17641 246.43981 248.45421 250.23160 251.66100 252.79640 253.63079 253.95919
 254.00859 253.79498 253.16738 252.12778 250.74618 248.91957 246.84097 244.68637
 242.48976 240.30616 238.13856 235.98996 233.86235 231.74175 229.78015 227.94954
 226.24494 224.72934 223.37173 222.15613 221.05053 220.02293 219.13932 218.29272
 217.54712 216.73951 215.84991 215.22631 214.68871 215.25787 216.60898 217.87856
 219.37962 221.04088 222.25574 222.50345 222.02832 221.86046 222.82393 224.40942
 226.72717 230.55432 235.10674 239.64534 244.09946 248.40112 252.46811 256.08896
 259.31772 262.31036 265.00217 267.40347 269.47076 271.23367 272.90335 274.69571
 276.44180 278.00235 279.28665 280.54486 281.67014 282.64914 283.55789 284.41269
 285.18353 285.86993 286.46960 287.23380
 366.78100 356.34771 345.79242 334.67113 323.08684 311.29356 299.17627 286.99198
 274.71669 262.62640 250.64811 239.96182 230.09653 221.21325 213.40796 206.42267
 200.26938 195.22009 191.81480 189.86951 188.91922 188.99594 189.84365 191.16436
 192.90207 195.00978 197.28549 199.65720 202.11491 204.60763 206.70834 208.56305
 210.20176 211.35947 211.60118 211.84189 211.79160 211.50932 211.15503 210.79774
 210.42745 210.15016 209.97087 209.84758 209.78829 210.13201 210.53072 210.93243
 211.73814 212.92885 214.19156 215.98727 217.92798 219.98370 222.09141 224.18712
 226.25983 228.35654 230.46625 232.58496 234.72667 236.91139 239.18010 241.56281
 244.19652 246.46023 248.47494 250.25265 251.68236 252.81808 253.65279 253.98150
 254.03121 253.81792 253.19063 252.15134 250.77005 248.94376 246.86548 244.71119
 242.51490 240.33161 238.16432 236.01603 233.88874 231.76845 229.80717 227.97688
 226.27259 224.75730 223.40001 222.18472 221.07943 220.05214 219.16886 218.32257
 217.57728 216.76999 215.88070 215.25741 214.72012 215.28134 216.62598 217.90541
 219.35487 220.92558 222.27319 222.55263 221.99036 221.69310 222.60226 224.37245
 226.78589 230.67288 235.23459 239.82811 244.27766 248.57472 252.62961 256.21811
 259.38416 262.39291 265.08157 267.45755 269.48358 271.23166 272.90640 274.67691
 276.37607 277.80176 279.05725 280.30316 281.47803 282.59595 283.61588 284.53989
 285.37091 286.11096 286.75745 287.58133
 366.78100 356.34812 345.79323 334.67235 323.08846 311.29558 299.17869 286.99481
 274.71993 262.63004 250.65216 239.96627 230.10139 221.21850 213.41362 206.42874
 200.27585 195.22697 191.82208 189.87720 188.92731 189.00443 189.85255 191.17366
 192.91178 195.01989 197.29601 199.66813 202.12624 204.61936 206.72047 208.57559
 210.21470 211.37282 211.61494 211.85605 211.80617 211.52428 211.17040 210.81351
 210.44363 210.16675 209.98786 209.86498 209.80609 210.15021 210.54932 210.95144
 211.75756 212.94867 214.21179 216.00790 217.94902 220.00513 222.11325 224.20937
 226.28248 228.37960 230.48971 232.60883 234.75094 236.93606 239.20518 241.58829
 244.22241 246.48652 248.50164 250.27975 251.70987 252.84599 253.68110 254.01022
 254.06033 253.84745 253.22057 252.18168 250.80080 248.97491 246.89703 244.74314
 242.54726 240.36438 238.19749 236.04961 233.92272 231.80284 229.84195 228.01207
 226.30819 224.79330 223.43642 222.22153 221.11665 220.08976 219.20688 218.36100
 217.61611 216.80923 215.92034 215.29746 214.76057 215.31279 216.64352 217.89848
 219.39049 221.02429 222.44351 222.56354 221.81963 221.47507 222.42542 224.16049
 226.76073 230.75278 235.36803 240.00261 244.46786 248.74812 252.78746 256.37030
 259.55472 262.47772 265.13547 267.48001 269.45883 271.18253 272.88977 274.64474
 276.24170 277.68433 279.23590 280.78391 282.13681 283.33377 284.42584 285.41516
 286.30496 287.09732 287.78952 288.67163
 366.78100 356.34789 345.79279 334.67168 323.08757 311.29446 299.17736 286.99325
 274.71814 262.62803 250.64993 239.96382 230.09871 221.21560 213.41050 206.42539
 200.27228 195.22317 191.81807 189.87296 188.92285 188.99974 189.84764 191.16853
 192.90642 195.01431 197.29021 199.66210 202.11999 204.61288 206.71378 208.56867
 210.20756 211.36545 211.60735 211.84824 211.79813 211.51602 211.16192 210.80481
 210.43470 210.15759 209.97849 209.85538 209.79627 210.14016 210.53906 210.94095
 211.74684 212.93773 214.20063 215.99652 217.93741 219.99330 222.10120 224.19709
 226.26998 228.36687 230.47677 232.59566 234.73755 236.92244 239.19134 241.57423
 244.20812 246.47201 248.48691 250.26480 251.69469 252.83058 253.66548 253.99437
 254.04426 253.83115 253.20405 252.16494 250.78383 248.95772 246.87962 244.72551
 242.52940 240.34629 238.17919 236.03108 233.90397 231.78386 229.82276 227.99265
 226.28854 224.77343 223.41633 222.20122 221.09611 220.06900 219.18590 218.33979
 217.59468 216.78757 215.89847 215.27536 214.73825 215.30742 216.66440 217.86122
 219.40584 221.08603 222.46275 222.45137 221.57414 221.29692 222.28088 223.93332
 226.69054 230.79536 235.50015 240.15471 244.60768 248.84691 252.84088 256.45386
 259.64545 262.54486 265.19400 267.53668 269.53375 271.24341 272.93317 274.70935
 276.24420 277.93845 279.67780 281.30612 282.71530 283.96207 285.09955 286.13000
 287.05682 287.88214 288.60312 289.52191
 366.78100 356.34729 345.79158 334.66988 323.08517 311.29146 299.17375 286.98905
 274.71334 262.62263 250.64392 239.95722 230.09151 221.20780 213.40209 206.41639
 200.26268 195.21297 191.80726 189.86156 188.91085 188.98714 189.83443 191.15472
 192.89202 194.99931 197.27460 199.64589 202.10319 204.59548 206.69577 208.55006
 210.18836 211.34565 211.58694 211.82723 211.77653 211.49382 211.13911 210.78140
 210.41070 210.13299 209.95328 209.82957 209.76986 210.11316 210.51145 210.91274
 211.71803 212.90833 214.17062 215.96591 217.90620 219.96150 222.06879 224.16408
 226.23637 228.33267 230.44196 232.56025 234.70154 236.88584 239.15413 241.53642
 244.16971 246.43300 248.44730 250.22459 251.65388 252.78917 253.62347 253.95176
 254.00105 253.78734 253.15964 252.11993 250.73822 248.91151 246.83281 244.67810
 242.48139 240.29768 238.12998 235.98127 233.85356 231.73285 229.77114 227.94044
 226.23573 224.72002 223.36231 222.14661 221.04090 220.01319 219.12948 218.28278
 217.53707 216.72936 215.83965 215.21595 214.67824 215.27972 216.69203 217.82051
 219.40752 221.14200 222.41229 222.27966 221.35365 221.13843 222.07156 223.77473
 226.66084 230.85385 235.61066 240.28676 244.77596 249.00348 252.91747 256.49579
 259.69955 262.60190 265.21820 267.55191 269.54236 271.24536 272.95441 274.68185
 276.30453 278.05750 279.75623 281.27655 282.59229 283.75635 284.81836 285.78049
 286.64584 287.41641 288.08957 288.94745
 366.78100 356.34703 345.79105 334.66908 323.08410 311.29013 299.17215 286.98718
 274.71120 262.62023 250.64126 239.95428 230.08831 221.20433 213.39836 206.41238
 200.25841 195.20843 191.80246 189.85648 188.90551 188.98154 189.82856 191.14859
 192.88561 194.99264 197.26766 199.63869 202.09571 204.58774 206.68777 208.54179
 210.17982 211.33684 211.57787 211.81789 211.76692 211.48394 211.12897 210.77099
 210.40002 210.12205 209.94207 209.81810 209.75812 210.10115 210.49917 210.90020
 211.70522 212.89525 214.15728 215.95230 217.89233 219.94735 222.05438 224.14940
 226.22143 228.31745 230.42648 232.54450 234.68553 236.86956 239.13758 241.51961
 244.15263 246.41566 248.42968 250.20671 251.63573 252.77076 253.60479 253.93281
 253.98184 253.76786 253.13989 252.09991 250.71794 248.89096 246.81199 244.65701
 242.46004 240.27607 238.10809 235.95912 233.83114 231.71017 229.74819 227.91722
 226.21224 224.69627 223.33830 222.12232 221.01635 219.98837 219.10440 218.25742
 217.51145 216.70347 215.81350 215.18952 214.65155 215.26094 216.69307 217.80159
 219.34334 221.18442 222.38298 222.09435 221.09436 221.00607 221.83131 223.61278
 226.68575 230.95003 235.72878 240.42836 244.94508 249.19846 253.08812 256.59933
 259.78867 262.68942 265.28973 267.60721 269.58185 271.29187 273.00955 274.71582
 276.23849 277.84991 279.47211 280.94492 282.21951 283.34720 284.37604 285.30811
 286.14639 286.89288 287.54501 288.37607
 366.78100 356.34731 345.79162 334.66993 323.08525 311.29156 299.17387 286.98918
 274.71349 262.62280 250.64411 239.95743 230.09174 221.20805 213.40236 206.41667
 200.26298 195.21329 191.80761 189.86192 188.91123 188.98754 189.83485 191.15516
 192.89247 194.99979 197.27510 199.64641 202.10372 204.59603 206.69634 208.55066
 210.18897 211.34628 211.58759 211.82790 211.77721 211.49452 211.13984 210.78215
 210.41146 210.13377 209.95408 209.83039 209.77070 210.11402 210.51233 210.91364
 211.71895 212.90926 214.17157 215.96688 217.90720 219.96251 222.06982 224.16513
 226.23744 228.33375 230.44306 232.56138 234.70269 236.88700 239.15531 241.53762
 244.17093 246.43424 248.44856 250.22587 251.65518 252.79049 253.62480 253.95311
 254.00242 253.78874 253.16105 252.12136 250.73967 248.91298 246.83429 244.67960
 242.48292 240.29923 238.13154 235.98285 233.85516 231.73447 229.77278 227.94210
 226.23741 224.72172 223.36403 222.14834 221.04265 220.01497 219.13128 218.28459
 217.53890 216.73121 215.84152 215.21783 214.68015 215.26007 216.64647 217.83040
 219.23009 221.10164 222.32599 222.04982 220.99423 220.70103 221.56548 223.63387
 226.80141 231.08040 235.84840 240.56979 245.09767 249.36827 253.25269 256.70926
 259.85104 262.72717 265.32498 267.64612 269.63226 271.37201 273.11063 274.81845
 276.25146 277.44867 278.78036 280.21045 281.47205 282.58826 283.60663 284.52917
 285.35892 286.09781 286.74329 287.56589
 366.78100 356.34757 345.79214 334.67070 323.08627 311.29284 299.17541 286.99098
 274.71554 262.62511 250.64668 239.96025 230.09482 221.21138 213.40595 206.42052
 200.26709 195.21766 191.81222 189.86679 188.91636 188.99293 189.84049 191.16106
 192.89863 195.00620 197.28177 199.65333 202.11090 204.60347 206.70404 208.55861
 210.19717 211.35474 211.59631 211.83688 211.78645 211.50401 211.14958 210.79215
 210.42172 210.14429 209.96485 209.84142 209.78199 210.12556 210.52413 210.92569
 211.73126 212.92183 214.18440 215.97997 217.92053 219.97610 222.08367 224.17924
 226.25181 228.34837 230.45794 232.57651 234.71808 236.90265 239.17121 241.55378
 244.18735 246.45092 248.46548 250.24305 251.67262 252.80819 253.64276 253.97132
 254.02089 253.80746 253.18003 252.14060 250.75916 248.93273 246.85430 244.69987
 242.50344 240.32000 238.15257 236.00414 233.87671 231.75628 229.79484 227.96441
 226.25998 224.74455 223.38712 222.17168 221.06625 220.03882 219.15539 218.30896
 217.56352 216.75609 215.86666 215.24323 214.70580 215.26190 216.60526 217.86542
 219.16772 220.98238 222.30077 222.06157 220.88661 220.36548 221.25705 223.56345
 226.86595 231.18069 235.96704 240.71722 245.26204 249.54424 253.43759 256.86624
 259.93954 262.78076 265.36295 267.65994 269.64752 271.38382 273.12085 274.84509
 276.21640 277.24149 278.23627 279.58917 280.86151 281.98718 283.01422 283.94461
 284.78143 285.52661 286.17758 287.00717
 366.78100 356.34737 345.79173 334.67010 323.08546 311.29183 299.17419 286.98956
 274.71392 262.62329 250.64465 239.95802 230.09238 221.20875 213.40311 206.41748
 200.26385 195.21421 191.80858 189.86294 188.91231 188.98867 189.83604 191.15640
 192.89377 195.00113 197.27650 199.64786 202.10523 204.59759 206.69796 208.55232
 210.19069 211.34806 211.58942 211.82979 211.77915 211.49652 211.14188 210.78425
 210.41361 210.13598 209.95634 209.83271 209.77307 210.11644 210.51480 210.91617
 211.72154 212.91190 214.17427 215.96963 217.91000 219.96536 222.07273 224.16809
 226.24046 228.33682 230.44619 232.56455 234.70592 236.89028 239.15865 241.54101
 244.17438 246.43775 248.45211 250.22948 251.65884 252.79421 253.62857 253.95694
 254.00630 253.79267 253.16503 252.12540 250.74376 248.91713 246.83849 244.68386
 242.48723 240.30359 238.13596 235.98732 233.85969 231.73905 229.77742 227.94678
 226.24215 224.72651 223.36888 222.15324 221.04761 220.01997 219.13634 218.28971
 217.54407 216.73644 215.84680 215.22317 214.68553 215.24820 216.60561 217.85672
 219.16389 220.90703 222.25323 222.04790 220.75911 220.06253 220.93973 223.54749
 226.92763 231.28279 236.09840 240.87520 245.44438 249.72586 253.61035 257.04147
 260.08102 262.86850 265.43445 267.71188 269.68292 271.44342 273.19299 274.88837
 276.21521 277.18619 278.12143 279.54526 280.82907 281.96494 283.00122 283.94003
 284.78439 285.53629 286.19315 287.03021
 366.78100 356.34662 345.79024 334.66786 323.08248 311.28810 299.16972 286.98434
 274.70796 262.61658 250.63719 239.94981 230.08343 221.19905 213.39267 206.40629
 200.25191 195.20153 191.79515 189.84877 188.89739 188.97301 189.81963 191.13925
 192.87587 194.98249 197.25711 199.62773 202.08435 204.57596 206.67558 208.52920
 210.16682 211.32344 211.56406 211.80368 211.75230 211.46892 211.11354 210.75516
 210.38378 210.10540 209.92502 209.80064 209.74026 210.08288 210.48050 210.88111
 211.68573 212.87535 214.13697 215.93159 217.87121 219.92583 222.03245 224.12707
 226.19869 228.29431 230.40293 232.52055 234.66117 236.84479 239.11241 241.49403
 244.12665 246.38927 248.40288 250.17950 251.60812 252.74274 253.57636 253.90398
 253.95260 253.73822 253.10984 252.06946 250.68708 248.85970 246.78032 244.62494
 242.42756 240.24318 238.07480 235.92542 233.79704 231.67565 229.71327 227.88189
 226.17651 224.66013 223.30175 222.08537 220.97899 219.95061 219.06623 218.21885
 217.47247 216.66409 215.77371 215.14933 214.61095 215.20517 216.62361 217.82564
 219.16000 220.84811 222.08299 221.86957 220.57967 219.86742 220.81404 223.55553
 227.01575 231.40019 236.23141 241.02310 245.59393 249.85864 253.73245 257.16022
 260.18246 262.93378 265.48529 267.76334 269.74551 271.51971 273.29865 274.97705
 276.17874 277.00201 277.94009 279.28699 280.54111 281.65067 282.66299 283.58008
 284.40488 285.13940 285.78104 286.59875
 366.78100 356.34576 345.78852 334.66528 323.07905 311.28381 299.16457 286.97833
 274.70109 262.60885 250.62862 239.94038 230.07314 221.18790 213.38066 206.39342
 200.23819 195.18695 191.77971 189.83247 188.88023 188.95499 189.80076 191.11952
 192.85528 194.96104 197.23480 199.60456 202.06033 204.55109 206.64985 208.50261
 210.13937 211.29513 211.53489 211.77366 211.72142 211.43718 211.08094 210.72170
 210.34946 210.07023 209.88899 209.76375 209.70251 210.04427 210.44103 210.84080
 211.64456 212.83332 214.09408 215.88784 217.82660 219.88037 221.98613 224.07989
 226.15065 228.24541 230.35317 232.46994 234.60970 236.79246 239.05922 241.43998
 244.07174 246.33351 248.34627 250.12203 251.54979 252.68355 253.51631 253.84307
 253.89084 253.67560 253.04636 252.00512 250.62188 248.79364 246.71341 244.55717
 242.35893 240.17369 238.00445 235.85421 233.72498 231.60274 229.63950 227.80726
 226.10102 224.58378 223.22455 222.00731 220.90007 219.87083 218.98559 218.13735
 217.39012 216.58088 215.68964 215.06440 214.52516 215.14757 216.62582 217.82309
 219.08269 220.79207 221.88646 221.50856 220.30516 219.68446 220.79904 223.49477
 227.12949 231.50925 236.34512 241.14514 245.71254 249.96103 253.82399 257.26062
 260.27802 262.97061 265.46353 267.74051 269.76736 271.63342 273.47009 275.14175
 276.30170 276.86307 277.11108 277.79938 278.84579 279.96796 280.99176 281.91925
 282.75342 283.49628 284.14520 284.97217
 366.78100 356.34489 345.78679 334.66268 323.07558 311.27947 299.15937 286.97226
 274.69416 262.60105 250.61995 239.93084 230.06274 221.17663 213.36853 206.38042
 200.22432 195.17221 191.76411 189.81600 188.86290 188.93679 189.78169 191.09958
 192.83448 194.93937 197.21227 199.58116 202.03606 204.52595 206.62385 208.47574
 210.11164 211.26653 211.50543 211.74332 211.69022 211.40511 211.04801 210.68790
 210.31480 210.03469 209.85259 209.72648 209.66438 210.00527 210.40117 210.80006
 211.60296 212.79085 214.05075 215.84364 217.78154 219.83443 221.93933 224.03222
 226.10212 228.19601 230.30291 232.41880 234.55770 236.73959 239.00548 241.38538
 244.01627 246.27717 248.28906 250.06396 251.49085 252.62375 253.45564 253.78154
 253.82843 253.61233 252.98222 251.94012 250.55601 248.72691 246.64580 244.48870
 242.28959 240.10349 237.93338 235.78228 233.65217 231.52907 229.56496 227.73186
 226.02475 224.50665 223.14654 221.92844 220.82033 219.79023 218.90412 218.05502
 217.30691 216.49681 215.60470 214.97860 214.43849 215.08847 216.62837 217.85426
 218.96080 220.65871 221.82822 221.26230 219.98439 219.35135 220.64659 223.35469
 227.21626 231.60272 236.45667 241.27623 245.85233 250.09901 253.96298 257.41031
 260.44943 263.13257 265.51141 267.65732 269.68124 271.62222 273.47797 275.12070
 276.28503 276.86835 277.10986 277.42181 278.12704 278.88004 279.88055 280.80029
 281.62750 282.36414 283.00763 283.82773
 354.97500 345.04800 334.58700 324.11500 313.32600 302.53700 291.65000 280.76700
 269.93100 259.19300 248.62200 238.61700 229.08700 220.35500 212.54000 205.53500
 199.46400 194.49300 191.14300 189.19000 188.08900 188.01400 188.72400 189.90600
 191.46900 193.38200 195.40300 197.55600 199.80700 202.06000 204.28800 206.47900
 208.55200 210.37800 212.02500 213.65900 214.99800 216.11800 217.17200 218.25900
 219.49400 220.64500 221.67900 222.61400 223.54500 224.98200 226.57100 228.19000
 229.79700 231.81100 233.86500 235.97200 238.24200 240.55300 242.89900 245.25300
 247.48800 249.53500 251.36600 252.84800 254.09800 255.16700 256.02700 256.25300
 256.09500 255.54300 253.93500 252.56600 251.38400 250.24500 249.05200 247.70100
 246.01600 243.99600 241.78400 239.39300 236.81300 234.22300 231.65800 229.14400
 226.74000 224.47300 222.33500 220.32500 218.44000 216.67700 214.96200 213.47200
 212.20000 211.10800 210.26000 209.63900 209.24400 209.03100 209.05800 209.33300
 209.78400 210.62600 211.33100 212.39100 213.62500 214.84668 217.72949 219.47640
 220.32566 220.86828 220.88710 220.27371 219.43733 218.84250 219.04934 220.86203
 222.60583 225.72206 229.03064 232.61777 236.12270 239.51333 242.70767 245.68587
 248.41061 250.90679 253.19353 254.91714 256.48655 257.94920 259.39966 260.69384
 261.81714 262.77997 263.71679 264.54570 265.26305 265.89772 266.47676 267.00133
 267.47312 267.89325 268.26027 268.72800
