|-------------------------------------------------------------------------|
|   File Name : in_temp.dat
|   Subject   : temperature profiles used for initial guess atmosphere
|   File Type : input of gmtr
|   Data Type : atmospherical data
|   Author/s  : WRF-Chem
|   Date      : Fri Jul 26 15:39:24 2024
|-------------------------------------------------------------------------|

 WRF-Chem temperature
#
 values of T (K)    (8f10.5)
#
 354.97500 345.04800 334.58700 324.11500 313.32600 302.53700 291.65000 280.76700
 269.93100 259.19300 248.62200 238.61700 229.08700 220.35500 212.54000 205.53500
 199.46400 194.49300 191.14300 189.19000 188.08900 188.01400 188.72400 189.90600
 191.46900 193.38200 195.40300 197.55600 199.80700 202.06000 204.28800 206.47900
 208.55200 210.37800 212.02500 213.65900 214.99800 216.11800 217.17200 218.25900
 219.49400 220.64500 221.67900 222.61400 223.54500 224.98200 226.57100 228.19000
 229.79700 231.81100 233.86500 235.97200 238.24200 240.55300 242.89900 245.25300
 247.48800 249.53500 251.36600 252.84800 254.09800 255.16700 256.02700 256.25300
 256.09500 255.54300 253.93500 252.56600 251.38400 250.24500 249.05200 247.70100
 246.01600 243.99600 241.78400 239.39300 236.81300 234.22300 231.65800 229.14400
 226.74000 224.47300 222.33500 220.32500 218.44000 216.67700 214.96200 213.47200
 212.20000 211.10800 210.26000 209.63900 209.24400 209.03100 209.05800 209.33300
 209.78400 210.62600 211.33100 212.39100 213.62500 214.84668 217.72949 219.47640
 220.32566 220.86828 220.88710 220.27371 219.43733 218.84250 219.04934 220.86203
 222.60583 225.72206 229.03064 232.61777 236.12270 239.51333 242.70767 245.68587
 248.41061 250.90679 253.19353 254.91714 256.48655 257.94920 259.39966 260.69384
 261.81714 262.77997 263.71679 264.54570 265.26305 265.89772 266.47676 267.00133
 267.47312 267.89325 268.26027 268.72800
 366.78100 356.33500 345.76700 334.63300 323.03600 311.23000 299.10000 286.90300
 274.61500 262.51200 250.52100 239.82200 229.94400 221.04800 213.23000 206.23200
 200.06600 195.00400 191.58600 189.62800 188.66500 188.72900 189.56400 190.87200
 192.59700 194.69200 196.95500 199.31400 201.75900 204.23900 206.32700 208.16900
 209.79500 210.94000 211.16900 211.39700 211.33400 211.03900 210.67200 210.30200
 209.91900 209.62900 209.43700 209.30100 209.22900 209.56000 209.94600 210.33500
 211.12800 212.30600 213.55600 215.33900 217.26700 219.31000 221.40500 223.48800
 225.54800 227.63200 229.72900 231.83500 233.96400 236.13600 238.39200 240.76200
 243.38300 245.63400 247.63600 249.40100 250.81800 251.94100 252.76300 253.07900
 253.11600 252.89000 252.25000 251.19800 249.80400 247.96500 245.87400 243.70700
 241.49800 239.30200 237.12200 234.96100 232.82100 230.68800 228.71400 226.87100
 225.15400 223.62600 222.25600 221.02800 219.91000 218.87000 217.97400 217.11500
 216.35700 215.53700 214.63500 213.99900 213.44900 212.85855 212.01316 212.61654
 214.26826 216.08686 218.14273 220.53346 223.40855 226.78828 231.49734 235.90155
 239.42278 243.28576 247.23140 251.11907 254.80144 258.23331 261.38913 264.27520
 266.89312 269.26852 271.44504 273.08845 274.58484 275.98591 277.39845 278.65879
 279.75272 280.69038 281.56708 282.34086 283.01050 283.60295 284.14348 284.63317
 285.07358 285.46577 285.80838 286.24500
 381.81900 372.39900 361.20600 349.77600 337.62200 324.85300 311.81000 298.35300
 284.86000 271.32400 258.56100 246.30400 236.08700 226.79600 218.44800 211.29000
 205.52200 200.89400 197.38100 194.84800 193.01500 192.31500 192.25000 192.43100
 192.91200 193.53700 194.13600 194.71200 195.26200 195.83100 196.39300 196.97600
 197.60400 198.14900 198.58400 199.05700 199.69500 200.37800 201.05400 201.70800
 202.31300 202.85700 203.35500 203.86200 204.56900 205.29700 206.02600 206.98700
 208.19300 209.44100 210.96900 212.57600 214.46200 216.51300 218.63000 220.85300
 223.34100 225.96200 228.73900 231.69700 234.70600 237.70600 240.69200 243.65700
 246.73700 249.69900 252.52100 255.06300 257.29000 259.23300 260.63300 261.68000
 262.46100 262.79800 262.69100 262.22400 261.06900 259.52500 257.70700 255.50700
 253.00100 250.30200 247.39800 244.45200 241.65400 239.05400 236.73300 234.59000
 232.59500 230.72500 228.83400 226.82600 224.66600 222.38700 220.10400 217.71500
 215.45900 213.06600 210.54600 208.09300 205.35400 202.08130 196.05959 200.71215
 209.01611 216.90438 223.84126 229.78593 235.00632 240.20838 245.98943 250.68668
 254.32982 257.93487 261.55666 264.96801 268.15192 271.06452 273.76717 276.25691
 278.57680 280.74479 282.77456 284.60533 286.27232 287.81705 289.31715 290.65561
 291.81734 292.81312 293.70701 294.49387 295.17482 295.77730 296.32696 296.82492
 297.27278 297.67160 298.02000 298.46400
 399.33000 389.90700 379.81300 368.66800 357.52200 345.30100 333.07400 320.22700
 307.21600 293.84800 280.37600 267.29600 254.61000 242.98700 232.15100 221.97700
 212.67200 204.28600 197.66900 192.82100 189.48600 187.45200 186.81400 187.08900
 187.78100 189.05400 190.64800 192.54200 194.63000 196.75200 198.67100 200.15800
 201.53500 202.48700 202.97500 203.34000 203.53900 203.49700 203.38500 203.24700
 203.00500 202.78600 202.60300 202.43700 202.42600 202.88800 203.42000 203.95100
 204.89500 205.99200 207.30100 208.95800 210.73800 213.10000 215.56400 218.18000
 220.96600 223.91800 226.96100 230.09200 233.29300 236.55700 239.95500 243.53700
 246.84500 249.39000 251.54200 253.47400 255.19500 256.48400 257.43100 258.05900
 258.21200 258.04000 257.58200 256.64300 255.23900 253.50700 251.40800 249.05600
 246.57600 243.99400 241.38900 238.83000 236.34400 233.98600 231.96900 230.11800
 228.42300 226.89900 225.54800 224.29700 223.10500 221.96500 220.95800 220.11300
 219.49000 218.92000 218.32500 217.88100 217.42300 216.96366 216.35568 216.80261
 217.73415 218.28582 218.64258 219.10077 220.44626 222.53987 226.38451 230.35736
 233.59734 237.39164 241.29814 245.22796 248.98002 252.51130 255.78595 258.80109
 261.54781 264.05210 266.34239 268.04198 269.58951 271.01303 272.35754 273.55718
 274.59842 275.49092 276.28989 276.99307 277.60161 278.14001 278.63122 279.07623
 279.47646 279.83287 280.14422 280.54100
 399.73800 389.78500 379.66200 368.15100 356.64100 344.35000 331.79200 318.88800
 305.72600 292.49300 279.20900 266.73800 254.69600 244.21100 234.45700 225.43300
 217.56900 210.45100 204.30000 199.30600 195.45800 192.57600 191.02700 190.38600
 190.23900 190.53400 191.16600 191.92500 192.79500 193.76600 194.73200 195.31200
 195.80000 196.05200 196.11500 196.11500 196.03900 195.72300 195.34000 194.98900
 194.75100 194.79200 195.13300 195.59800 196.50600 198.13600 199.85800 201.56600
 204.17900 206.82300 209.89300 213.28400 216.82800 220.60500 224.38700 228.20900
 232.03200 235.82500 239.56000 243.25800 246.84500 250.20100 253.70900 257.46800
 261.53000 264.22100 266.60100 268.68100 270.32900 271.74100 272.83600 273.47400
 273.89800 274.00200 273.75700 273.28800 272.37100 271.10000 269.58900 267.77900
 265.81600 263.72100 261.39300 258.91600 256.29800 253.42300 250.33100 247.11400
 243.83700 240.52900 237.24900 233.99900 230.72800 227.51500 224.25400 220.95200
 217.62700 213.65600 210.12100 206.78900 204.01000 201.99491 199.07309 198.76551
 199.40006 200.48994 201.46112 202.31912 203.45100 204.96110 207.47502 210.85391
 213.70530 217.29629 220.99574 224.72316 228.28753 231.64854 234.68024 237.40893
 239.70644 241.60899 243.46854 245.67368 247.68154 249.52395 251.24767 252.78566
 254.12057 255.26479 256.23740 257.09036 257.82852 258.48160 259.07744 259.61723
 260.10271 260.53504 260.91270 261.39400
 399.73800 389.78500 379.66200 368.15100 356.64100 344.35000 331.79200 318.88800
 305.72600 292.49300 279.20900 266.73800 254.69600 244.21100 234.45700 225.43300
 217.56900 210.45100 204.30000 199.30600 195.45800 192.57600 191.02700 190.38600
 190.23900 190.53400 191.16600 191.92500 192.79500 193.76600 194.73200 195.31200
 195.80000 196.05200 196.11500 196.11500 196.03900 195.72300 195.34000 194.98900
 194.75100 194.79200 195.13300 195.59800 196.50600 198.13600 199.85800 201.56600
 204.17900 206.82300 209.89300 213.28400 216.82800 220.60500 224.38700 228.20900
 232.03200 235.82500 239.56000 243.25800 246.84500 250.20100 253.70900 257.46800
 261.53000 264.22100 266.60100 268.68100 270.32900 271.74100 272.83600 273.47400
 273.89800 274.00200 273.75700 273.28800 272.37100 271.10000 269.58900 267.77900
 265.81600 263.72100 261.39300 258.91600 256.29800 253.42300 250.33100 247.11400
 243.83700 240.52900 237.24900 233.99900 230.72800 227.51500 224.25400 220.95200
 217.62700 213.65600 210.12100 206.78900 204.01000 201.99491 199.07309 198.76551
 199.40006 200.48994 201.46112 202.31912 203.45100 204.96110 207.47502 210.85391
 213.70530 217.29629 220.99574 224.72316 228.28753 231.64854 234.68024 237.40893
 239.70644 241.60899 243.46854 245.67368 247.68154 249.52395 251.24767 252.78566
 254.12057 255.26479 256.23740 257.09036 257.82852 258.48160 259.07744 259.61723
 260.10271 260.53504 260.91270 261.39400
 399.33000 389.90700 379.81300 368.66800 357.52200 345.30100 333.07400 320.22700
 307.21600 293.84800 280.37600 267.29600 254.61000 242.98700 232.15100 221.97700
 212.67200 204.28600 197.66900 192.82100 189.48600 187.45200 186.81400 187.08900
 187.78100 189.05400 190.64800 192.54200 194.63000 196.75200 198.67100 200.15800
 201.53500 202.48700 202.97500 203.34000 203.53900 203.49700 203.38500 203.24700
 203.00500 202.78600 202.60300 202.43700 202.42600 202.88800 203.42000 203.95100
 204.89500 205.99200 207.30100 208.95800 210.73800 213.10000 215.56400 218.18000
 220.96600 223.91800 226.96100 230.09200 233.29300 236.55700 239.95500 243.53700
 246.84500 249.39000 251.54200 253.47400 255.19500 256.48400 257.43100 258.05900
 258.21200 258.04000 257.58200 256.64300 255.23900 253.50700 251.40800 249.05600
 246.57600 243.99400 241.38900 238.83000 236.34400 233.98600 231.96900 230.11800
 228.42300 226.89900 225.54800 224.29700 223.10500 221.96500 220.95800 220.11300
 219.49000 218.92000 218.32500 217.88100 217.42300 216.96366 216.35568 216.80261
 217.73415 218.28582 218.64258 219.10077 220.44626 222.53987 226.38451 230.35736
 233.59734 237.39164 241.29814 245.22796 248.98002 252.51130 255.78595 258.80109
 261.54781 264.05210 266.34239 268.04198 269.58951 271.01303 272.35754 273.55718
 274.59842 275.49092 276.28989 276.99307 277.60161 278.14001 278.63122 279.07623
 279.47646 279.83287 280.14422 280.54100
 381.81900 372.39900 361.20600 349.77600 337.62200 324.85300 311.81000 298.35300
 284.86000 271.32400 258.56100 246.30400 236.08700 226.79600 218.44800 211.29000
 205.52200 200.89400 197.38100 194.84800 193.01500 192.31500 192.25000 192.43100
 192.91200 193.53700 194.13600 194.71200 195.26200 195.83100 196.39300 196.97600
 197.60400 198.14900 198.58400 199.05700 199.69500 200.37800 201.05400 201.70800
 202.31300 202.85700 203.35500 203.86200 204.56900 205.29700 206.02600 206.98700
 208.19300 209.44100 210.96900 212.57600 214.46200 216.51300 218.63000 220.85300
 223.34100 225.96200 228.73900 231.69700 234.70600 237.70600 240.69200 243.65700
 246.73700 249.69900 252.52100 255.06300 257.29000 259.23300 260.63300 261.68000
 262.46100 262.79800 262.69100 262.22400 261.06900 259.52500 257.70700 255.50700
 253.00100 250.30200 247.39800 244.45200 241.65400 239.05400 236.73300 234.59000
 232.59500 230.72500 228.83400 226.82600 224.66600 222.38700 220.10400 217.71500
 215.45900 213.06600 210.54600 208.09300 205.35400 202.08130 196.05959 200.71215
 209.01611 216.90438 223.84126 229.78593 235.00632 240.20838 245.98943 250.68668
 254.32982 257.93487 261.55666 264.96801 268.15192 271.06452 273.76717 276.25691
 278.57680 280.74479 282.77456 284.60533 286.27232 287.81705 289.31715 290.65561
 291.81734 292.81312 293.70701 294.49387 295.17482 295.77730 296.32696 296.82492
 297.27278 297.67160 298.02000 298.46400
 366.78100 356.34100 345.77900 334.65100 323.06001 311.26001 299.13601 286.94501
 274.66301 262.56601 250.58101 239.88801 230.01602 221.12602 213.31402 206.32202
 200.16202 195.10602 191.69402 189.74203 188.78503 188.85503 189.69603 191.01003
 192.74103 194.84203 197.11103 199.47604 201.92704 204.41304 206.50704 208.35504
 209.98704 211.13804 211.37305 211.60705 211.55005 211.26105 210.90005 210.53605
 210.15905 209.87505 209.68906 209.55906 209.49306 209.83006 210.22206 210.61706
 211.41606 212.60007 213.85607 215.64507 217.57907 219.62807 221.72907 223.81807
 225.88407 227.97408 230.07708 232.18908 234.32408 236.50208 238.76408 241.14008
 243.76709 246.02409 248.03209 249.80309 251.22609 252.35509 253.18309 253.50509
 253.54810 253.32810 252.69410 251.64810 250.26010 248.42710 246.34210 244.18111
 241.97811 239.78811 237.61411 235.45911 233.32511 231.19811 229.23011 227.39312
 225.68212 224.16012 222.79612 221.57412 220.46212 219.42812 218.53813 217.68513
 216.93313 216.11913 215.22313 214.59313 214.04913 213.06473 210.74734 210.02805
 210.46234 211.11377 212.57565 215.29004 219.30360 224.04494 229.75159 234.85339
 238.75038 242.72723 246.93581 251.12695 254.92026 258.69864 261.56625 263.37436
 265.98322 268.76251 271.24634 273.31778 275.30353 277.15164 278.66016 280.19669
 281.88275 283.45721 284.97284 286.33133 287.50986 288.55505 289.50854 290.37469
 291.15561 291.85583 292.46970 293.28009
 366.78100 356.34095 345.77889 334.65084 323.05979 311.25974 299.13568 286.94463
 274.66258 262.56553 250.58047 239.88742 230.01537 221.12532 213.31326 206.32121
 200.16116 195.10510 191.69305 189.74100 188.78395 188.85389 189.69484 191.00879
 192.73974 194.84068 197.10963 199.47458 201.92552 204.41147 206.50542 208.35337
 209.98531 211.13626 211.37121 211.60516 211.54810 211.25905 210.89800 210.53395
 210.15689 209.87284 209.68679 209.55673 209.49068 209.82763 210.21958 210.61452
 211.41347 212.59742 213.85337 215.64231 217.57626 219.62521 221.72616 223.81510
 225.88105 227.97100 230.07394 232.18589 234.32084 236.49879 238.76073 241.13668
 243.76363 246.02058 248.02852 249.79947 251.22242 252.35136 253.17931 253.50126
 253.54421 253.32415 252.69010 251.64405 250.25600 248.42294 246.33789 244.17684
 241.97379 239.78373 237.60968 235.45463 233.32057 231.19352 229.22547 227.38842
 225.67736 224.15531 222.79126 221.56921 220.45715 219.42310 218.53305 217.68000
 216.92794 216.11389 215.21784 214.58778 214.04373 213.09161 210.84953 210.13791
 210.47813 211.16695 212.62434 215.24878 219.19434 223.96785 229.67662 234.77773
 238.66617 242.63280 246.84862 251.05707 254.86134 258.64734 261.52505 263.34811
 265.97137 268.75778 271.22876 273.25064 275.24539 277.13321 278.61099 280.11172
 281.79407 283.36908 284.87903 286.23801 287.41663 288.46191 289.41650 290.28226
 291.06461 291.76453 292.37830 293.19327
 366.78100 356.34083 345.77866 334.65049 323.05932 311.25914 299.13497 286.94380
 274.66163 262.56446 250.57929 239.88612 230.01395 221.12378 213.31160 206.31943
 200.15926 195.10309 191.69092 189.73875 188.78158 188.85141 189.69224 191.00606
 192.73689 194.83772 197.10655 199.47138 201.92221 204.40804 206.50187 208.34970
 209.98153 211.13235 211.36718 211.60101 211.54384 211.25467 210.89350 210.52933
 210.15216 209.86799 209.68181 209.55164 209.48547 209.82230 210.21413 210.60896
 211.40779 212.59162 213.84745 215.63627 217.57010 219.61893 221.71976 223.80859
 225.87442 227.96425 230.06708 232.17891 234.31373 236.49156 238.75339 241.12922
 243.75605 246.01288 248.02071 249.79154 251.21437 252.34319 253.17102 253.49285
 253.53568 253.31551 252.68134 251.63517 250.24700 248.41383 246.32865 244.16748
 241.96431 239.77414 237.59997 235.44480 233.31063 231.18346 229.21529 227.37812
 225.66694 224.14477 222.78060 221.55843 220.44626 219.41209 218.52192 217.66875
 216.91658 216.10240 215.20623 214.57606 214.03189 213.11421 210.95258 210.24896
 210.50136 211.20901 212.66798 215.22699 219.07951 223.87987 229.60921 234.70685
 238.58614 242.54253 246.76361 250.98900 254.80478 258.59537 261.48126 263.31866
 265.95474 268.74728 271.20761 273.18384 275.18759 277.11478 278.56586 280.03152
 281.70804 283.28342 284.78699 286.14481 287.32547 288.37140 289.32492 290.19052
 290.97351 291.67563 292.29126 293.10538
 366.78100 356.34063 345.77826 334.64989 323.05852 311.25815 299.13378 286.94241
 274.66004 262.56267 250.57730 239.88393 230.01156 221.12119 213.30882 206.31645
 200.15608 195.09971 191.68734 189.73497 188.77760 188.84724 189.68787 191.00150
 192.73213 194.83276 197.10139 199.46602 201.91665 204.40228 206.49591 208.34354
 209.97517 211.12580 211.36043 211.59406 211.53669 211.24732 210.88595 210.52158
 210.14421 209.85984 209.67347 209.54310 209.47673 209.81336 210.20499 210.59962
 211.39825 212.58188 213.83751 215.62614 217.55977 219.60840 221.70903 223.79766
 225.86329 227.95292 230.05555 232.16718 234.30181 236.47944 238.74107 241.11671
 243.74334 245.99997 248.00760 249.77823 251.20086 252.32949 253.15712 253.47875
 253.52138 253.30101 252.66664 251.62027 250.23190 248.39853 246.31316 244.15179
 241.94842 239.75805 237.58368 235.42831 233.29394 231.16657 229.19820 227.36083
 225.64946 224.12709 222.76272 221.54035 220.42798 219.39361 218.50324 217.64987
 216.89750 216.08313 215.18676 214.55639 214.01202 213.13168 211.05736 210.36530
 210.52205 211.24730 212.70340 215.20615 218.97566 223.78897 229.54965 234.63707
 238.50542 242.45178 246.67844 250.92009 254.74960 258.54373 261.43546 263.28659
 265.93268 268.72998 271.18295 273.11731 275.12851 277.09473 278.52563 279.95755
 281.62549 283.19934 284.69672 286.05542 287.23550 288.28064 289.23441 290.10187
 290.88528 291.58517 292.20303 293.02057
 366.78100 356.34032 345.77764 334.64896 323.05728 311.25660 299.13192 286.94024
 274.65756 262.55988 250.57420 239.88053 230.00785 221.11717 213.30449 206.31181
 200.15113 195.09445 191.68177 189.72909 188.77141 188.84073 189.68105 190.99437
 192.72469 194.82501 197.09333 199.45765 201.90797 204.39329 206.48661 208.33394
 209.96526 211.11558 211.34990 211.58322 211.52554 211.23586 210.87418 210.50950
 210.13182 209.84714 209.66046 209.52978 209.46310 209.79942 210.19074 210.58506
 211.38338 212.56670 213.82202 215.61034 217.54367 219.59199 221.69231 223.78063
 225.84595 227.93527 230.03759 232.14891 234.28323 236.46055 238.72187 241.09719
 243.72351 245.97983 247.98715 249.75747 251.17979 252.30811 253.13543 253.45675
 253.49907 253.27840 252.64372 251.59704 250.20836 248.37468 246.28900 244.12732
 241.92364 239.73296 237.55828 235.40260 233.26792 231.14024 229.17156 227.33388
 225.62220 224.09952 222.73484 221.51216 220.39948 219.36481 218.47413 217.62045
 216.86777 216.05309 215.15641 214.52573 213.98105 213.14258 211.16628 210.48233
 210.54964 211.28545 212.72487 215.18340 218.88963 223.69601 229.49268 234.56615
 238.42372 242.36176 246.59373 250.85234 254.69783 258.49414 261.38879 263.25333
 265.90445 268.70547 271.15213 273.05057 275.06781 277.07159 278.48764 279.89090
 281.54749 283.11984 284.60922 285.96817 287.14850 288.19370 289.14853 290.01700
 290.79901 291.50262 292.11877 292.93808
 366.78100 356.33997 345.77694 334.64790 323.05587 311.25484 299.12981 286.93778
 274.65475 262.55671 250.57068 239.87665 230.00362 221.11259 213.29955 206.30652
 200.14549 195.08846 191.67543 189.72240 188.76436 188.83333 189.67330 190.98627
 192.71624 194.81620 197.08417 199.44814 201.89811 204.38308 206.47604 208.32301
 209.95398 211.10395 211.33792 211.57089 211.51285 211.22282 210.86079 210.49576
 210.11773 209.83269 209.64566 209.51463 209.44760 209.78357 210.17454 210.56850
 211.36647 212.54944 213.80441 215.59238 217.52534 219.57331 221.67328 223.76125
 225.82622 227.91519 230.01715 232.12812 234.26209 236.43906 238.70003 241.07499
 243.70096 245.95693 247.96390 249.73387 251.15583 252.28380 253.11077 253.43174
 253.47371 253.25268 252.61764 251.57061 250.18158 248.34755 246.26152 244.09948
 241.89545 239.70442 237.52939 235.37336 233.23833 231.11029 229.14126 227.30323
 225.59120 224.06817 222.70313 221.48010 220.36707 219.33204 218.44101 217.58698
 216.83394 216.01891 215.12188 214.49085 213.94582 213.15050 211.27538 210.60020
 210.58774 211.31728 212.73712 215.16307 218.80920 223.60210 229.43375 234.49428
 238.34322 242.27458 246.51053 250.78522 254.64857 258.44669 261.34253 263.21829
 265.86954 268.67163 271.11325 272.98123 275.00412 277.03870 278.45078 279.83093
 281.47513 283.04440 284.52466 285.88412 287.06540 288.11035 289.06482 289.93304
 290.71643 291.41937 292.03555 292.86151
 366.78100 356.33959 345.77618 334.64677 323.05436 311.25295 299.12754 286.93513
 274.65172 262.55331 250.56690 239.87249 229.99908 221.10767 213.29426 206.30085
 200.13944 195.08203 191.66862 189.71521 188.75679 188.82538 189.66497 190.97756
 192.70715 194.80674 197.07433 199.43792 201.88751 204.37210 206.46469 208.31128
 209.94187 211.09146 211.32505 211.55764 211.49923 211.20882 210.84641 210.48100
 210.10259 209.81718 209.62977 209.49836 209.43095 209.76654 210.15713 210.55072
 211.34831 212.53090 213.78549 215.57308 217.50567 219.55326 221.65285 223.74044
 225.80503 227.89362 229.99521 232.10579 234.23938 236.41597 238.67656 241.05115
 243.67674 245.93233 247.93892 249.70851 251.13010 252.25769 253.08428 253.40487
 253.44646 253.22505 252.58964 251.54223 250.15282 248.31841 246.23200 244.06959
 241.86518 239.67377 237.49836 235.34195 233.20654 231.07813 229.10872 227.27031
 225.55790 224.03449 222.66908 221.44567 220.33226 219.29685 218.40544 217.55103
 216.79762 215.98221 215.08479 214.45338 213.90797 213.15677 211.38509 210.71587
 210.64038 211.34581 212.74307 215.14705 218.73514 223.50778 229.37108 234.42033
 238.26219 242.18864 246.42789 250.71747 254.60320 258.40350 261.30084 263.18481
 265.82983 268.62903 271.06592 272.90814 274.93475 276.99646 278.41168 279.77682
 281.40781 282.97137 284.44409 285.80313 286.98383 288.02963 288.98401 289.85358
 290.63727 291.34009 291.95993 292.77798
 366.78100 356.33920 345.77541 334.64561 323.05282 311.25102 299.12523 286.93243
 274.64864 262.54984 250.56305 239.86825 229.99446 221.10266 213.28887 206.29507
 200.13328 195.07548 191.66169 189.70789 188.74910 188.81730 189.65651 190.96871
 192.69792 194.79712 197.06433 199.42753 201.87674 204.36094 206.45315 208.29935
 209.92956 211.07876 211.31197 211.54417 211.48538 211.19458 210.83179 210.46599
 210.08720 209.80140 209.61361 209.48181 209.41402 209.74922 210.13943 210.53263
 211.32984 212.51204 213.76625 215.55345 217.48566 219.53286 221.63207 223.71927
 225.78348 227.87168 229.97289 232.08309 234.21629 236.39250 238.65270 241.02691
 243.65211 245.90732 247.91352 249.68273 251.10393 252.23114 253.05734 253.37755
 253.41875 253.19696 252.56116 251.51337 250.12357 248.28878 246.20198 244.03919
 241.83439 239.64260 237.46680 235.31001 233.17421 231.04542 229.07562 227.23683
 225.52403 224.00024 222.63444 221.41065 220.29685 219.26106 218.36926 217.51447
 216.76067 215.94488 215.04708 214.41529 213.86949 213.16238 211.49420 210.82953
 210.70633 211.36923 212.74806 215.13551 218.65714 223.41209 229.30794 234.34486
 238.18083 242.10355 246.34531 250.65067 254.56311 258.36520 261.26190 263.15237
 265.78442 268.57660 271.01013 272.83081 274.86115 276.94534 278.37259 279.73102
 281.34808 282.90149 284.36594 285.72336 286.90567 287.95093 288.90631 289.77496
 290.55920 291.26370 291.88135 292.70782
 366.78100 356.33909 345.77517 334.64526 323.05235 311.25044 299.12452 286.93161
 274.64770 262.54879 250.56187 239.86696 229.99305 221.10114 213.28722 206.29331
 200.13140 195.07349 191.65957 189.70566 188.74675 188.81484 189.65392 190.96601
 192.69510 194.79419 197.06127 199.42436 201.87345 204.35754 206.44962 208.29571
 209.92580 211.07488 211.30797 211.54006 211.48115 211.19023 210.82732 210.46141
 210.08250 209.79658 209.60867 209.47676 209.40885 209.74393 210.13402 210.52711
 211.32420 212.50628 213.76037 215.54746 217.47955 219.52663 221.62572 223.71281
 225.77690 227.86498 229.96607 232.07616 234.20925 236.38533 238.64542 241.01951
 243.64460 245.89968 247.90577 249.67486 251.09594 252.22303 253.04912 253.36921
 253.41029 253.18838 252.55247 251.50456 250.11464 248.27973 246.19282 244.02991
 241.82499 239.63308 237.45717 235.30026 233.16434 231.03543 229.06552 227.22661
 225.51369 223.98978 222.62387 221.39996 220.28604 219.25013 218.35822 217.50331
 216.74939 215.93348 215.03557 214.40365 213.85774 213.18094 211.58401 210.96068
 210.77388 211.39400 212.74255 215.11684 218.59911 223.32082 229.24298 234.26831
 238.09937 242.01913 246.26237 250.58200 254.52490 258.32852 261.22073 263.11700
 265.73190 268.51547 270.94843 272.75360 274.78647 276.88876 278.33832 279.69788
 281.29517 282.83255 284.28860 285.64642 286.82681 287.87216 288.82892 289.69687
 290.48059 291.18619 291.80536 292.63107
 366.78100 356.33886 345.77471 334.64457 323.05143 311.24928 299.12314 286.92999
 274.64585 262.54671 250.55956 239.86442 229.99028 221.09813 213.28399 206.28985
 200.12770 195.06956 191.65542 189.70127 188.74213 188.80998 189.64884 190.96070
 192.68955 194.78841 197.05527 199.41812 201.86698 204.35084 206.44269 208.28855
 209.91840 211.06726 211.30012 211.53197 211.47283 211.18169 210.81854 210.45240
 210.07326 209.78711 209.59897 209.46683 209.39868 209.73354 210.12339 210.51625
 211.31311 212.49496 213.74882 215.53568 217.46753 219.51439 221.61325 223.70010
 225.76396 227.85182 229.95267 232.06253 234.19538 236.37124 238.63110 241.00495
 243.62981 245.88467 247.89052 249.65938 251.08024 252.20709 253.03295 253.35280
 253.39366 253.17152 252.53537 251.48723 250.09709 248.26194 246.17480 244.01166
 241.80651 239.61437 237.43823 235.28108 233.14494 231.01579 229.04565 227.20651
 225.49336 223.96922 222.60308 221.37893 220.26479 219.22865 218.33650 217.48136
 216.72721 215.91107 215.01293 214.38078 213.83464 213.19365 211.68088 211.07224
 210.87209 211.41371 212.74254 215.11278 218.51648 223.22414 229.17722 234.18826
 238.01216 241.92920 246.17386 250.50900 254.48877 258.29633 261.18646 263.08856
 265.67932 268.45001 270.88437 272.67706 274.70914 276.82498 278.30283 279.67053
 281.24829 282.76492 284.21140 285.56918 286.74979 287.79568 288.75150 289.62024
 290.40701 291.10828 291.72992 292.55695
 366.78100 356.33945 345.77590 334.64635 323.05380 311.25225 299.12670 286.93415
 274.65060 262.55206 250.56551 239.87096 229.99741 221.10586 213.29231 206.29876
 200.13721 195.07966 191.66611 189.71256 188.75401 188.82246 189.66191 190.97436
 192.70381 194.80326 197.07072 199.43417 201.88362 204.36807 206.46052 208.30697
 209.93742 211.08687 211.32032 211.55277 211.49422 211.20367 210.84112 210.47557
 210.09702 209.81147 209.62392 209.49238 209.42483 209.76028 210.15073 210.54418
 211.34163 212.52408 213.77853 215.56598 217.49843 219.54588 221.64533 223.73278
 225.79723 227.88568 229.98713 232.09758 234.23103 236.40749 238.66794 241.04239
 243.66784 245.92329 247.92974 249.69919 251.12064 252.24809 253.07454 253.39499
 253.43644 253.21489 252.57934 251.53179 250.14224 248.30769 246.22115 244.05860
 241.85405 239.66250 237.48695 235.33040 233.19485 231.06630 229.09675 227.25820
 225.54565 224.02210 222.65655 221.43300 220.31945 219.28390 218.39235 217.53781
 216.78426 215.96871 215.07116 214.43961 213.89406 213.24811 211.72366 211.20921
 210.99706 211.44598 212.72563 215.07930 218.43567 223.12640 229.10776 234.09908
 237.91519 241.83339 246.08386 250.43903 254.46242 258.27820 261.16962 263.07523
 265.62903 268.37933 270.81058 272.59286 274.62183 276.74774 278.25595 279.64191
 281.20367 282.70023 284.13605 285.49304 286.67349 287.72046 288.67563 289.54477
 290.33038 291.03491 291.65622 292.48364
 366.78100 356.33993 345.77685 334.64778 323.05571 311.25463 299.12956 286.93749
 274.65441 262.55634 250.57027 239.87619 230.00312 221.11205 213.29897 206.30590
 200.14483 195.08775 191.67468 189.72161 188.76353 188.83246 189.67239 190.98531
 192.71524 194.81517 197.08309 199.44702 201.89695 204.38187 206.47480 208.32173
 209.95265 211.10258 211.33651 211.56943 211.51136 211.22129 210.85921 210.49414
 210.11607 209.83099 209.64392 209.51285 209.44577 209.78170 210.17263 210.56655
 211.36448 212.54741 213.80233 215.59026 217.52319 219.57111 221.67104 223.75897
 225.82389 227.91282 230.01475 232.12567 234.25960 236.43653 238.69745 241.07238
 243.69831 245.95423 247.96116 249.73109 251.15301 252.28094 253.10787 253.42879
 253.47072 253.24965 252.61457 251.56750 250.17843 248.34435 246.25828 244.09621
 241.89213 239.70106 237.52599 235.36991 233.23484 231.10677 229.13769 227.29962
 225.58755 224.06447 222.69940 221.47633 220.36325 219.32818 218.43711 217.58303
 216.82996 216.01489 215.11781 214.48674 213.94167 213.29764 211.77748 211.31668
 211.13582 211.51755 212.72694 215.01076 218.32025 223.01718 229.02777 234.00731
 237.82742 241.75214 246.00665 250.38191 254.44975 258.27142 261.15851 263.06134
 265.57034 268.29721 270.72339 272.49872 274.52777 276.66144 278.20486 279.61581
 281.16272 282.63794 284.06143 285.41830 286.59790 287.64529 288.60107 289.47009
 290.25659 290.96140 291.58331 292.41144
 366.78100 356.33969 345.77639 334.64708 323.05477 311.25346 299.12816 286.93585
 274.65254 262.55423 250.56793 239.87362 230.00031 221.10901 213.29570 206.30239
 200.14108 195.08378 191.67047 189.71716 188.75885 188.82755 189.66724 190.97993
 192.70963 194.80932 197.07701 199.44070 201.89040 204.37509 206.46778 208.31447
 209.94517 211.09486 211.32855 211.56125 211.50294 211.21263 210.85032 210.48502
 210.10671 209.82140 209.63410 209.50279 209.43548 209.77117 210.16187 210.55556
 211.35325 212.53594 213.79064 215.57833 217.51102 219.55872 221.65841 223.74610
 225.81079 227.89949 230.00118 232.11187 234.24556 236.42226 238.68295 241.05764
 243.68334 245.93903 247.94572 249.71541 251.13711 252.26480 253.09149 253.41218
 253.45388 253.23257 252.59726 251.54996 250.16065 248.32634 246.24003 244.07773
 241.87342 239.68211 237.50680 235.35050 233.21519 231.08688 229.11758 227.27927
 225.56696 224.04365 222.67835 221.45504 220.34173 219.30642 218.41512 217.56081
 216.80750 215.99220 215.09489 214.46358 213.91827 213.31207 211.88078 211.38589
 211.32002 211.58632 212.65187 214.89967 218.18944 222.91260 228.98691 233.96156
 237.77994 241.70135 245.94550 250.33069 254.43878 258.25836 261.12857 263.02841
 265.49844 268.20532 270.63004 272.40338 274.43549 276.57642 278.16043 279.60013
 281.12839 282.58289 283.98944 285.34576 286.52594 287.57211 288.52960 289.39774
 290.18604 290.88882 291.51324 292.34268
 366.78100 356.33938 345.77577 334.64615 323.05354 311.25192 299.12631 286.93369
 274.65008 262.55146 250.56485 239.87023 229.99661 221.10500 213.29138 206.29777
 200.13615 195.07854 191.66492 189.71131 188.75269 188.82107 189.66046 190.97284
 192.70223 194.80161 197.06900 199.43238 201.88177 204.36615 206.45854 208.30492
 209.93530 211.08469 211.31807 211.55046 211.49184 211.20123 210.83861 210.47300
 210.09438 209.80876 209.62115 209.48953 209.42192 209.75730 210.14769 210.54107
 211.33846 212.52084 213.77523 215.56261 217.49499 219.54238 221.64176 223.72915
 225.79353 227.88192 229.98330 232.09369 234.22707 236.40346 238.66384 241.03822
 243.66361 245.91899 247.92538 249.69476 251.11615 252.24353 253.06992 253.39030
 253.43168 253.21007 252.57445 251.52684 250.13722 248.30261 246.21599 244.05338
 241.84876 239.65715 237.48153 235.32491 233.18930 231.06068 229.09107 227.25245
 225.53984 224.01622 222.65061 221.42699 220.31338 219.27776 218.38614 217.53153
 216.77791 215.96230 215.06468 214.43307 213.88745 213.32378 211.99251 211.44415
 211.42632 211.63116 212.63493 214.85826 218.10059 222.85022 228.96487 233.92720
 237.73090 241.64140 245.87241 250.26564 254.41592 258.22870 261.07657 262.98083
 265.42072 268.11087 270.53833 272.31406 274.34814 276.49304 278.12259 279.59146
 281.09921 282.53156 283.91983 285.27588 286.45578 287.50247 288.46054 289.32898
 290.11719 290.82309 291.44421 292.27448
 366.78100 356.33942 345.77583 334.64625 323.05366 311.25208 299.12649 286.93391
 274.65032 262.55174 250.56515 239.87057 229.99698 221.10540 213.29181 206.29823
 200.13665 195.07906 191.66548 189.71189 188.75331 188.82172 189.66114 190.97355
 192.70297 194.80238 197.06980 199.43321 201.88263 204.36704 206.45946 208.30588
 209.93629 211.08571 211.31912 211.55154 211.49295 211.20237 210.83978 210.47420
 210.09561 209.81003 209.62244 209.49086 209.42327 209.75869 210.14911 210.54252
 211.33994 212.52235 213.77677 215.56418 217.49660 219.54401 221.64343 223.73084
 225.79526 227.88367 229.98509 232.09550 234.22892 236.40534 238.66575 241.04017
 243.66558 245.92100 247.92741 249.69683 251.11824 252.24566 253.07207 253.39249
 253.43390 253.21232 252.57673 251.52915 250.13957 248.30498 246.21840 244.05581
 241.85123 239.65964 237.48406 235.32747 233.19189 231.06330 229.09372 227.25513
 225.54255 224.01896 222.65338 221.42980 220.31621 219.28063 218.38904 217.53446
 216.78087 215.96529 215.06770 214.43612 213.89053 213.35236 212.08109 211.52798
 211.48460 211.66919 212.63815 214.85576 218.05806 222.81169 228.93137 233.87103
 237.65540 241.55922 245.78647 250.19350 254.39032 258.19669 261.02487 262.93698
 265.34641 268.01761 270.44739 272.22916 274.26318 276.40921 278.08234 279.58255
 281.07211 282.48337 283.85431 285.20999 286.38940 287.43649 288.39313 289.26379
 290.05048 290.75592 291.37790 292.21118
 366.78100 356.33971 345.77643 334.64714 323.05486 311.25357 299.12828 286.93600
 274.65271 262.55443 250.56814 239.87386 230.00057 221.10928 213.29600 206.30271
 200.14143 195.08414 191.67085 189.71757 188.75928 188.82800 189.66771 190.98042
 192.71014 194.80985 197.07757 199.44128 201.89099 204.37571 206.46842 208.31514
 209.94585 211.09557 211.32928 211.56199 211.50371 211.21342 210.85114 210.48585
 210.10756 209.82228 209.63499 209.50371 209.43642 209.77213 210.16285 210.55656
 211.35428 212.53699 213.79171 215.57942 217.51213 219.55985 221.65956 223.74728
 225.81199 227.90070 230.00242 232.11313 234.24685 236.42356 238.68427 241.05899
 243.68470 245.94042 247.94713 249.71684 251.13856 252.26627 253.09299 253.41370
 253.45542 253.23413 252.59884 251.55156 250.16227 248.32799 246.24170 244.07941
 241.87513 239.68384 237.50856 235.35227 233.21698 231.08870 229.11941 227.28113
 225.56884 224.04556 222.68027 221.45698 220.34370 219.30841 218.41713 217.56284
 216.80955 215.99427 215.09698 214.46570 213.92041 213.39502 212.15373 211.62614
 211.51813 211.71985 212.64662 214.86122 218.05396 222.77650 228.88368 233.79588
 237.56750 241.47131 245.70061 250.12445 254.36909 258.16882 260.97672 262.89429
 265.27115 267.92279 270.35327 272.14066 274.17624 276.32211 278.03735 279.57004
 281.04309 282.43738 283.79135 285.14603 286.32672 287.37271 288.33096 289.20096
 289.98856 290.69476 291.31882 292.14795
 366.78100 356.34010 345.77720 334.64831 323.05641 311.25551 299.13061 286.93871
 274.65582 262.55792 250.57202 239.87812 230.00523 221.11433 213.30143 206.30853
 200.14763 195.09074 191.67784 189.72494 188.76704 188.83614 189.67625 190.98935
 192.71945 194.81955 197.08766 199.45176 201.90186 204.38696 206.48006 208.32717
 209.95827 211.10837 211.34247 211.57557 211.51768 211.22778 210.86588 210.50098
 210.12309 209.83819 209.65129 209.52039 209.45349 209.78960 210.18070 210.57480
 211.37290 212.55600 213.81111 215.59921 217.53231 219.58041 221.68052 223.76862
 225.83372 227.92282 230.02492 232.13603 234.27013 236.44723 238.70833 241.08343
 243.70954 245.96564 247.97274 249.74284 251.16495 252.29305 253.12015 253.44125
 253.48335 253.26246 252.62756 251.58066 250.19176 248.35786 246.27197 244.11007
 241.90617 239.71527 237.54037 235.38448 233.24958 231.12168 229.15278 227.31489
 225.60299 224.08009 222.71519 221.49229 220.37940 219.34450 218.45360 217.59970
 216.84680 216.03191 215.13501 214.50411 213.95921 213.44255 212.22191 211.72537
 211.53485 211.77408 212.67636 214.87112 218.06534 222.73737 228.82956 233.71509
 237.48102 241.38808 245.61867 250.05875 254.34874 258.13766 260.92117 262.84323
 265.19046 267.82477 270.25522 272.05255 274.09033 276.23669 277.99136 279.55597
 281.01547 282.39233 283.73254 285.08792 286.26733 287.31372 288.27124 289.14096
 289.93033 290.63678 291.26019 292.09332
 366.78100 356.34050 345.77799 334.64949 323.05799 311.25748 299.13298 286.94148
 274.65897 262.56147 250.57597 239.88246 230.00996 221.11946 213.30695 206.31445
 200.15395 195.09744 191.68494 189.73244 188.77493 188.84443 189.68493 190.99842
 192.72892 194.82942 197.09791 199.46241 201.91291 204.39841 206.49190 208.33940
 209.97090 211.12139 211.35589 211.58939 211.53188 211.24238 210.88088 210.51637
 210.13887 209.85437 209.66786 209.53736 209.47086 209.80735 210.19885 210.59335
 211.39184 212.57534 213.83084 215.61933 217.55283 219.60133 221.70182 223.79032
 225.85582 227.94531 230.04781 232.15931 234.29380 236.47130 238.73280 241.10829
 243.73479 245.99129 247.99878 249.76928 251.19178 252.32027 253.14777 253.46927
 253.51176 253.29126 252.65676 251.61025 250.22175 248.38825 246.30274 244.14124
 241.93774 239.74723 237.57273 235.41723 233.28272 231.15522 229.18672 227.34922
 225.63771 224.11521 222.75071 221.52820 220.41570 219.38120 218.49069 217.63719
 216.88469 216.07018 215.17368 214.54318 213.99867 213.49089 212.29120 211.81299
 211.55516 211.82204 212.72484 214.89072 218.07161 222.69572 228.77634 233.63986
 237.39946 241.30740 245.53827 249.99362 254.32521 258.09756 260.85266 262.78079
 265.10620 267.72739 270.15759 271.96744 274.00809 276.15518 277.94589 279.54001
 280.98767 282.34915 283.67819 285.03262 286.21289 287.25870 288.21710 289.08759
 289.87582 290.58325 291.20624 292.04099
 366.78100 356.34095 345.77890 334.65085 323.05980 311.25975 299.13570 286.94465
 274.66261 262.56556 250.58051 239.88746 230.01541 221.12536 213.31331 206.32126
 200.16121 195.10516 191.69311 189.74106 188.78401 188.85396 189.69491 191.00887
 192.73982 194.84077 197.10972 199.47467 201.92562 204.41157 206.50552 208.35347
 209.98542 211.13637 211.37132 211.60527 211.54822 211.25917 210.89813 210.53408
 210.15703 209.87298 209.68693 209.55688 209.49083 209.82778 210.21973 210.61468
 211.41363 212.59758 213.85353 215.64248 217.57644 219.62539 221.72634 223.81529
 225.88124 227.97119 230.07414 232.18609 234.32104 236.49899 238.76094 241.13689
 243.76384 246.02079 248.02874 249.79970 251.22265 252.35160 253.17955 253.50150
 253.54445 253.32440 252.69035 251.64430 250.25625 248.42320 246.33815 244.17710
 241.97405 239.78400 237.60996 235.45491 233.32086 231.19381 229.22576 227.38871
 225.67766 224.15561 222.79156 221.56951 220.45746 219.42341 218.53336 217.68031
 216.92826 216.11422 215.21817 214.58812 214.04407 213.54292 212.35893 211.88611
 211.59167 211.86481 212.78224 214.92285 218.06932 222.65561 228.72626 233.57222
 237.32025 241.22527 245.45682 249.92862 254.29703 258.04752 260.77142 262.70972
 265.02115 267.63177 270.06149 271.88605 273.93039 276.07852 277.90005 279.52002
 280.95837 282.30872 283.62820 284.98309 286.16443 287.21002 288.16800 289.03928
 289.82706 290.53619 291.15695 291.99554
 366.78100 356.34147 345.77995 334.65242 323.06189 311.26237 299.13884 286.94831
 274.66679 262.57026 250.58573 239.89321 230.02168 221.13215 213.32063 206.32910
 200.16957 195.11405 191.70252 189.75099 188.79447 188.86494 189.70641 191.02089
 192.75236 194.85383 197.12331 199.48878 201.94025 204.42673 206.52120 208.36967
 210.00215 211.15362 211.38909 211.62357 211.56704 211.27851 210.91798 210.55446
 210.17793 209.89440 209.70888 209.57935 209.51382 209.85130 210.24377 210.63924
 211.43872 212.62319 213.87966 215.66914 217.60361 219.65308 221.75456 223.84403
 225.91050 228.00098 230.10445 232.21692 234.35240 236.53087 238.79334 241.16982
 243.79729 246.05476 248.06324 249.83471 251.25818 252.38766 253.21613 253.53860
 253.58208 253.36255 252.72902 251.68350 250.29597 248.46344 246.37892 244.21839
 242.01586 239.82634 237.65281 235.49828 233.36476 231.23823 229.27070 227.43418
 225.72365 224.20212 222.83860 221.61707 220.50554 219.47202 218.58249 217.72996
 216.97844 216.16491 215.26938 214.63986 214.09633 213.59848 212.42227 211.94838
 211.63927 211.90649 212.84267 214.96709 218.06560 222.61699 228.67691 233.50696
 237.24019 241.14154 245.37624 249.86563 254.26494 257.98862 260.67923 262.62869
 264.93439 267.53766 269.96481 271.80734 273.85867 276.00665 277.85498 279.49490
 280.92776 282.26938 283.58432 284.93854 286.11777 287.16541 288.12430 288.99469
 289.78311 290.49207 291.11459 291.94604
 366.78100 356.34216 345.78133 334.65449 323.06466 311.26582 299.14299 286.95315
 274.67232 262.57648 250.59265 239.90081 230.02998 221.14114 213.33031 206.33947
 200.18064 195.12580 191.71497 189.76413 188.80830 188.87946 189.72163 191.03679
 192.76896 194.87112 197.14129 199.50745 201.95962 204.44678 206.54195 208.39111
 210.02428 211.17644 211.41261 211.64777 211.59194 211.30410 210.94427 210.58143
 210.20560 209.92276 209.73793 209.60909 209.54426 209.88242 210.27559 210.67175
 211.47192 212.65708 213.91425 215.70441 217.63958 219.68974 221.79191 223.88207
 225.94924 228.04040 230.14457 232.25773 234.39390 236.57306 238.83623 241.21339
 243.84156 246.09972 248.10889 249.88105 251.30522 252.43538 253.26455 253.58771
 253.63188 253.41304 252.78021 251.73537 250.34854 248.51670 246.43287 244.27303
 242.07120 239.88236 237.70953 235.55569 233.42286 231.29702 229.33019 227.49435
 225.78452 224.26368 222.90085 221.68001 220.56918 219.53634 218.64751 217.79567
 217.04484 216.23200 215.33717 214.70833 214.16550 213.66245 212.47395 212.01059
 211.69405 211.94475 212.90872 215.01901 218.06551 222.58269 228.62804 233.43925
 237.15793 241.05650 245.29781 249.80594 254.23004 257.92130 260.57507 262.53668
 264.84595 267.44492 269.86728 271.72961 273.79120 275.94089 277.80804 279.46524
 280.89664 282.23401 283.54486 284.90051 286.08105 287.12598 288.08496 288.95486
 289.74438 290.45181 291.07629 291.91446
 366.78100 356.34286 345.78272 334.65659 323.06745 311.26931 299.14717 286.95804
 274.67790 262.58276 250.59962 239.90849 230.03835 221.15021 213.34007 206.34994
 200.19180 195.13766 191.72752 189.77739 188.82225 188.89411 189.73697 191.05284
 192.78570 194.88856 197.15942 199.52629 201.97915 204.46701 206.56287 208.41274
 210.04660 211.19946 211.43632 211.67219 211.61705 211.32991 210.97077 210.60864
 210.23350 209.95136 209.76722 209.63909 209.57495 209.91381 210.30767 210.70454
 211.50540 212.69126 213.94912 215.73998 217.67585 219.72671 221.82957 223.92043
 225.98830 228.08016 230.18502 232.29888 234.43575 236.61561 238.87947 241.25733
 243.88620 246.14506 248.15492 249.92778 251.35265 252.48351 253.31337 253.63723
 253.68210 253.46396 252.83182 251.78768 250.40155 248.57041 246.48727 244.32813
 242.12700 239.93886 237.76672 235.61358 233.48145 231.35631 229.39017 227.55503
 225.84590 224.32576 222.96362 221.74348 220.63335 219.60121 218.71307 217.86193
 217.11179 216.29966 215.40552 214.77738 214.23524 213.72603 212.52296 212.06573
 211.75612 211.98456 212.97063 215.08109 218.08031 222.54640 228.57829 233.36479
 237.07135 240.97089 245.22208 249.75034 254.19382 257.84518 260.46014 262.43463
 264.75729 267.35400 269.77026 271.65295 273.72647 275.87866 277.75983 279.43045
 280.86554 282.20325 283.51340 284.86731 286.04752 287.09393 288.05145 288.92285
 289.71036 290.41913 291.04462 291.87811
 366.78100 356.34368 345.78437 334.65905 323.07073 311.27341 299.15210 286.96378
 274.68446 262.59014 250.60783 239.91751 230.04819 221.16088 213.35156 206.36224
 200.20492 195.15161 191.74229 189.79297 188.83866 188.91134 189.75502 191.07170
 192.80539 194.90907 197.18075 199.54843 202.00212 204.49080 206.58748 208.43817
 210.07285 211.22653 211.46421 211.70090 211.64658 211.36026 211.00194 210.64063
 210.26631 209.98499 209.80168 209.67436 209.61104 209.95072 210.34541 210.74309
 211.54477 212.73146 213.99014 215.78182 217.71850 219.77019 221.87387 223.96555
 226.03423 228.12692 230.23260 232.34728 234.48497 236.66565 238.93033 241.30901
 243.93870 246.19838 248.20906 249.98274 251.40843 252.54011 253.37079 253.69548
 253.74116 253.52384 252.89252 251.84921 250.46389 248.63357 246.55126 244.39294
 242.19262 240.00530 237.83399 235.68167 233.55035 231.42603 229.46072 227.62640
 225.91808 224.39877 223.03745 221.81813 220.70881 219.67750 218.79018 217.93986
 217.19054 216.37923 215.48591 214.85859 214.31728 213.79474 212.56020 212.12723
 211.81851 212.02939 213.04539 215.13904 218.08865 222.51038 228.52924 233.28766
 236.98085 240.88371 245.14944 249.69925 254.15672 257.75989 260.33365 262.32327
 264.67014 267.26767 269.67435 271.58002 273.66760 275.82242 277.71198 279.39304
 280.83459 282.17792 283.48691 284.84186 286.02130 287.06735 288.02490 288.89606
 289.68460 290.39206 291.01801 291.85159
 366.78100 356.34477 345.78655 334.66232 323.07509 311.27886 299.15864 286.97141
 274.69318 262.59995 250.61873 239.92950 230.06127 221.17505 213.36682 206.37859
 200.22236 195.17014 191.76191 189.81368 188.86045 188.93423 189.77900 191.09677
 192.83154 194.93632 197.20909 199.57786 202.03264 204.52241 206.62018 208.47195
 210.10773 211.26250 211.50127 211.73904 211.68582 211.40059 211.04336 210.68314
 210.30991 210.02968 209.84745 209.72123 209.65900 209.99977 210.39554 210.79432
 211.59709 212.78486 214.04463 215.83741 217.77518 219.82795 221.93273 224.02550
 226.09527 228.18904 230.29582 232.41159 234.55036 236.73213 238.99791 241.37768
 244.00845 246.26923 248.28100 250.05577 251.48254 252.61532 253.44709 253.77286
 253.81963 253.60341 252.97318 251.93095 250.54672 248.71750 246.63627 244.47904
 242.27982 240.09359 237.92336 235.77213 233.64191 231.51868 229.55445 227.72122
 226.01400 224.49577 223.13554 221.91732 220.80909 219.77886 218.89263 218.04341
 217.29518 216.48495 215.59272 214.96650 214.42627 213.87674 212.57840 212.18140
 211.91991 212.07549 213.08498 215.20297 218.12221 222.47250 228.47093 233.20288
 236.88573 240.79329 245.07814 249.65176 254.11771 257.66730 260.19968 262.20609
 264.58716 267.18628 269.58301 271.51208 273.61417 275.77155 277.66577 279.35220
 280.80435 282.15475 283.46664 284.82123 286.00125 287.04749 288.00513 288.87424
 289.66336 290.37079 290.99448 291.83130
 366.78100 356.34599 345.78897 334.66596 323.07994 311.28493 299.16591 286.97990
 274.70289 262.61087 250.63086 239.94284 230.07583 221.19081 213.38380 206.39679
 200.24177 195.19076 191.78374 189.83673 188.88472 188.95970 189.80569 191.12467
 192.86066 194.96664 197.24063 199.61062 202.06660 204.55759 206.65657 208.50956
 210.14654 211.30253 211.54252 211.78150 211.72949 211.44547 211.08946 210.73044
 210.35843 210.07942 209.89840 209.77339 209.71237 210.05436 210.45135 210.85133
 211.65532 212.84430 214.10529 215.89927 217.83826 219.89225 221.99823 224.09222
 226.16320 228.25819 230.36617 232.48316 234.62315 236.80613 239.07312 241.45410
 244.08609 246.34807 248.36106 250.13705 251.56503 252.69902 253.53200 253.85899
 253.90698 253.69196 253.06295 252.02193 250.63892 248.81090 246.73089 244.57488
 242.37686 240.19185 238.02283 235.87282 233.74380 231.62179 229.65878 227.82676
 226.12075 224.60373 223.24472 222.02770 220.92069 219.89168 219.00666 218.15865
 217.41163 216.60262 215.71161 215.08659 214.54758 213.96449 212.58688 212.23149
 212.02399 212.12842 213.15199 215.26154 218.11446 222.42197 228.42603 233.13075
 236.79597 240.70639 245.01173 249.60930 254.07660 257.56958 260.05811 262.08362
 264.50647 267.10748 269.49020 271.44437 273.56281 275.72183 277.61633 279.30612
 280.77194 282.13266 283.45279 284.80704 285.98746 287.03253 287.98947 288.85995
 289.64819 290.35535 290.97995 291.81573
 366.78100 356.34673 345.79045 334.66818 323.08290 311.28863 299.17036 286.98508
 274.70881 262.61754 250.63826 239.95099 230.08471 221.20044 213.39417 206.40789
 200.25362 195.20334 191.79707 189.85080 188.89952 188.97525 189.82197 191.14170
 192.87843 194.98515 197.25988 199.63061 202.08733 204.57906 206.67878 208.53251
 210.17024 211.32696 211.56769 211.80741 211.75614 211.47287 211.11759 210.75932
 210.38805 210.10977 209.92950 209.80522 209.74495 210.08768 210.48540 210.88613
 211.69085 212.88058 214.14231 215.93703 217.87676 219.93148 222.03821 224.13294
 226.20466 228.30039 230.40912 232.52684 234.66757 236.85129 239.11902 241.50075
 244.13347 246.39620 248.40992 250.18665 251.61538 252.75010 253.58383 253.91155
 253.96028 253.74601 253.11773 252.07746 250.69519 248.86791 246.78864 244.63336
 242.43609 240.25182 238.08354 235.93427 233.80599 231.68472 229.72245 227.89117
 226.18590 224.66963 223.31135 222.09508 220.98880 219.96053 219.07626 218.22898
 217.48271 216.67443 215.78416 215.15989 214.62161 214.02701 212.62222 212.26244
 212.12679 212.17104 213.18431 215.35019 218.17722 222.38229 228.36560 233.04506
 236.70209 240.61816 244.94766 249.57048 254.03365 257.46796 259.91150 261.95749
 264.42706 267.02908 269.39301 271.37402 273.50940 275.67050 277.56067 279.25314
 280.73758 282.11215 283.44232 284.79709 285.97705 287.02264 287.97910 288.84888
 289.63629 290.34363 290.96863 291.80225
 366.78100 356.34690 345.79080 334.66871 323.08361 311.28951 299.17141 286.98632
 274.71022 262.61912 250.64002 239.95293 230.08683 221.20273 213.39663 206.41054
 200.25644 195.20634 191.80024 189.85414 188.90305 188.97895 189.82585 191.14575
 192.88266 194.98956 197.26446 199.63536 202.09227 204.58417 206.68407 208.53797
 210.17588 211.33278 211.57368 211.81358 211.76249 211.47939 211.12429 210.76619
 210.39509 210.11700 209.93690 209.81280 209.75270 210.09561 210.49351 210.89441
 211.69931 212.88922 214.15112 215.94602 217.88592 219.94083 222.04773 224.14263
 226.21453 228.31043 230.41934 232.53724 234.67814 236.86204 239.12995 241.51185
 244.14475 246.40765 248.42156 250.19846 251.62736 252.76226 253.59617 253.92407
 253.97297 253.75887 253.13077 252.09068 250.70858 248.88148 246.80238 244.64729
 242.45019 240.26609 238.09799 235.94890 233.82080 231.69970 229.73760 227.90651
 226.20141 224.68531 223.32721 222.11112 221.00502 219.97692 219.09282 218.24572
 217.49963 216.69153 215.80143 215.17733 214.63924 214.05974 212.69060 212.26044
 212.23012 212.27963 213.18956 215.36252 218.23387 222.35881 228.31317 232.97572
 236.61688 240.53786 244.89070 249.53712 253.99106 257.36493 259.76138 261.82886
 264.34842 266.95044 269.29483 271.30225 273.45602 275.61905 277.50311 279.19876
 280.70325 282.09756 283.43631 284.79050 285.96954 287.01666 287.97064 288.84140
 289.62671 290.33511 290.96100 291.79294
 366.78100 356.34716 345.79132 334.66948 323.08464 311.29080 299.17296 286.98812
 274.71228 262.62144 250.64260 239.95576 230.08992 221.20608 213.40024 206.41440
 200.26056 195.21072 191.80488 189.85904 188.90820 188.98436 189.83153 191.15169
 192.88885 194.99601 197.27117 199.64233 202.09949 204.59165 206.69181 208.54597
 210.18413 211.34129 211.58245 211.82261 211.77177 211.48893 211.13409 210.77625
 210.40541 210.12757 209.94773 209.82389 209.76405 210.10721 210.50537 210.90653
 211.71169 212.90185 214.16401 215.95917 217.89933 219.95449 222.06165 224.15681
 226.22897 228.32513 230.43429 232.55245 234.69361 236.87777 239.14593 241.52809
 244.16126 246.42442 248.43858 250.21574 251.64490 252.78006 253.61422 253.94238
 253.99154 253.77770 253.14986 252.11002 250.72818 248.90134 246.82250 244.66766
 242.47082 240.28698 238.11914 235.97030 233.84246 231.72162 229.75978 227.92894
 226.22410 224.70826 223.35042 222.13458 221.02874 220.00090 219.11706 218.27022
 217.52438 216.71654 215.82670 215.20286 214.66502 214.09448 212.74651 212.27681
 212.32376 212.36188 213.20778 215.39833 218.28276 222.33725 228.27058 232.91104
 236.52989 240.45610 244.83499 249.50427 253.94215 257.25159 259.60193 261.69626
 264.27045 266.87402 269.19910 271.23367 273.40881 275.57166 277.44943 279.14792
 280.67429 282.08685 283.43234 284.78696 285.96710 287.01172 287.96695 288.83594
 289.62305 290.32977 290.95416 291.78757
 366.78100 356.34780 345.79259 334.67139 323.08719 311.29399 299.17678 286.99258
 274.71738 262.62717 250.64897 239.96277 230.09757 221.21436 213.40916 206.42396
 200.27075 195.22155 191.81635 189.87115 188.92094 188.99774 189.84554 191.16633
 192.90413 195.01193 197.28773 199.65952 202.11732 204.61012 206.71091 208.56571
 210.20451 211.36231 211.60410 211.84490 211.79470 211.51249 211.15829 210.80109
 210.43089 210.15368 209.97448 209.85128 209.79207 210.13587 210.53467 210.93647
 211.74226 212.93306 214.19586 215.99165 217.93245 219.98825 222.09605 224.19184
 226.26464 228.36144 230.47123 232.59003 234.73183 236.91663 239.18542 241.56822
 244.20202 246.46581 248.48061 250.25841 251.68821 252.82400 253.65880 253.98760
 254.03739 253.82419 253.19699 252.15779 250.77658 248.95038 246.87218 244.71797
 242.52177 240.33857 238.17137 236.02316 233.89596 231.77576 229.81455 227.98435
 226.28015 224.76495 223.40774 222.19254 221.08734 220.06013 219.17693 218.33073
 217.58553 216.77832 215.88912 215.26592 214.72871 214.14581 212.76863 212.33777
 212.39462 212.41737 213.25179 215.46843 218.33221 222.30307 228.22400 232.83626
 236.43532 240.37073 244.77849 249.47029 253.88666 257.12970 259.43820 261.56558
 264.19730 266.80191 269.10898 271.17252 273.36746 275.53186 277.40198 279.10019
 280.64844 282.07797 283.43173 284.78540 285.96484 287.00989 287.96353 288.83359
 289.62000 290.32486 290.95078 291.78088
 366.78100 356.34850 345.79400 334.67350 323.09001 311.29751 299.18101 286.99751
 274.72301 262.63351 250.65601 239.97051 230.10602 221.22352 213.41902 206.43452
 200.28202 195.23352 191.82902 189.88453 188.93503 189.01253 189.86103 191.18253
 192.92103 195.02953 197.30603 199.67854 202.13704 204.63054 206.73204 208.58754
 210.22704 211.38554 211.62805 211.86955 211.82005 211.53855 211.18505 210.82855
 210.45905 210.18255 210.00406 209.88156 209.82306 210.16756 210.56706 210.96956
 211.77606 212.96757 214.23107 216.02757 217.96907 220.02557 222.13407 224.23057
 226.30407 228.40158 230.51208 232.63158 234.77408 236.95958 239.22908 241.61258
 244.24709 246.51159 248.52709 250.30559 251.73609 252.87259 253.70809 254.03759
 254.08810 253.87560 253.24910 252.21060 250.83010 249.00460 246.92710 244.77361
 242.57811 240.39561 238.22911 236.08161 233.95511 231.83561 229.87511 228.04562
 226.34212 224.82762 223.47112 222.25662 221.15212 220.12562 219.24313 218.39763
 217.65313 216.84663 215.95813 215.33563 214.79913 214.19789 212.77740 212.42342
 212.44731 212.47008 213.30919 215.54813 218.37903 222.26265 228.16716 232.75415
 236.34012 240.28763 244.72606 249.43710 253.82735 257.00586 259.27560 261.44003
 264.12741 266.73279 269.02304 271.11508 273.33041 275.49670 277.35757 279.05615
 280.62531 282.07190 283.43124 284.78510 285.96481 287.00949 287.96402 288.83231
 289.61890 290.32690 290.95010 291.77914
 366.78100 356.34902 345.79504 334.67505 323.09207 311.30009 299.18411 287.00113
 274.72715 262.63816 250.66118 239.97620 230.11222 221.23024 213.42626 206.44227
 200.29029 195.24231 191.83833 189.89435 188.94537 189.02338 189.87240 191.19442
 192.93344 195.04246 197.31948 199.69249 202.15151 204.64553 206.74755 208.60357
 210.24359 211.40260 211.64562 211.88764 211.83866 211.55768 211.20470 210.84871
 210.47973 210.20375 210.02577 209.90379 209.84581 210.19082 210.59084 210.99386
 211.80088 212.99290 214.25692 216.05393 217.99595 220.05297 222.16199 224.25901
 226.33302 228.43104 230.54206 232.66208 234.80510 236.99112 239.26113 241.64515
 244.28017 246.54519 248.56121 250.34023 251.77124 252.90826 253.74428 254.07430
 254.12532 253.91334 253.28735 252.24937 250.86939 249.04441 246.96743 244.81445
 242.61946 240.43748 238.27150 236.12452 233.99854 231.87956 229.91957 228.09059
 226.38761 224.87363 223.51765 222.30367 221.19968 220.17370 219.29172 218.44674
 217.70276 216.89678 216.00879 215.38681 214.85083 214.23837 212.79137 212.51114
 212.50070 212.52356 213.37233 215.62251 218.41264 222.22430 228.10532 232.67056
 236.24930 240.20990 244.67854 249.40460 253.76482 256.87949 259.11401 261.31873
 264.05893 266.66458 268.93970 271.06076 273.29584 275.46396 277.31598 279.01434
 280.60251 282.06522 283.43256 284.78683 285.96558 287.00983 287.96426 288.83163
 289.61719 290.32321 290.94604 291.78033
 366.78100 356.34930 345.79560 334.67590 323.09320 311.30149 299.18579 287.00309
 274.72939 262.64069 250.66399 239.97929 230.11559 221.23388 213.43018 206.44648
 200.29478 195.24708 191.84338 189.89968 188.95098 189.02927 189.87857 191.20087
 192.94017 195.04947 197.32677 199.70007 202.15937 204.65366 206.75596 208.61226
 210.25256 211.41186 211.65516 211.89746 211.84876 211.56805 211.21535 210.85965
 210.49095 210.21525 210.03755 209.91585 209.85815 210.20344 210.60374 211.00704
 211.81434 213.00664 214.27094 216.06824 218.01054 220.06783 222.17713 224.27443
 226.34873 228.44703 230.55833 232.67863 234.82193 237.00822 239.27852 241.66282
 244.29812 246.56342 248.57972 250.35902 251.79032 252.92761 253.76391 254.09421
 254.14551 253.93381 253.30811 252.27041 250.89071 249.06600 246.98930 244.83660
 242.64190 240.46020 238.29450 236.14780 234.02210 231.90339 229.94369 228.11499
 226.41229 224.89859 223.54289 222.32919 221.22549 220.19978 219.31808 218.47338
 217.72968 216.92398 216.03628 215.41458 214.87888 214.26494 212.81444 212.59341
 212.56970 212.56943 213.43773 215.68936 218.43651 222.18896 228.04131 232.58546
 236.16086 240.13670 244.63509 249.37177 253.69722 256.74875 258.95239 261.20096
 263.99112 266.59674 268.85922 271.01035 273.26498 275.43561 277.27896 278.97604
 280.58209 282.05750 283.43387 284.78964 285.96857 287.01498 287.97055 288.83969
 289.63101 290.34290 290.96790 291.79883
 366.78100 356.34943 345.79585 334.67628 323.09371 311.30213 299.18656 287.00399
 274.73041 262.64184 250.66527 239.98069 230.11712 221.23555 213.43197 206.44840
 200.29683 195.24925 191.84568 189.90211 188.95353 189.03196 189.88139 191.20381
 192.94324 195.05267 197.33009 199.70352 202.16295 204.65737 206.75980 208.61623
 210.25665 211.41608 211.65951 211.90193 211.85336 211.57279 211.22021 210.86464
 210.49607 210.22049 210.04292 209.92134 209.86377 210.20920 210.60962 211.01305
 211.82048 213.01290 214.27733 216.07476 218.01718 220.07461 222.18404 224.28146
 226.35589 228.45432 230.56574 232.68617 234.82960 237.01602 239.28645 241.67088
 244.30630 246.57173 248.58816 250.36758 251.79901 252.93644 253.77286 254.10329
 254.15472 253.94314 253.31757 252.28000 250.90042 249.07585 246.99928 244.84670
 242.65213 240.47056 238.30498 236.15841 234.03284 231.91426 229.95469 228.12612
 226.42354 224.90997 223.55440 222.34082 221.23725 220.21168 219.33010 218.48553
 217.74196 216.93638 216.04881 215.42724 214.89166 214.28160 212.84029 212.67271
 212.65465 212.60881 213.50041 215.74615 218.45834 222.15311 227.97252 232.49823
 236.07541 240.06866 244.59421 249.33693 253.62263 256.61307 258.79211 261.08911
 263.92340 266.52893 268.78326 270.96457 273.23883 275.41299 277.24905 278.94461
 280.56390 282.05020 283.43628 284.79340 285.97433 287.01962 287.97589 288.84760
 289.64078 290.35052 290.97781 291.80563
 366.78100 356.34948 345.79596 334.67644 323.09393 311.30241 299.18689 287.00437
 274.73085 262.64233 250.66581 239.98130 230.11778 221.23626 213.43274 206.44922
 200.29770 195.25018 191.84667 189.90315 188.95463 189.03311 189.88259 191.20507
 192.94455 195.05404 197.33152 199.70500 202.16448 204.65896 206.76144 208.61792
 210.25840 211.41789 211.66137 211.90385 211.85533 211.57481 211.22229 210.86677
 210.49826 210.22274 210.04522 209.92370 209.86618 210.21166 210.61214 211.01563
 211.82311 213.01559 214.28007 216.07755 218.02003 220.07751 222.18700 224.28448
 226.35896 228.45744 230.56892 232.68940 234.83288 237.01937 239.28985 241.67433
 244.30981 246.57529 248.59177 250.37125 251.80274 252.94022 253.77670 254.10718
 254.15866 253.94714 253.32162 252.28411 250.90459 249.08007 247.00355 244.85103
 242.65651 240.47499 238.30948 236.16296 234.03744 231.91892 229.95940 228.13088
 226.42836 224.91485 223.55933 222.34581 221.24229 220.21677 219.33525 218.49073
 217.74721 216.94170 216.05418 215.43266 214.89714 214.29257 212.86420 212.75600
 212.74725 212.64795 213.56700 215.79341 218.46886 222.11646 227.90303 232.41135
 235.99232 240.00555 244.55537 249.29820 253.53951 256.47183 258.63434 260.98315
 263.85574 266.46191 268.71417 270.92575 273.21915 275.39749 277.22861 278.92242
 280.55081 282.04337 283.43723 284.79449 285.97546 287.01968 287.97534 288.84225
 289.63040 290.33759 290.95941 291.79684
 366.78100 356.34935 345.79570 334.67605 323.09340 311.30174 299.18609 287.00344
 274.72979 262.64114 250.66449 239.97984 230.11619 221.23454 213.43089 206.44723
 200.29558 195.24793 191.84428 189.90063 188.95198 189.03033 189.87968 191.20203
 192.94138 195.05072 197.32807 199.70142 202.16077 204.65512 206.75747 208.61382
 210.25417 211.41352 211.65686 211.89921 211.85056 211.56991 211.21726 210.86161
 210.49296 210.21731 210.03966 209.91801 209.86035 210.20570 210.60605 211.00940
 211.81675 213.00910 214.27345 216.07080 218.01315 220.07049 222.17984 224.27719
 226.35154 228.44989 230.56124 232.68159 234.82494 237.01129 239.28164 241.66598
 244.30133 246.56668 248.58303 250.36238 251.79373 252.93108 253.76743 254.09778
 254.14913 253.93747 253.31182 252.27417 250.89452 249.06987 246.99322 244.84057
 242.64592 240.46427 238.29861 236.15196 234.02631 231.90766 229.94801 228.11936
 226.41671 224.90306 223.54741 222.33376 221.23010 220.20445 219.32280 218.47815
 217.73450 216.92885 216.04120 215.41955 214.88390 214.29190 212.89323 212.83768
 212.84358 212.69763 213.62860 215.83118 218.46519 222.07974 227.83421 232.32518
 235.91154 239.94606 244.51826 249.25540 253.44577 256.32339 258.47867 260.88339
 263.78674 266.39401 268.65140 270.89355 273.20633 275.39291 277.21811 278.90802
 280.53949 282.03687 283.43930 284.79678 285.97647 287.02151 287.97714 288.84396
 289.63025 290.33789 290.95944 291.79059
 366.78100 356.34938 345.79576 334.67613 323.09351 311.30189 299.18627 287.00365
 274.73002 262.64140 250.66478 239.98016 230.11654 221.23492 213.43129 206.44767
 200.29605 195.24843 191.84481 189.90118 188.95256 189.03094 189.88032 191.20270
 192.94207 195.05145 197.32883 199.70221 202.16159 204.65596 206.75834 208.61472
 210.25510 211.41448 211.65786 211.90023 211.85161 211.57099 211.21837 210.86275
 210.49412 210.21850 210.04088 209.91926 209.86164 210.20701 210.60739 211.01077
 211.81815 213.01053 214.27491 216.07228 218.01466 220.07204 222.18142 224.27880
 226.35317 228.45155 230.56293 232.68331 234.82669 237.01306 239.28344 241.66782
 244.30320 246.56858 248.58495 250.36433 251.79571 252.93309 253.76947 254.09985
 254.15122 253.93960 253.31398 252.27636 250.89674 249.07211 246.99549 244.84287
 242.64825 240.46663 238.30100 236.15438 234.02876 231.91014 229.95052 228.12189
 226.41927 224.90565 223.55003 222.33641 221.23279 220.20716 219.32554 218.48092
 217.73730 216.93168 216.04405 215.42243 214.88681 214.29752 212.90521 212.93878
 212.93999 212.74774 213.69785 215.85968 218.44591 222.03792 227.76628 232.24017
 235.83353 239.89217 244.48459 249.20886 253.34225 256.16779 258.32440 260.78848
 263.71487 266.32422 268.59384 270.86810 273.20221 275.39868 277.21939 278.90054
 280.53030 282.02994 283.44351 284.80237 285.98166 287.02884 287.98291 288.85052
 289.63809 290.34442 290.96597 291.80032
 366.78100 356.34878 345.79456 334.67434 323.09112 311.29891 299.18269 286.99947
 274.72525 262.63603 250.65881 239.97359 230.10937 221.22716 213.42294 206.43872
 200.28650 195.23828 191.83406 189.88984 188.94062 189.01840 189.86719 191.18897
 192.92775 195.03653 197.31331 199.68609 202.14487 204.63865 206.74044 208.59622
 210.23600 211.39478 211.63756 211.87934 211.83012 211.54890 211.19568 210.83947
 210.47025 210.19403 210.01581 209.89359 209.83537 210.18015 210.57993 210.98272
 211.78950 212.98128 214.24506 216.04184 217.98362 220.04040 222.14918 224.24596
 226.31975 228.41753 230.52831 232.64809 234.79087 236.97665 239.24643 241.63021
 244.26500 246.52978 248.54556 250.32434 251.75512 252.89190 253.72768 254.05746
 254.10824 253.89603 253.26981 252.23159 250.85137 249.02615 246.94893 244.79571
 242.60049 240.41828 238.25206 236.10484 233.97862 231.85940 229.89918 228.06996
 226.36674 224.85252 223.49631 222.28209 221.17787 220.15165 219.26943 218.42421
 217.67999 216.87377 215.98556 215.36334 214.82712 214.27032 212.95480 213.00688
 213.05310 212.81691 213.74223 215.88515 218.42467 222.00661 227.69701 232.15105
 235.75674 239.84256 244.45255 249.15720 253.22784 256.00485 258.17218 260.69754
 263.63943 266.25189 268.54138 270.84857 273.20490 275.41492 277.22961 278.89999
 280.52527 282.02405 283.45282 284.81232 285.99396 287.04016 287.99609 288.86646
 289.65350 290.36127 290.98438 291.81274
 366.78100 356.34892 345.79484 334.67475 323.09167 311.29959 299.18351 287.00043
 274.72634 262.63726 250.66018 239.97510 230.11101 221.22893 213.42485 206.44077
 200.28869 195.24060 191.83652 189.89244 188.94336 189.02128 189.87019 191.19211
 192.93103 195.03995 197.31687 199.68978 202.14870 204.64262 206.74454 208.60045
 210.24037 211.39929 211.64221 211.88413 211.83504 211.55396 211.20088 210.84480
 210.47572 210.19963 210.02155 209.89947 209.84139 210.18631 210.58622 210.98914
 211.79606 212.98798 214.25189 216.04881 217.99073 220.04765 222.15657 224.25348
 226.32740 228.42532 230.53624 232.65616 234.79907 236.98499 239.25491 241.63883
 244.27375 246.53866 248.55458 250.33350 251.76442 252.90133 253.73725 254.06717
 254.11809 253.90601 253.27992 252.24184 250.86176 249.03668 246.95960 244.80651
 242.61143 240.42935 238.26327 236.11619 233.99010 231.87102 229.91094 228.08186
 226.37878 224.86469 223.50861 222.29453 221.19045 220.16436 219.28228 218.43720
 217.69312 216.88704 215.99895 215.37687 214.84079 214.27771 212.94737 213.14529
 213.14433 212.87169 213.82135 215.90587 218.38974 221.94667 227.61456 232.05467
 235.68027 239.79808 244.42332 249.10211 253.10538 255.83789 258.02612 260.61441
 263.56400 266.18073 268.49850 270.83713 273.21786 275.44498 277.25204 278.90765
 280.52243 282.01511 283.46521 284.82782 286.00885 287.05670 288.01389 288.88443
 289.67459 290.37930 291.00394 291.84055
 366.78100 356.34968 345.79636 334.67704 323.09472 311.30341 299.18809 287.00577
 274.73245 262.64413 250.66781 239.98349 230.12017 221.23885 213.43554 206.45222
 200.30090 195.25358 191.85026 189.90694 188.95862 189.03730 189.88699 191.20967
 192.94935 195.05903 197.33671 199.71039 202.17007 204.66475 206.76743 208.62412
 210.26480 211.42448 211.66816 211.91084 211.86252 211.58220 211.22988 210.87456
 210.50625 210.23093 210.05361 209.93229 209.87497 210.22065 210.62133 211.02501
 211.83269 213.02538 214.29006 216.08774 218.03042 220.08810 222.19778 224.29546
 226.37014 228.46883 230.58051 232.70119 234.84487 237.03155 239.30223 241.68691
 244.32259 246.58827 248.60496 250.38464 251.81632 252.95400 253.79068 254.12136
 254.17304 253.96172 253.33640 252.29909 250.91977 249.09545 247.01913 244.86681
 242.67249 240.49117 238.32585 236.17953 234.05422 231.93590 229.97658 228.14826
 226.44594 224.93262 223.57730 222.36398 221.26067 220.23535 219.35403 218.50971
 217.76639 216.96107 216.07375 215.45243 214.91711 214.31854 212.90436 213.25281
 213.40552 212.93723 213.76610 215.84621 218.32043 221.92012 227.53151 231.95937
 235.61195 239.76186 244.39821 249.04457 252.97884 255.67213 257.88895 260.53891
 263.48877 266.11270 268.46384 270.83344 273.24008 275.48471 277.28577 278.92410
 280.52316 282.00101 283.48535 284.84790 286.02780 287.07526 288.03339 288.90540
 289.69260 290.40182 291.02573 291.85852
 366.78100 356.34919 345.79538 334.67557 323.09275 311.30094 299.18513 287.00232
 274.72851 262.63970 250.66289 239.97808 230.11426 221.23245 213.42864 206.44483
 200.29302 195.24521 191.84140 189.89759 188.94877 189.02696 189.87615 191.19834
 192.93753 195.04672 197.32391 199.69710 202.15628 204.65047 206.75266 208.60885
 210.24904 211.40823 211.65142 211.89361 211.84479 211.56398 211.21117 210.85536
 210.48655 210.21074 210.03293 209.91112 209.85330 210.19849 210.59868 211.00187
 211.80906 213.00125 214.26544 216.06263 218.00481 220.06200 222.17119 224.26838
 226.34257 228.44076 230.55195 232.67214 234.81532 237.00151 239.27170 241.65589
 244.29108 246.55627 248.57246 250.35165 251.78283 252.92002 253.75621 254.08640
 254.13759 253.92578 253.29997 252.26216 250.88234 249.05753 246.98072 244.82791
 242.63310 240.45129 238.28548 236.13867 234.01285 231.89404 229.93423 228.10542
 226.40261 224.88880 223.53299 222.31918 221.21536 220.18955 219.30774 218.46293
 217.71912 216.91331 216.02550 215.40369 214.86787 214.29817 212.95218 213.26427
 213.58183 213.08934 213.76810 215.82536 218.29720 221.82689 227.45071 231.87274
 235.54788 239.73090 244.37431 248.98314 252.84622 255.50531 257.75653 260.46707
 263.41064 266.04230 268.43259 270.83191 273.26492 275.52713 277.32263 278.94379
 280.52344 281.97372 283.50641 284.87054 286.05243 287.09982 288.05811 288.92932
 289.71939 290.42609 291.04846 291.88303
 366.78100 356.34846 345.79392 334.67338 323.08985 311.29731 299.18077 286.99723
 274.72269 262.63315 250.65561 239.97007 230.10554 221.22300 213.41846 206.43392
 200.28138 195.23284 191.82830 189.88377 188.93423 189.01169 189.86015 191.18161
 192.92007 195.02853 197.30500 199.67746 202.13592 204.62938 206.73084 208.58630
 210.22576 211.38422 211.62669 211.86815 211.81861 211.53707 211.18353 210.82699
 210.45745 210.18092 210.00238 209.87984 209.82130 210.16576 210.56522 210.96768
 211.77415 212.96561 214.22907 216.02553 217.96699 220.02345 222.13191 224.22837
 226.30184 228.39930 230.50976 232.62922 234.77168 236.95714 239.22660 241.61007
 244.24453 246.50899 248.52445 250.30291 251.73337 252.86983 253.70529 254.03476
 254.08522 253.87268 253.24614 252.20760 250.82706 249.00152 246.92399 244.77045
 242.57491 240.39237 238.22583 236.07829 233.95175 231.83222 229.87168 228.04214
 226.33860 224.82406 223.46752 222.25298 221.14844 220.12191 219.23937 218.39383
 217.64929 216.84275 215.95421 215.33167 214.79514 214.26390 213.00879 213.30446
 213.66481 213.22360 213.82207 215.84161 218.31262 221.73367 227.36830 231.78915
 235.48831 239.70480 244.35097 248.91733 252.70824 255.33743 257.62869 260.39474
 263.32602 265.96494 268.39786 270.82672 273.28613 275.56586 277.35480 278.95892
 280.52112 281.97540 283.51660 284.88391 286.06747 287.11734 288.07697 288.94971
 289.73935 290.44568 291.06860 291.90405
 366.78100 356.34812 345.79324 334.67236 323.08847 311.29559 299.17871 286.99483
 274.71995 262.63007 250.65219 239.96631 230.10142 221.21854 213.41366 206.42878
 200.27590 195.22702 191.82214 189.87725 188.92737 189.00449 189.85261 191.17373
 192.91185 195.01997 197.29608 199.66820 202.12632 204.61944 206.72056 208.57568
 210.21480 211.37292 211.61503 211.85615 211.80627 211.52439 211.17051 210.81363
 210.44375 210.16686 209.98798 209.86510 209.80622 210.15034 210.54946 210.95158
 211.75769 212.94881 214.21193 216.00805 217.94917 220.00529 222.11341 224.20953
 226.28264 228.37976 230.48988 232.60900 234.75112 236.93624 239.20536 241.58847
 244.22259 246.48671 248.50183 250.27995 251.71007 252.84619 253.68130 254.01042
 254.06054 253.84766 253.22078 252.18190 250.80102 248.97514 246.89725 244.74337
 242.54749 240.36461 238.19773 236.04985 233.92297 231.80308 229.84220 228.01232
 226.30844 224.79356 223.43668 222.22180 221.11692 220.09003 219.20715 218.36127
 217.61639 216.80951 215.92063 215.29775 214.76086 214.24791 213.03603 213.37675
 213.73990 213.31963 213.88449 215.86604 218.34236 221.65630 227.28333 231.70981
 235.43640 239.68346 244.32780 248.84738 252.56494 255.16708 257.50085 260.31857
 263.23230 265.88016 268.35666 270.81610 273.30188 275.59570 277.37732 278.96756
 280.51407 281.98242 283.52420 284.89435 286.08014 287.12988 288.09161 288.96384
 289.75494 290.46307 291.08606 291.91660
 366.78100 356.34792 345.79284 334.67175 323.08767 311.29459 299.17751 286.99343
 274.71835 262.62826 250.65018 239.96410 230.09902 221.21594 213.41086 206.42577
 200.27269 195.22361 191.81853 189.87345 188.92337 189.00028 189.84820 191.16912
 192.90704 195.01496 197.29088 199.66279 202.12071 204.61363 206.71455 208.56947
 210.20839 211.36630 211.60822 211.84914 211.79906 211.51698 211.16290 210.80581
 210.43573 210.15865 209.97957 209.85649 209.79740 210.14132 210.54024 210.94216
 211.74808 212.93900 214.20191 215.99783 217.93875 219.99467 222.10259 224.19851
 226.27142 228.36834 230.47826 232.59718 234.73910 236.92402 239.19293 241.57585
 244.20977 246.47369 248.48861 250.26653 251.69644 252.83236 253.66728 253.99620
 254.04612 253.83304 253.20595 252.16687 250.78579 248.95971 246.88163 244.72755
 242.53146 240.34838 238.18130 236.03322 233.90614 231.78606 229.82497 227.99489
 226.29081 224.77573 223.41865 222.20356 221.09848 220.07140 219.18832 218.34224
 217.59716 216.79007 215.90099 215.27791 214.74083 214.24028 213.05768 213.44270
 213.83546 213.39709 213.94139 215.89639 218.36591 221.59468 227.20027 231.63753
 235.39154 239.66544 244.30289 248.77144 252.41489 254.99330 257.37262 260.23795
 263.13126 265.78900 268.31241 270.80112 273.31393 275.61914 277.39307 278.97247
 280.50598 281.98694 283.53082 284.90085 286.08740 287.13876 288.10013 288.97446
 289.76437 290.47064 291.09171 291.92639
 366.78100 356.34779 345.79258 334.67137 323.08716 311.29396 299.17675 286.99254
 274.71733 262.62712 250.64891 239.96270 230.09749 221.21428 213.40907 206.42387
 200.27066 195.22145 191.81624 189.87103 188.92082 188.99761 189.84540 191.16619
 192.90398 195.01178 197.28757 199.65936 202.11715 204.60994 206.71073 208.56552
 210.20431 211.36210 211.60390 211.84469 211.79448 211.51227 211.15806 210.80085
 210.43064 210.15343 209.97422 209.85101 209.79181 210.13560 210.53439 210.93618
 211.74197 212.93276 214.19555 215.99134 217.93213 219.98792 222.09572 224.19151
 226.26430 228.36109 230.47088 232.58967 234.73146 236.91625 239.18504 241.56784
 244.20163 246.46542 248.48021 250.25800 251.68779 252.82358 253.65837 253.98716
 254.03695 253.82375 253.19654 252.15733 250.77612 248.94991 246.87170 244.71749
 242.52128 240.33807 238.17086 236.02266 233.89545 231.77524 229.81403 227.98382
 226.27961 224.76440 223.40719 222.19198 221.08678 220.05957 219.17636 218.33015
 217.58494 216.77773 215.88852 215.26531 214.72810 214.23842 213.08147 213.49374
 213.93846 213.47882 213.99579 215.93538 218.37288 221.54489 227.12198 231.57022
 235.34978 239.64754 244.27425 248.68881 252.25917 254.81732 257.24567 260.15366
 263.02606 265.69598 268.26636 270.78369 273.32211 275.63464 277.40186 278.97028
 280.49365 281.98798 283.53290 284.90448 286.09094 287.14066 288.10327 288.97626
 289.76736 290.47430 291.09436 291.92731
 366.78100 356.34782 345.79264 334.67147 323.08729 311.29411 299.17693 286.99275
 274.71757 262.62740 250.64922 239.96304 230.09786 221.21468 213.40951 206.42433
 200.27115 195.22197 191.81679 189.87162 188.92144 188.99826 189.84608 191.16690
 192.90472 195.01255 197.28837 199.66019 202.11801 204.61083 206.71166 208.56648
 210.20530 211.36312 211.60494 211.84577 211.79559 211.51341 211.15923 210.80205
 210.43187 210.15470 209.97552 209.85234 209.79316 210.13698 210.53581 210.93763
 211.74345 212.93427 214.19709 215.99291 217.93374 219.98956 222.09738 224.19320
 226.26602 228.36285 230.47267 232.59149 234.73331 236.91813 239.18696 241.56978
 244.20360 246.46742 248.48224 250.26006 251.68989 252.82571 253.66053 253.98935
 254.03917 253.82600 253.19882 252.15964 250.77846 248.95228 246.87411 244.71993
 242.52375 240.34057 238.17339 236.02521 233.89804 231.77786 229.81668 227.98650
 226.28232 224.76715 223.40997 222.19479 221.08961 220.06243 219.17925 218.33308
 217.58790 216.78072 215.89154 215.26836 214.73119 214.24638 213.10095 213.53758
 214.03383 213.57368 214.05273 215.98264 218.36922 221.50301 227.04874 231.50594
 235.31084 239.62958 244.24028 248.59940 252.09901 254.64301 257.12317 260.06857
 262.91965 265.60428 268.21960 270.76358 273.32394 275.64142 277.40201 278.96402
 280.47849 281.98196 283.52759 284.89838 286.08521 287.13470 288.09509 288.96805
 289.75931 290.46457 291.08466 291.90994
 366.78100 356.34803 345.79305 334.67208 323.08811 311.29513 299.17816 286.99419
 274.71921 262.62924 250.65126 239.96529 230.10032 221.21734 213.41237 206.42740
 200.27442 195.22545 191.82048 189.87550 188.92553 189.00256 189.85058 191.17161
 192.90964 195.01766 197.29369 199.66571 202.12374 204.61677 206.71779 208.57282
 210.21185 211.36987 211.61190 211.85293 211.80295 211.52098 211.16701 210.81003
 210.44006 210.16309 209.98411 209.86114 209.80217 210.14619 210.54522 210.94724
 211.75327 212.94430 214.20732 216.00335 217.94438 220.00040 222.10843 224.20446
 226.27748 228.37451 230.48454 232.60356 234.74559 236.93062 239.19964 241.58267
 244.21669 246.48072 248.49575 250.27377 251.70380 252.83983 253.67485 254.00388
 254.05391 253.84093 253.21396 252.17499 250.79401 248.96804 246.89007 244.73609
 242.54012 240.35714 238.19017 236.04220 233.91522 231.79525 229.83428 228.00430
 226.30033 224.78536 223.42838 222.21341 221.10844 220.08146 219.19849 218.35252
 217.60754 216.80057 215.91159 215.28862 214.75165 214.26445 213.11339 213.57648
 214.11987 213.67737 214.11353 216.03526 218.36578 221.46590 226.98044 231.44843
 235.27603 239.61116 244.20135 248.50528 251.93990 254.47510 257.00626 259.98199
 262.81345 265.51370 268.16968 270.73801 273.31754 275.63284 277.38693 278.94565
 280.45621 281.97031 283.51627 284.88519 286.07166 287.12018 288.07990 288.95248
 289.74081 290.44641 291.06555 291.88770
 366.78100 356.34830 345.79360 334.67289 323.08919 311.29649 299.17979 286.99609
 274.72138 262.63168 250.65398 239.96828 230.10358 221.22088 213.41617 206.43147
 200.27877 195.23007 191.82537 189.88066 188.93096 189.00826 189.85656 191.17786
 192.91615 195.02445 197.30075 199.67305 202.13135 204.62464 206.72594 208.58124
 210.22054 211.37884 211.62113 211.86243 211.81273 211.53103 211.17733 210.82063
 210.45092 210.17422 209.99552 209.87282 209.81412 210.15841 210.55771 210.96001
 211.76631 212.95761 214.22090 216.01720 217.95850 220.01480 222.12310 224.21939
 226.29269 228.38999 230.50029 232.61959 234.76189 236.94718 239.21648 241.59978
 244.23408 246.49838 248.51367 250.29197 251.72227 252.85857 253.69387 254.02316
 254.07346 253.86076 253.23406 252.19536 250.81465 248.98895 246.91125 244.75755
 242.56185 240.37914 238.21244 236.06474 233.93804 231.81834 229.85764 228.02793
 226.32423 224.80953 223.45283 222.23813 221.13342 220.10672 219.22402 218.37832
 217.63362 216.82691 215.93821 215.31551 214.77881 214.28732 213.12614 213.60179
 214.20035 213.78531 214.18199 216.09122 218.36598 221.43298 226.91658 231.39935
 235.24602 239.59129 244.15665 248.40636 251.78181 254.31558 256.89816 259.89798
 262.71265 265.42978 268.12112 270.70819 273.30029 275.60736 277.35522 278.91284
 280.42392 281.94641 283.49023 284.85782 286.04022 287.08615 288.04498 288.91257
 289.69922 290.40186 291.02032 291.84146
 366.78100 356.34854 345.79408 334.67362 323.09016 311.29770 299.18124 286.99778
 274.72332 262.63386 250.65640 239.97094 230.10648 221.22402 213.41956 206.43510
 200.28264 195.23418 191.82972 189.88526 188.93580 189.01334 189.86188 191.18342
 192.92195 195.03049 197.30703 199.67957 202.13811 204.63165 206.73319 208.58873
 210.22827 211.38681 211.62935 211.87089 211.82143 211.53997 211.18651 210.83005
 210.46059 210.18413 210.00567 209.88321 209.82475 210.16929 210.56883 210.97137
 211.77791 212.96945 214.23299 216.02953 217.97107 220.02761 222.13615 224.23269
 226.30623 228.40377 230.51431 232.63385 234.77639 236.96193 239.23147 241.61501
 244.24955 246.51409 248.52963 250.30817 251.73871 252.87525 253.71078 254.04032
 254.09086 253.87840 253.25194 252.21348 250.83302 249.00756 246.93010 244.77664
 242.58118 240.39872 238.23226 236.08480 233.95834 231.83888 229.87842 228.04896
 226.34550 224.83104 223.47458 222.26012 221.15566 220.12920 219.24674 218.40128
 217.65682 216.85036 215.96190 215.33944 214.80298 214.30966 213.14412 213.61453
 214.27426 213.88850 214.25897 216.15341 218.36583 221.40598 226.85855 231.35678
 235.21771 239.56767 244.10474 248.30093 251.62703 254.16914 256.79910 259.81693
 262.61804 265.35339 268.07370 270.67596 273.27542 275.57202 277.31622 278.87866
 280.39011 281.91214 283.45233 284.81653 285.99765 287.04169 287.99710 288.86801
 289.65811 290.37061 290.99484 291.81558
 366.78100 356.34878 345.79456 334.67433 323.09111 311.29889 299.18267 286.99944
 274.72522 262.63600 250.65878 239.97355 230.10933 221.22711 213.42289 206.43867
 200.28644 195.23822 191.83400 189.88978 188.94055 189.01833 189.86711 191.18889
 192.92766 195.03644 197.31322 199.68600 202.14477 204.63855 206.74033 208.59611
 210.23589 211.39466 211.63744 211.87922 211.83000 211.54877 211.19555 210.83933
 210.47011 210.19388 210.01566 209.89344 209.83522 210.18000 210.57977 210.98255
 211.78933 212.98111 214.24488 216.04166 217.98344 220.04022 222.14899 224.24577
 226.31955 228.41733 230.52810 232.64788 234.79066 236.97644 239.24622 241.62999
 244.26477 246.52955 248.54533 250.32410 251.75488 252.89166 253.72744 254.05721
 254.10799 253.89577 253.26955 252.23133 250.85110 249.02588 246.94866 244.79544
 242.60021 240.41799 238.25177 236.10455 233.97832 231.85910 229.89888 228.06966
 226.36643 224.85221 223.49599 222.28177 221.17755 220.15132 219.26910 218.42388
 217.67966 216.87343 215.98521 215.36299 214.82677 214.33173 213.16217 213.61961
 214.34654 213.98706 214.34187 216.21086 218.36545 221.38245 226.79858 231.31313
 235.18860 239.53925 244.04541 248.19177 251.48009 254.03195 256.71069 259.74454
 262.53632 265.28723 268.02863 270.63782 273.23624 275.51428 277.25452 278.82288
 280.34363 281.87143 283.41287 284.77634 285.95490 286.99988 287.95490 288.82983
 289.62570 290.34326 290.97250 291.79422
 366.78100 356.34891 345.79482 334.67472 323.09163 311.29954 299.18345 287.00036
 274.72627 262.63717 250.66008 239.97499 230.11090 221.22881 213.42472 206.44062
 200.28853 195.24044 191.83635 189.89226 188.94317 189.02107 189.86998 191.19189
 192.93080 195.03971 197.31662 199.68952 202.14843 204.64234 206.74425 208.60016
 210.24007 211.39897 211.64188 211.88379 211.83470 211.55361 211.20051 210.84442
 210.47533 210.19924 210.02115 209.89906 209.84096 210.18587 210.58578 210.98869
 211.79560 212.98751 214.25141 216.04832 217.99023 220.04714 222.15605 224.25296
 226.32686 228.42477 230.53568 232.65559 234.79850 236.98441 239.25431 241.63822
 244.27313 246.53804 248.55395 250.33286 251.76376 252.90067 253.73658 254.06649
 254.11740 253.90530 253.27921 252.24112 250.86103 249.03594 246.95885 244.80575
 242.61066 240.42857 238.26248 236.11539 233.98930 231.87020 229.91011 228.08102
 226.37793 224.86384 223.50775 222.29365 221.18956 220.16347 219.28138 218.43629
 217.69220 216.88610 215.99801 215.37592 214.83983 214.34917 213.18994 213.60876
 214.41098 214.08475 214.44652 216.27539 218.36859 221.37631 226.74911 231.27734
 235.16269 239.50797 243.97871 248.07411 251.32109 253.91309 256.63345 259.66940
 262.45444 265.22183 267.97665 270.59537 273.18826 275.44806 277.19504 278.78146
 280.30740 281.82690 283.34946 284.70584 285.87061 286.90924 287.86032 288.73047
 289.52570 290.24075 290.85275 291.65228
 366.78100 356.34884 345.79468 334.67452 323.09136 311.29920 299.18305 286.99989
 274.72573 262.63657 250.65941 239.97425 230.11009 221.22793 213.42377 206.43961
 200.28745 195.23929 191.83514 189.89098 188.94182 189.01966 189.86850 191.19034
 192.92918 195.03802 197.31486 199.68770 202.14654 204.64038 206.74223 208.59807
 210.23791 211.39675 211.63959 211.88143 211.83227 211.55111 211.19795 210.84179
 210.47263 210.19647 210.01832 209.89616 209.83800 210.18284 210.58268 210.98552
 211.79236 212.98420 214.24804 216.04488 217.98672 220.04356 222.15241 224.24925
 226.32309 228.42093 230.53177 232.65161 234.79445 236.98029 239.25013 241.63397
 244.26881 246.53365 248.54950 250.32834 251.75918 252.89602 253.73186 254.06170
 254.11254 253.90038 253.27422 252.23606 250.85590 249.03074 246.95359 244.80043
 242.60527 240.42311 238.25695 236.10979 233.98363 231.86447 229.90431 228.07515
 226.37199 224.85783 223.50168 222.28752 221.18336 220.15720 219.27504 218.42988
 217.68572 216.87956 215.99140 215.36924 214.83308 214.35556 213.22734 213.61534
 214.46919 214.15926 214.52017 216.32205 218.37767 221.37323 226.69498 231.23918
 235.13768 239.47507 243.91069 247.96968 251.22214 253.79904 256.56006 259.60901
 262.39459 265.17661 267.94235 270.55621 273.13702 275.37476 277.11920 278.71579
 280.24881 281.79004 283.30237 284.65225 285.81192 286.85098 287.80246 288.67294
 289.47244 290.18997 290.80768 291.62860
 366.78100 356.34838 345.79376 334.67314 323.08952 311.29690 299.18028 286.99666
 274.72204 262.63242 250.65480 239.96918 230.10456 221.22194 213.41732 206.43270
 200.28008 195.23146 191.82684 189.88222 188.93260 189.00998 189.85836 191.17974
 192.91812 195.02650 197.30288 199.67526 202.13364 204.62702 206.72840 208.58378
 210.22316 211.38154 211.62392 211.86530 211.81568 211.53406 211.18044 210.82382
 210.45420 210.17758 209.99896 209.87634 209.81772 210.16210 210.56148 210.96386
 211.77024 212.96162 214.22500 216.02138 217.96276 220.01914 222.12752 224.22390
 226.29728 228.39466 230.50504 232.62442 234.76680 236.95218 239.22156 241.60494
 244.23932 246.50370 248.51908 250.29746 251.72784 252.86422 253.69960 254.02898
 254.07936 253.86674 253.24012 252.20150 250.82088 248.99526 246.91764 244.76402
 242.56840 240.38578 238.21916 236.07154 233.94492 231.82530 229.86468 228.03506
 226.33144 224.81682 223.46020 222.24558 221.14096 220.11434 219.23172 218.38610
 217.64148 216.83486 215.94624 215.32362 214.78700 214.33986 213.28345 213.65523
 214.51028 214.22072 214.57796 216.34010 218.34726 221.34914 226.64601 231.20380
 235.11392 239.44028 243.83691 247.85045 251.03357 253.80536 256.58740 259.63077
 262.41763 265.20013 267.94235 270.53094 273.07507 275.26971 277.01605 278.61551
 280.18152 281.68921 283.15515 284.46536 285.58716 286.58701 287.49146 288.37067
 289.18533 289.84573 290.22766 290.55872
 366.78100 356.34650 345.79000 334.66750 323.08199 311.28749 299.16899 286.98349
 274.70699 262.61549 250.63598 239.94848 230.08198 221.19748 213.39098 206.40448
 200.24998 195.19947 191.79297 189.84647 188.89497 188.97047 189.81697 191.13646
 192.87296 194.97946 197.25396 199.62446 202.08096 204.57246 206.67195 208.52545
 210.16295 211.31945 211.55995 211.79945 211.74794 211.46444 211.10894 210.75044
 210.37894 210.10044 209.91994 209.79543 209.73493 210.07743 210.47493 210.87543
 211.67993 212.86942 214.13092 215.92542 217.86492 219.91942 222.02592 224.12042
 226.19191 228.28741 230.39591 232.51341 234.65391 236.83741 239.10490 241.48640
 244.11890 246.38140 248.39490 250.17140 251.59990 252.73439 253.56789 253.89539
 253.94389 253.72939 253.10089 252.06038 250.67788 248.85038 246.77088 244.61538
 242.41788 240.23338 238.06487 235.91537 233.78687 231.66537 229.70287 227.87137
 226.16586 224.64936 223.29086 222.07436 220.96786 219.93936 219.05486 218.20735
 217.46085 216.65235 215.76185 215.13735 214.59885 214.24257 213.40080 213.72047
 214.50589 214.25485 214.63739 216.37285 218.37218 221.38454 226.60400 231.17090
 235.08839 239.39677 243.74911 247.71458 250.90579 253.71799 256.54022 259.57526
 262.36581 265.16364 267.90024 270.49802 273.02609 275.21838 276.98584 278.67569
 280.18359 281.61264 283.06131 284.34442 285.42233 286.36807 287.30804 288.16913
 288.94241 289.57666 290.09052 290.85815
 366.78100 356.34314 345.78328 334.65742 323.06855 311.27069 299.14883 286.95997
 274.68011 262.58525 250.60238 239.91152 230.04166 221.15380 213.34394 206.35408
 200.19622 195.14235 191.73249 189.78263 188.82777 188.89991 189.74305 191.05919
 192.79232 194.89546 197.16660 199.53374 201.98688 204.47502 206.57115 208.42129
 210.05543 211.20857 211.44571 211.68185 211.62699 211.34012 210.98126 210.61940
 210.24454 209.96268 209.77882 209.65095 209.58709 209.92623 210.32037 210.71751
 211.51865 212.70479 213.96292 215.75406 217.69020 219.74134 221.84448 223.93562
 226.00375 228.09589 230.20103 232.31517 234.45231 236.63245 238.89659 241.27472
 243.90386 246.16300 248.17314 249.94628 251.37142 252.50256 253.33269 253.65683
 253.70197 253.48411 252.85225 251.80839 250.42252 248.59166 246.50880 244.34994
 242.14908 239.96122 237.78936 235.63649 233.50463 231.37977 229.41391 227.57905
 225.87019 224.35032 222.98846 221.76860 220.65874 219.62688 218.73902 217.88816
 217.13829 216.32643 215.43257 214.80471 214.26285 214.05650 213.56902 213.88312
 214.46339 214.17342 214.59467 216.38191 218.38152 221.36874 226.56650 231.16541
 235.09135 239.39032 243.71649 247.68617 250.90701 253.69102 256.55438 259.58646
 262.39233 265.18268 267.92639 270.49469 272.98688 275.15903 276.98709 278.56030
 280.14001 281.65344 283.04413 284.31485 285.36966 286.33896 287.28854 288.14606
 288.85602 289.50931 290.10718 290.90833
 366.78100 356.34192 345.78084 334.65376 323.06368 311.26459 299.14151 286.95143
 274.67035 262.57427 250.59019 239.89811 230.02703 221.13795 213.32687 206.33578
 200.17670 195.12162 191.71054 189.75946 188.80338 188.87430 189.71622 191.03114
 192.76306 194.86497 197.13489 199.50081 201.95273 204.43965 206.53457 208.38349
 210.01641 211.16833 211.40425 211.63916 211.58308 211.29500 210.93492 210.57184
 210.19576 209.91268 209.72760 209.59852 209.53344 209.87135 210.26427 210.66019
 211.46011 212.64503 213.90195 215.69187 217.62679 219.67671 221.77863 223.86854
 225.93546 228.02638 230.13030 232.24322 234.37914 236.55806 238.82098 241.19790
 243.82582 246.08373 248.09265 249.86457 251.28849 252.41841 253.24733 253.57025
 253.61417 253.39509 252.76201 251.71692 250.32984 248.49776 246.41368 244.25360
 242.05152 239.86244 237.68936 235.53528 233.40220 231.27611 229.30903 227.47295
 225.76287 224.24179 222.87871 221.65763 220.54655 219.51347 218.62439 217.77230
 217.02122 216.20814 215.31306 214.68398 214.14090 213.97781 213.59250 214.10097
 214.67564 214.19524 214.44965 216.21387 218.16496 221.13239 226.42090 231.05779
 235.01321 239.30351 243.59515 247.55077 250.95291 253.99104 256.84283 259.81326
 262.59872 265.37643 268.02606 270.52194 272.93671 275.02551 276.70691 278.47873
 279.95181 281.30112 282.68704 283.82715 284.79642 285.72250 286.58472 287.32834
 288.04657 288.74005 289.35614 290.14337
 366.78100 356.34444 345.78588 334.66132 323.07376 311.27720 299.15664 286.96908
 274.69052 262.59696 250.61540 239.92584 230.05728 221.17071 213.36215 206.37359
 200.21703 195.16447 191.75591 189.80735 188.85379 188.92723 189.77167 191.08911
 192.82355 194.92799 197.20043 199.56887 202.02331 204.51275 206.61019 208.46163
 210.09707 211.25151 211.48995 211.72739 211.67383 211.38827 211.03070 210.67014
 210.29658 210.01602 209.83346 209.70690 209.64434 209.98478 210.38022 210.77866
 211.58110 212.76854 214.02798 215.82042 217.75786 219.81030 221.91474 224.00718
 226.07662 228.17006 230.27650 232.39194 234.53038 236.71182 238.97725 241.35669
 243.98713 246.24757 248.25901 250.03345 251.45989 252.59233 253.42377 253.74921
 253.79565 253.57909 252.94853 251.90597 250.52141 248.69185 246.61029 244.45273
 242.25317 240.06661 237.89605 235.74449 233.61393 231.49037 229.52581 227.69224
 225.98468 224.46612 223.10556 221.88700 220.77844 219.74788 218.86132 218.01176
 217.26320 216.45264 215.56008 214.93352 214.39296 214.10434 213.44344 214.15703
 215.04730 214.53958 214.55643 216.09920 217.99042 220.97426 226.20479 230.90163
 234.83879 239.08871 243.29865 247.18823 250.66602 253.90965 256.95963 259.88190
 262.68149 265.43805 268.03439 270.46588 272.80087 274.78351 276.76483 278.60065
 279.82098 281.01849 282.24811 283.30286 284.23029 285.05676 285.82892 286.57745
 287.09280 287.39221 287.65375 287.98706
 366.78100 356.34590 345.78880 334.66570 323.07960 311.28450 299.16540 286.97929
 274.70219 262.61009 250.62999 239.94189 230.07479 221.18969 213.38259 206.39549
 200.24039 195.18929 191.78219 189.83509 188.88299 188.95788 189.80378 191.12268
 192.85858 194.96448 197.23838 199.60828 202.06418 204.55508 206.65398 208.50688
 210.14378 211.29968 211.53957 211.77847 211.72637 211.44227 211.08617 210.72707
 210.35497 210.07587 209.89477 209.76967 209.70857 210.05047 210.44737 210.84726
 211.65116 212.84006 214.10096 215.89486 217.83376 219.88766 221.99356 224.08746
 226.15836 228.25326 230.36116 232.47806 234.61796 236.80085 239.06775 241.44865
 244.08055 246.34245 248.35535 250.13125 251.55915 252.69305 253.52595 253.85285
 253.90075 253.68565 253.05654 252.01544 250.63234 248.80424 246.72414 244.56804
 242.36994 240.18484 238.01574 235.86564 233.73654 231.61444 229.65134 227.81923
 226.11313 224.59603 223.23693 222.01983 220.91273 219.88363 218.99853 218.15043
 217.40333 216.59423 215.70313 215.07803 214.53893 214.17986 213.36087 214.13893
 215.20660 214.89966 214.87010 216.24118 217.98959 220.89424 226.08974 230.79614
 234.71892 238.91861 243.05586 246.91069 250.45764 253.80397 256.93137 259.86948
 262.68094 265.46115 268.02927 270.42578 272.70175 274.81671 276.80563 278.53418
 279.77853 280.96967 282.15799 283.16486 284.05225 284.84686 285.58646 286.21805
 286.61600 286.91364 287.17368 287.50507
 366.78100 356.34665 345.79029 334.66794 323.08259 311.28823 299.16988 286.98453
 274.70817 262.61682 250.63746 239.95011 230.08376 221.19940 213.39305 206.40670
 200.25234 195.20199 191.79564 189.84928 188.89793 188.97358 189.82022 191.13987
 192.87652 194.98316 197.25781 199.62845 202.08510 204.57675 206.67639 208.53004
 210.16769 211.32433 211.56498 211.80463 211.75327 211.46992 211.11457 210.75621
 210.38486 210.10651 209.92615 209.80180 209.74144 210.08409 210.48174 210.88238
 211.68703 212.87668 214.13832 215.93297 217.87262 219.92726 222.03391 224.12856
 226.20020 228.29585 230.40450 232.52214 234.66279 236.84643 239.11408 241.49573
 244.12837 246.39102 248.40467 250.18131 251.60996 252.74461 253.57825 253.90590
 253.95455 253.74019 253.11184 252.07149 250.68913 248.86178 246.78243 244.62707
 242.42972 240.24536 238.07701 235.92766 233.79930 231.67795 229.71560 227.88424
 226.17889 224.66254 223.30418 222.08783 220.98148 219.95312 219.06877 218.22142
 217.47506 216.66671 215.77635 215.15200 214.61365 214.21767 213.31345 214.15530
 215.26704 215.15956 215.20679 216.41017 218.03560 220.85474 226.01596 230.72267
 234.61638 238.75726 242.80995 246.60765 250.17824 253.62521 256.89328 259.86975
 262.72620 265.50781 268.06726 270.38327 272.53296 274.87302 276.96176 278.51688
 279.74393 280.75037 281.95221 283.05023 283.94571 284.71118 285.44669 286.04340
 286.36307 286.58347 286.77597 287.02130
 366.78100 356.35195 345.80090 334.68385 323.10380 311.31475 299.20170 287.02165
 274.75060 262.66455 250.69050 240.00845 230.14740 221.26835 213.46730 206.48625
 200.33720 195.29215 191.89110 189.95005 189.00400 189.08495 189.93690 191.26185
 193.00380 195.11575 197.39570 199.77165 202.23359 204.73054 206.83549 208.69444
 210.33739 211.49934 211.74529 211.99024 211.94419 211.66614 211.31609 210.96304
 210.59699 210.32394 210.14889 210.02984 209.97479 210.32274 210.72569 211.13164
 211.94159 213.13654 214.40349 216.20344 218.14839 220.20834 222.32029 224.42024
 226.49719 228.59814 230.71209 232.83504 234.98099 237.16994 239.44289 241.82984
 244.46779 246.73574 248.75469 250.53664 251.97059 253.11054 253.94949 254.28244
 254.33639 254.12734 253.50429 252.46924 251.09219 249.27014 247.19609 245.04604
 242.85399 240.67494 238.51189 236.36784 234.24478 232.12873 230.17168 228.34563
 226.64558 225.13453 223.78148 222.57043 221.46938 220.44633 219.56728 218.72523
 217.98418 217.18113 216.29608 215.67703 215.14398 214.51463 213.13860 214.05536
 215.39430 215.25150 215.37627 216.45439 218.07692 220.94287 225.93864 230.70038
 234.52682 238.60503 242.57227 246.30910 249.88200 253.36996 256.76703 259.84735
 262.74362 265.55096 268.10355 270.35663 272.45016 274.93774 276.88019 278.48132
 279.70776 280.68802 281.66235 282.63171 283.50781 284.24146 284.77649 285.23172
 285.64111 286.00571 286.32419 286.73007
 366.78100 356.35435 345.80570 334.69105 323.11340 311.32675 299.21610 287.03845
 274.76980 262.68615 250.71450 240.03485 230.17620 221.29955 213.50090 206.52225
 200.37560 195.33295 191.93430 189.99565 189.05200 189.13535 189.98970 191.31705
 193.06140 195.17575 197.45810 199.83645 202.30080 204.80015 206.90750 208.76885
 210.41420 211.57855 211.82690 212.07425 212.03060 211.75495 211.40730 211.05665
 210.69300 210.42235 210.24970 210.13305 210.08040 210.43075 210.83610 211.24445
 212.05680 213.25415 214.52350 216.32585 218.27320 220.33555 222.44990 224.55225
 226.63160 228.73495 230.85130 232.97665 235.12500 237.31635 239.59170 241.98105
 244.62140 246.89175 248.91310 250.69745 252.13380 253.27615 254.11750 254.45285
 254.50920 254.30255 253.68190 252.64925 251.27460 249.45495 247.38330 245.23565
 243.04600 240.86935 238.70870 236.56705 234.44640 232.33275 230.37810 228.55445
 226.85680 225.34815 223.99750 222.78885 221.69020 220.66955 219.79290 218.95325
 218.21460 217.41395 216.53130 215.91465 215.38400 214.68224 213.19051 213.84071
 215.39186 215.48912 215.75305 216.77942 218.32808 221.19710 226.03696 230.74702
 234.56053 238.58752 242.50189 246.19899 249.76924 253.15517 256.94720 259.92456
 262.79602 265.56183 268.13754 270.14432 272.71817 274.96890 276.85983 278.41803
 279.59567 280.59656 281.53748 282.42496 283.27774 284.03601 284.72784 285.35458
 285.91827 286.42023 286.85873 287.41757
 366.78100 356.34572 345.78844 334.66515 323.07887 311.28359 299.16431 286.97802
 274.70074 262.60846 250.62818 239.93989 230.07261 221.18733 213.38005 206.39276
 200.23748 195.18620 191.77892 189.83163 188.87935 188.95407 189.79979 191.11850
 192.85422 194.95994 197.23366 199.60337 202.05909 204.54981 206.64853 208.50124
 210.13796 211.29368 211.53340 211.77211 211.71983 211.43555 211.07927 210.71998
 210.34770 210.06842 209.88714 209.76185 209.70057 210.04229 210.43901 210.83872
 211.64244 212.83116 214.09188 215.88559 217.82431 219.87803 221.98375 224.07746
 226.14818 228.24290 230.35062 232.46733 234.60705 236.78977 239.05649 241.43720
 244.06892 246.33064 248.34336 250.11907 251.54679 252.68051 253.51323 253.83994
 253.88766 253.67238 253.04310 252.00181 250.61853 248.79025 246.70997 244.55368
 242.35540 240.17012 238.00084 235.85055 233.72127 231.59899 229.63571 227.80342
 226.09714 224.57986 223.22058 222.00329 220.89601 219.86673 218.98145 218.13316
 217.38588 216.57660 215.68532 215.06003 214.52075 214.25018 213.64864 213.77888
 214.90762 215.49544 215.94614 216.95386 218.50839 221.35628 226.13104 230.83557
 234.63982 238.64833 242.54346 246.23738 249.76253 253.24461 257.03418 260.03094
 262.85611 265.58685 267.99863 270.26608 272.76471 274.91574 276.74005 278.29703
 279.51010 280.52530 281.46689 282.32214 283.11118 283.80496 284.43796 285.01138
 285.52716 285.98642 286.38763 286.89896
 366.78100 356.34204 345.78109 334.65413 323.06418 311.26522 299.14227 286.95231
 274.67135 262.57540 250.59144 239.89949 230.02853 221.13958 213.32862 206.33766
 200.17871 195.12375 191.71280 189.76184 188.80589 188.87693 189.71897 191.03402
 192.76606 194.86811 197.13815 199.50420 201.95624 204.44328 206.53833 208.38737
 210.02042 211.17246 211.40851 211.64355 211.58759 211.29964 210.93968 210.57673
 210.20077 209.91782 209.73286 209.60390 209.53895 209.87699 210.27004 210.66608
 211.46613 212.65117 213.90821 215.69826 217.63330 219.68335 221.78539 223.87543
 225.94248 228.03352 230.13757 232.25061 234.38666 236.56570 238.82874 241.20579
 243.83383 246.09188 248.10092 249.87297 251.29701 252.42705 253.25610 253.57914
 253.62319 253.40423 252.77128 251.72632 250.33936 248.50741 246.42345 244.26350
 242.06154 239.87259 237.69963 235.54567 233.41272 231.28676 229.31981 227.48385
 225.77390 224.25294 222.88998 221.66903 220.55807 219.52512 218.63616 217.78421
 217.03325 216.22029 215.32534 214.69638 214.15343 214.04514 213.81470 214.01166
 214.85539 215.51604 215.99782 216.88687 218.35634 221.21191 226.02829 230.76115
 234.55681 238.52081 242.36259 246.01169 249.48383 253.26567 257.03107 259.95496
 262.74036 265.39542 267.82455 270.46274 272.88907 274.89194 276.66260 278.15964
 279.38068 280.35074 281.24643 282.14093 282.85883 283.46869 284.02509 284.52914
 284.98251 285.38623 285.73889 286.18832
 366.78100 356.34541 345.78783 334.66424 323.07765 311.28207 299.16248 286.97589
 274.69831 262.60572 250.62513 239.93655 230.06896 221.18337 213.37579 206.38820
 200.23261 195.18103 191.77344 189.82585 188.87327 188.94768 189.79310 191.11151
 192.84692 194.95234 197.22575 199.59516 202.05058 204.54099 206.63940 208.49182
 210.12823 211.28364 211.52306 211.76147 211.70888 211.42430 211.06771 210.70812
 210.33554 210.05595 209.87436 209.74878 209.68719 210.02860 210.42502 210.82443
 211.62784 212.81626 214.07667 215.87008 217.80850 219.86191 221.96732 224.06074
 226.13115 228.22556 230.33298 232.44939 234.58880 236.77122 239.03763 241.41804
 244.04946 246.31087 248.32329 250.09870 251.52611 252.65953 253.49194 253.81835
 253.86577 253.65018 253.02059 251.97901 250.59542 248.76683 246.68625 244.52966
 242.33107 240.14549 237.97590 235.82531 233.69573 231.57314 229.60955 227.77697
 226.07038 224.55279 223.19321 221.97562 220.86803 219.83845 218.95286 218.10427
 217.35669 216.54710 215.65551 215.02993 214.49034 214.23386 213.68686 213.95464
 215.08281 215.78094 216.27637 217.05182 218.38564 221.20158 225.94196 230.64304
 234.43727 238.35849 242.16414 245.80392 249.31461 253.29999 256.90411 259.81219
 262.61090 265.16315 267.92361 270.64243 272.91324 274.89890 276.60754 278.06891
 279.29715 280.28482 281.22293 282.20050 283.08606 283.86951 284.58432 285.23187
 285.81430 286.33292 286.78598 287.36337
 366.78100 356.34761 345.79223 334.67084 323.08645 311.29307 299.17568 286.99130
 274.71591 262.62552 250.64714 239.96075 230.09536 221.21198 213.40659 206.42121
 200.26782 195.21843 191.81305 189.86766 188.91727 188.99389 189.84150 191.16212
 192.89973 195.00734 197.28296 199.65457 202.11218 204.60480 206.70541 208.56003
 210.19864 211.35625 211.59787 211.83848 211.78809 211.50571 211.15132 210.79394
 210.42355 210.14616 209.96678 209.84339 209.78400 210.12762 210.52623 210.92785
 211.73346 212.92407 214.18669 215.98230 217.92291 219.97853 222.08614 224.18176
 226.25437 228.35098 230.46060 232.57921 234.72082 236.90544 239.17405 241.55666
 244.19028 246.45389 248.46851 250.24612 251.67573 252.81135 253.64596 253.97457
 254.02419 253.81080 253.18342 252.14403 250.76264 248.93626 246.85787 244.70348
 242.50710 240.32371 238.15633 236.00794 233.88055 231.76017 229.79878 227.96839
 226.26401 224.74862 223.39124 222.17585 221.07046 220.04308 219.15969 218.31330
 217.56792 216.76053 215.87115 215.24776 214.71037 214.36633 213.61816 213.83910
 215.10146 215.89725 216.44998 217.23131 218.54727 221.29184 225.96149 230.64838
 234.40541 238.29785 242.10892 245.78749 249.31401 253.31725 256.95267 259.91122
 262.71979 265.32471 267.95767 270.62332 272.87381 274.83487 276.52261 278.00504
 279.39185 280.50034 281.39145 282.26840 283.07407 283.78683 284.43716 285.02631
 285.55615 286.02802 286.44019 286.96548
 366.78100 356.34801 345.79302 334.67203 323.08803 311.29504 299.17805 286.99406
 274.71907 262.62908 250.65109 239.96509 230.10010 221.21711 213.41212 206.42713
 200.27414 195.22515 191.82016 189.87516 188.92517 189.00218 189.85019 191.17120
 192.90921 195.01722 197.29322 199.66523 202.12324 204.61625 206.71726 208.57227
 210.21128 211.36928 211.61129 211.85230 211.80231 211.52032 211.16633 210.80934
 210.43935 210.16235 209.98336 209.86037 209.80138 210.14539 210.54440 210.94641
 211.75241 212.94342 214.20643 216.00244 217.94345 219.99946 222.10747 224.20347
 226.27648 228.37349 230.48350 232.60251 234.74452 236.92953 239.19853 241.58154
 244.21555 246.47956 248.49457 250.27258 251.70259 252.83860 253.67360 254.00261
 254.05262 253.83963 253.21264 252.17365 250.79266 248.96666 246.88867 244.73468
 242.53869 240.35570 238.18871 236.04072 233.91372 231.79373 229.83274 228.00275
 226.29876 224.78377 223.42678 222.21179 221.10679 220.07980 219.19681 218.35082
 217.60583 216.79884 215.90985 215.28685 214.74986 214.38963 213.61513 213.90273
 215.18257 216.02539 216.50648 217.19545 218.51575 221.27255 225.91026 230.59523
 234.31062 238.14568 241.91962 245.57507 249.17789 253.27968 256.87863 259.81927
 262.79523 265.38617 267.96472 270.56354 272.82446 274.74664 276.41339 277.91406
 279.17096 280.24054 281.12292 281.91855 282.60980 283.22141 283.77942 284.28491
 284.73956 285.14444 285.49811 285.94882
 366.78100 356.34506 345.78711 334.66317 323.07623 311.28028 299.16034 286.97340
 274.69546 262.60251 250.62157 239.93263 230.06468 221.17874 213.37080 206.38285
 200.22691 195.17497 191.76703 189.81908 188.86614 188.94020 189.78525 191.10331
 192.83837 194.94342 197.21648 199.58554 202.04060 204.53065 206.62871 208.48077
 210.11682 211.27188 211.51094 211.74899 211.69605 211.41111 211.05416 210.69422
 210.32128 210.04134 209.85939 209.73345 209.67151 210.01256 210.40862 210.80768
 211.61073 212.79879 214.05885 215.85191 217.78996 219.84302 221.94808 224.04113
 226.11119 228.20525 230.31230 232.42836 234.56742 236.74947 239.01553 241.39559
 244.02665 246.28770 248.29976 250.07482 251.50187 252.63493 253.46699 253.79304
 253.84010 253.62416 252.99422 251.95227 250.56833 248.73939 246.65844 244.50150
 242.30256 240.11661 237.94667 235.79573 233.66579 231.54284 229.57890 227.74596
 226.03901 224.52107 223.16113 221.94318 220.83524 219.80530 218.91935 218.07041
 217.32247 216.51253 215.62058 214.99464 214.45470 214.24013 213.76508 213.90628
 215.11542 216.19830 216.65851 217.20509 218.50870 221.27147 225.88953 230.55855
 234.21994 238.00378 241.74260 245.38554 249.13315 253.28668 256.86380 259.75397
 262.60181 265.28342 267.94897 270.48801 272.73132 274.64899 276.37436 277.84598
 279.01181 280.07312 280.95901 281.74481 282.61508 283.38504 284.08749 284.72391
 285.29626 285.80594 286.25122 286.81863
 366.78100 356.34106 345.77911 334.65117 323.06022 311.26028 299.13633 286.94539
 274.66344 262.56650 250.58156 239.88861 230.01667 221.12672 213.31478 206.32283
 200.16289 195.10694 191.69500 189.74305 188.78611 188.85617 189.69722 191.01128
 192.74233 194.84339 197.11244 199.47750 201.92855 204.41461 206.50867 208.35672
 209.98878 211.13983 211.37489 211.60894 211.55200 211.26305 210.90211 210.53816
 210.16122 209.87728 209.69133 209.56139 209.49544 209.83250 210.22455 210.61961
 211.41866 212.60272 213.85878 215.64783 217.58189 219.63094 221.73200 223.82105
 225.88711 227.97716 230.08022 232.19227 234.32733 236.50539 238.76744 241.14350
 243.77055 246.02761 248.03566 249.80672 251.22977 252.35883 253.18689 253.50894
 253.55200 253.33205 252.69811 251.65216 250.26422 248.43127 246.34633 244.18538
 241.98244 239.79250 237.61855 235.46361 233.32966 231.20272 229.23477 227.39783
 225.68688 224.16494 222.80100 221.57905 220.46711 219.43316 218.54322 217.69027
 216.93833 216.12438 215.22844 214.59849 214.05455 214.04692 213.99402 213.90451
 214.96762 216.23369 216.91176 217.45737 218.63235 221.29509 225.86656 230.49365
 234.12134 237.84773 241.55960 245.20621 249.11317 253.29662 256.82535 259.68710
 262.42316 265.20682 267.99020 270.51950 272.73792 274.60547 276.24609 277.78510
 278.89182 279.89319 280.76141 281.64258 282.61893 283.48276 284.27087 284.98486
 285.62701 286.19885 286.69839 287.33499
 366.78100 356.34180 345.78061 334.65341 323.06322 311.26402 299.14082 286.95063
 274.66943 262.57323 250.58904 239.89684 230.02565 221.13645 213.32525 206.33406
 200.17486 195.11966 191.70847 189.75727 188.80108 188.87188 189.71368 191.02849
 192.76029 194.86209 197.13190 199.49770 201.94951 204.43631 206.53111 208.37992
 210.01272 211.16453 211.40033 211.63513 211.57894 211.29074 210.93054 210.56735
 210.19115 209.90796 209.72276 209.59356 209.52837 209.86617 210.25897 210.65478
 211.45458 212.63939 213.89619 215.68599 217.62080 219.67060 221.77240 223.86221
 225.92901 228.01982 230.12362 232.23642 234.37223 236.55103 238.81384 241.19064
 243.81844 246.07625 248.08505 249.85685 251.28066 252.41046 253.23927 253.56207
 253.60587 253.38668 252.75348 251.70828 250.32109 248.48889 246.40470 244.24450
 242.04230 239.85311 237.67991 235.52571 233.39252 231.26632 229.29913 227.46293
 225.75273 224.23154 222.86834 221.64715 220.53595 219.50275 218.61356 217.76136
 217.01016 216.19697 215.30177 214.67258 214.12938 214.11508 214.00140 213.91095
 215.06175 216.27620 217.08334 217.71373 218.74763 221.34282 225.88055 230.40329
 233.98254 237.66933 241.36510 245.11169 249.13745 253.18886 256.67749 259.66077
 262.47528 265.28299 268.02478 270.54193 272.69073 274.49579 276.14993 277.58554
 278.59540 279.63937 281.17801 282.52905 283.69824 284.73270 285.67648 286.53149
 287.30048 287.98523 288.58344 289.34579
 366.78100 356.34416 345.78531 334.66047 323.07262 311.27578 299.15493 286.96709
 274.68824 262.59440 250.61255 239.92271 230.05386 221.16702 213.35817 206.36933
 200.21248 195.15964 191.75079 189.80195 188.84810 188.92126 189.76541 191.08257
 192.81672 194.92088 197.19303 199.56119 202.01534 204.50450 206.60165 208.45281
 210.08796 211.24212 211.48027 211.71743 211.66358 211.37774 211.01989 210.65905
 210.28520 210.00436 209.82151 209.69467 209.63182 209.97198 210.36713 210.76529
 211.56744 212.75460 214.01375 215.80591 217.74306 219.79522 221.89937 223.99153
 226.06068 228.15384 230.25999 232.37515 234.51330 236.69446 238.95961 241.33877
 243.96892 246.22908 248.24023 250.01439 251.44054 252.57270 253.40385 253.72901
 253.77516 253.55832 252.92747 251.88463 250.49978 248.66994 246.58809 244.43025
 242.23040 240.04356 237.87271 235.72087 233.59002 231.46618 229.50133 227.66749
 225.95964 224.44080 223.07995 221.86111 220.75226 219.72142 218.83457 217.98473
 217.23588 216.42504 215.53219 214.90535 214.36450 214.25273 213.92929 213.89029
 215.02083 216.23210 217.14702 217.87978 218.83038 221.34576 225.97748 230.44754
 233.99539 237.66310 241.35307 245.13132 249.23427 253.28873 256.74811 259.77435
 262.64481 265.40735 268.09274 270.64075 272.87161 274.42413 276.00027 277.52173
 278.75064 280.56830 282.19461 283.62262 284.85846 285.95184 286.94940 287.85312
 288.66592 289.38971 290.02200 290.82779
 366.78100 356.34274 345.78248 334.65622 323.06696 311.26870 299.14644 286.95718
 274.67692 262.58166 250.59840 239.90714 230.03688 221.14862 213.33836 206.34810
 200.18984 195.13558 191.72532 189.77506 188.81980 188.89154 189.73427 191.05001
 192.78275 194.88549 197.15623 199.52297 201.97571 204.46345 206.55919 208.40893
 210.04267 211.19541 211.43215 211.66789 211.61263 211.32537 210.96611 210.60385
 210.22859 209.94633 209.76207 209.63381 209.56955 209.90829 210.30203 210.69877
 211.49951 212.68525 213.94299 215.73373 217.66947 219.72021 221.82295 223.91369
 225.98143 228.07317 230.17791 232.29165 234.42839 236.60813 238.87187 241.24961
 243.87835 246.13708 248.14682 249.91956 251.34430 252.47504 253.30478 253.62852
 253.67326 253.45500 252.82274 251.77848 250.39222 248.56096 246.47770 244.31844
 242.11718 239.92892 237.75666 235.60340 233.47114 231.34588 229.37962 227.54436
 225.83510 224.31484 222.95258 221.73232 220.62206 219.58980 218.70154 217.85028
 217.10002 216.28776 215.39350 214.76524 214.22298 214.16811 214.01395 213.95927
 214.83615 216.01930 217.04781 217.84035 219.00079 221.59505 226.02600 230.49695
 234.04478 237.65594 241.31441 245.12166 249.19373 253.23238 256.72253 259.80139
 262.69302 265.45148 268.06134 270.50403 272.62875 274.37744 276.01160 277.83414
 279.34045 280.53113 281.74716 282.92801 283.95007 284.85434 285.67932 286.42673
 287.09894 287.69751 288.22043 288.88684
 366.78100 356.33974 345.77647 334.64721 323.05494 311.25368 299.12841 286.93615
 274.65289 262.55462 250.56836 239.87409 230.00083 221.10956 213.29630 206.30304
 200.14177 195.08451 191.67124 189.71798 188.75972 188.82845 189.66819 190.98092
 192.71066 194.81039 197.07813 199.44187 201.89160 204.37634 206.46907 208.31581
 209.94654 211.09628 211.33002 211.56275 211.50449 211.21422 210.85196 210.48669
 210.10843 209.82317 209.63590 209.50464 209.43737 209.77311 210.16385 210.55758
 211.35532 212.53805 213.79279 215.58052 217.51326 219.56100 221.66073 223.74847
 225.81320 227.90194 230.00367 232.11441 234.24815 236.42488 238.68562 241.06035
 243.68609 245.94182 247.94856 249.71830 251.14003 252.26777 253.09450 253.41524
 253.45698 253.23571 252.60045 251.55318 250.16392 248.32965 246.24339 244.08113
 241.87686 239.68560 237.51033 235.35407 233.21880 231.09054 229.12128 227.28301
 225.57075 224.04748 222.68222 221.45895 220.34569 219.31043 218.41916 217.56490
 216.81163 215.99637 215.09911 214.46784 213.92258 213.99753 214.15416 214.11816
 214.76207 215.86058 216.92578 217.71089 218.93015 221.50105 225.96564 230.38217
 233.86803 237.45807 241.12209 244.99954 249.11919 253.12471 256.62607 259.71185
 262.60641 265.35397 267.94861 270.38474 272.47263 274.21811 275.75485 277.56976
 279.22763 280.57455 281.65549 282.56824 283.34109 284.06763 284.73236 285.33456
 285.87616 286.35846 286.77982 287.31674
 366.78100 356.33905 345.77509 334.64514 323.05219 311.25024 299.12428 286.93133
 274.64738 262.54842 250.56147 239.86652 229.99257 221.10061 213.28666 206.29271
 200.13075 195.07280 191.65885 189.70490 188.74594 188.81399 189.65304 190.96508
 192.69413 194.79318 197.06023 199.42327 201.87232 204.35637 206.44841 208.29446
 209.92451 211.07356 211.30660 211.53865 211.47970 211.18874 210.82579 210.45984
 210.08089 209.79493 209.60698 209.47503 209.40707 209.74212 210.13217 210.52522
 211.32226 212.50431 213.75836 215.54540 217.47745 219.52450 221.62355 223.71059
 225.77464 227.86269 229.96373 232.07378 234.20683 236.38288 238.64292 241.01697
 243.64202 245.89706 247.90311 249.67216 251.09321 252.22025 253.04630 253.36635
 253.40739 253.18544 252.54949 251.50154 250.11158 248.27663 246.18968 244.02672
 241.82177 239.62982 237.45387 235.29691 233.16096 231.03201 229.06205 227.22310
 225.51015 223.98620 222.62024 221.39629 220.28234 219.24638 218.35443 217.49948
 216.74553 215.92957 215.03162 214.39967 213.85371 213.96596 214.20856 214.19739
 214.86322 215.87961 216.96002 217.75777 218.91714 221.44524 225.93697 230.32516
 233.74519 237.27489 240.90839 244.86998 249.08556 253.08957 256.56915 259.66769
 262.58356 265.33582 267.91495 270.34692 272.38940 274.01053 275.54666 277.37692
 279.07156 280.45825 281.53610 282.38116 283.01187 283.68564 284.33484 284.92297
 285.45193 285.92300 286.33447 286.85889
 366.78100 356.34112 345.77925 334.65137 323.06050 311.26062 299.13675 286.94587
 274.66400 262.56712 250.58225 239.88937 230.01750 221.12762 213.31575 206.32387
 200.16400 195.10812 191.69625 189.74437 188.78750 188.85762 189.69875 191.01287
 192.74399 194.84512 197.11424 199.47937 201.93049 204.41662 206.51074 208.35887
 209.99099 211.14212 211.37724 211.61137 211.55449 211.26562 210.90474 210.54087
 210.16399 209.88012 209.69424 209.56437 209.49849 209.83561 210.22774 210.62286
 211.42199 212.60611 213.86224 215.65136 217.58549 219.63461 221.73574 223.82486
 225.89099 227.98111 230.08424 232.19636 234.33149 236.50961 238.77174 241.14786
 243.77499 246.03211 248.04024 249.81136 251.23448 252.36361 253.19173 253.51386
 253.55698 253.33711 252.70323 251.65736 250.26948 248.43661 246.35173 244.19086
 241.98798 239.79811 237.62423 235.46936 233.33548 231.20861 229.24073 227.40386
 225.69298 224.17111 222.80723 221.58535 220.47348 219.43960 218.54973 217.69685
 216.94498 216.13110 215.23523 214.60535 214.06148 214.09735 214.16374 214.24562
 215.04507 215.98650 217.05042 217.90381 219.02640 221.52538 225.95393 230.29887
 233.69319 237.17950 240.77744 244.78543 249.09003 253.08675 256.54758 259.65866
 262.57770 265.33340 267.91812 270.30334 272.31595 273.89511 275.37564 277.17520
 278.88049 280.21954 281.16019 282.11911 283.09875 283.96545 284.75620 285.47256
 286.11685 286.69058 287.19180 287.83054
 366.78100 356.34163 345.78026 334.65289 323.06252 311.26315 299.13978 286.94941
 274.66804 262.57167 250.58730 239.89493 230.02356 221.13419 213.32282 206.33145
 200.17208 195.11671 191.70534 189.75397 188.79760 188.86823 189.70986 191.02449
 192.75612 194.85775 197.12738 199.49301 201.94464 204.43127 206.52590 208.37453
 210.00716 211.15879 211.39442 211.62905 211.57268 211.28431 210.92394 210.56057
 210.18420 209.90083 209.71546 209.58609 209.52072 209.85835 210.25098 210.64661
 211.44624 212.63087 213.88750 215.67713 217.61176 219.66139 221.76302 223.85265
 225.91928 228.00991 230.11354 232.22617 234.36180 236.54043 238.80306 241.17969
 243.80732 246.06495 248.07358 249.84521 251.26884 252.39847 253.22710 253.54973
 253.59336 253.37399 252.74062 251.69525 250.30788 248.47551 246.39114 244.23077
 242.02840 239.83903 237.66566 235.51129 233.37792 231.25155 229.28418 227.44781
 225.73744 224.21607 222.85270 221.63133 220.51996 219.48659 218.59722 217.74485
 216.99348 216.18011 215.28474 214.65537 214.11200 214.16360 214.21152 214.23477
 215.10606 216.07249 217.09801 217.93538 218.97351 221.49330 225.98471 230.22736
 233.59045 237.10458 240.78400 244.82977 249.07170 253.02632 256.51245 259.65009
 262.58267 265.34433 267.93936 270.24838 272.22281 273.84244 275.47153 277.26740
 278.81509 280.45331 282.10687 283.55881 284.81534 285.92703 286.94131 287.86014
 288.68655 289.42249 290.06537 290.88464
 366.78100 356.34011 345.77723 334.64834 323.05646 311.25557 299.13069 286.93880
 274.65592 262.55803 250.57215 239.87826 230.00538 221.11449 213.30161 206.30872
 200.14783 195.09095 191.67806 189.72518 188.76729 188.83641 189.67652 190.98964
 192.71975 194.81987 197.08798 199.45210 201.90221 204.38732 206.48044 208.32755
 209.95867 211.10878 211.34290 211.57601 211.51813 211.22824 210.86636 210.50147
 210.12359 209.83870 209.65182 209.52093 209.45404 209.79016 210.18127 210.57539
 211.37350 212.55662 213.81173 215.59985 217.53296 219.58108 221.68119 223.76931
 225.83442 227.92353 230.02565 232.13676 234.27088 236.44799 238.70911 241.08422
 243.71034 245.96645 247.97357 249.74368 251.16580 252.29391 253.12103 253.44214
 253.48425 253.26337 252.62848 251.58160 250.19271 248.35883 246.27294 244.11106
 241.90717 239.71629 237.54140 235.38552 233.25063 231.12274 229.15386 227.31597
 225.60409 224.08120 222.71632 221.49343 220.38055 219.34566 218.45478 217.60089
 216.84801 216.03312 215.13624 214.50535 213.96046 214.10023 214.31772 214.17732
 215.00952 216.00755 217.06133 217.92592 219.07365 221.62555 226.07191 230.29616
 233.63803 237.11227 240.79930 244.86835 249.10735 253.02263 256.47726 259.61911
 262.56790 265.34384 267.93170 270.23102 272.17508 273.79044 275.65097 277.50052
 279.06708 280.44757 281.78491 282.96390 283.98422 284.88693 285.71054 286.45663
 287.12769 287.72525 288.24728 288.91257
 366.78100 356.33961 345.77622 334.64682 323.05443 311.25304 299.12765 286.93526
 274.65187 262.55347 250.56708 239.87269 229.99930 221.10791 213.29451 206.30112
 200.13973 195.08234 191.66895 189.71556 188.75716 188.82577 189.66538 190.97799
 192.70760 194.80721 197.07481 199.43842 201.88803 204.37264 206.46525 208.31185
 209.94246 211.09207 211.32568 211.55829 211.49990 211.20950 210.84711 210.48172
 210.10333 209.81794 209.63054 209.49915 209.43176 209.76737 210.15798 210.55159
 211.34919 212.53180 213.78641 215.57402 217.50663 219.55423 221.65384 223.74145
 225.80606 227.89467 229.99628 232.10688 234.24049 236.41710 238.67771 241.05232
 243.67793 245.93353 247.94014 249.70975 251.13136 252.25897 253.08557 253.40618
 253.44779 253.22640 252.59101 251.54362 250.15422 248.31983 246.23344 244.07105
 241.86666 239.67526 237.49987 235.34348 233.20809 231.07970 229.11031 227.27191
 225.55952 224.03613 222.67074 221.44735 220.33395 219.29856 218.40717 217.55278
 216.79939 215.98400 215.08660 214.45521 213.90982 214.05472 214.35699 214.29234
 214.90074 215.75900 216.88458 217.89211 219.21349 221.77097 226.09500 230.31529
 233.59415 237.07170 240.78726 244.84308 249.02187 252.92557 256.38965 259.54095
 262.48904 265.24054 267.76624 270.03943 271.98465 273.62775 275.30936 277.15628
 278.73004 280.02029 281.04282 281.87164 282.65659 283.37042 284.02167 284.61166
 285.14230 285.61484 286.02762 286.55368
 366.78100 356.34012 345.77723 334.64835 323.05646 311.25558 299.13069 286.93881
 274.65592 262.55804 250.57215 239.87827 230.00538 221.11450 213.30162 206.30873
 200.14785 195.09096 191.67808 189.72519 188.76731 188.83642 189.67654 190.98965
 192.71977 194.81989 197.08800 199.45212 201.90223 204.38735 206.48046 208.32758
 209.95869 211.10881 211.34292 211.57604 211.51815 211.22827 210.86639 210.50150
 210.12362 209.83873 209.65185 209.52096 209.45408 209.79019 210.18131 210.57542
 211.37354 212.55665 213.81177 215.59989 217.53300 219.58112 221.68123 223.76935
 225.83446 227.92358 230.02569 232.13681 234.27092 236.44804 238.70916 241.08427
 243.71039 245.96650 247.97362 249.74373 251.16585 252.29396 253.12108 253.44219
 253.48431 253.26342 252.62854 251.58166 250.19277 248.35889 246.27300 244.11112
 241.90723 239.71635 237.54146 235.38558 233.25069 231.12281 229.15393 227.31604
 225.60416 224.08127 222.71639 221.49350 220.38062 219.34573 218.45485 217.60096
 216.84808 216.03319 215.13631 214.50543 213.96054 214.09247 214.37753 214.45493
 214.97540 215.83569 216.97926 217.99451 219.24352 221.73875 226.06340 230.24951
 233.46956 236.84708 240.50996 244.63255 248.90518 252.83377 256.29041 259.44806
 262.41962 265.19269 267.72504 270.00122 271.89755 273.46976 274.92117 276.45914
 278.16922 279.54953 280.39224 281.20459 282.16687 283.01828 283.79504 284.49872
 285.13162 285.69522 286.18756 286.81500
 366.78100 356.33982 345.77664 334.64746 323.05528 311.25410 299.12893 286.93675
 274.65357 262.55539 250.56921 239.87503 230.00185 221.11067 213.29749 206.30431
 200.14313 195.08596 191.67278 189.71960 188.76142 188.83024 189.67006 190.98288
 192.71270 194.81252 197.08034 199.44416 201.89399 204.37881 206.47163 208.31845
 209.94927 211.09909 211.33291 211.56573 211.50755 211.21737 210.85519 210.49002
 210.11184 209.82666 209.63948 209.50830 209.44112 209.77694 210.16776 210.56158
 211.35940 212.54222 213.79705 215.58487 217.51769 219.56551 221.66533 223.75315
 225.81797 227.90679 230.00861 232.11943 234.25325 236.43008 238.69090 241.06572
 243.69154 245.94736 247.95418 249.72400 251.14582 252.27364 253.10046 253.42128
 253.46311 253.24193 252.60675 251.55957 250.17039 248.33621 246.25003 244.08785
 241.88367 239.69249 237.51731 235.36114 233.22596 231.09778 229.12860 227.29042
 225.57824 224.05506 222.68988 221.46670 220.35352 219.31834 218.42717 217.57299
 216.81981 216.00463 215.10745 214.47627 213.93109 214.12367 214.48756 214.44568
 214.89438 215.99059 217.19165 218.11232 219.17960 221.62982 226.14078 230.21184
 233.39160 236.76436 240.47250 244.62769 248.87247 252.79724 256.30173 259.49500
 262.47437 265.24585 267.76053 269.90579 271.76840 273.36105 274.80685 276.30685
 277.59512 279.35825 280.95975 282.36597 283.58295 284.65967 285.64203 286.53195
 287.33234 288.04510 288.66776 289.46124
 366.78100 356.33923 345.77547 334.64570 323.05293 311.25116 299.12540 286.93263
 274.64886 262.55009 250.56333 239.86856 229.99479 221.10302 213.28926 206.29549
 200.13372 195.07595 191.66219 189.70842 188.74965 188.81788 189.65712 190.96935
 192.69858 194.79781 197.06505 199.42828 201.87751 204.36174 206.45398 208.30021
 209.93044 211.07967 211.31291 211.54514 211.48637 211.19560 210.83284 210.46707
 210.08830 209.80253 209.61477 209.48300 209.41523 209.75046 210.14070 210.53393
 211.33116 212.51339 213.76763 215.55486 217.48709 219.53432 221.63356 223.72079
 225.78502 227.87325 229.97449 232.08472 234.21795 236.39418 238.65442 241.02865
 243.65388 245.90911 247.91535 249.68458 251.10581 252.23304 253.05928 253.37951
 253.42074 253.19897 252.56321 251.51544 250.12567 248.29091 246.20414 244.04137
 241.83660 239.64484 237.46907 235.31230 233.17653 231.04777 229.07800 227.23923
 225.52646 224.00270 222.63693 221.41316 220.29939 219.26363 218.37186 217.51709
 216.76332 215.94756 215.04979 214.41802 213.87225 214.12646 214.59146 214.46318
 214.77641 215.95360 217.11339 217.97643 219.16309 221.59724 226.19771 230.29799
 233.45100 236.79971 240.51196 244.71320 248.99452 252.88867 256.36871 259.55630
 262.53928 265.32742 267.82581 269.99963 271.83273 273.30353 274.75269 276.40082
 278.51102 280.41559 282.06366 283.51080 284.76318 285.87122 286.88214 287.79794
 288.62164 289.35510 289.99588 290.81244
 366.78100 356.34054 345.77808 334.64962 323.05816 311.25770 299.13324 286.94178
 274.65932 262.56186 250.57640 239.88294 230.01048 221.12002 213.30756 206.31510
 200.15464 195.09818 191.68572 189.73326 188.77580 188.84533 189.68587 190.99941
 192.72995 194.83049 197.09903 199.46357 201.91411 204.39965 206.49319 208.34073
 209.97227 211.12281 211.35735 211.59089 211.53343 211.24397 210.88251 210.51805
 210.14059 209.85613 209.66967 209.53921 209.47275 209.80929 210.20083 210.59537
 211.39391 212.57745 213.83299 215.62153 217.55507 219.60361 221.70415 223.79269
 225.85823 227.94777 230.05031 232.16185 234.29639 236.47393 238.73546 241.11100
 243.73754 245.99408 248.00162 249.77216 251.19470 252.32324 253.15078 253.47232
 253.51486 253.29440 252.65994 251.61348 250.22502 248.39156 246.30610 244.14464
 241.94118 239.75072 237.57626 235.42080 233.28634 231.15888 229.19042 227.35296
 225.64150 224.11904 222.75458 221.53212 220.41966 219.38520 218.49474 217.64128
 216.88882 216.07436 215.17790 214.54744 214.00298 214.20276 214.57611 214.57185
 214.93053 215.98814 217.02240 217.75250 218.95564 221.50711 226.13321 230.24098
 233.38120 236.74088 240.49146 244.72876 248.97968 252.83206 256.29248 259.47012
 262.45630 265.25925 267.79794 270.00714 271.89395 273.33319 274.79443 276.79712
 279.07385 281.05234 282.76437 284.26770 285.56866 286.71970 287.76987 288.72122
 289.57684 290.33881 291.00443 291.85269
 366.78100 356.34174 345.78049 334.65323 323.06297 311.26371 299.14046 286.95020
 274.66894 262.57269 250.58843 239.89617 230.02491 221.13566 213.32440 206.33314
 200.17389 195.11863 191.70737 189.75612 188.79986 188.87060 189.71234 191.02709
 192.75883 194.86057 197.13032 199.49606 201.94780 204.43454 206.52929 208.37803
 210.01077 211.16252 211.39826 211.63300 211.57674 211.28849 210.92823 210.56497
 210.18872 209.90546 209.72020 209.59095 209.52569 209.86343 210.25617 210.65192
 211.45166 212.63640 213.89315 215.68289 217.61763 219.66737 221.76912 223.85886
 225.92560 228.01635 230.12009 232.23283 234.36857 236.54732 238.81006 241.18680
 243.81455 246.07229 248.08103 249.85277 251.27652 252.40626 253.23500 253.55775
 253.60149 253.38223 252.74898 251.70372 250.31646 248.48420 246.39995 244.23969
 242.03743 239.84818 237.67492 235.52066 233.38740 231.26115 229.29389 227.45763
 225.74738 224.22612 222.86286 221.64160 220.53035 219.49709 218.60783 217.75558
 217.00432 216.19106 215.29581 214.66655 214.12329 214.27892 214.55725 214.57452
 215.06546 216.14665 217.16476 217.73285 218.82990 221.44489 226.05341 230.13235
 233.23926 236.60030 240.40967 244.68085 248.91560 252.74474 256.18750 259.37466
 262.37372 265.16565 267.68027 269.89816 271.77924 273.33215 274.81546 276.78284
 278.98636 280.96222 282.67203 284.17334 285.47263 286.62213 287.67090 288.62100
 289.47552 290.23645 290.90121 291.74835
 366.78100 356.34014 345.77729 334.64843 323.05657 311.25571 299.13086 286.93900
 274.65614 262.55828 250.57243 239.87857 230.00571 221.11485 213.30200 206.30914
 200.14828 195.09142 191.67857 189.72571 188.76785 188.83699 189.67714 190.99028
 192.72042 194.82056 197.08871 199.45285 201.90299 204.38813 206.48128 208.32842
 209.95956 211.10970 211.34385 211.57699 211.51913 211.22928 210.86742 210.50256
 210.12470 209.83985 209.65299 209.52213 209.45527 209.79142 210.18256 210.57670
 211.37484 212.55799 213.81313 215.60127 217.53441 219.58256 221.68270 223.77084
 225.83598 227.92513 230.02727 232.13841 234.27255 236.44970 238.71084 241.08598
 243.71212 245.96827 247.97541 249.74555 251.16769 252.29584 253.12298 253.44412
 253.48626 253.26541 252.63055 251.58369 250.19484 248.36098 246.27512 244.11326
 241.90941 239.71855 237.54369 235.38783 233.25298 231.12512 229.15626 227.31840
 225.60655 224.08369 222.71883 221.49597 220.38312 219.34826 218.45740 217.60354
 216.85069 216.03583 215.13897 214.50811 213.96326 214.21565 214.68420 214.54276
 214.95277 216.13234 217.23813 217.77591 218.82956 221.64369 226.04414 230.10222
 233.18445 236.52837 240.36099 244.64751 248.85408 252.67503 256.12827 259.33463
 262.33578 265.09558 267.59500 269.81763 271.75064 273.31824 274.77145 276.66544
 278.19205 280.09781 281.77902 283.25525 284.53281 285.66312 286.69434 287.62857
 288.46881 289.21704 289.87067 290.70367
 366.78100 356.33816 345.77331 334.64247 323.04863 311.24578 299.11894 286.92510
 274.64025 262.54041 250.55257 239.85672 229.98188 221.08904 213.27420 206.27935
 200.11651 195.05767 191.64282 189.68798 188.72814 188.79529 189.63345 190.94461
 192.67276 194.77092 197.03708 199.39923 201.84739 204.33055 206.42170 208.26686
 209.89602 211.04417 211.27633 211.50749 211.44764 211.15580 210.79196 210.42511
 210.04527 209.75843 209.56959 209.43674 209.36790 209.70206 210.09121 210.48337
 211.27953 212.46068 213.71384 215.50000 217.43115 219.47731 221.57547 223.66162
 225.72478 227.81194 229.91209 232.02125 234.15341 236.32856 238.58772 240.96088
 243.58503 245.83919 247.84435 249.61250 251.03266 252.15882 252.98398 253.30313
 253.34329 253.12045 252.48360 251.43476 250.04392 248.20807 246.12023 243.95639
 241.75054 239.55770 237.38086 235.22301 233.08617 230.95633 228.98548 227.14564
 225.43180 223.90695 222.54011 221.31527 220.20042 219.16358 218.27074 217.41490
 216.66005 215.84321 214.94437 214.31152 213.76468 214.12332 214.84219 214.62132
 214.75006 215.94548 217.14197 217.83408 219.04547 221.84354 226.07094 230.09845
 233.15399 236.46936 240.29228 244.60930 248.80511 252.61757 256.08447 259.30569
 262.30176 265.03433 267.50888 269.75159 271.75940 273.29547 274.74240 276.57169
 277.92316 279.01566 280.59970 282.01654 283.24268 284.32751 285.31726 286.21390
 287.02032 287.73846 288.36581 289.16528
 366.78100 356.33867 345.77433 334.64400 323.05067 311.24834 299.12200 286.92867
 274.64434 262.54500 250.55767 239.86234 229.98800 221.09567 213.28134 206.28701
 200.12467 195.06634 191.65201 189.69767 188.73834 188.80601 189.64467 190.95634
 192.68501 194.78368 197.05034 199.41301 201.86168 204.34534 206.43701 208.28268
 209.91235 211.06101 211.29368 211.52535 211.46601 211.17468 210.81135 210.44501
 210.06568 209.77935 209.59102 209.45868 209.39035 209.72502 210.11468 210.50735
 211.30402 212.48569 213.73935 215.52602 217.45769 219.50435 221.60302 223.68969
 225.75335 227.84102 229.94169 232.05136 234.18402 236.35969 238.61936 240.99302
 243.61769 245.87236 247.87802 249.64669 251.06736 252.19403 253.01969 253.33936
 253.38003 253.15769 252.52136 251.47303 250.08270 248.24736 246.16003 243.99670
 241.79136 239.59903 237.42270 235.26536 233.12903 230.99970 229.02937 227.19003
 225.47670 223.95237 222.58603 221.36170 220.24737 219.21104 218.31870 217.46337
 216.70904 215.89270 214.99437 214.36204 213.81570 214.15710 214.87692 214.76324
 214.68729 215.78394 217.00685 217.78178 219.07829 221.89133 226.10681 230.10019
 233.11537 236.40276 240.25101 244.60110 248.78947 252.59456 256.07205 259.30005
 262.28049 265.00171 267.47366 269.72247 271.67081 273.22501 274.52707 276.46661
 277.97684 278.84384 280.25735 281.66925 282.89108 283.97214 284.95840 285.85190
 286.65552 287.37112 287.99628 288.79297
 366.78100 356.34017 345.77734 334.64850 323.05667 311.25584 299.13101 286.93918
 274.65634 262.55851 250.57268 239.87885 230.00601 221.11518 213.30235 206.30952
 200.14869 195.09185 191.67902 189.72619 188.76836 188.83753 189.67769 190.99086
 192.72103 194.82120 197.08937 199.45353 201.90370 204.38887 206.48204 208.32920
 209.96037 211.11054 211.34471 211.57788 211.52004 211.23021 210.86838 210.50355
 210.12572 209.84088 209.65405 209.52322 209.45639 209.79256 210.18372 210.57789
 211.37606 212.55923 213.81439 215.60256 217.53573 219.58390 221.68407 223.77223
 225.83740 227.92657 230.02874 232.13991 234.27407 236.45124 238.71241 241.08758
 243.71375 245.96991 247.97708 249.74725 251.16942 252.29758 253.12475 253.44592
 253.48809 253.26726 252.63242 251.58559 250.19676 248.36293 246.27710 244.11526
 241.91143 239.72060 237.54577 235.38994 233.25510 231.12727 229.15844 227.32061
 225.60878 224.08594 222.72111 221.49828 220.38545 219.35061 218.45978 217.60595
 216.85312 216.03829 215.14145 214.51062 213.96579 214.25533 214.86917 214.80716
 214.74461 215.75221 216.94232 217.66071 218.96582 221.85373 226.14058 230.07509
 233.07916 236.38420 240.27614 244.62445 248.80075 252.60225 256.08807 259.31595
 262.27975 264.97672 267.45813 269.73373 271.71069 273.22839 274.53046 276.45621
 277.72513 278.76825 280.40723 281.84634 283.09180 284.19373 285.19904 286.10980
 286.92892 287.65836 288.29556 289.10760
 366.78100 356.34053 345.77806 334.64958 323.05811 311.25764 299.13317 286.94170
 274.65923 262.56175 250.57628 239.88281 230.01034 221.11987 213.30740 206.31492
 200.15445 195.09798 191.68551 189.73304 188.77557 188.84509 189.68562 190.99915
 192.72968 194.83021 197.09874 199.46326 201.91379 204.39932 206.49285 208.34038
 209.97191 211.12243 211.35696 211.59049 211.53302 211.24355 210.88208 210.51760
 210.14013 209.85566 209.66919 209.53872 209.47225 209.80877 210.20030 210.59483
 211.39336 212.57689 213.83242 215.62094 217.55447 219.60300 221.70353 223.79206
 225.85759 227.94711 230.04964 232.16117 234.29570 236.47323 238.73476 241.11028
 243.73681 245.99334 248.00087 249.77140 251.19393 252.32245 253.14998 253.47151
 253.51404 253.29357 252.65909 251.61262 250.22415 248.39068 246.30521 244.14374
 241.94026 239.74979 237.57532 235.41985 233.28538 231.15791 229.18943 227.35196
 225.64049 224.11802 222.75355 221.53108 220.41860 219.38413 218.49366 217.64019
 216.88772 216.07325 215.17677 214.54630 214.00183 214.30510 214.92307 214.78299
 214.71881 215.70267 216.88870 217.55850 218.85364 221.79778 226.18840 230.07680
 233.07132 236.39163 240.31067 244.67778 248.85551 252.65175 256.13870 259.36649
 262.31686 265.01392 267.49469 269.78146 271.81693 273.42538 274.66684 276.48260
 277.65979 279.26184 280.98743 282.50259 283.81387 284.97400 286.03244 286.99133
 287.85373 288.62170 289.29257 290.14755
 366.78100 356.34023 345.77745 334.64868 323.05691 311.25613 299.13136 286.93959
 274.65682 262.55904 250.57327 239.87950 230.00672 221.11595 213.30318 206.31040
 200.14963 195.09286 191.68009 189.72731 188.76954 188.83877 189.67899 190.99222
 192.72245 194.82267 197.09090 199.45513 201.90535 204.39058 206.48381 208.33104
 209.96226 211.11249 211.34672 211.57994 211.52217 211.23240 210.87062 210.50585
 210.12808 209.84330 209.65653 209.52576 209.45899 209.79521 210.18644 210.58067
 211.37889 212.56212 213.81735 215.60557 217.53880 219.58703 221.68726 223.77548
 225.84071 227.92994 230.03216 232.14339 234.27762 236.45484 238.71607 241.09130
 243.71752 245.97375 247.98098 249.75121 251.17343 252.30166 253.12889 253.45011
 253.49234 253.27157 252.63679 251.59002 250.20125 248.36748 246.28170 244.11993
 241.91616 239.72538 237.55061 235.39484 233.26006 231.13229 229.16352 227.32574
 225.61397 224.09120 222.72643 221.50365 220.39088 219.35611 218.46533 217.61156
 216.85879 216.04401 215.14724 214.51647 213.97169 214.30728 215.00223 214.82211
 214.61816 215.50900 216.71619 217.47224 218.87820 221.87694 226.21214 230.12155
 233.08701 236.38155 240.32693 244.74092 248.90034 252.65915 256.12012 259.32077
 262.25479 264.94229 267.44696 269.79849 271.91339 273.60382 275.14008 276.89560
 278.38309 279.33008 280.92203 282.35428 283.59378 284.69043 285.69095 286.59735
 287.41254 288.13849 288.77264 289.58084
 366.78100 356.33927 345.77554 334.64580 323.05307 311.25134 299.12561 286.93288
 274.64914 262.55041 250.56368 239.86895 229.99522 221.10349 213.28975 206.29602
 200.13429 195.07656 191.66283 189.70909 188.75036 188.81863 189.65790 190.97017
 192.69943 194.79870 197.06597 199.42924 201.87851 204.36277 206.45504 208.30131
 209.93158 211.08085 211.31411 211.54638 211.48765 211.19692 210.83419 210.46846
 210.08972 209.80399 209.61626 209.48453 209.41680 209.75206 210.14233 210.53560
 211.33287 212.51514 213.76940 215.55667 217.48894 219.53621 221.63548 223.72274
 225.78701 227.87528 229.97655 232.08682 234.22009 236.39635 238.65662 241.03089
 243.65616 245.91143 247.91769 249.68696 251.10823 252.23550 253.06177 253.38203
 253.42330 253.20157 252.56584 251.51811 250.12837 248.29364 246.20691 244.04418
 241.83945 239.64772 237.47198 235.31525 233.17952 231.05079 229.08106 227.24232
 225.52959 224.00586 222.64013 221.41640 220.30266 219.26693 218.37520 217.52047
 216.76674 215.95100 215.05327 214.42154 213.87581 214.26251 215.10638 214.95424
 214.50629 215.23151 216.43585 217.33762 218.85634 221.86827 226.21664 230.10764
 233.10483 236.45950 240.40166 244.75945 248.89323 252.62271 256.05026 259.22162
 262.12878 264.80008 267.28210 269.59036 271.66653 273.45688 275.17371 276.94598
 278.45285 279.49457 280.35938 281.59677 282.83594 283.93933 284.94604 285.85803
 286.67825 287.40866 288.04675 288.85992
 366.78100 356.33885 345.77469 334.64454 323.05139 311.24923 299.12308 286.92992
 274.64577 262.54662 250.55946 239.86431 229.99016 221.09800 213.28385 206.28970
 200.12754 195.06939 191.65523 189.70108 188.74193 188.80977 189.64862 190.96047
 192.68931 194.78816 197.05500 199.41785 201.86670 204.35054 206.44239 208.28824
 209.91808 211.06693 211.29978 211.53162 211.47247 211.18131 210.81816 210.45201
 210.07285 209.78670 209.59855 209.46639 209.39824 209.73309 210.12293 210.51578
 211.31262 212.49447 213.74832 215.53516 217.46701 219.51386 221.61270 223.69955
 225.76339 227.85124 229.95209 232.06193 234.19478 236.37063 238.63047 241.00432
 243.62917 245.88401 247.88986 249.65870 251.07955 252.20640 253.03224 253.35209
 253.39294 253.17078 252.53463 251.48648 250.09632 248.26117 246.17401 244.01086
 241.80571 239.61355 237.43740 235.28025 233.14409 231.01494 229.04478 227.20563
 225.49248 223.96832 222.60217 221.37802 220.26386 219.22771 218.33556 217.48040
 216.72625 215.91009 215.01194 214.37979 213.83363 214.25206 215.18486 215.06334
 214.47627 215.06937 216.24080 217.14908 218.69078 221.76920 226.20676 230.06198
 233.10396 236.47829 240.43576 244.78062 248.89377 252.60483 256.03354 259.21225
 262.11566 264.76993 267.24051 269.56174 271.63962 273.33768 275.04086 276.80035
 278.13986 279.08578 279.84775 280.80197 281.93054 283.02893 284.03305 284.94272
 285.76086 286.48944 287.12589 287.93698
 366.78100 356.34068 345.77835 334.65003 323.05871 311.25838 299.13406 286.94274
 274.66041 262.56309 250.57776 239.88444 230.01212 221.12179 213.30947 206.31715
 200.15682 195.10050 191.68818 189.73585 188.77853 188.84821 189.68888 191.00256
 192.73324 194.83391 197.10259 199.46726 201.91794 204.40362 206.49729 208.34497
 209.97665 211.12732 211.36200 211.59568 211.53835 211.24903 210.88771 210.52338
 210.14606 209.86174 209.67541 209.54509 209.47876 209.81544 210.20712 210.60179
 211.40047 212.58415 213.83982 215.62850 217.56218 219.61085 221.71153 223.80021
 225.86588 227.95556 230.05824 232.16991 234.30459 236.48226 238.74394 241.11962
 243.74629 246.00297 248.01065 249.78132 251.20400 252.33268 253.16035 253.48203
 253.52471 253.30438 252.67006 251.62374 250.23541 248.40209 246.31676 244.15544
 241.95212 239.76179 237.58747 235.43215 233.29782 231.17050 229.20218 227.36485
 225.65353 224.13121 222.76688 221.54456 220.43224 219.39791 218.50759 217.65426
 216.90194 216.08762 215.19129 214.56097 214.01665 214.37260 215.15701 215.02629
 214.52321 215.05019 216.17520 217.12915 218.70941 221.78401 226.21948 230.06754
 233.08650 236.49948 240.48317 244.82927 248.92064 252.61864 256.05344 259.24170
 262.14114 264.79340 267.27228 269.58588 271.65891 273.30096 275.06476 276.78586
 277.97635 278.81433 279.57510 280.70047 281.92834 283.04974 284.07281 284.99966
 285.83325 286.57559 287.22406 288.05048
 366.78100 356.34223 345.78146 334.65468 323.06491 311.26614 299.14337 286.95360
 274.67282 262.57705 250.59328 239.90151 230.03074 221.14196 213.33119 206.34042
 200.18165 195.12688 191.71610 189.76533 188.80956 188.88079 189.72302 191.03824
 192.77047 194.87270 197.14293 199.50916 201.96138 204.44861 206.54384 208.39307
 210.02630 211.17852 211.41475 211.64998 211.59421 211.30644 210.94666 210.58389
 210.20812 209.92535 209.74058 209.61180 209.54703 209.88526 210.27849 210.67472
 211.47494 212.66017 213.91740 215.70763 217.64286 219.69308 221.79531 223.88554
 225.95277 228.04400 230.14822 232.26145 234.39768 236.57691 238.84014 241.21736
 243.84559 246.10382 248.11305 249.88528 251.30950 252.43973 253.26896 253.59219
 253.63642 253.41764 252.78487 251.74010 250.35333 248.52156 246.43778 244.27801
 242.07624 239.88747 237.71469 235.56092 233.42815 231.30238 229.33561 227.49983
 225.79006 224.26929 222.90652 221.68575 220.57497 219.54220 218.65343 217.80166
 217.05089 216.23811 215.34334 214.71457 214.17180 214.48441 215.16176 214.96971
 214.45602 215.01923 216.16130 217.14642 218.75240 221.82912 226.28281 230.11124
 233.10262 236.51123 240.51038 244.87950 248.95055 252.63551 256.07510 259.26343
 262.15723 264.80093 267.27060 269.59796 271.70874 273.37570 275.04953 276.84134
 277.96237 278.74686 279.59897 280.93063 282.20816 283.34158 284.37564 285.31244
 286.15497 286.90527 287.56070 288.39597
 366.78100 356.34112 345.77925 334.65137 323.06049 311.26061 299.13674 286.94586
 274.66398 262.56711 250.58223 239.88935 230.01748 221.12760 213.31572 206.32384
 200.16397 195.10809 191.69621 189.74434 188.78746 188.85758 189.69870 191.01283
 192.74395 194.84507 197.11420 199.47932 201.93044 204.41657 206.51069 208.35881
 209.99093 211.14206 211.37718 211.61130 211.55443 211.26555 210.90467 210.54079
 210.16392 209.88004 209.69416 209.56429 209.49841 209.83553 210.22766 210.62278
 211.42190 212.60602 213.86215 215.65127 217.58539 219.63452 221.73564 223.82476
 225.89088 227.98101 230.08413 232.19625 234.33138 236.50950 238.77162 241.14775
 243.77487 246.03199 248.04011 249.81124 251.23436 252.36348 253.19161 253.51373
 253.55685 253.33698 252.70310 251.65722 250.26934 248.43647 246.35159 244.19071
 241.98784 239.79796 237.62408 235.46920 233.33533 231.20845 229.24057 227.40370
 225.69282 224.17094 222.80707 221.58519 220.47331 219.43943 218.54956 217.69668
 216.94480 216.13093 215.23505 214.60517 214.06129 214.44962 215.30472 215.02559
 214.28543 214.80838 215.95848 217.01114 218.70052 221.83264 226.34563 230.17278
 233.16071 236.58574 240.56120 244.87955 248.94231 252.62714 256.05997 259.24063
 262.13477 264.77576 267.23102 269.54474 271.62210 273.33368 275.02795 276.84103
 277.98874 278.83286 279.78232 280.97461 282.14380 283.24139 284.24423 285.15271
 285.96979 286.69742 287.33304 288.14310
 366.78100 356.34006 345.77713 334.64819 323.05625 311.25531 299.13038 286.93844
 274.65550 262.55756 250.57163 239.87769 230.00475 221.11382 213.30088 206.30794
 200.14700 195.09007 191.67713 189.72419 188.76626 188.83532 189.67538 190.98844
 192.71851 194.81857 197.08663 199.45069 201.90076 204.38582 206.47888 208.32595
 209.95701 211.10707 211.34113 211.57420 211.51626 211.22632 210.86439 210.49945
 210.12151 209.83657 209.64964 209.51870 209.45176 209.78782 210.17889 210.57295
 211.37101 212.55408 213.80914 215.59720 217.53026 219.57833 221.67839 223.76645
 225.83151 227.92058 230.02264 232.13370 234.26777 236.44483 238.70589 241.08095
 243.70702 245.96308 247.97014 249.74021 251.16227 252.29033 253.11739 253.43846
 253.48052 253.25958 252.62464 251.57771 250.18877 248.35483 246.26890 244.10696
 241.90302 239.71208 237.53715 235.38121 233.24627 231.11834 229.14940 227.31146
 225.59952 224.07659 222.71165 221.48871 220.37577 219.34084 218.44990 217.59596
 216.84303 216.02809 215.13115 214.50021 213.95528 214.40955 215.43416 215.16701
 214.17921 214.52969 215.74896 216.85045 218.54613 221.73540 226.35745 230.17342
 233.17657 236.60439 240.57068 244.87627 248.94336 252.61765 256.03943 259.20932
 262.10016 264.74857 267.20819 269.52582 271.59042 273.32751 275.01193 276.78101
 277.98700 278.90137 279.85342 280.93280 281.95688 282.96317 283.97968 284.90250
 285.73245 286.47153 287.11719 287.94000
 366.78100 356.34100 345.77899 334.65099 323.05998 311.25998 299.13598 286.94497
 274.66297 262.56596 250.58096 239.88796 230.01595 221.12595 213.31394 206.32194
 200.16194 195.10593 191.69393 189.74192 188.78492 188.85492 189.69591 191.00991
 192.74090 194.84190 197.11090 199.47589 201.92689 204.41288 206.50688 208.35488
 209.98687 211.13787 211.37286 211.60686 211.54986 211.26085 210.89985 210.53584
 210.15884 209.87484 209.68883 209.55883 209.49282 209.82982 210.22182 210.61681
 211.41581 212.59980 213.85580 215.64480 217.57879 219.62779 221.72878 223.81778
 225.88378 227.97377 230.07677 232.18876 234.32376 236.50176 238.76375 241.13975
 243.76674 246.02374 248.03174 249.80273 251.22573 252.35472 253.18272 253.50472
 253.54771 253.32771 252.69370 251.64770 250.25970 248.42669 246.34169 244.18068
 241.97768 239.78768 237.61367 235.45867 233.32466 231.19766 229.22966 227.39265
 225.68165 224.15964 222.79564 221.57364 220.46163 219.42763 218.53762 217.68462
 216.93262 216.11861 215.22261 214.59260 214.04860 214.47610 215.44188 215.28856
 214.13437 214.32803 215.61963 216.78409 218.52252 221.72536 226.36562 230.20122
 233.18813 236.63943 240.62793 244.93086 248.98657 252.66797 256.10104 259.27545
 262.15805 264.79578 267.24768 269.52783 271.59622 273.32031 275.02490 276.77744
 277.79718 278.74057 280.04608 281.08401 281.98224 283.01996 284.01920 284.92444
 285.73862 286.46362 287.09698 287.90414
 366.78100 356.34142 345.77984 334.65225 323.06167 311.26209 299.13851 286.94793
 274.66634 262.56976 250.58518 239.89260 230.02102 221.13143 213.31985 206.32827
 200.16869 195.11311 191.70152 189.74994 188.79336 188.86378 189.70520 191.01962
 192.75103 194.85245 197.12187 199.48729 201.93871 204.42512 206.51954 208.36796
 210.00038 211.15180 211.38721 211.62163 211.56505 211.27647 210.91589 210.55230
 210.17572 209.89214 209.70656 209.57698 209.51139 209.84881 210.24123 210.63665
 211.43607 212.62048 213.87690 215.66632 217.60074 219.65016 221.75157 223.84099
 225.90741 227.99783 230.10125 232.21366 234.34908 236.52750 238.78992 241.16634
 243.79376 246.05117 248.05959 249.83101 251.25443 252.38385 253.21226 253.53468
 253.57810 253.35852 252.72494 251.67935 250.29177 248.45919 246.37461 244.21403
 242.01144 239.82186 237.64828 235.49370 233.36012 231.23353 229.26595 227.42937
 225.71879 224.19721 222.83362 221.61204 220.50046 219.46688 218.57730 217.72471
 216.97313 216.15955 215.26397 214.63439 214.09081 214.51561 215.48042 215.41820
 214.08400 214.12065 215.32278 216.56680 218.46837 221.75540 226.46387 230.34775
 233.32204 236.76170 240.72958 245.02716 249.10995 252.80090 256.20837 259.35046
 262.21289 264.83157 267.27179 269.53604 271.56482 273.30466 275.05197 276.70297
 277.58136 278.72900 280.23962 281.20944 282.10104 283.16885 284.16599 285.06934
 285.88177 286.60529 287.23730 288.04276
 366.78100 356.34025 345.77750 334.64876 323.05701 311.25626 299.13151 286.93976
 274.65702 262.55927 250.57352 239.87977 230.00702 221.11628 213.30353 206.31078
 200.15003 195.09328 191.68054 189.72779 188.77004 188.83929 189.67954 190.99280
 192.72305 194.82330 197.09155 199.45580 201.90606 204.39131 206.48456 208.33181
 209.96306 211.11332 211.34757 211.58082 211.52307 211.23332 210.87158 210.50683
 210.12908 209.84433 209.65758 209.52683 209.46009 209.79634 210.18759 210.58184
 211.38009 212.56335 213.81860 215.60685 217.54010 219.58835 221.68861 223.77686
 225.84211 227.93136 230.03361 232.14487 234.27912 236.45637 238.71762 241.09287
 243.71913 245.97538 247.98263 249.75288 251.17513 252.30339 253.13064 253.45189
 253.49414 253.27339 252.63865 251.59190 250.20315 248.36940 246.28365 244.12191
 241.91816 239.72741 237.55266 235.39691 233.26217 231.13442 229.16567 227.32792
 225.61617 224.09343 222.72868 221.50593 220.39318 219.35843 218.46769 217.61394
 216.86119 216.04644 215.14969 214.51895 213.97420 214.46811 215.59898 215.56735
 214.17088 213.88269 214.87437 216.20309 218.34300 221.79173 226.56403 230.42415
 233.41394 236.87282 240.84404 245.12424 249.16327 252.80157 256.19498 259.33914
 262.19043 264.80930 267.23965 269.47491 271.54913 273.38702 274.98486 276.41785
 277.26654 278.72406 280.25763 281.21658 282.06668 283.07849 284.06302 284.95908
 285.76495 286.48260 287.10953 287.90848
 366.78100 356.34077 345.77854 334.65032 323.05909 311.25886 299.13463 286.94340
 274.66117 262.56395 250.57872 239.88549 230.01326 221.12303 213.31080 206.31858
 200.15835 195.10212 191.68989 189.73766 188.78043 188.85021 189.69098 191.00475
 192.73552 194.83629 197.10506 199.46984 201.92061 204.40638 206.50015 208.34792
 209.97969 211.13047 211.36524 211.59901 211.54178 211.25255 210.89132 210.52710
 210.14987 209.86564 209.67941 209.54918 209.48295 209.81973 210.21150 210.60627
 211.40504 212.58881 213.84458 215.63336 217.56713 219.61590 221.71667 223.80544
 225.87121 227.96099 230.06376 232.17553 234.31030 236.48807 238.74984 241.12562
 243.75239 246.00916 248.01693 249.78770 251.21047 252.33925 253.16702 253.48879
 253.53156 253.31133 252.67710 251.63088 250.24265 248.40942 246.32419 244.16296
 241.95974 239.76951 237.59528 235.44005 233.30582 231.17859 229.21037 227.37314
 225.66191 224.13968 222.77545 221.55322 220.44100 219.40677 218.51654 217.66331
 216.91108 216.09685 215.20063 214.57040 214.02617 214.52016 215.62767 215.61636
 214.36098 214.05360 214.88094 216.13803 218.30417 221.80219 226.60826 230.47635
 233.41519 236.82748 240.78714 245.08611 249.16454 252.83292 256.19058 259.28629
 262.12323 264.72687 267.13080 269.36780 271.49213 273.34720 274.99634 276.31076
 277.48642 278.59091 279.74149 280.92969 282.13470 283.20087 284.17355 285.05475
 285.84729 286.55304 287.16959 287.95529
 366.78100 356.34369 345.78438 334.65907 323.07076 311.27345 299.15214 286.96383
 274.68452 262.59021 250.60789 239.91758 230.04827 221.16096 213.35165 206.36234
 200.20503 195.15172 191.74241 189.79310 188.83879 188.91148 189.75517 191.07186
 192.80555 194.90924 197.18093 199.54862 202.00231 204.49099 206.58768 208.43837
 210.07306 211.22675 211.46444 211.70113 211.64682 211.36051 211.00220 210.64089
 210.26658 209.98527 209.80196 209.67465 209.61134 209.95103 210.34572 210.74341
 211.54509 212.73178 213.99047 215.78216 217.71885 219.77054 221.87423 223.96592
 226.03461 228.12730 230.23299 232.34768 234.48537 236.66606 238.93075 241.30944
 243.93913 246.19882 248.20951 249.98319 251.40888 252.54057 253.37126 253.69595
 253.74164 253.52433 252.89302 251.84971 250.46440 248.63409 246.55178 244.39347
 242.19316 240.00585 237.83454 235.68223 233.55092 231.42661 229.46129 227.62698
 225.91867 224.39936 223.03805 221.81874 220.70943 219.67812 218.79081 217.94050
 217.19119 216.37988 215.48657 214.85926 214.31795 214.70819 215.59750 215.57622
 214.43387 214.15746 214.71619 215.93707 218.18147 221.67250 226.61833 230.39500
 233.41928 236.94073 240.94853 245.17329 249.22592 252.96136 256.37848 259.48026
 262.30795 264.89896 267.28394 269.46408 271.50906 273.38885 274.93912 276.58759
 277.90036 279.02664 280.00125 280.85703 281.59763 282.25287 282.85068 283.39227
 283.87933 284.31311 284.69202 285.17490
 366.78100 356.34426 345.78552 334.66079 323.07305 311.27631 299.15557 286.96783
 274.68910 262.59536 250.61362 239.92388 230.05514 221.16841 213.35967 206.37093
 200.21419 195.16145 191.75272 189.80398 188.85024 188.92350 189.76776 191.08503
 192.81929 194.92355 197.19581 199.56407 202.01834 204.50760 206.60486 208.45612
 210.09138 211.24565 211.48391 211.72117 211.66743 211.38169 211.02396 210.66322
 210.28948 210.00874 209.82600 209.69927 209.63653 209.97679 210.37205 210.77031
 211.57258 212.75984 214.01910 215.81136 217.74862 219.80089 221.90515 223.99741
 226.06667 228.15993 230.26620 232.38146 234.51972 236.70098 238.96624 241.34550
 243.97577 246.23603 248.24729 250.02155 251.44781 252.58008 253.41134 253.73660
 253.78286 253.56612 252.93539 251.89265 250.50791 248.67817 246.59643 244.43870
 242.23896 240.05222 237.88148 235.72974 233.59901 231.47527 229.51053 227.67679
 225.96905 224.45032 223.08958 221.87084 220.76210 219.73136 218.84463 217.99489
 217.24615 216.43541 215.54267 214.91594 214.37520 214.76949 215.62178 215.60016
 214.56982 214.04340 214.39188 215.57823 217.95430 221.65308 226.52638 230.34694
 233.37512 236.94469 241.04369 245.40036 249.55179 253.37772 256.87173 260.00522
 262.85855 265.46533 267.82776 269.91653 271.78943 273.35703 275.08276 276.56430
 278.24893 279.69290 280.94241 282.03961 282.98911 283.82919 284.59561 285.28995
 285.91443 286.47055 286.95636 287.57544
 366.78100 356.34361 345.78422 334.65883 323.07044 311.27305 299.15166 286.96327
 274.68388 262.58949 250.60710 239.91671 230.04732 221.15993 213.35054 206.36115
 200.20376 195.15037 191.74098 189.79159 188.83720 188.90981 189.75342 191.07003
 192.80364 194.90725 197.17886 199.54647 202.00008 204.48868 206.58529 208.43590
 210.07051 211.22412 211.46173 211.69834 211.64395 211.35756 210.99917 210.63778
 210.26339 209.98200 209.79861 209.67122 209.60783 209.94744 210.34205 210.73966
 211.54127 212.72788 213.98649 215.77810 217.71471 219.76632 221.86993 223.96154
 226.03015 228.12276 230.22837 232.34298 234.48059 236.66120 238.92581 241.30442
 243.93403 246.19364 248.20425 249.97786 251.40347 252.53508 253.36569 253.69030
 253.73591 253.51852 252.88713 251.84374 250.45835 248.62796 246.54557 244.38718
 242.18679 239.99940 237.82801 235.67562 233.54423 231.41983 229.45444 227.62005
 225.91166 224.39227 223.03088 221.81149 220.70210 219.67071 218.78332 217.93293
 217.18354 216.37215 215.47876 214.85137 214.30998 214.74544 215.65804 215.61380
 214.86174 214.20888 214.37616 215.31633 217.66754 221.55672 226.24312 230.15440
 233.24574 236.88486 241.00035 245.30991 249.42599 253.20261 256.66043 259.82617
 262.75778 265.47922 267.94022 270.09167 272.05405 273.85349 275.27332 276.98975
 279.02402 281.29709 283.32562 285.10681 286.64828 288.01212 289.25638 290.38361
 291.39743 292.30023 293.08890 294.09399
 366.78100 356.34332 345.78364 334.65796 323.06928 311.27160 299.14992 286.96125
 274.68157 262.58689 250.60421 239.91353 230.04385 221.15617 213.34649 206.35681
 200.19913 195.14545 191.73577 189.78610 188.83142 188.90374 189.74706 191.06338
 192.79670 194.90002 197.17134 199.53866 201.99198 204.48030 206.57662 208.42695
 210.06127 211.21459 211.45191 211.68823 211.63355 211.34687 210.98819 210.62651
 210.25183 209.97015 209.78647 209.65880 209.59512 209.93444 210.32876 210.72608
 211.52740 212.71372 213.97204 215.76336 217.69968 219.75100 221.85432 223.94565
 226.01397 228.10629 230.21161 232.32593 234.46325 236.64357 238.90789 241.28621
 243.91553 246.17485 248.18517 249.95850 251.38382 252.51514 253.34546 253.66978
 253.71510 253.49742 252.86574 251.82206 250.43638 248.60570 246.52302 244.36434
 242.16367 239.97599 237.80431 235.65163 233.51995 231.39527 229.42959 227.59491
 225.88623 224.36655 223.00487 221.78519 220.67552 219.64384 218.75616 217.90548
 217.15580 216.34412 215.45044 214.82276 214.28108 214.73410 215.69870 215.61435
 214.89272 214.28825 214.49129 215.45009 217.75351 221.55290 226.11343 230.04373
 233.08620 236.74863 240.90541 245.24049 249.33073 253.03583 256.40997 259.53378
 262.46552 265.20633 267.66812 269.84872 271.87613 273.81021 275.49744 276.98737
 278.80237 280.61392 282.39777 284.00812 285.40173 286.63470 287.75964 288.77872
 289.69528 290.51151 291.22452 292.13318
 366.78100 356.34372 345.78445 334.65917 323.07089 311.27361 299.15234 286.96406
 274.68478 262.59050 250.60823 239.91795 230.04867 221.16140 213.35212 206.36284
 200.20556 195.15229 191.74301 189.79373 188.83945 188.91218 189.75590 191.07262
 192.80635 194.91007 197.18179 199.54951 202.00324 204.49196 206.58868 208.43940
 210.07413 211.22785 211.46557 211.70230 211.64802 211.36174 211.00346 210.64219
 210.26791 209.98663 209.80335 209.67608 209.61280 209.95252 210.34725 210.74497
 211.54669 212.73341 213.99214 215.78386 217.72058 219.77231 221.87603 223.96775
 226.03647 228.12920 230.23492 232.34964 234.48736 236.66809 238.93281 241.31153
 243.94126 246.20098 248.21170 249.98542 251.41115 252.54287 253.37359 253.69831
 253.74404 253.52676 252.89548 251.85221 250.46693 248.63665 246.55437 244.39610
 242.19582 240.00854 237.83726 235.68499 233.55371 231.42943 229.46416 227.62988
 225.92160 224.40232 223.04105 221.82177 220.71249 219.68121 218.79394 217.94366
 217.19438 216.38311 215.48983 214.86255 214.32127 214.75569 215.70630 215.67062
 214.85368 214.14285 214.31583 215.39572 217.77376 221.56665 226.17316 230.09836
 233.12065 236.78650 240.96313 245.35797 249.48235 253.18799 256.53107 259.61292
 262.49390 265.18863 267.62881 269.75858 271.79001 273.78677 275.58435 277.10544
 278.62442 280.30936 281.88644 283.42111 284.76083 285.94617 287.02759 288.00729
 288.88840 289.67307 290.35852 291.23206
 366.78100 356.34507 345.78714 334.66320 323.07627 311.28034 299.16041 286.97348
 274.69554 262.60261 250.62168 239.93275 230.06482 221.17889 213.37095 206.38302
 200.22709 195.17516 191.76723 189.81929 188.86636 188.94043 189.78550 191.10357
 192.83863 194.94370 197.21677 199.58584 202.04091 204.53098 206.62904 208.48111
 210.11718 211.27225 211.51132 211.74938 211.69645 211.41152 211.05459 210.69466
 210.32172 210.04179 209.85986 209.73393 209.67200 210.01306 210.40913 210.80820
 211.61127 212.79934 214.05941 215.85247 217.79054 219.84361 221.94868 224.04175
 226.11181 228.20588 230.31295 232.42902 234.56809 236.75015 239.01622 241.39629
 244.02736 246.28843 248.30049 250.07556 251.50263 252.63570 253.46777 253.79384
 253.84090 253.62497 252.99504 251.95311 250.56918 248.74024 246.65931 244.50238
 242.30345 240.11752 237.94758 235.79665 233.66672 231.54379 229.57986 227.74693
 226.03999 224.52206 223.16213 221.94420 220.83627 219.80633 218.92040 218.07147
 217.32354 216.51361 215.62167 214.99574 214.45581 214.82520 215.65688 215.77095
 214.97266 214.07439 214.09984 215.18462 217.63216 221.48882 226.14790 230.08131
 233.11905 236.81155 241.02487 245.46106 249.61546 253.32672 256.65479 259.70685
 262.55292 265.20801 267.57764 269.59988 271.63605 273.69534 275.47900 276.95981
 278.48630 280.15286 281.72488 283.22098 284.54932 285.72458 286.79681 287.76819
 288.64185 289.41983 290.09946 290.96558
 366.78100 356.34648 345.78997 334.66745 323.08194 311.28742 299.16890 286.98339
 274.70687 262.61536 250.63584 239.94833 230.08181 221.19729 213.39078 206.40426
 200.24975 195.19923 191.79271 189.84620 188.89468 188.97017 189.81665 191.13613
 192.87262 194.97910 197.25359 199.62407 202.08056 204.57204 206.67152 208.52501
 210.16249 211.31898 211.55946 211.79894 211.74743 211.46391 211.10840 210.74988
 210.37836 210.09985 209.91933 209.79482 209.73430 210.07679 210.47427 210.87475
 211.67924 212.86872 214.13021 215.92469 217.86417 219.91866 222.02514 224.11963
 226.19111 228.28659 230.39508 232.51256 234.65305 236.83653 239.10402 241.48550
 244.11798 246.38047 248.39395 250.17044 251.59892 252.73340 253.56689 253.89437
 253.94286 253.72834 253.09982 252.05931 250.67679 248.84928 246.76976 244.61425
 242.41673 240.23221 238.06370 235.91418 233.78567 231.66415 229.70163 227.87012
 226.16460 224.64809 223.28957 222.07306 220.96654 219.93802 219.05351 218.20599
 217.45948 216.65096 215.76044 215.13593 214.59741 214.90607 215.61447 215.81444
 215.09070 214.15958 214.03612 215.02708 217.47238 221.39198 226.08965 229.97345
 233.04221 236.78261 241.05200 245.50446 249.68713 253.44041 256.79111 259.83401
 262.65204 265.28433 267.59274 269.56241 271.52728 273.53842 275.33023 276.78409
 278.30679 280.05579 281.72375 283.23322 284.53952 285.69528 286.74973 287.70496
 288.56412 289.32919 289.99753 290.84927
 366.78100 356.34649 345.78998 334.66747 323.08196 311.28745 299.16893 286.98342
 274.70691 262.61540 250.63589 239.94838 230.08187 221.19736 213.39085 206.40434
 200.24983 195.19932 191.79280 189.84629 188.89478 188.97027 189.81676 191.13625
 192.87274 194.97923 197.25372 199.62421 202.08070 204.57219 206.67167 208.52516
 210.16265 211.31914 211.55963 211.79912 211.74761 211.46410 211.10859 210.75008
 210.37857 210.10006 209.91954 209.79503 209.73452 210.07701 210.47450 210.87499
 211.67948 212.86897 214.13046 215.92495 217.86444 219.91893 222.02541 224.11990
 226.19139 228.28688 230.39537 232.51286 234.65335 236.83684 239.10433 241.48582
 244.11831 246.38080 248.39428 250.17077 251.59926 252.73375 253.56724 253.89473
 253.94322 253.72871 253.10020 252.05969 250.67718 248.84967 246.77015 244.61464
 242.41713 240.23262 238.06411 235.91460 233.78609 231.66458 229.70207 227.87056
 226.16505 224.64853 223.29002 222.07351 220.96700 219.93849 219.05398 218.20647
 217.45996 216.65145 215.76094 215.13643 214.59792 214.91930 215.63625 215.79907
 215.20599 214.26521 213.89233 214.81342 217.24365 221.26459 226.02844 229.86745
 232.99075 236.78772 241.10431 245.58533 249.81734 253.63622 257.04752 260.12741
 262.94427 265.55115 267.84091 269.76053 271.63824 273.53116 275.32053 276.83160
 278.33624 280.21570 281.97449 283.51880 284.85529 286.03775 287.11655 288.09387
 288.97287 289.75562 290.43939 291.31082
 366.78100 356.34616 345.78932 334.66648 323.08064 311.28581 299.16697 286.98113
 274.70429 262.61245 250.63261 239.94477 230.07793 221.19309 213.38626 206.39942
 200.24458 195.19374 191.78690 189.84006 188.88822 188.96338 189.80954 191.12871
 192.86487 194.97103 197.24519 199.61535 202.07151 204.56267 206.66183 208.51499
 210.15215 211.30832 211.54848 211.78764 211.73580 211.45196 211.09612 210.73728
 210.36544 210.08660 209.90577 209.78093 209.72009 210.06225 210.45941 210.85957
 211.66373 212.85289 214.11405 215.90822 217.84738 219.90154 222.00770 224.10186
 226.17302 228.26818 230.37634 232.49350 234.63367 236.81683 239.08399 241.46515
 244.09731 246.35947 248.37263 250.14879 251.57695 252.71112 253.54428 253.87144
 253.91960 253.70476 253.07592 252.03508 250.65224 248.82440 246.74457 244.58873
 242.39089 240.20605 238.03721 235.88737 233.75853 231.63669 229.67385 227.84202
 226.13618 224.61934 223.26050 222.04366 220.93682 219.90798 219.02314 218.17530
 217.42846 216.61963 215.72879 215.10395 214.56511 214.90762 215.64839 215.79660
 215.46161 214.40224 213.74921 214.58540 217.05978 221.11073 225.83415 229.70389
 232.85236 236.72021 241.10646 245.63574 249.89738 253.73590 257.17288 260.28873
 263.15652 265.81293 268.16254 270.10120 271.91223 273.76416 275.45352 276.78366
 278.36987 280.25259 282.12711 283.77307 285.19751 286.45776 287.60757 288.64920
 289.58603 290.42029 291.14908 292.07785
 366.78100 356.34623 345.78945 334.66668 323.08091 311.28614 299.16736 286.98159
 274.70482 262.61304 250.63327 239.94550 230.07872 221.19395 213.38718 206.40041
 200.24563 195.19486 191.78809 189.84131 188.88954 188.96477 189.81099 191.13022
 192.86645 194.97268 197.24690 199.61713 202.07336 204.56458 206.66381 208.51704
 210.15426 211.31049 211.55072 211.78995 211.73817 211.45440 211.09863 210.73985
 210.36808 210.08931 209.90853 209.78376 209.72299 210.06522 210.46244 210.86267
 211.66690 212.85612 214.11735 215.91158 217.85080 219.90503 222.01126 224.10549
 226.17671 228.27194 230.38017 232.49739 234.63762 236.82085 239.08807 241.46930
 244.10153 246.36376 248.37698 250.15321 251.58144 252.71566 253.54889 253.87612
 253.92434 253.70957 253.08080 252.04003 250.65725 248.82948 246.74971 244.59393
 242.39616 240.21139 238.04261 235.89284 233.76407 231.64230 229.67952 227.84775
 226.14198 224.62520 223.26643 222.04966 220.94288 219.91411 219.02934 218.18157
 217.43479 216.62602 215.73525 215.11047 214.57170 214.91441 215.63791 215.75664
 215.73421 214.66631 213.76234 214.48410 216.90598 220.92268 225.56519 229.46552
 232.64722 236.60927 241.06618 245.63022 249.87584 253.68507 257.10880 260.24210
 263.15552 265.89410 268.32654 270.30627 272.09967 273.92319 275.53860 276.81940
 278.38568 280.21780 282.08450 283.74655 285.18491 286.45749 287.61853 288.67035
 289.61636 290.45877 291.19467 292.13254
 366.78100 356.34559 345.78818 334.66476 323.07835 311.28294 299.16353 286.97711
 274.69970 262.60729 250.62688 239.93846 230.07105 221.18564 213.37823 206.39081
 200.23540 195.18399 191.77658 189.82916 188.87675 188.95134 189.79693 191.11551
 192.85110 194.95669 197.23028 199.59986 202.05545 204.54604 206.64463 208.49721
 210.13380 211.28939 211.52898 211.76756 211.71515 211.43074 211.07433 210.71491
 210.34250 210.06309 209.88168 209.75626 209.69485 210.03644 210.43303 210.83261
 211.63620 212.82479 214.08538 215.87896 217.81755 219.87114 221.97673 224.07031
 226.14090 228.23549 230.34308 232.45966 234.59925 236.78184 239.04843 241.42901
 244.06060 246.32219 248.33478 250.11036 251.53795 252.67154 253.50413 253.83071
 253.87830 253.66289 253.03348 251.99206 250.60865 248.78024 246.69983 244.54341
 242.34500 240.15959 237.99018 235.83976 233.71035 231.58794 229.62453 227.79211
 226.08570 224.56829 223.20888 221.99146 220.88405 219.85464 218.96923 218.12081
 217.37340 216.56399 215.67258 215.04716 214.50775 214.89314 215.66649 215.63196
 215.82967 215.01363 213.96451 214.40807 216.73828 220.73662 225.33182 229.24335
 232.46190 236.49985 241.03604 245.62180 249.87646 253.68460 257.11075 260.26910
 263.21075 265.99500 268.51776 270.58868 272.40244 274.18759 275.79544 277.04984
 278.45752 280.29388 282.24762 283.96313 285.44775 286.76129 287.95969 289.04532
 290.02176 290.89127 291.65088 292.61890
 366.78100 356.34514 345.78727 334.66341 323.07654 311.28068 299.16082 286.97395
 274.69609 262.60322 250.62236 239.93350 230.06563 221.17977 213.37190 206.38404
 200.22818 195.17631 191.76845 189.82058 188.86772 188.94186 189.78699 191.10513
 192.84026 194.94540 197.21854 199.58767 202.04281 204.53294 206.63108 208.48322
 210.11935 211.27449 211.51362 211.75176 211.69890 211.41403 211.05717 210.69730
 210.32444 210.04458 209.86271 209.73685 209.67498 210.01612 210.41226 210.81139
 211.61453 212.80266 214.06280 215.85594 217.79407 219.84721 221.95234 224.04548
 226.11562 228.20975 230.31689 232.43302 234.57216 236.75430 239.02043 241.40057
 244.03170 246.29284 248.30498 250.08011 251.50725 252.64038 253.47252 253.79866
 253.84579 253.62993 253.00006 251.95820 250.57434 248.74547 246.66461 244.50774
 242.30888 240.12302 237.95315 235.80229 233.67242 231.54956 229.58570 227.75283
 226.04597 224.52810 223.16824 221.95038 220.84251 219.81265 218.92678 218.07792
 217.33006 216.52019 215.62833 215.00246 214.46260 214.86516 215.69162 215.50868
 215.71831 215.28879 214.25186 214.46376 216.72379 220.61603 225.15329 229.05646
 232.27319 236.42870 241.05441 245.64949 249.84662 253.57086 256.93896 260.10284
 263.11630 266.01572 268.70798 270.94550 272.89539 274.72592 276.31110 277.61380
 278.83047 280.39468 281.98804 283.57443 284.94730 286.16196 287.27014 288.27408
 289.17700 289.98105 290.68347 291.57861
 366.78100 356.34501 345.78702 334.66303 323.07604 311.28005 299.16006 286.97307
 274.69508 262.60209 250.62110 239.93210 230.06411 221.17812 213.37013 206.38214
 200.22615 195.17416 191.76617 189.81818 188.86519 188.93920 189.78421 191.10222
 192.83723 194.94224 197.21525 199.58426 202.03927 204.52928 206.62729 208.47929
 210.11530 211.27031 211.50932 211.74733 211.69434 211.40935 211.05236 210.69237
 210.31938 210.03939 209.85740 209.73141 209.66942 210.01043 210.40644 210.80545
 211.60846 212.79647 214.05648 215.84949 217.78749 219.84050 221.94551 224.03852
 226.10853 228.20254 230.30955 232.42556 234.56457 236.74658 239.01259 241.39260
 244.02361 246.28462 248.29663 250.07164 251.49865 252.63166 253.46367 253.78968
 253.83668 253.62069 252.99070 251.94871 250.56472 248.73573 246.65474 244.49775
 242.29876 240.11277 237.94278 235.79179 233.66180 231.53881 229.57482 227.74183
 226.03484 224.51685 223.15686 221.93887 220.83088 219.80088 218.91489 218.06590
 217.31791 216.50792 215.61593 214.98994 214.44995 214.83160 215.68620 215.56677
 215.47261 215.26817 214.34164 214.42447 216.64601 220.50453 225.16379 228.94560
 232.34995 236.46960 241.06770 245.59888 249.72900 253.37967 256.67877 259.80789
 262.83432 265.76907 268.51288 270.89075 272.93558 274.78891 276.44016 277.87152
 279.18851 280.43982 281.70053 282.92633 284.03430 285.02560 285.94748 286.78265
 287.53378 288.20267 288.78702 289.53168
 366.78100 356.34667 345.79034 334.66802 323.08269 311.28836 299.17003 286.98471
 274.70838 262.61705 250.63772 239.95039 230.08407 221.19974 213.39341 206.40708
 200.25276 195.20243 191.79610 189.84977 188.89845 188.97412 189.82079 191.14046
 192.87713 194.98381 197.25848 199.62915 202.08582 204.57750 206.67717 208.53084
 210.16851 211.32518 211.56586 211.80553 211.75420 211.47087 211.11555 210.75722
 210.38589 210.10756 209.92724 209.80291 209.74258 210.08525 210.48292 210.88360
 211.68827 212.87794 214.13961 215.93429 217.87396 219.92863 222.03530 224.12997
 226.20165 228.29732 230.40599 232.52366 234.66434 236.84801 239.11568 241.49735
 244.13002 246.39270 248.40637 250.18304 251.61171 252.74639 253.58006 253.90773
 253.95640 253.74208 253.11375 252.07342 250.69109 248.86376 246.78444 244.62911
 242.43178 240.24745 238.07913 235.92980 233.80147 231.68014 229.71781 227.88649
 226.18116 224.66483 223.30650 222.09018 220.98385 219.95552 219.07119 218.22386
 217.47754 216.66921 215.77888 215.15455 214.61623 214.89018 215.53343 215.78535
 215.59781 215.23425 214.25797 214.15729 216.43837 220.40689 225.20322 228.79262
 232.32106 236.45007 241.12564 245.66591 249.79985 253.42584 256.68832 259.76218
 262.75058 265.66510 268.41855 270.85236 272.94278 274.79752 276.41385 277.81128
 279.11688 280.36551 281.50177 282.55496 283.50891 284.22220 284.98715 285.80447
 286.55841 287.22980 287.81631 288.56375
 366.78100 356.34902 345.79503 334.67505 323.09206 311.30008 299.18409 287.00111
 274.72712 262.63814 250.66115 239.97617 230.11218 221.23020 213.42622 206.44223
 200.29025 195.24226 191.83828 189.89429 188.94531 189.02332 189.87234 191.19435
 192.93337 195.04239 197.31940 199.69242 202.15143 204.64545 206.74746 208.60348
 210.24349 211.40251 211.64552 211.88754 211.83855 211.55757 211.20459 210.84860
 210.47962 210.20363 210.02565 209.90366 209.84568 210.19069 210.59071 210.99372
 211.80074 212.99275 214.25677 216.05379 217.99580 220.05282 222.16183 224.25885
 226.33286 228.43088 230.54189 232.66191 234.80492 236.99094 239.26095 241.64497
 244.27999 246.54500 248.56102 250.34003 251.77105 252.90806 253.74408 254.07409
 254.12511 253.91312 253.28714 252.24916 250.86917 249.04419 246.96720 244.81422
 242.61923 240.43725 238.27126 236.12428 233.99829 231.87931 229.91932 228.09034
 226.38736 224.87337 223.51739 222.30340 221.19942 220.17343 219.29145 218.44646
 217.70248 216.89649 216.00851 215.38652 214.85054 215.00468 215.37187 215.79529
 215.84712 215.31148 214.20456 213.94115 216.28041 220.31372 225.09978 228.68138
 232.23659 236.44922 241.17932 245.76219 249.91504 253.55391 256.81357 259.85492
 262.78391 265.65683 268.40829 270.86765 272.98663 274.84280 276.42276 277.77518
 279.08887 280.36743 281.51834 282.49875 283.35501 284.10144 284.86743 285.65338
 286.38004 287.02710 287.59238 288.31277
 366.78100 356.34953 345.79605 334.67658 323.09411 311.30263 299.18716 287.00469
 274.73121 262.64274 250.66627 239.98179 230.11832 221.23685 213.43337 206.44990
 200.29843 195.25095 191.84748 189.90401 188.95553 189.03406 189.88359 191.20611
 192.94564 195.05517 197.33269 199.70622 202.16575 204.66027 206.76280 208.61933
 210.25986 211.41938 211.66291 211.90544 211.85696 211.57649 211.22402 210.86854
 210.50007 210.22460 210.04712 209.92565 209.86818 210.21370 210.61423 211.01776
 211.82528 213.01781 214.28234 216.07986 218.02239 220.07992 222.18944 224.28697
 226.36150 228.46002 230.57155 232.69208 234.83560 237.02213 239.29266 241.67718
 244.31271 246.57824 248.59476 250.37429 251.80582 252.94334 253.77987 254.11040
 254.16192 253.95045 253.32498 252.28750 250.90803 249.08356 247.00708 244.85461
 242.66014 240.47866 238.31319 236.16672 234.04124 231.92277 229.96330 228.13482
 226.43235 224.91888 223.56341 222.34993 221.24646 220.22099 219.33951 218.49504
 217.75157 216.94609 216.05862 215.43715 214.90167 215.03758 215.36372 215.70724
 215.82410 215.21640 214.21461 214.01875 216.28908 220.25575 224.94073 228.67526
 232.16827 236.46744 241.21190 245.83101 249.99332 253.64296 256.90344 259.91708
 262.79285 265.62543 268.36545 270.82458 272.94662 274.78641 276.33334 277.71503
 279.07166 280.37650 281.45111 282.31088 283.19006 284.14844 285.06656 285.90067
 286.65085 287.31888 287.90247 288.64618
 366.78100 356.34867 345.79434 334.67401 323.09069 311.29836 299.18203 286.99870
 274.72437 262.63504 250.65771 239.97238 230.10806 221.22573 213.42140 206.43707
 200.28474 195.23641 191.83208 189.88776 188.93843 189.01610 189.86477 191.18644
 192.92511 195.03378 197.31045 199.68313 202.14180 204.63547 206.73714 208.59281
 210.23248 211.39115 211.63382 211.87550 211.82617 211.54484 211.19151 210.83518
 210.46585 210.18952 210.01120 209.88887 209.83054 210.17521 210.57488 210.97755
 211.78422 212.97589 214.23957 216.03624 217.97791 220.03458 222.14325 224.23992
 226.31359 228.41127 230.52194 232.64161 234.78428 236.96995 239.23962 241.62329
 244.25796 246.52264 248.53831 250.31698 251.74765 252.88432 253.71999 254.04966
 254.10033 253.88801 253.26168 252.22335 250.84302 249.01769 246.94036 244.78703
 242.59171 240.40938 238.24305 236.09572 233.96939 231.85006 229.88973 228.06040
 226.35708 224.84275 223.48642 222.27209 221.16776 220.14143 219.25910 218.41378
 217.66945 216.86312 215.97479 215.35246 214.81613 214.99815 215.42281 215.65407
 215.78574 215.21799 214.33458 214.19603 216.38275 220.26172 224.88113 228.66170
 232.13123 236.47243 241.24794 245.90201 250.07814 253.72359 256.97122 259.95840
 262.79050 265.59543 268.33850 270.79602 272.92822 274.76529 276.29932 277.69336
 279.07727 280.30325 281.21494 282.12704 283.18878 284.21893 285.17084 286.03320
 286.80884 287.49951 288.10287 288.87180
 366.78100 356.34808 345.79315 334.67223 323.08830 311.29538 299.17845 286.99453
 274.71960 262.62968 250.65175 239.96583 230.10090 221.21798 213.41305 206.42813
 200.27520 195.22628 191.82135 189.87643 188.92650 189.00358 189.85165 191.17273
 192.91080 195.01888 197.29495 199.66703 202.12510 204.61818 206.71925 208.57433
 210.21340 211.37148 211.61355 211.85463 211.80470 211.52278 211.16885 210.81193
 210.44200 210.16508 209.98615 209.86323 209.80430 210.14838 210.54745 210.94953
 211.75560 212.94668 214.20975 216.00583 217.94690 220.00298 222.11105 224.20713
 226.28020 228.37728 230.48735 232.60643 234.74850 236.93358 239.20265 241.58573
 244.21980 246.48388 248.49895 250.27703 251.70710 252.84318 253.67825 254.00733
 254.05740 253.84448 253.21755 252.17863 250.79770 248.97178 246.89385 244.73993
 242.54400 240.36108 238.19415 236.04623 233.91930 231.79938 229.83845 228.00853
 226.30460 224.78968 223.43275 222.21783 221.11290 220.08598 219.20305 218.35713
 217.61220 216.80528 215.91635 215.29343 214.75650 214.97075 215.45609 215.59302
 215.84714 215.25970 214.34949 214.22404 216.38821 220.22801 224.79350 228.57449
 232.06834 236.45134 241.26518 245.94717 250.13458 253.78384 257.03604 260.02570
 262.84705 265.64514 268.38431 270.86465 273.02856 274.88705 276.40790 277.77902
 279.12155 280.25571 281.09192 282.06586 283.18051 284.22440 285.17679 286.03958
 286.81555 287.50656 288.11023 288.87952
 366.78100 356.34735 345.79171 334.67006 323.08541 311.29177 299.17412 286.98948
 274.71383 262.62318 250.64454 239.95789 230.09224 221.20860 213.40295 206.41731
 200.26366 195.21401 191.80837 189.86272 188.91207 188.98843 189.83578 191.15614
 192.89349 195.00084 197.27620 199.64755 202.10490 204.59726 206.69761 208.55197
 210.19032 211.34767 211.58903 211.82938 211.77873 211.49609 211.14144 210.78380
 210.41315 210.13550 209.95586 209.83221 209.77256 210.11592 210.51427 210.91562
 211.72098 212.91133 214.17369 215.96904 217.90939 219.96475 222.07210 224.16745
 226.23981 228.33616 230.44552 232.56387 234.70522 236.88958 239.15793 241.54028
 244.17364 246.43699 248.45135 250.22870 251.65805 252.79341 253.62776 253.95611
 254.00547 253.79182 253.16418 252.12453 250.74288 248.91624 246.83759 244.68294
 242.48630 240.30265 238.13500 235.98636 233.85871 231.73807 229.77642 227.94577
 226.24113 224.72548 223.36783 222.15219 221.04654 220.01890 219.13525 218.28860
 217.54296 216.73531 215.84566 215.22202 214.68437 214.93704 215.49306 215.48872
 215.90149 215.42433 214.41113 214.18118 216.31512 220.14827 224.65392 228.42596
 231.96973 236.40894 241.25967 245.94753 250.11635 253.75734 257.02411 260.04349
 262.87915 265.69272 268.46350 270.99124 273.20856 275.12796 276.66403 277.98422
 279.26776 280.36621 281.13022 282.07336 283.19977 284.24429 285.19727 286.06058
 286.83707 287.52850 288.13254 288.90231
 366.78100 356.34618 345.78935 334.66653 323.08071 311.28588 299.16706 286.98123
 274.70441 262.61259 250.63276 239.94494 230.07812 221.19329 213.38647 206.39965
 200.24482 195.19400 191.78717 189.84035 188.88853 188.96370 189.80988 191.12906
 192.86523 194.97141 197.24559 199.61576 202.07194 204.56311 206.66229 208.51547
 210.15264 211.30882 211.54900 211.78817 211.73635 211.45252 211.09670 210.73788
 210.36605 210.08723 209.90641 209.78158 209.72076 210.06294 210.46011 210.86029
 211.66446 212.85364 214.11482 215.90899 217.84817 219.90235 222.00852 224.10270
 226.17388 228.26905 230.37723 232.49440 234.63458 236.81776 239.08493 241.46611
 244.09829 246.36046 248.37364 250.14982 251.57799 252.71217 253.54534 253.87252
 253.92070 253.70587 253.07705 252.03623 250.65340 248.82558 246.74576 244.58993
 242.39211 240.20728 238.03846 235.88864 233.75981 231.63799 229.67517 227.84334
 226.13752 224.62070 223.26187 222.04505 220.93822 219.90940 219.02458 218.17675
 217.42993 216.62111 215.73028 215.10546 214.56664 214.86713 215.54262 215.45670
 215.74312 215.49062 214.51871 214.15959 216.22310 220.08070 224.58601 228.31599
 231.91225 236.37724 241.23366 245.88997 250.01947 253.64284 256.91473 259.94437
 262.80240 265.63712 268.44708 271.03860 273.32425 275.30374 276.90720 278.22940
 279.50186 280.62515 281.40775 282.04785 282.98416 283.96255 284.87656 285.70459
 286.44931 287.11249 287.69183 288.43015
 366.78100 356.34628 345.78957 334.66685 323.08113 311.28642 299.16770 286.98198
 274.70526 262.61355 250.63383 239.94611 230.07940 221.19468 213.38796 206.40125
 200.24653 195.19581 191.78909 189.84238 188.89066 188.96594 189.81223 191.13151
 192.86779 194.97408 197.24836 199.61864 202.07492 204.56621 206.66549 208.51877
 210.15606 211.31234 211.55262 211.79191 211.74019 211.45647 211.10075 210.74204
 210.37032 210.09160 209.91089 209.78617 209.72545 210.06774 210.46502 210.86530
 211.66958 212.85887 214.12015 215.91443 217.85372 219.90800 222.01428 224.10857
 226.17985 228.27513 230.38341 232.50070 234.64098 236.82426 239.09155 241.47283
 244.10511 246.36740 248.38068 250.15696 251.58524 252.71953 253.55281 253.88009
 253.92838 253.71366 253.08494 252.04423 250.66151 248.83379 246.75407 244.59836
 242.40064 240.21592 238.04721 235.89749 233.76877 231.64706 229.68434 227.85262
 226.14690 224.63019 223.27147 222.05475 220.94804 219.91932 219.03460 218.18689
 217.44017 216.63145 215.74074 215.11602 214.57730 214.85625 215.50375 215.57838
 215.61641 215.46828 214.63130 214.13634 216.13467 220.03574 224.56491 228.19180
 231.85147 236.34508 241.22565 245.87126 249.98238 253.59863 256.86768 259.88269
 262.72614 265.54132 268.33875 270.95831 273.29840 275.33984 276.97470 278.32608
 279.60519 280.74588 281.55630 282.12524 282.79272 283.68918 284.57626 285.35617
 286.05759 286.68222 287.22787 287.92325
 366.78100 356.34730 345.79160 334.66990 323.08520 311.29149 299.17379 286.98909
 274.71339 262.62269 250.64399 239.95729 230.09159 221.20789 213.40219 206.41648
 200.26278 195.21308 191.80738 189.86168 188.91098 188.98728 189.83458 191.15488
 192.89217 194.99947 197.27477 199.64607 202.10337 204.59567 206.69597 208.55027
 210.18857 211.34587 211.58716 211.82746 211.77676 211.49406 211.13936 210.78166
 210.41096 210.13326 209.95356 209.82985 209.77015 210.11345 210.51175 210.91305
 211.71835 212.90865 214.17095 215.96625 217.90654 219.96184 222.06914 224.16444
 226.23674 228.33304 230.44234 232.56064 234.70194 236.88624 239.15453 241.53683
 244.17013 246.43343 248.44773 250.22503 251.65433 252.78963 253.62393 253.95222
 254.00152 253.78782 253.16012 252.12042 250.73872 248.91202 246.83332 244.67862
 242.48192 240.29821 238.13051 235.98181 233.85411 231.73341 229.77171 227.94101
 226.23631 224.72061 223.36290 222.14720 221.04150 220.01380 219.13010 218.28340
 217.53770 216.73000 215.84030 215.21660 214.67889 214.89926 215.41794 215.66824
 215.63574 215.42920 214.71379 214.12968 216.07211 219.99474 224.52301 228.08716
 231.79611 236.32446 241.23544 245.88332 249.99643 253.62851 256.91736 259.93216
 262.74072 265.49768 268.26071 270.88800 273.27014 275.35352 277.01630 278.36963
 279.68506 280.84747 281.66614 282.19452 282.76251 283.53769 284.38333 285.12997
 285.75107 286.30417 286.78732 287.40308
 366.78100 356.34736 345.79171 334.67007 323.08543 311.29178 299.17414 286.98949
 274.71385 262.62321 250.64456 239.95792 230.09228 221.20863 213.40299 206.41734
 200.26370 195.21406 191.80841 189.86277 188.91213 188.98848 189.83584 191.15620
 192.89355 195.00091 197.27626 199.64762 202.10498 204.59733 206.69769 208.55205
 210.19040 211.34776 211.58911 211.82947 211.77883 211.49618 211.14154 210.78390
 210.41325 210.13561 209.95597 209.83232 209.77268 210.11603 210.51439 210.91575
 211.72110 212.91146 214.17382 215.96917 217.90953 219.96488 222.07224 224.16760
 226.23995 228.33631 230.44567 232.56402 234.70538 236.88974 239.15809 241.54045
 244.17380 246.43716 248.45152 250.22887 251.65823 252.79359 253.62794 253.95630
 254.00565 253.79201 253.16437 252.12472 250.74308 248.91644 246.83779 244.68315
 242.48651 240.30286 238.13522 235.98657 233.85893 231.73829 229.77664 227.94600
 226.24136 224.72571 223.36807 222.15242 221.04678 220.01914 219.13549 218.28885
 217.54321 216.73556 215.84592 215.22228 214.68463 214.90121 215.41118 215.65099
 215.71239 215.37471 214.70992 214.10497 216.02077 219.96732 224.45190 228.01180
 231.75125 236.31232 241.23906 245.88135 249.99690 253.64835 256.96399 259.99255
 262.78110 265.48462 268.19849 270.82480 273.25644 275.40536 277.11218 278.48166
 279.81958 280.99393 281.80228 282.28293 282.78290 283.49466 284.30399 285.03217
 285.60321 286.11172 286.55594 287.12204
 366.78100 356.34581 345.78862 334.66544 323.07925 311.28406 299.16487 286.97869
 274.70150 262.60931 250.62912 239.94094 230.07375 221.18856 213.38137 206.39419
 200.23900 195.18781 191.78062 189.83344 188.88125 188.95606 189.80187 191.12069
 192.85650 194.96231 197.23612 199.60594 202.06175 204.55256 206.65137 208.50419
 210.14100 211.29681 211.53662 211.77544 211.72325 211.43906 211.08287 210.72368
 210.35150 210.07231 209.89112 209.76593 209.70475 210.04656 210.44337 210.84318
 211.64700 212.83581 214.09662 215.89043 217.82925 219.88306 221.98887 224.08268
 226.15350 228.24831 230.35612 232.47293 234.61275 236.79556 239.06237 241.44318
 244.07500 246.33681 248.34962 250.12543 251.55325 252.68706 253.51987 253.84668
 253.89449 253.67931 253.05012 252.00893 250.62574 248.79756 246.71737 244.56118
 242.36299 240.17781 238.00862 235.85843 233.72924 231.60706 229.64387 227.81168
 226.10549 224.58831 223.22912 222.01193 220.90474 219.87556 218.99037 218.14218
 217.39499 216.58581 215.69462 215.06943 214.53024 214.82494 215.51414 215.55435
 215.74272 215.35857 214.68716 214.08510 215.99400 219.92126 224.38277 227.97597
 231.72403 236.30704 241.23846 245.86850 249.98116 253.64470 256.97910 260.01892
 262.80005 265.46588 268.12646 270.73807 273.22260 275.45624 277.23013 278.63327
 279.99112 281.17072 281.97110 282.41714 282.85995 283.49359 284.25226 284.94061
 285.46725 285.93622 286.34589 286.86798
 366.78100 356.34415 345.78530 334.66045 323.07260 311.27575 299.15491 286.96706
 274.68821 262.59436 250.61251 239.92266 230.05381 221.16696 213.35811 206.36926
 200.21241 195.15957 191.75072 189.80187 188.84802 188.92117 189.76532 191.08247
 192.81662 194.92077 197.19292 199.56107 202.01523 204.50438 206.60153 208.45268
 210.08783 211.24198 211.48013 211.71728 211.66343 211.37758 211.01973 210.65889
 210.28504 210.00419 209.82134 209.69449 209.63164 209.97179 210.36694 210.76509
 211.56724 212.75439 214.01354 215.80570 217.74285 219.79500 221.89915 223.99130
 226.06045 228.15360 230.25975 232.37490 234.51305 236.69420 238.95936 241.33851
 243.96866 246.22881 248.23996 250.01411 251.44026 252.57241 253.40356 253.72871
 253.77486 253.55802 252.92717 251.88432 250.49947 248.66962 246.58777 244.42992
 242.23007 240.04322 237.87237 235.72052 233.58968 231.46583 229.50098 227.66713
 225.95928 224.44043 223.07958 221.86073 220.75188 219.72103 218.83418 217.98434
 217.23549 216.42464 215.53179 214.90494 214.36409 214.74016 215.61977 215.50180
 215.69124 215.36688 214.66132 214.04312 215.97815 219.89944 224.36090 227.96498
 231.71402 236.30682 241.23900 245.85623 249.96307 253.63460 256.98227 260.02991
 262.80688 265.44025 268.04080 270.62527 273.15210 275.46948 277.32147 278.77725
 280.16580 281.35721 282.14658 282.54413 282.92343 283.48566 284.19052 284.87332
 285.35297 285.78012 286.15326 286.62878
 366.78100 356.34381 345.78461 334.65942 323.07123 311.27403 299.15284 286.96464
 274.68545 262.59126 250.60906 239.91887 230.04968 221.16248 213.35329 206.36410
 200.20690 195.15371 191.74451 189.79532 188.84113 188.91393 189.75774 191.07455
 192.80835 194.91216 197.18397 199.55177 202.00558 204.49438 206.59119 208.44200
 210.07680 211.23061 211.46842 211.70522 211.65103 211.36484 211.00664 210.64545
 210.27125 209.99006 209.80687 209.67967 209.61648 209.95629 210.35109 210.74890
 211.55071 212.73751 213.99632 215.78812 217.72493 219.77674 221.88054 223.97235
 226.04116 228.13396 230.23977 232.35458 234.49238 236.67319 238.93799 241.31680
 243.94661 246.20641 248.21722 249.99103 251.41683 252.54864 253.37944 253.70425
 253.75006 253.53286 252.90167 251.85848 250.47328 248.64309 246.56090 244.40270
 242.20251 240.01531 237.84412 235.69193 233.56073 231.43654 229.47135 227.63715
 225.92896 224.40977 223.04857 221.82938 220.72018 219.68899 218.80180 217.95160
 217.20241 216.39122 215.49802 214.87083 214.32964 214.71822 215.63335 215.56578
 215.60620 215.36275 214.61629 213.95932 215.94148 219.88698 224.36826 227.95497
 231.70705 236.30534 241.24344 245.85098 249.95271 253.63101 256.98969 260.04227
 262.81726 265.42667 267.96661 270.50064 273.05182 275.44843 277.38116 278.89166
 280.30954 281.51694 282.28879 282.63675 282.97141 283.44659 284.09323 284.76157
 285.26788 285.66650 286.01474 286.45853
 366.78100 356.34408 345.78517 334.66025 323.07234 311.27542 299.15451 286.96659
 274.68767 262.59376 250.61184 239.92193 230.05301 221.16610 213.35718 206.36827
 200.21135 195.15843 191.74952 189.80060 188.84669 188.91977 189.76386 191.08094
 192.81502 194.91911 197.19119 199.55928 202.01336 204.50245 206.59953 208.45062
 210.08570 211.23978 211.47787 211.71495 211.66104 211.37512 211.01721 210.65629
 210.28237 210.00146 209.81854 209.69163 209.62871 209.96880 210.36388 210.76197
 211.56405 212.75113 214.01022 215.80230 217.73939 219.79147 221.89556 223.98764
 226.05672 228.14981 230.25589 232.37098 234.50906 236.69015 238.95523 241.33432
 243.96440 246.22448 248.23557 250.00965 251.43574 252.56782 253.39891 253.72399
 253.77007 253.55316 252.92224 251.87933 250.49441 248.66450 246.58258 244.42467
 242.22475 240.03783 237.86692 235.71500 233.58409 231.46017 229.49526 227.66134
 225.95342 224.43451 223.07359 221.85468 220.74576 219.71485 218.82793 217.97802
 217.22910 216.41818 215.52527 214.89835 214.35744 214.72623 215.59755 215.67641
 215.53450 215.34369 214.58867 213.86301 215.88518 219.85870 224.35284 227.92348
 231.69850 236.30676 241.24312 245.83789 249.93735 253.63187 257.01031 260.07526
 262.85245 265.43579 267.91293 270.38641 272.94620 275.42062 277.44775 279.03217
 280.45639 281.64420 282.36548 282.68210 283.03159 283.50314 284.10678 284.77206
 285.38858 285.79547 286.15091 286.60388
 366.78100 356.34439 345.78579 334.66118 323.07358 311.27697 299.15636 286.96876
 274.69015 262.59654 250.61494 239.92533 230.05673 221.17012 213.36151 206.37291
 200.21630 195.16369 191.75509 189.80648 188.85288 188.92627 189.77066 191.08806
 192.82245 194.92685 197.19924 199.56763 202.02203 204.51142 206.60881 208.46021
 210.09560 211.25000 211.48839 211.72578 211.67218 211.38657 211.02897 210.66836
 210.29475 210.01415 209.83154 209.70493 209.64233 209.98272 210.37812 210.77651
 211.57890 212.76630 214.02569 215.81808 217.75548 219.80787 221.91227 224.00466
 226.07405 228.16745 230.27384 232.38924 234.52763 236.70902 238.97442 241.35381
 243.98420 246.24460 248.25599 250.03039 251.45678 252.58917 253.42057 253.74596
 253.79236 253.57575 252.94514 251.90254 250.51793 248.68832 246.60672 244.44911
 242.24951 240.06290 237.89229 235.74069 233.61008 231.48647 229.52187 227.68826
 225.98066 224.46205 223.10144 221.88284 220.77423 219.74363 218.85702 218.00741
 217.25881 216.44820 215.55559 214.92899 214.38838 214.73566 215.55615 215.77412
 215.54230 215.24136 214.54924 213.88263 215.87704 219.79764 224.31012 227.85806
 231.67485 236.29868 241.24498 245.82571 249.92455 253.63533 257.03149 260.10822
 262.89526 265.47464 267.90961 270.30255 272.82874 275.38757 277.52039 279.14603
 280.57431 281.77151 282.50650 282.85254 283.17780 283.57980 284.07318 284.70755
 285.30304 285.75583 286.07178 286.47446
 366.78100 356.34420 345.78540 334.66060 323.07279 311.27599 299.15519 286.96739
 274.68859 262.59479 250.61298 239.92318 230.05438 221.16758 213.35878 206.36998
 200.21317 195.16037 191.75157 189.80277 188.84897 188.92217 189.76636 191.08356
 192.81776 194.92196 197.19416 199.56236 202.01655 204.50575 206.60295 208.45415
 210.08935 211.24355 211.48174 211.71894 211.66514 211.37934 211.02154 210.66074
 210.28693 210.00613 209.82333 209.69653 209.63373 209.97393 210.36912 210.76732
 211.56952 212.75672 214.01592 215.80812 217.74531 219.79751 221.90171 223.99391
 226.06311 228.15631 230.26250 232.37770 234.51590 236.69710 238.96230 241.34150
 243.97169 246.23189 248.24309 250.01729 251.44349 252.57569 253.40688 253.73208
 253.77828 253.56148 252.93068 251.88788 250.50307 248.67327 246.59147 244.43367
 242.23387 240.04707 237.87627 235.72446 233.59366 231.46986 229.50506 227.67126
 225.96346 224.44465 223.08385 221.86505 220.75625 219.72545 218.83865 217.98884
 217.24004 216.42924 215.53644 214.90964 214.36884 214.72495 215.56633 215.78857
 215.64021 215.17792 214.36906 213.70638 215.87027 219.78419 224.25800 227.92000
 231.71851 236.33423 241.24991 245.82848 249.93069 253.65544 257.05856 260.13431
 262.91571 265.46362 267.84650 270.19904 272.73657 275.38998 277.62152 279.32904
 280.80460 281.94269 282.57779 282.82272 283.16162 283.63992 284.18762 284.84433
 285.50351 286.06454 286.42624 286.88715
 354.97500 345.04800 334.58700 324.11500 313.32600 302.53700 291.65000 280.76700
 269.93100 259.19300 248.62200 238.61700 229.08700 220.35500 212.54000 205.53500
 199.46400 194.49300 191.14300 189.19000 188.08900 188.01400 188.72400 189.90600
 191.46900 193.38200 195.40300 197.55600 199.80700 202.06000 204.28800 206.47900
 208.55200 210.37800 212.02500 213.65900 214.99800 216.11800 217.17200 218.25900
 219.49400 220.64500 221.67900 222.61400 223.54500 224.98200 226.57100 228.19000
 229.79700 231.81100 233.86500 235.97200 238.24200 240.55300 242.89900 245.25300
 247.48800 249.53500 251.36600 252.84800 254.09800 255.16700 256.02700 256.25300
 256.09500 255.54300 253.93500 252.56600 251.38400 250.24500 249.05200 247.70100
 246.01600 243.99600 241.78400 239.39300 236.81300 234.22300 231.65800 229.14400
 226.74000 224.47300 222.33500 220.32500 218.44000 216.67700 214.96200 213.47200
 212.20000 211.10800 210.26000 209.63900 209.24400 209.03100 209.05800 209.33300
 209.78400 210.62600 211.33100 212.39100 213.62500 214.84668 217.72949 219.47640
 220.32566 220.86828 220.88710 220.27371 219.43733 218.84250 219.04934 220.86203
 222.60583 225.72206 229.03064 232.61777 236.12270 239.51333 242.70767 245.68587
 248.41061 250.90679 253.19353 254.91714 256.48655 257.94920 259.39966 260.69384
 261.81714 262.77997 263.71679 264.54570 265.26305 265.89772 266.47676 267.00133
 267.47312 267.89325 268.26027 268.72800
