|-------------------------------------------------------------------------|
|   File Name : in_temp.dat
|   Subject   : temperature profiles used for initial guess atmosphere
|   File Type : input of gmtr
|   Data Type : atmospherical data
|   Author/s  : WRF-Chem
|   Date      : Fri Jul 26 15:39:24 2024
|-------------------------------------------------------------------------|

 WRF-Chem temperature
#
 values of T (K)    (8f10.5)
#
 354.97500 345.04800 334.58700 324.11500 313.32600 302.53700 291.65000 280.76700
 269.93100 259.19300 248.62200 238.61700 229.08700 220.35500 212.54000 205.53500
 199.46400 194.49300 191.14300 189.19000 188.08900 188.01400 188.72400 189.90600
 191.46900 193.38200 195.40300 197.55600 199.80700 202.06000 204.28800 206.47900
 208.55200 210.37800 212.02500 213.65900 214.99800 216.11800 217.17200 218.25900
 219.49400 220.64500 221.67900 222.61400 223.54500 224.98200 226.57100 228.19000
 229.79700 231.81100 233.86500 235.97200 238.24200 240.55300 242.89900 245.25300
 247.48800 249.53500 251.36600 252.84800 254.09800 255.16700 256.02700 256.25300
 256.09500 255.54300 253.93500 252.56600 251.38400 250.24500 249.05200 247.70100
 246.01600 243.99600 241.78400 239.39300 236.81300 234.22300 231.65800 229.14400
 226.74000 224.47300 222.33500 220.32500 218.44000 216.67700 214.96200 213.47200
 212.20000 211.10800 210.26000 209.63900 209.24400 209.03100 209.05800 209.33300
 209.78400 210.62600 211.33100 212.39100 213.62500 214.84668 217.72949 219.47640
 220.32566 220.86828 220.88710 220.27371 219.43733 218.84250 219.04934 220.86203
 222.60583 225.72206 229.03064 232.61777 236.12270 239.51333 242.70767 245.68587
 248.41061 250.90679 253.19353 254.91714 256.48655 257.94920 259.39966 260.69384
 261.81714 262.77997 263.71679 264.54570 265.26305 265.89772 266.47676 267.00133
 267.47312 267.89325 268.26027 268.72800
 366.78100 356.33500 345.76700 334.63300 323.03600 311.23000 299.10000 286.90300
 274.61500 262.51200 250.52100 239.82200 229.94400 221.04800 213.23000 206.23200
 200.06600 195.00400 191.58600 189.62800 188.66500 188.72900 189.56400 190.87200
 192.59700 194.69200 196.95500 199.31400 201.75900 204.23900 206.32700 208.16900
 209.79500 210.94000 211.16900 211.39700 211.33400 211.03900 210.67200 210.30200
 209.91900 209.62900 209.43700 209.30100 209.22900 209.56000 209.94600 210.33500
 211.12800 212.30600 213.55600 215.33900 217.26700 219.31000 221.40500 223.48800
 225.54800 227.63200 229.72900 231.83500 233.96400 236.13600 238.39200 240.76200
 243.38300 245.63400 247.63600 249.40100 250.81800 251.94100 252.76300 253.07900
 253.11600 252.89000 252.25000 251.19800 249.80400 247.96500 245.87400 243.70700
 241.49800 239.30200 237.12200 234.96100 232.82100 230.68800 228.71400 226.87100
 225.15400 223.62600 222.25600 221.02800 219.91000 218.87000 217.97400 217.11500
 216.35700 215.53700 214.63500 213.99900 213.44900 212.85855 212.01316 212.61654
 214.26826 216.08686 218.14273 220.53346 223.40855 226.78828 231.49734 235.90155
 239.42278 243.28576 247.23140 251.11907 254.80144 258.23331 261.38913 264.27520
 266.89312 269.26852 271.44504 273.08845 274.58484 275.98591 277.39845 278.65879
 279.75272 280.69038 281.56708 282.34086 283.01050 283.60295 284.14348 284.63317
 285.07358 285.46577 285.80838 286.24500
 381.81900 372.39900 361.20600 349.77600 337.62200 324.85300 311.81000 298.35300
 284.86000 271.32400 258.56100 246.30400 236.08700 226.79600 218.44800 211.29000
 205.52200 200.89400 197.38100 194.84800 193.01500 192.31500 192.25000 192.43100
 192.91200 193.53700 194.13600 194.71200 195.26200 195.83100 196.39300 196.97600
 197.60400 198.14900 198.58400 199.05700 199.69500 200.37800 201.05400 201.70800
 202.31300 202.85700 203.35500 203.86200 204.56900 205.29700 206.02600 206.98700
 208.19300 209.44100 210.96900 212.57600 214.46200 216.51300 218.63000 220.85300
 223.34100 225.96200 228.73900 231.69700 234.70600 237.70600 240.69200 243.65700
 246.73700 249.69900 252.52100 255.06300 257.29000 259.23300 260.63300 261.68000
 262.46100 262.79800 262.69100 262.22400 261.06900 259.52500 257.70700 255.50700
 253.00100 250.30200 247.39800 244.45200 241.65400 239.05400 236.73300 234.59000
 232.59500 230.72500 228.83400 226.82600 224.66600 222.38700 220.10400 217.71500
 215.45900 213.06600 210.54600 208.09300 205.35400 202.08130 196.05959 200.71215
 209.01611 216.90438 223.84126 229.78593 235.00632 240.20838 245.98943 250.68668
 254.32982 257.93487 261.55666 264.96801 268.15192 271.06452 273.76717 276.25691
 278.57680 280.74479 282.77456 284.60533 286.27232 287.81705 289.31715 290.65561
 291.81734 292.81312 293.70701 294.49387 295.17482 295.77730 296.32696 296.82492
 297.27278 297.67160 298.02000 298.46400
 399.33000 389.90700 379.81300 368.66800 357.52200 345.30100 333.07400 320.22700
 307.21600 293.84800 280.37600 267.29600 254.61000 242.98700 232.15100 221.97700
 212.67200 204.28600 197.66900 192.82100 189.48600 187.45200 186.81400 187.08900
 187.78100 189.05400 190.64800 192.54200 194.63000 196.75200 198.67100 200.15800
 201.53500 202.48700 202.97500 203.34000 203.53900 203.49700 203.38500 203.24700
 203.00500 202.78600 202.60300 202.43700 202.42600 202.88800 203.42000 203.95100
 204.89500 205.99200 207.30100 208.95800 210.73800 213.10000 215.56400 218.18000
 220.96600 223.91800 226.96100 230.09200 233.29300 236.55700 239.95500 243.53700
 246.84500 249.39000 251.54200 253.47400 255.19500 256.48400 257.43100 258.05900
 258.21200 258.04000 257.58200 256.64300 255.23900 253.50700 251.40800 249.05600
 246.57600 243.99400 241.38900 238.83000 236.34400 233.98600 231.96900 230.11800
 228.42300 226.89900 225.54800 224.29700 223.10500 221.96500 220.95800 220.11300
 219.49000 218.92000 218.32500 217.88100 217.42300 216.96366 216.35568 216.80261
 217.73415 218.28582 218.64258 219.10077 220.44626 222.53987 226.38451 230.35736
 233.59734 237.39164 241.29814 245.22796 248.98002 252.51130 255.78595 258.80109
 261.54781 264.05210 266.34239 268.04198 269.58951 271.01303 272.35754 273.55718
 274.59842 275.49092 276.28989 276.99307 277.60161 278.14001 278.63122 279.07623
 279.47646 279.83287 280.14422 280.54100
 399.73800 389.78500 379.66200 368.15100 356.64100 344.35000 331.79200 318.88800
 305.72600 292.49300 279.20900 266.73800 254.69600 244.21100 234.45700 225.43300
 217.56900 210.45100 204.30000 199.30600 195.45800 192.57600 191.02700 190.38600
 190.23900 190.53400 191.16600 191.92500 192.79500 193.76600 194.73200 195.31200
 195.80000 196.05200 196.11500 196.11500 196.03900 195.72300 195.34000 194.98900
 194.75100 194.79200 195.13300 195.59800 196.50600 198.13600 199.85800 201.56600
 204.17900 206.82300 209.89300 213.28400 216.82800 220.60500 224.38700 228.20900
 232.03200 235.82500 239.56000 243.25800 246.84500 250.20100 253.70900 257.46800
 261.53000 264.22100 266.60100 268.68100 270.32900 271.74100 272.83600 273.47400
 273.89800 274.00200 273.75700 273.28800 272.37100 271.10000 269.58900 267.77900
 265.81600 263.72100 261.39300 258.91600 256.29800 253.42300 250.33100 247.11400
 243.83700 240.52900 237.24900 233.99900 230.72800 227.51500 224.25400 220.95200
 217.62700 213.65600 210.12100 206.78900 204.01000 201.99491 199.07309 198.76551
 199.40006 200.48994 201.46112 202.31912 203.45100 204.96110 207.47502 210.85391
 213.70530 217.29629 220.99574 224.72316 228.28753 231.64854 234.68024 237.40893
 239.70644 241.60899 243.46854 245.67368 247.68154 249.52395 251.24767 252.78566
 254.12057 255.26479 256.23740 257.09036 257.82852 258.48160 259.07744 259.61723
 260.10271 260.53504 260.91270 261.39400
 399.73800 389.78500 379.66200 368.15100 356.64100 344.35000 331.79200 318.88800
 305.72600 292.49300 279.20900 266.73800 254.69600 244.21100 234.45700 225.43300
 217.56900 210.45100 204.30000 199.30600 195.45800 192.57600 191.02700 190.38600
 190.23900 190.53400 191.16600 191.92500 192.79500 193.76600 194.73200 195.31200
 195.80000 196.05200 196.11500 196.11500 196.03900 195.72300 195.34000 194.98900
 194.75100 194.79200 195.13300 195.59800 196.50600 198.13600 199.85800 201.56600
 204.17900 206.82300 209.89300 213.28400 216.82800 220.60500 224.38700 228.20900
 232.03200 235.82500 239.56000 243.25800 246.84500 250.20100 253.70900 257.46800
 261.53000 264.22100 266.60100 268.68100 270.32900 271.74100 272.83600 273.47400
 273.89800 274.00200 273.75700 273.28800 272.37100 271.10000 269.58900 267.77900
 265.81600 263.72100 261.39300 258.91600 256.29800 253.42300 250.33100 247.11400
 243.83700 240.52900 237.24900 233.99900 230.72800 227.51500 224.25400 220.95200
 217.62700 213.65600 210.12100 206.78900 204.01000 201.99491 199.07309 198.76551
 199.40006 200.48994 201.46112 202.31912 203.45100 204.96110 207.47502 210.85391
 213.70530 217.29629 220.99574 224.72316 228.28753 231.64854 234.68024 237.40893
 239.70644 241.60899 243.46854 245.67368 247.68154 249.52395 251.24767 252.78566
 254.12057 255.26479 256.23740 257.09036 257.82852 258.48160 259.07744 259.61723
 260.10271 260.53504 260.91270 261.39400
 399.33000 389.90700 379.81300 368.66800 357.52200 345.30100 333.07400 320.22700
 307.21600 293.84800 280.37600 267.29600 254.61000 242.98700 232.15100 221.97700
 212.67200 204.28600 197.66900 192.82100 189.48600 187.45200 186.81400 187.08900
 187.78100 189.05400 190.64800 192.54200 194.63000 196.75200 198.67100 200.15800
 201.53500 202.48700 202.97500 203.34000 203.53900 203.49700 203.38500 203.24700
 203.00500 202.78600 202.60300 202.43700 202.42600 202.88800 203.42000 203.95100
 204.89500 205.99200 207.30100 208.95800 210.73800 213.10000 215.56400 218.18000
 220.96600 223.91800 226.96100 230.09200 233.29300 236.55700 239.95500 243.53700
 246.84500 249.39000 251.54200 253.47400 255.19500 256.48400 257.43100 258.05900
 258.21200 258.04000 257.58200 256.64300 255.23900 253.50700 251.40800 249.05600
 246.57600 243.99400 241.38900 238.83000 236.34400 233.98600 231.96900 230.11800
 228.42300 226.89900 225.54800 224.29700 223.10500 221.96500 220.95800 220.11300
 219.49000 218.92000 218.32500 217.88100 217.42300 216.96366 216.35568 216.80261
 217.73415 218.28582 218.64258 219.10077 220.44626 222.53987 226.38451 230.35736
 233.59734 237.39164 241.29814 245.22796 248.98002 252.51130 255.78595 258.80109
 261.54781 264.05210 266.34239 268.04198 269.58951 271.01303 272.35754 273.55718
 274.59842 275.49092 276.28989 276.99307 277.60161 278.14001 278.63122 279.07623
 279.47646 279.83287 280.14422 280.54100
 381.81900 372.39900 361.20600 349.77600 337.62200 324.85300 311.81000 298.35300
 284.86000 271.32400 258.56100 246.30400 236.08700 226.79600 218.44800 211.29000
 205.52200 200.89400 197.38100 194.84800 193.01500 192.31500 192.25000 192.43100
 192.91200 193.53700 194.13600 194.71200 195.26200 195.83100 196.39300 196.97600
 197.60400 198.14900 198.58400 199.05700 199.69500 200.37800 201.05400 201.70800
 202.31300 202.85700 203.35500 203.86200 204.56900 205.29700 206.02600 206.98700
 208.19300 209.44100 210.96900 212.57600 214.46200 216.51300 218.63000 220.85300
 223.34100 225.96200 228.73900 231.69700 234.70600 237.70600 240.69200 243.65700
 246.73700 249.69900 252.52100 255.06300 257.29000 259.23300 260.63300 261.68000
 262.46100 262.79800 262.69100 262.22400 261.06900 259.52500 257.70700 255.50700
 253.00100 250.30200 247.39800 244.45200 241.65400 239.05400 236.73300 234.59000
 232.59500 230.72500 228.83400 226.82600 224.66600 222.38700 220.10400 217.71500
 215.45900 213.06600 210.54600 208.09300 205.35400 202.08130 196.05959 200.71215
 209.01611 216.90438 223.84126 229.78593 235.00632 240.20838 245.98943 250.68668
 254.32982 257.93487 261.55666 264.96801 268.15192 271.06452 273.76717 276.25691
 278.57680 280.74479 282.77456 284.60533 286.27232 287.81705 289.31715 290.65561
 291.81734 292.81312 293.70701 294.49387 295.17482 295.77730 296.32696 296.82492
 297.27278 297.67160 298.02000 298.46400
 366.78100 356.33199 345.76097 334.62396 323.02394 311.21493 299.08191 286.88190
 274.59088 262.48487 250.49086 239.78884 229.90783 221.00881 213.18780 206.18678
 200.01777 194.95275 191.53174 189.57072 188.60471 188.66570 189.49768 190.80267
 192.52465 194.61664 196.87662 199.23261 201.67459 204.15158 206.23657 208.07555
 209.69854 210.84052 211.06651 211.29149 211.22548 210.92746 210.55745 210.18444
 209.79842 209.50541 209.31039 209.17138 209.09636 209.42435 209.80733 210.19332
 210.98331 212.15829 213.40528 215.18526 217.11025 219.15023 221.24222 223.32220
 225.37919 227.46017 229.55416 231.65715 233.78313 235.95212 238.20510 240.57209
 243.19007 245.43806 247.43704 249.19903 250.61302 251.73300 252.55199 252.86497
 252.89896 252.66994 252.02693 250.97191 249.57490 247.73289 245.63887 243.46886
 241.25684 239.05783 236.87481 234.71080 232.56778 230.43177 228.45476 226.60874
 224.88873 223.35771 221.98470 220.75368 219.63267 218.58965 217.69064 216.82862
 216.06761 215.24460 214.33958 213.70057 213.14755 212.83432 212.10831 213.31245
 215.07050 216.86330 217.87007 218.12772 219.20493 222.83096 228.35205 233.08952
 236.84996 240.60764 244.30911 247.89999 251.30602 254.11250 256.59818 259.27914
 262.29617 264.89285 267.00928 268.94843 270.90961 272.88443 274.57623 276.13635
 277.68652 279.29099 280.82394 282.18945 283.37369 284.42517 285.39035 286.26901
 287.06439 287.77908 288.40939 289.24689
 366.78100 356.33157 345.76014 334.62271 323.02228 311.21285 299.07942 286.87899
 274.58756 262.48113 250.48670 239.78427 229.90284 221.00341 213.18198 206.18055
 200.01112 194.94569 191.52426 189.56283 188.59640 188.65697 189.48854 190.79311
 192.51468 194.60625 196.86582 199.22139 201.66296 204.13953 206.22410 208.06267
 209.68524 210.82681 211.05238 211.27695 211.21052 210.91209 210.54166 210.16823
 209.78180 209.48837 209.29294 209.15351 209.07808 209.40565 209.78822 210.17379
 210.96336 212.13793 213.38450 215.16407 217.08864 219.12821 221.21978 223.29935
 225.35592 227.43649 229.53006 231.63263 233.75820 235.92677 238.17934 240.54591
 243.16348 245.41105 247.40962 249.17119 250.58476 251.70433 252.52290 252.83547
 252.86904 252.63961 251.99618 250.94075 249.54332 247.70089 245.60646 243.43603
 241.22360 239.02417 236.84074 234.67631 232.53288 230.39645 228.41902 226.57259
 224.85216 223.32073 221.94730 220.71587 219.59444 218.55101 217.65158 216.78915
 216.02772 215.20429 214.29886 213.65943 213.10600 212.83551 212.20868 213.43857
 215.15924 216.94351 217.95805 218.25809 219.34166 222.86165 228.29695 232.98357
 236.72333 240.48067 244.18883 247.76953 251.11429 253.87283 256.39774 259.17026
 262.15222 264.69629 266.81458 268.79141 270.77985 272.75934 274.43924 275.99658
 277.55066 279.20987 280.74704 282.11176 283.29657 284.34933 285.31226 286.19098
 286.98584 287.69943 288.32925 289.16794
 366.78100 356.33131 345.75962 334.62194 323.02125 311.21156 299.07787 286.87719
 274.58550 262.47881 250.48412 239.78144 229.89975 221.00006 213.17837 206.17668
 200.00700 194.94131 191.51962 189.55793 188.59125 188.65156 189.48287 190.78718
 192.50850 194.59981 196.85912 199.21443 201.65574 204.13206 206.21637 208.05468
 209.67699 210.81831 211.04362 211.26793 211.20124 210.90256 210.53187 210.15818
 209.77149 209.47780 209.28212 209.14243 209.06674 209.39405 209.77637 210.16168
 210.95099 212.12530 213.37162 215.15093 217.07524 219.11455 221.20586 223.28518
 225.34149 227.42180 229.51511 231.61743 233.74274 235.91105 238.16336 240.52968
 243.14699 245.39430 247.39261 249.15392 250.56724 251.68655 252.50486 252.81717
 252.85049 252.62080 251.97711 250.92142 249.52374 247.68105 245.58636 243.41567
 241.20298 239.00330 236.81961 234.65492 232.51123 230.37455 228.39686 226.55017
 224.82948 223.29780 221.92411 220.69242 219.57073 218.52704 217.62736 216.76467
 216.00298 215.17929 214.27361 213.63392 213.08023 212.84708 212.30675 213.56216
 215.24953 216.99928 218.06270 218.39430 219.47552 222.90005 228.25597 232.88228
 236.59438 240.34813 244.06413 247.63351 250.91565 253.62930 256.19644 259.05780
 262.00449 264.49527 266.61346 268.62823 270.64609 272.63266 274.30258 275.85562
 277.42175 279.13214 280.67273 282.03793 283.22214 284.27286 285.23822 286.11472
 286.90921 287.62283 288.25287 289.09241
 366.78100 356.33129 345.75958 334.62187 323.02117 311.21146 299.07775 286.87704
 274.58533 262.47862 250.48391 239.78121 229.89950 220.99979 213.17808 206.17637
 200.00666 194.94095 191.51925 189.55754 188.59083 188.65112 189.48241 190.78670
 192.50799 194.59929 196.85858 199.21387 201.65516 204.13145 206.21574 208.05403
 209.67632 210.81762 211.04291 211.26720 211.20049 210.90178 210.53107 210.15736
 209.77066 209.47695 209.28124 209.14153 209.06582 209.39311 209.77540 210.16070
 210.94999 212.12428 213.37057 215.14986 217.07415 219.11344 221.20474 223.28403
 225.34032 227.42061 229.51390 231.61619 233.74148 235.90978 238.16207 240.52836
 243.14565 245.39294 247.39123 249.15252 250.56582 251.68511 252.50340 252.81569
 252.84898 252.61927 251.97556 250.91986 249.52215 247.67944 245.58473 243.41402
 241.20131 239.00160 236.81790 234.65319 232.50948 230.37277 228.39506 226.54835
 224.82764 223.29593 221.92223 220.69052 219.56881 218.52510 217.62539 216.76268
 216.00097 215.17727 214.27156 213.63185 213.07814 212.87253 212.39578 213.69162
 215.33125 217.04391 218.16696 218.54211 219.61983 222.94569 228.21968 232.78357
 236.46275 240.21469 243.93916 247.48993 250.70882 253.38280 255.99361 258.93927
 261.85223 264.29178 266.40726 268.46005 270.51013 272.50522 274.16687 275.71259
 277.31842 279.04956 280.59460 281.96021 283.14465 284.19876 285.16202 286.03860
 286.83517 287.55005 288.17947 289.01965
 366.78100 356.33130 345.75960 334.62190 323.02120 311.21150 299.07780 286.87710
 274.58541 262.47871 250.48401 239.78131 229.89961 220.99991 213.17821 206.17651
 200.00681 194.94111 191.51941 189.55771 188.59101 188.65131 189.48262 190.78692
 192.50822 194.59952 196.85882 199.21412 201.65542 204.13172 206.21602 208.05432
 209.67662 210.81792 211.04322 211.26752 211.20083 210.90213 210.53143 210.15773
 209.77103 209.47733 209.28163 209.14193 209.06623 209.39353 209.77583 210.16113
 210.95043 212.12473 213.37104 215.15034 217.07464 219.11394 221.20524 223.28454
 225.34084 227.42114 229.51444 231.61674 233.74204 235.91034 238.16264 240.52894
 243.14625 245.39355 247.39185 249.15315 250.56645 251.68575 252.50405 252.81635
 252.84965 252.61995 251.97625 250.92055 249.52285 247.68015 245.58546 243.41476
 241.20206 239.00236 236.81866 234.65396 232.51026 230.37356 228.39586 226.54916
 224.82846 223.29676 221.92306 220.69136 219.56967 218.52597 217.62627 216.76357
 216.00187 215.17817 214.27247 213.63277 213.07907 212.90108 212.48805 213.81999
 215.39970 217.08472 218.26889 218.70024 219.78178 222.99747 228.18420 232.68864
 236.33240 240.08325 243.81041 247.33554 250.49428 253.13696 255.79172 258.81314
 261.69357 264.08386 266.19562 268.28500 270.37170 272.37769 274.03568 275.57300
 277.22653 278.96484 280.51230 281.87927 283.06506 284.11713 285.08298 285.96024
 286.75659 287.47101 288.10159 288.94250
 366.78100 356.33130 345.75960 334.62190 323.02120 311.21150 299.07781 286.87711
 274.58541 262.47871 250.48401 239.78131 229.89961 220.99991 213.17821 206.17651
 200.00681 194.94111 191.51942 189.55772 188.59102 188.65132 189.48262 190.78692
 192.50822 194.59952 196.85882 199.21412 201.65542 204.13173 206.21603 208.05433
 209.67663 210.81793 211.04323 211.26753 211.20083 210.90213 210.53143 210.15773
 209.77103 209.47734 209.28164 209.14194 209.06624 209.39354 209.77584 210.16114
 210.95044 212.12474 213.37104 215.15034 217.07464 219.11395 221.20525 223.28455
 225.34085 227.42115 229.51445 231.61675 233.74205 235.91035 238.16265 240.52895
 243.14626 245.39356 247.39186 249.15316 250.56646 251.68576 252.50406 252.81636
 252.84966 252.61996 251.97626 250.92056 249.52287 247.68017 245.58547 243.41477
 241.20207 239.00237 236.81867 234.65397 232.51027 230.37357 228.39587 226.54918
 224.82848 223.29678 221.92308 220.69138 219.56968 218.52598 217.62628 216.76358
 216.00188 215.17818 214.27248 213.63279 213.07909 212.93068 212.58589 213.94447
 215.45927 217.12131 218.36993 218.86467 219.95908 223.05499 228.15211 232.59857
 236.21011 239.95676 243.67519 247.16806 250.27234 252.89258 255.58942 258.67618
 261.52618 263.87265 265.97906 268.10550 270.23026 272.25104 273.91089 275.44458
 277.13754 278.87875 280.42697 281.79239 282.97931 284.03278 284.99728 285.87448
 286.67172 287.38651 288.01718 288.85858
 366.78100 356.33131 345.75962 334.62193 323.02124 311.21155 299.07786 286.87717
 274.58548 262.47879 250.48410 239.78141 229.89972 221.00003 213.17834 206.17665
 200.00696 194.94127 191.51958 189.55789 188.59120 188.65151 189.48282 190.78713
 192.50844 194.59975 196.85906 199.21437 201.65568 204.13199 206.21631 208.05462
 209.67693 210.81824 211.04355 211.26786 211.20117 210.90248 210.53179 210.15810
 209.77141 209.47772 209.28203 209.14234 209.06665 209.39396 209.77627 210.16158
 210.95089 212.12520 213.37151 215.15082 217.07513 219.11444 221.20575 223.28506
 225.34137 227.42168 229.51499 231.61730 233.74261 235.91092 238.16323 240.52954
 243.14685 245.39416 247.39247 249.15378 250.56709 251.68640 252.50471 252.81702
 252.85033 252.62064 251.97695 250.92126 249.52357 247.68088 245.58619 243.41550
 241.20281 239.00312 236.81943 234.65474 232.51105 230.37436 228.39667 226.54998
 224.82930 223.29761 221.92392 220.69223 219.57054 218.52685 217.62716 216.76447
 216.00278 215.17909 214.27340 213.63371 213.08002 212.96210 212.68774 214.06293
 215.51091 217.15559 218.47491 219.02615 220.14577 223.11998 228.12506 232.51303
 236.09854 239.83815 243.53751 246.98985 250.04173 252.64758 255.38528 258.52753
 261.34946 263.65851 265.76309 267.92471 270.08853 272.12531 273.79340 275.32993
 277.04779 278.78912 280.33603 281.70239 282.88986 283.94171 284.90720 285.78580
 286.58212 287.29706 287.92810 288.76984
 366.78100 356.33131 345.75962 334.62192 323.02123 311.21154 299.07785 286.87715
 274.58546 262.47877 250.48408 239.78138 229.89969 221.00000 213.17831 206.17661
 200.00692 194.94123 191.51954 189.55784 188.59115 188.65146 189.48277 190.78707
 192.50838 194.59969 196.85900 199.21430 201.65561 204.13192 206.21623 208.05453
 209.67684 210.81815 211.04346 211.26777 211.20107 210.90238 210.53169 210.15800
 209.77130 209.47761 209.28192 209.14223 209.06653 209.39384 209.77615 210.16146
 210.95076 212.12507 213.37138 215.15069 217.07499 219.11430 221.20561 223.28492
 225.34122 227.42153 229.51484 231.61715 233.74245 235.91076 238.16307 240.52938
 243.14668 245.39399 247.39230 249.15361 250.56692 251.68622 252.50453 252.81684
 252.85015 252.62045 251.97676 250.92107 249.52338 247.68068 245.58599 243.41530
 241.20261 239.00291 236.81922 234.65453 232.51084 230.37414 228.39645 226.54976
 224.82907 223.29737 221.92368 220.69199 219.57030 218.52660 217.62691 216.76422
 216.00253 215.17883 214.27314 213.63345 213.07976 212.99400 212.79404 214.17339
 215.55371 217.19362 218.58728 219.18095 220.33643 223.19116 228.10196 232.43257
 235.99237 239.72731 243.40195 246.80476 249.80345 252.40184 255.17966 258.36609
 261.16360 263.44290 265.55103 267.74719 269.94754 272.00174 273.68289 275.22961
 276.95581 278.69592 280.24136 281.60767 282.79410 283.84927 284.81381 285.69235
 286.48898 287.20416 287.83578 288.67859
 366.78100 356.33128 345.75957 334.62185 323.02114 311.21142 299.07771 286.87699
 274.58528 262.47856 250.48385 239.78113 229.89942 220.99970 213.17799 206.17627
 200.00656 194.94084 191.51913 189.55741 188.59070 188.65098 189.48227 190.78655
 192.50784 194.59912 196.85841 199.21369 201.65498 204.13126 206.21555 208.05383
 209.67611 210.81740 211.04268 211.26697 211.20025 210.90154 210.53082 210.15711
 209.77039 209.47668 209.28096 209.14125 209.06553 209.39282 209.77510 210.16039
 210.94967 212.12396 213.37024 215.14953 217.07381 219.11310 221.20438 223.28367
 225.33995 227.42024 229.51352 231.61581 233.74109 235.90938 238.16166 240.52795
 243.14523 245.39251 247.39080 249.15208 250.56537 251.68465 252.50294 252.81522
 252.84851 252.61879 251.97508 250.91936 249.52165 247.67893 245.58422 243.41350
 241.20079 239.00107 236.81736 234.65264 232.50893 230.37221 228.39450 226.54778
 224.82707 223.29535 221.92164 220.68992 219.56821 218.52449 217.62478 216.76206
 216.00034 215.17663 214.27091 213.63120 213.07748 213.02577 212.90472 214.27615
 215.58804 217.23642 218.70622 219.33136 220.52759 223.26823 228.07893 232.36308
 235.89340 239.62405 243.26913 246.61295 249.55783 252.15486 254.97180 258.19373
 260.97058 263.22714 265.34479 267.57431 269.81039 271.88336 273.58353 275.14661
 276.86029 278.59824 280.14371 281.51010 282.69733 283.75174 284.71701 285.59628
 286.39355 287.10956 287.74179 288.58511
 366.78100 356.33127 345.75953 334.62180 323.02106 311.21133 299.07759 286.87686
 274.58512 262.47839 250.48366 239.78092 229.89919 220.99945 213.17772 206.17598
 200.00625 194.94052 191.51878 189.55705 188.59031 188.65058 189.48184 190.78611
 192.50737 194.59864 196.85791 199.21317 201.65444 204.13070 206.21497 208.05323
 209.67550 210.81677 211.04203 211.26630 211.19956 210.90083 210.53009 210.15636
 209.76962 209.47589 209.28016 209.14042 209.06469 209.39195 209.77422 210.15948
 210.94875 212.12302 213.36928 215.14855 217.07281 219.11208 221.20334 223.28261
 225.33887 227.41914 229.51241 231.61467 233.73994 235.90820 238.16047 240.52673
 243.14400 245.39126 247.38953 249.15080 250.56406 251.68333 252.50159 252.81386
 252.84712 252.61739 251.97366 250.91792 249.52019 247.67745 245.58272 243.41198
 241.19925 238.99951 236.81578 234.65105 232.50731 230.37058 228.39284 226.54611
 224.82537 223.29364 221.91991 220.68817 219.56644 218.52270 217.62297 216.76023
 215.99850 215.17476 214.26903 213.62930 213.07556 213.05835 213.01772 214.37367
 215.61676 217.28040 218.83432 219.48378 220.72375 223.34247 228.05917 232.29718
 235.79666 239.52393 243.13850 246.41779 249.30940 251.90855 254.76170 258.00787
 260.76471 263.00583 265.14319 267.41037 269.68210 271.77527 273.49966 275.08350
 276.76328 278.49850 280.04407 281.41183 282.59882 283.65417 284.62036 285.49893
 286.29721 287.01431 287.64810 288.49161
 366.78100 356.33139 345.75979 334.62218 323.02158 311.21197 299.07836 286.87776
 274.58615 262.47955 250.48494 239.78234 229.90073 221.00112 213.17952 206.17791
 200.00831 194.94270 191.52109 189.55949 188.59288 188.65328 189.48467 190.78906
 192.51046 194.60185 196.86125 199.21664 201.65803 204.13443 206.21882 208.05722
 209.67961 210.82101 211.04640 211.27079 211.20419 210.90558 210.53498 210.16137
 209.77476 209.48116 209.28555 209.14595 209.07034 209.39773 209.78013 210.16552
 210.95492 212.12931 213.37570 215.15510 217.07949 219.11889 221.21028 223.28968
 225.34607 227.42646 229.51986 231.62225 233.74765 235.91604 238.16843 240.53483
 243.15222 245.39962 247.39801 249.15940 250.57280 251.69219 252.51059 252.82298
 252.85637 252.62677 251.98316 250.92756 249.52995 247.68735 245.59274 243.42213
 241.20953 239.00992 236.82632 234.66171 232.51810 230.38150 228.40389 226.55729
 224.83668 223.30507 221.93147 220.69986 219.57826 218.53465 217.63504 216.77244
 216.01083 215.18723 214.28162 213.64202 213.08841 213.09854 213.12250 214.47443
 215.64354 217.32396 218.96111 219.64075 220.90996 223.43117 228.03259 232.23643
 235.71660 239.43939 243.01469 246.21806 249.05011 251.65273 254.54184 257.80536
 260.54492 262.78653 264.95554 267.26175 269.56552 271.68024 273.43005 275.03360
 276.66962 278.39917 279.94540 281.31326 282.50055 283.55557 284.52100 285.40213
 286.20108 286.91864 287.55264 288.39825
 366.78100 356.33173 345.76045 334.62318 323.02291 311.21364 299.08036 286.88009
 274.58882 262.48254 250.48827 239.78600 229.90472 221.00545 213.18418 206.18291
 200.01363 194.94836 191.52709 189.56581 188.59954 188.66027 189.49199 190.79672
 192.51845 194.61018 196.86990 199.22563 201.66736 204.14408 206.22881 208.06754
 209.69027 210.83199 211.05772 211.28245 211.21617 210.91790 210.54763 210.17435
 209.78808 209.49481 209.29954 209.16026 209.08499 209.41272 209.79544 210.18117
 210.97090 212.14563 213.39235 215.17208 217.09681 219.13653 221.22826 223.30799
 225.36471 227.44544 229.53917 231.64190 233.76762 235.93635 238.18908 240.55580
 243.17353 245.42126 247.41998 249.18171 250.59544 251.71517 252.53389 252.84662
 252.88035 252.65107 252.00780 250.95253 249.55526 247.71298 245.61871 243.44844
 241.23616 239.03689 236.85362 234.68934 232.54607 230.40980 228.43253 226.58625
 224.86598 223.33471 221.96143 220.73016 219.60889 218.56561 217.66634 216.80407
 216.04280 215.21952 214.31425 213.67498 213.12170 213.14900 213.21350 214.58241
 215.67940 217.34270 219.09229 219.79282 221.14099 223.50760 228.02049 232.18877
 235.64120 239.35088 242.87711 245.99770 248.77116 251.38393 254.31467 257.59415
 260.32779 262.58420 264.79010 267.12906 269.46027 271.59521 273.36935 274.98447
 276.58365 278.30347 279.84839 281.21506 282.40329 283.45981 284.42502 285.30646
 286.10599 286.82242 287.46005 288.30551
 366.78100 356.33177 345.76053 334.62330 323.02307 311.21383 299.08060 286.88036
 274.58913 262.48290 250.48866 239.78643 229.90520 221.00596 213.18473 206.18350
 200.01426 194.94903 191.52780 189.56656 188.60033 188.66109 189.49286 190.79763
 192.51939 194.61116 196.87093 199.22669 201.66846 204.14523 206.22999 208.06876
 209.69153 210.83329 211.05906 211.28382 211.21759 210.91936 210.54912 210.17589
 209.78966 209.49642 209.30119 209.16196 209.08672 209.41449 209.79725 210.18302
 210.97279 212.14755 213.39432 215.17409 217.09885 219.13862 221.23039 223.31015
 225.36692 227.44769 229.54145 231.64422 233.76998 235.93875 238.19152 240.55828
 243.17605 245.42382 247.42258 249.18435 250.59812 251.71788 252.53665 252.84942
 252.88318 252.65395 252.01071 250.95548 249.55825 247.71601 245.62178 243.45155
 241.23931 239.04008 236.85685 234.69261 232.54938 230.41314 228.43591 226.58968
 224.86944 223.33821 221.96498 220.73374 219.61251 218.56928 217.67004 216.80781
 216.04658 215.22334 214.31811 213.67887 213.12564 213.18449 213.32356 214.66969
 215.75233 217.35060 219.12900 220.01312 221.35008 223.65636 228.00151 232.10147
 235.54607 239.25261 242.73236 245.77260 248.48999 251.11694 254.09041 257.38608
 260.12244 262.39816 264.63748 267.00729 269.36377 271.51672 273.31699 274.94110
 276.50677 278.21075 279.75308 281.11957 282.30780 283.36349 284.32965 285.21274
 286.01266 286.73062 287.36520 288.21729
 366.78100 356.33179 345.76058 334.62336 323.02315 311.21394 299.08073 286.88052
 274.58930 262.48309 250.48888 239.78667 229.90546 221.00624 213.18503 206.18382
 200.01461 194.94939 191.52818 189.56697 188.60076 188.66155 189.49333 190.79812
 192.51991 194.61170 196.87149 199.22727 201.66906 204.14585 206.23064 208.06943
 209.69221 210.83400 211.05979 211.28458 211.21837 210.92015 210.54994 210.17673
 209.79052 209.49730 209.30209 209.16288 209.08767 209.41546 209.79824 210.18403
 210.97382 212.14861 213.39540 215.17518 217.09997 219.13976 221.23155 223.31134
 225.36812 227.44891 229.54270 231.64549 233.77128 235.94006 238.19285 240.55964
 243.17743 245.42522 247.42400 249.18579 250.59958 251.71937 252.53815 252.85094
 252.88473 252.65552 252.01231 250.95709 249.55988 247.71767 245.62346 243.45325
 241.24103 239.04182 236.85861 234.69440 232.55119 230.41497 228.43776 226.59155
 224.87134 223.34013 221.96691 220.73570 219.61449 218.57128 217.67206 216.80985
 216.04864 215.22543 214.32022 213.68100 213.12779 213.21872 213.43358 214.74706
 215.82031 217.39665 219.19684 220.23405 221.49660 223.80182 227.96953 232.00864
 235.45840 239.16429 242.59068 245.54097 248.19894 250.84558 253.86702 257.17978
 259.92361 262.22211 264.49832 266.89816 269.27682 271.44855 273.27393 274.90680
 276.43695 278.12225 279.66095 281.02762 282.21634 283.27209 284.23932 285.12167
 285.92056 286.64279 287.27725 288.12650
 366.78100 356.33190 345.76080 334.62370 323.02360 311.21450 299.08140 286.88130
 274.59020 262.48410 250.49001 239.78791 229.90681 221.00771 213.18661 206.18551
 200.01641 194.95131 191.53021 189.56911 188.60301 188.66391 189.49581 190.80071
 192.52261 194.61451 196.87441 199.23031 201.67221 204.14912 206.23402 208.07292
 209.69582 210.83772 211.06362 211.28852 211.22242 210.92432 210.55422 210.18112
 209.79502 209.50192 209.30682 209.16772 209.09262 209.42052 209.80342 210.18933
 210.97923 212.15413 213.40103 215.18093 217.10583 219.14573 221.23763 223.31753
 225.37443 227.45533 229.54923 231.65213 233.77803 235.94693 238.19983 240.56673
 243.18463 245.43253 247.43144 249.19334 250.60724 251.72714 252.54604 252.85894
 252.89284 252.66374 252.02064 250.96554 249.56844 247.72634 245.63224 243.46214
 241.25004 239.05094 236.86784 234.70374 232.56064 230.42455 228.44745 226.60135
 224.88125 223.35015 221.97705 220.74595 219.62485 218.58175 217.68265 216.82055
 216.05945 215.23635 214.33125 213.69215 213.13905 213.25618 213.53293 214.83273
 215.88153 217.44948 219.28996 220.44760 221.64906 223.92712 227.93434 231.93289
 235.38321 239.07588 242.43225 245.28545 247.89349 250.57115 253.64616 256.97491
 259.73065 262.05783 264.37387 266.80255 269.20078 271.38950 273.24084 274.88754
 276.38626 278.03714 279.57288 280.93756 282.12610 283.18130 284.14966 285.03265
 285.83438 286.55408 287.18985 288.04163
 366.78100 356.33195 345.76090 334.62385 323.02380 311.21474 299.08169 286.88164
 274.59059 262.48454 250.49049 239.78844 229.90739 221.00834 213.18728 206.18623
 200.01718 194.95213 191.53108 189.57003 188.60398 188.66493 189.49688 190.80182
 192.52377 194.61572 196.87567 199.23162 201.67357 204.15052 206.23547 208.07442
 209.69736 210.83931 211.06526 211.29021 211.22416 210.92611 210.55606 210.18301
 209.79696 209.50391 209.30885 209.16980 209.09475 209.42270 209.80565 210.19160
 210.98155 212.15650 213.40345 215.18339 217.10834 219.14829 221.24024 223.32019
 225.37714 227.45809 229.55204 231.65499 233.78093 235.94988 238.20283 240.56978
 243.18773 245.43568 247.43463 249.19658 250.61053 251.73047 252.54942 252.86237
 252.89632 252.66727 252.02422 250.96917 249.57212 247.73007 245.63601 243.46596
 241.25391 239.05486 236.87181 234.70776 232.56471 230.42866 228.45161 226.60555
 224.88550 223.35445 221.98140 220.75035 219.62930 218.58625 217.68720 216.82515
 216.06409 215.24104 214.33599 213.69694 213.14389 213.28915 213.63237 214.92293
 215.93953 217.51888 219.39439 220.64717 221.81787 224.03114 227.90871 231.86905
 235.30414 238.96521 242.24522 245.01257 247.58673 250.30191 253.43132 256.77341
 259.54568 261.90826 264.26535 266.72104 269.13556 271.33762 273.21097 274.86777
 276.32489 277.98267 279.49854 280.85941 282.04492 283.10175 284.06949 284.95175
 285.75443 286.47656 287.11334 287.96661
 366.78100 356.33179 345.76057 334.62336 323.02314 311.21393 299.08071 286.88050
 274.58928 262.48307 250.48885 239.78664 229.90542 221.00621 213.18499 206.18378
 200.01456 194.94935 191.52813 189.56692 188.60070 188.66149 189.49327 190.79806
 192.51984 194.61163 196.87141 199.22720 201.66898 204.14577 206.23056 208.06934
 209.69213 210.83391 211.05970 211.28448 211.21827 210.92005 210.54984 210.17662
 209.79041 209.49719 209.30198 209.16276 209.08755 209.41533 209.79812 210.18390
 210.97369 212.14847 213.39526 215.17504 217.09983 219.13961 221.23140 223.31118
 225.36797 227.44876 229.54254 231.64533 233.77111 235.93990 238.19268 240.55947
 243.17725 245.42504 247.42382 249.18561 250.59939 251.71918 252.53796 252.85075
 252.88453 252.65532 252.01210 250.95689 249.55967 247.71746 245.62324 243.45303
 241.24081 239.04160 236.85838 234.69417 232.55095 230.41474 228.43753 226.59131
 224.87110 223.33988 221.96667 220.73545 219.61424 218.57102 217.67181 216.80959
 216.04838 215.22516 214.31995 213.68073 213.12752 213.30977 213.74036 215.01282
 215.99466 217.61031 219.51022 220.82835 221.99146 224.12769 227.89743 231.80176
 235.20911 238.82552 242.03026 244.72842 247.27888 250.03427 253.22023 256.57745
 259.37167 261.77295 264.17197 266.65384 269.08228 271.29721 273.19205 274.86203
 276.34592 277.88028 279.40384 280.77249 281.96124 283.01849 283.98895 284.87198
 285.67419 286.39597 287.03488 287.89203
 366.78100 356.33143 345.75986 334.62228 323.02171 311.21214 299.07857 286.87799
 274.58642 262.47985 250.48528 239.78270 229.90113 221.00156 213.17999 206.17841
 200.00884 194.94327 191.52170 189.56013 188.59355 188.65398 189.48541 190.78984
 192.51126 194.60269 196.86212 199.21755 201.65897 204.13540 206.21983 208.05826
 209.68069 210.82211 211.04754 211.27197 211.20540 210.90682 210.53625 210.16268
 209.77611 209.48253 209.28696 209.14739 209.07182 209.39924 209.78167 210.16710
 210.95653 212.13096 213.37738 215.15681 217.08124 219.12067 221.21209 223.29152
 225.34795 227.42838 229.52180 231.62423 233.74966 235.91809 238.17052 240.53694
 243.15437 245.40180 247.40023 249.16165 250.57508 251.69451 252.51294 252.82536
 252.85879 252.62922 251.98565 250.93007 249.53250 247.68993 245.59536 243.42479
 241.21221 239.01264 236.82907 234.66450 232.52092 230.38435 228.40678 226.56021
 224.83963 223.30806 221.93449 220.70292 219.58135 218.53777 217.63820 216.77563
 216.01406 215.19048 214.28491 213.64534 213.09177 213.31862 213.85461 215.10219
 216.05574 217.71442 219.63727 220.99347 222.16704 224.22618 227.89551 231.72609
 235.10127 238.66472 241.79150 244.42661 246.96104 249.76434 253.01216 256.38885
 259.20920 261.65179 264.09338 266.60107 269.04034 271.26523 273.17532 274.85010
 276.32385 277.82138 279.33905 280.70795 281.89783 282.95609 283.92426 284.80682
 285.61057 286.33228 286.97110 287.82944
 366.78100 356.33095 345.75889 334.62084 323.01979 311.20974 299.07568 286.87463
 274.58258 262.47553 250.48047 239.77742 229.89537 220.99532 213.17326 206.17121
 200.00116 194.93510 191.51305 189.55100 188.58395 188.64389 189.47484 190.77879
 192.49974 194.59068 196.84963 199.20458 201.64552 204.12147 206.20542 208.04337
 209.66531 210.80626 211.03121 211.25516 211.18810 210.88905 210.51800 210.14395
 209.75689 209.46284 209.26679 209.12673 209.05068 209.37763 209.75958 210.14452
 210.93347 212.10742 213.35337 215.13231 217.05626 219.09521 221.18616 223.26510
 225.32105 227.40100 229.49394 231.59589 233.72084 235.88879 238.14073 240.50668
 243.12363 245.37058 247.36852 249.12947 250.54242 251.66136 252.47931 252.79126
 252.82421 252.59415 251.95010 250.89405 249.49600 247.65294 245.55789 243.38684
 241.17379 238.97373 236.78968 234.62463 232.48057 230.34352 228.36547 226.51842
 224.79736 223.26531 221.89126 220.65921 219.53715 218.49310 217.59305 216.73000
 215.96794 215.14389 214.23784 213.59778 213.04373 213.31906 213.96954 215.19203
 216.13033 217.82359 219.76495 221.14984 222.34624 224.32478 227.89626 231.65132
 234.98720 238.48648 241.52702 244.10275 246.63353 249.49635 252.81009 256.20947
 259.05573 261.53812 264.02069 266.55408 269.00571 271.23993 273.16840 274.85867
 276.32751 277.77481 279.28720 280.65598 281.84686 282.90659 283.87680 284.76437
 285.57431 286.30603 286.94846 287.80148
 366.78100 356.33034 345.75768 334.61901 323.01735 311.20669 299.07203 286.87037
 274.57770 262.47004 250.47438 239.77072 229.88805 220.98739 213.16473 206.16207
 199.99141 194.92474 191.50208 189.53942 188.57176 188.63110 189.46143 190.76477
 192.48511 194.57545 196.83378 199.18812 201.62846 204.10380 206.18714 208.02447
 209.64581 210.78615 211.01049 211.23383 211.16616 210.86650 210.49484 210.12018
 209.73252 209.43785 209.24119 209.10053 209.02387 209.35020 209.73154 210.11588
 210.90422 212.07756 213.32289 215.10123 217.02457 219.06291 221.15325 223.23158
 225.28692 227.36626 229.45860 231.55993 233.68427 235.85161 238.10295 240.46829
 243.08462 245.33096 247.32830 249.08864 250.50098 251.61931 252.43665 252.74799
 252.78033 252.54967 251.90500 250.84834 249.44968 247.60602 245.51035 243.33869
 241.12503 238.92437 236.73971 234.57404 232.42938 230.29172 228.31306 226.46540
 224.74373 223.21107 221.83641 220.60375 219.48109 218.43642 217.53576 216.67210
 215.90944 215.08477 214.17811 213.53745 212.98279 213.31094 214.08626 215.28609
 216.21523 217.93588 219.88336 221.29945 222.53302 224.42924 227.89961 231.58868
 234.87083 238.28477 241.23119 243.75513 246.30063 249.23529 252.61949 256.04654
 258.92191 261.44089 263.95731 266.50937 268.96649 271.20377 273.13974 274.84357
 276.32294 277.76035 279.27249 280.64142 281.83371 282.89526 283.86600 284.75641
 285.57263 286.30399 286.94791 287.80380
 366.78100 356.32968 345.75637 334.61705 323.01474 311.20342 299.06810 286.86579
 274.57247 262.46416 250.46784 239.76352 229.88021 220.97889 213.15557 206.15226
 199.98094 194.91363 191.49031 189.52699 188.55868 188.61736 189.44705 190.74973
 192.46941 194.55910 196.81678 199.17047 201.61015 204.08483 206.16752 208.00420
 209.62488 210.76457 210.98825 211.21094 211.14262 210.84230 210.46999 210.09467
 209.70636 209.41104 209.21372 209.07241 208.99509 209.32078 209.70146 210.08514
 210.87283 212.04551 213.29019 215.06788 216.99056 219.02825 221.11793 223.19561
 225.25030 227.32898 229.42067 231.52135 233.64503 235.81172 238.06240 240.42709
 243.04277 245.28845 247.28514 249.04482 250.45650 251.57419 252.39087 252.70156
 252.73324 252.50192 251.85661 250.79929 249.39998 247.55566 245.45934 243.28703
 241.07271 238.87140 236.68608 234.51976 232.37445 230.23613 228.25681 226.40850
 224.68618 223.15287 221.77755 220.54423 219.42092 218.37560 217.47429 216.60997
 215.84665 215.02134 214.11402 213.47271 212.91739 213.29811 214.19759 215.38776
 216.31273 218.05342 219.99043 221.43420 222.71831 224.54547 227.90741 231.54022
 234.75160 238.05215 240.88893 243.37364 245.95769 248.97672 252.43465 255.89615
 258.80215 261.36179 263.90994 266.47754 268.93500 271.16614 273.10071 274.80588
 276.28079 277.75485 279.27267 280.64282 281.83530 282.89633 283.86902 284.76019
 285.57657 286.31104 286.95792 287.81039
 366.78100 356.32876 345.75452 334.61428 323.01104 311.19880 299.06256 286.85933
 274.56509 262.45585 250.45861 239.75337 229.86913 220.96689 213.14265 206.13841
 199.96617 194.89793 191.47369 189.50945 188.54021 188.59798 189.42674 190.72850
 192.44726 194.53602 196.79278 199.14554 201.58430 204.05806 206.13982 207.97558
 209.59534 210.73410 210.95686 211.17863 211.10939 210.80815 210.43491 210.05867
 209.66943 209.37319 209.17495 209.03271 208.95447 209.27923 209.65899 210.04175
 210.82852 212.00028 213.24404 215.02080 216.94256 218.97932 221.06808 223.14484
 225.19860 227.27636 229.36712 231.46688 233.58964 235.75540 238.00517 240.36893
 242.98369 245.22845 247.22421 248.98297 250.39373 251.51049 252.32625 252.63601
 252.66677 252.43453 251.78829 250.73005 249.32982 247.48458 245.38734 243.21410
 240.99886 238.79662 236.61038 234.44314 232.29690 230.15766 228.17742 226.32818
 224.60494 223.07071 221.69447 220.46023 219.33599 218.28975 217.38751 216.52227
 215.75803 214.93179 214.02355 213.38131 212.82507 213.26833 214.31557 215.49998
 216.41043 218.16644 220.09045 221.55885 222.90495 224.69145 227.93564 231.50485
 234.63600 237.80235 240.51974 242.98058 245.62105 248.72589 252.25293 255.74374
 258.69156 261.28314 263.86258 266.45450 268.91602 271.14163 273.07526 274.76492
 276.15091 277.77057 279.30219 280.66629 281.85544 282.91183 283.88190 284.77267
 285.58801 286.32297 286.96857 287.82202
 366.78100 356.32802 345.75304 334.61206 323.00808 311.19510 299.05813 286.85415
 274.55917 262.44919 250.45121 239.74523 229.86025 220.95727 213.13229 206.12731
 199.95434 194.88536 191.46038 189.49540 188.52542 188.58244 189.41046 190.71148
 192.42950 194.51752 196.77355 199.12557 201.56359 204.03661 206.11763 207.95265
 209.57167 210.70969 210.93171 211.15273 211.08276 210.78078 210.40680 210.02982
 209.63984 209.34286 209.14388 209.00090 208.92192 209.24594 209.62497 210.00699
 210.79301 211.96403 213.20705 214.98307 216.90409 218.94011 221.02813 223.10415
 225.15718 227.23420 229.32422 231.42324 233.54526 235.71028 237.95930 240.32232
 242.93634 245.18036 247.17539 248.93341 250.34343 251.45945 252.27447 252.58349
 252.61351 252.38053 251.73355 250.67457 249.27359 247.42762 245.32964 243.15566
 240.93968 238.73670 236.54972 234.38174 232.23476 230.09478 228.11380 226.26383
 224.53985 223.00487 221.62789 220.39291 219.26793 218.22095 217.31797 216.45199
 215.68701 214.86004 213.95106 213.30808 212.75110 213.24519 214.41254 215.63715
 216.53166 218.27510 220.17860 221.64445 223.04190 224.81100 227.94078 231.46632
 234.50594 237.51888 240.11101 242.56395 245.28368 248.49849 252.11028 255.68208
 258.61838 261.24823 263.84433 266.43964 268.88821 271.08972 272.99194 274.65958
 276.05212 277.79883 279.32639 280.69043 281.87946 282.93842 283.91141 284.80502
 285.62445 286.36407 287.02411 287.87823
 366.78100 356.32944 345.75589 334.61633 323.01378 311.20222 299.06667 286.86411
 274.57056 262.46200 250.46545 239.76089 229.87734 220.97578 213.15223 206.14867
 199.97712 194.90956 191.48601 189.52245 188.55390 188.61234 189.44179 190.74423
 192.46367 194.55312 196.81056 199.16401 201.60345 204.07790 206.16034 207.99679
 209.61723 210.75668 210.98012 211.20257 211.13401 210.83346 210.46090 210.08535
 209.69679 209.40124 209.20368 209.06213 208.98457 209.31002 209.69046 210.07390
 210.86135 212.03379 213.27824 215.05568 216.97813 219.01557 221.10502 223.18246
 225.23691 227.31535 229.40680 231.50724 233.63069 235.79713 238.04758 240.41202
 243.02747 245.27291 247.26936 249.02880 250.44025 251.55769 252.37413 252.68458
 252.71602 252.48447 251.83891 250.78136 249.38180 247.53725 245.44069 243.26814
 241.05358 238.85203 236.66647 234.49992 232.35436 230.21581 228.23625 226.38770
 224.66514 223.13159 221.75603 220.52248 219.39892 218.35336 217.45181 216.58725
 215.82370 214.99814 214.09059 213.44903 212.89348 213.34050 214.41159 215.71288
 216.73334 218.41118 220.26132 221.69498 223.12596 224.85391 227.84076 231.41040
 234.32564 237.18671 239.63554 242.08200 244.90103 248.22038 251.89278 255.64540
 258.69589 261.33264 263.90546 266.46033 268.86615 271.01547 272.90411 274.52368
 276.07123 277.63400 279.15323 280.51892 281.70639 282.76303 283.73621 284.63043
 285.49191 286.28754 286.98254 287.86829
 366.78100 356.33001 345.75702 334.61803 323.01604 311.20505 299.07006 286.86807
 274.57508 262.46709 250.47110 239.76711 229.88412 220.98313 213.16014 206.15715
 199.98616 194.91917 191.49618 189.53320 188.56521 188.62422 189.45423 190.75724
 192.47725 194.56726 196.82527 199.17928 201.61929 204.09430 206.17731 208.01432
 209.63533 210.77534 210.99935 211.22236 211.15437 210.85438 210.48239 210.10740
 209.71941 209.42442 209.22743 209.08644 209.00945 209.33546 209.71647 210.10048
 210.88849 212.06150 213.30651 215.08452 217.00753 219.04554 221.13555 223.21357
 225.26858 227.34759 229.43960 231.54061 233.66462 235.83163 238.08264 240.44765
 243.06366 245.30967 247.30668 249.06669 250.47870 251.59671 252.41372 252.72473
 252.75674 252.52575 251.88076 250.82377 249.42478 247.58079 245.48480 243.31281
 241.09882 238.89783 236.71284 234.54685 232.40186 230.26387 228.28488 226.43689
 224.71490 223.18191 221.80692 220.57393 219.45095 218.40596 217.50497 216.64098
 215.87799 215.05300 214.14601 213.50502 212.95003 213.39514 214.46921 215.72847
 216.91942 218.60358 220.36858 221.78520 223.23151 224.99850 227.88942 231.38062
 234.13234 236.81345 239.16280 241.65630 244.58029 248.00002 251.84972 255.57845
 258.72266 261.39691 263.96442 266.48822 268.84985 270.94562 272.80005 274.43729
 276.00128 277.54407 279.03143 280.39828 281.59317 282.66644 283.67151 284.63342
 285.51422 286.29855 286.98376 287.85696
 366.78100 356.32709 345.75119 334.60928 323.00438 311.19047 299.05257 286.84766
 274.55176 262.44085 250.44195 239.73504 229.84914 220.94523 213.11933 206.11342
 199.93952 194.86961 191.44371 189.47780 188.50690 188.56299 189.39009 190.69018
 192.40727 194.49437 196.74946 199.10056 201.53765 204.00975 206.08984 207.92394
 209.54203 210.67913 210.90022 211.12032 211.04941 210.74651 210.37160 209.99370
 209.60279 209.30489 209.10498 208.96108 208.88117 209.20427 209.58236 209.96345
 210.74855 211.91864 213.16074 214.93583 216.85593 218.89102 220.97812 223.05321
 225.10531 227.18140 229.27050 231.36859 233.48969 235.65378 237.90188 240.26397
 242.87707 245.12016 247.11426 248.87135 250.28044 251.39554 252.20963 252.51773
 252.54682 252.31292 251.66501 250.60511 249.20320 247.35630 245.25739 243.08249
 240.86558 238.66168 236.47377 234.30487 232.15696 230.01606 228.03415 226.18325
 224.45834 222.92244 221.54453 220.30862 219.18272 218.13481 217.23091 216.36400
 215.59810 214.77019 213.86029 213.21638 212.65848 213.26349 214.69446 215.77803
 216.99509 218.73441 220.42398 221.85359 223.42923 225.21161 227.98106 231.41864
 234.01636 236.47247 238.68430 241.20357 244.24835 247.78473 251.76796 255.56351
 258.75183 261.39734 263.96069 266.48123 268.82257 270.86902 272.68616 274.34290
 275.91510 277.48294 278.98535 280.34897 281.53943 282.60495 283.59601 284.53128
 285.38181 286.13919 286.80081 287.64398
 366.78100 356.32623 345.74945 334.60668 323.00091 311.18614 299.04736 286.84159
 274.54482 262.43304 250.43327 239.72550 229.83873 220.93395 213.10718 206.10041
 199.92563 194.85486 191.42809 189.46132 188.48954 188.54477 189.37100 190.67022
 192.38645 194.47268 196.72691 199.07713 201.51336 203.98459 206.06381 207.89704
 209.51427 210.65050 210.87072 211.08995 211.01818 210.71441 210.33863 209.95986
 209.56809 209.26931 209.06854 208.92377 208.84300 209.16522 209.54245 209.92268
 210.70690 211.87613 213.11736 214.89159 216.81081 218.84504 220.93127 223.00549
 225.05672 227.13195 229.22018 231.31740 233.43763 235.60086 237.84808 240.20931
 242.82154 245.06377 247.05699 248.81322 250.22145 251.33567 252.14890 252.45613
 252.48436 252.24958 251.60081 250.54004 249.13726 247.28949 245.18972 243.01395
 240.79617 238.59140 236.40263 234.23285 232.08408 229.94231 227.95954 226.10776
 224.38199 222.84522 221.46644 220.22967 219.10290 218.05413 217.14935 216.28158
 215.51481 214.68603 213.77526 213.13049 212.57172 213.23392 214.80475 215.99907
 217.06410 218.65233 220.52660 222.15221 223.71690 225.52478 228.24463 231.39906
 233.78574 236.10333 238.28674 240.82913 243.94362 247.64046 251.64369 255.41586
 258.71982 261.40942 263.93585 266.42542 268.73206 270.75504 272.58621 274.21326
 275.83591 277.39471 278.93079 280.32803 281.59109 282.80878 283.92075 284.92813
 285.83417 286.64099 287.34583 288.24402
 366.78100 356.32621 345.74942 334.60663 323.00084 311.18605 299.04726 286.84147
 274.54468 262.43289 250.43310 239.72531 229.83852 220.93373 213.10693 206.10014
 199.92535 194.85456 191.42777 189.46098 188.48919 188.54440 189.37061 190.66982
 192.38603 194.47224 196.72645 199.07666 201.51287 203.98408 206.06329 207.89650
 209.51371 210.64992 210.87013 211.08934 211.01755 210.71376 210.33797 209.95918
 209.56738 209.26859 209.06780 208.92301 208.84222 209.16443 209.54164 209.92185
 210.70606 211.87527 213.11648 214.89069 216.80990 218.84411 220.93032 223.00453
 225.05574 227.13095 229.21916 231.31637 233.43658 235.59979 237.84700 240.20821
 242.82042 245.06263 247.05583 248.81204 250.22025 251.33446 252.14767 252.45488
 252.48309 252.24830 251.59951 250.53872 249.13593 247.28814 245.18835 243.01256
 240.79477 238.58998 236.40119 234.23140 232.08261 229.94082 227.95803 226.10624
 224.38045 222.84366 221.46487 220.22808 219.10128 218.05249 217.14770 216.27991
 215.51312 214.68433 213.77354 213.12875 212.56996 213.25090 214.88791 216.16531
 217.20830 218.87465 220.77176 222.37408 223.90686 225.63219 228.47812 231.32222
 233.66330 235.81793 237.91147 240.41116 243.64536 247.47797 251.49409 255.22234
 258.40424 261.37836 264.07138 266.56989 268.83951 270.84451 272.60995 274.25854
 275.87326 277.68182 279.44360 281.15411 282.63443 283.94412 285.13904 286.22153
 287.19513 288.06210 288.81949 289.78470
 366.78100 356.32609 345.74917 334.60626 323.00034 311.18543 299.04652 286.84060
 274.54369 262.43178 250.43186 239.72395 229.83703 220.93212 213.10521 206.09829
 199.92338 194.85246 191.42555 189.45864 188.48672 188.54181 189.36790 190.66698
 192.38307 194.46915 196.72324 199.07333 201.50941 203.98050 206.05959 207.89267
 209.50976 210.64584 210.86593 211.08502 211.01310 210.70919 210.33327 209.95436
 209.56245 209.26353 209.06262 208.91771 208.83679 209.15888 209.53596 209.91605
 210.70014 211.86922 213.11031 214.88439 216.80348 218.83757 220.92365 222.99774
 225.04883 227.12391 229.21200 231.30908 233.42917 235.59226 237.83934 240.20043
 242.81251 245.05460 247.04769 248.80377 250.21186 251.32595 252.13903 252.44612
 252.47420 252.23929 251.59038 250.52946 249.12655 247.27864 245.17872 243.00281
 240.78489 238.57998 236.39107 234.22115 232.07224 229.93032 227.94741 226.09550
 224.36958 222.83267 221.45376 220.21684 219.08993 218.04101 217.13610 216.26819
 215.50127 214.67236 213.76144 213.11653 212.55762 213.25102 214.93846 216.31340
 217.29605 218.97331 220.79961 222.38480 223.97899 225.78615 228.58078 231.36700
 233.63779 235.59457 237.48790 239.96326 243.34015 247.29184 251.39172 255.11942
 258.37775 261.44669 264.13113 266.70505 269.06427 271.10077 272.84113 274.30795
 276.12311 277.95609 279.74472 281.51379 283.04480 284.39935 285.63516 286.75473
 287.76166 288.65833 289.44162 290.43988
 366.78100 356.32575 345.74849 334.60524 322.99898 311.18373 299.04447 286.83822
 274.54096 262.42871 250.42845 239.72020 229.83294 220.92769 213.10043 206.09318
 199.91792 194.84667 191.41941 189.45216 188.47990 188.53465 189.36039 190.65914
 192.37488 194.46063 196.71437 199.06412 201.49986 203.97061 206.04935 207.88210
 209.49884 210.63459 210.85433 211.07308 211.00082 210.69657 210.32032 209.94106
 209.54881 209.24955 209.04830 208.90304 208.82179 209.14353 209.52028 209.90002
 210.68377 211.85251 213.09326 214.86700 216.78575 218.81949 220.90524 222.97898
 225.02973 227.10447 229.19222 231.28896 233.40871 235.57145 237.81820 240.17894
 242.79069 245.03243 247.02518 248.78092 250.18867 251.30241 252.11516 252.42190
 252.44965 252.21440 251.56514 250.50389 249.10063 247.25238 245.15212 242.97587
 240.75761 238.55236 236.36310 234.19285 232.04359 229.90134 227.91808 226.06583
 224.33957 222.80232 221.42306 220.18581 219.05855 218.00930 217.10404 216.23579
 215.46853 214.63928 213.72802 213.08277 212.52351 213.23941 214.97069 216.42195
 217.39606 219.04399 220.86690 222.45445 224.06561 225.93933 228.60840 231.39807
 233.47702 235.28633 237.09282 239.63417 243.10159 247.14000 251.28290 255.12437
 258.35471 261.38550 264.10202 266.70490 269.10754 271.16882 272.96960 274.57623
 276.11600 277.89877 279.49472 281.00641 282.47031 283.76547 284.94711 286.01761
 286.98041 287.83777 288.58676 289.54123
 366.78100 356.32529 345.74759 334.60388 322.99718 311.18147 299.04176 286.83506
 274.53735 262.42464 250.42394 239.71523 229.82753 220.92182 213.09411 206.08641
 199.91070 194.83899 191.41129 189.44358 188.47088 188.52517 189.35046 190.64876
 192.36405 194.44934 196.70264 199.05193 201.48723 203.95752 206.03581 207.86811
 209.48440 210.61969 210.83899 211.05728 210.98458 210.67987 210.30316 209.92346
 209.53075 209.23105 209.02934 208.88363 208.80193 209.12322 209.49951 209.87881
 210.66210 211.83040 213.07069 214.84398 216.76228 218.79557 220.88086 222.95416
 225.00445 227.07875 229.16604 231.26233 233.38163 235.54392 237.79021 240.15051
 242.76180 245.00310 246.99539 248.75068 250.15798 251.27127 252.08356 252.38986
 252.41715 252.18145 251.53174 250.47003 249.06633 247.21762 245.11692 242.94021
 240.72150 238.51580 236.32609 234.15538 232.00568 229.86297 227.87927 226.02656
 224.29985 222.76215 221.38244 220.14473 219.01703 217.96732 217.06162 216.19291
 215.42520 214.59550 213.68379 213.03808 212.47838 213.22879 215.03337 216.51237
 217.56976 219.18198 220.99458 222.61343 224.21722 226.03902 228.62737 231.35689
 233.26221 234.88863 236.63673 239.25389 242.85294 247.03123 251.20757 255.07716
 258.35480 261.38412 264.10840 266.71524 269.09863 271.13702 272.92172 274.54776
 276.06918 277.75754 279.33374 280.77417 282.15997 283.38608 284.50470 285.51810
 286.42953 287.24115 287.95020 288.85376
 366.78100 356.32604 345.74908 334.60612 323.00016 311.18520 299.04624 286.84028
 274.54332 262.43136 250.43140 239.72344 229.83648 220.93152 213.10456 206.09760
 199.92264 194.85168 191.42472 189.45776 188.48580 188.54084 189.36688 190.66592
 192.38195 194.46799 196.72203 199.07207 201.50811 203.97915 206.05819 207.89123
 209.50827 210.64431 210.86435 211.08339 211.01143 210.70747 210.33151 209.95255
 209.56059 209.26163 209.06067 208.91571 208.83475 209.15679 209.53383 209.91387
 210.69791 211.86695 213.10799 214.88203 216.80107 218.83511 220.92115 222.99519
 225.04623 227.12127 229.20931 231.30635 233.42639 235.58943 237.83647 240.19751
 242.80955 245.05159 247.04463 248.80067 250.20871 251.32275 252.13578 252.44282
 252.47086 252.23590 251.58694 250.52598 249.12302 247.27506 245.17510 242.99914
 240.78118 238.57622 236.38726 234.21730 232.06834 229.92638 227.94342 226.09146
 224.36550 222.82854 221.44958 220.21262 219.08566 218.03670 217.13174 216.26378
 215.49682 214.66786 213.75690 213.11194 212.55298 213.26892 215.01541 216.68045
 217.75725 219.30734 221.09866 222.67963 224.25179 226.07158 228.61978 231.29155
 233.02785 234.46056 236.12073 238.83508 242.61523 246.91635 251.12495 254.99408
 258.32294 261.38638 264.12546 266.74805 269.14987 271.21469 273.01147 274.60834
 276.15698 277.62744 279.17764 280.58145 281.91318 283.14267 284.26437 285.28061
 286.19458 287.00845 287.71945 288.62555
 366.78100 356.32281 345.74262 334.59642 322.98723 311.16904 299.02685 286.81766
 274.51747 262.40227 250.39908 239.68789 229.79770 220.88951 213.05932 206.04912
 199.87093 194.79674 191.36655 189.39636 188.42117 188.47297 189.29578 190.59159
 192.30440 194.38721 196.63802 198.98482 201.41763 203.88544 205.96125 207.79106
 209.40486 210.53767 210.75448 210.97029 210.89510 210.58791 210.20871 209.82652
 209.43133 209.12914 208.92495 208.77676 208.69256 209.01137 209.38518 209.76199
 210.54280 211.70861 212.94641 214.71722 216.63303 218.66384 220.74665 222.81746
 224.86526 226.93707 229.02188 231.11569 233.23250 235.39231 237.63611 239.99392
 242.60273 244.84154 246.83135 248.58415 249.98896 251.09977 251.90958 252.21339
 252.23820 252.00000 251.34781 250.28362 248.87743 247.02624 244.92305 242.74385
 240.52266 238.31447 236.12228 233.94909 231.79690 229.65170 227.66551 225.81032
 224.08113 222.54094 221.15875 219.91855 218.78836 217.73617 216.82798 215.95679
 215.18659 214.35440 213.44021 212.79202 212.22983 213.10440 215.18452 216.86249
 217.68216 219.27745 221.12660 222.64911 224.19844 226.06923 228.71951 231.23271
 232.92375 234.14737 235.62779 238.40259 242.34900 246.73358 250.90054 254.72375
 258.12924 261.20026 264.04907 266.73358 269.20212 271.36142 273.21268 274.85849
 276.37119 277.80667 279.18665 280.53281 281.73529 282.82227 283.91718 284.97733
 285.93079 286.77985 287.52158 288.46680
 366.78100 356.32017 345.73733 334.58850 322.97667 311.15583 299.01100 286.79917
 274.49633 262.37850 250.37267 239.65884 229.76600 220.85517 213.02234 206.00950
 199.82867 194.75184 191.31900 189.34617 188.36834 188.41750 189.23767 190.53084
 192.24100 194.32117 196.56934 198.91350 201.34367 203.80884 205.88200 207.70917
 209.32034 210.45051 210.66467 210.87784 210.80001 210.49017 210.10834 209.72351
 209.32567 209.02084 208.81401 208.66317 208.57634 208.89251 209.26367 209.63784
 210.41601 211.57917 212.81434 214.58251 216.49568 218.52384 220.60401 222.67218
 224.71734 226.78651 228.86868 230.95984 233.07401 235.23118 237.47234 239.82751
 242.43368 244.66984 246.65701 248.40718 249.80934 250.91751 251.72468 252.02584
 252.04801 251.80718 251.15235 250.08551 248.67668 246.82285 244.71701 242.53518
 240.31135 238.10051 235.90568 233.72985 231.57501 229.42718 227.43835 225.58051
 223.84868 222.30585 220.92101 219.67818 218.54535 217.49052 216.57968 215.70585
 214.93302 214.09818 213.18135 212.53052 211.96568 212.95934 215.30835 217.16284
 217.83446 219.38158 221.25766 222.75951 224.27103 226.15755 228.92844 231.15645
 232.74629 233.87027 235.30496 238.11034 242.20377 246.59207 250.74644 254.56352
 257.96558 261.03204 263.90771 266.61169 269.08658 271.26944 273.18649 274.90628
 276.48996 277.95193 279.30035 280.58218 281.75714 282.81232 283.79147 284.67722
 285.47583 286.20731 286.85919 287.68997
 366.78100 356.31953 345.73605 334.58658 322.97411 311.15264 299.00716 286.79469
 274.49122 262.37275 250.36627 239.65180 229.75833 220.84686 213.01338 205.99991
 199.81844 194.74097 191.30749 189.33402 188.35555 188.40408 189.22360 190.51613
 192.22566 194.30519 196.55271 198.89624 201.32577 203.79030 205.86282 207.68935
 209.29988 210.42941 210.64293 210.85546 210.77699 210.46652 210.08404 209.69857
 209.30010 208.99463 208.78715 208.63568 208.54821 208.86374 209.23426 209.60779
 210.38532 211.54785 212.78237 214.54990 216.46243 218.48996 220.56948 222.63701
 224.68154 226.75007 228.83159 230.92212 233.03565 235.19218 237.43270 239.78723
 242.39276 244.62829 246.61481 248.36434 249.76587 250.87340 251.67992 251.98045
 252.00198 251.76051 251.10503 250.03756 248.62809 246.77362 244.66714 242.48467
 240.26020 238.04873 235.85325 233.67678 231.52131 229.37284 227.38336 225.52489
 223.79242 222.24895 220.86347 219.62000 218.48653 217.43106 216.51958 215.64511
 214.87164 214.03617 213.11869 212.46722 211.90175 212.92773 215.35173 217.28017
 218.08423 219.55785 221.35980 222.86809 224.38213 226.23825 228.94775 231.07747
 232.46985 233.53442 235.02885 237.99156 242.13750 246.51302 250.69113 254.53798
 257.94861 261.00867 263.86551 266.54605 268.98386 271.12543 273.01437 274.74973
 276.40283 277.92731 279.30374 280.59845 281.77417 282.83002 283.80463 284.68817
 285.48026 286.18134 286.79852 287.62939
 366.78100 356.31848 345.73397 334.58345 322.96994 311.14742 299.00091 286.78739
 274.48288 262.36336 250.35585 239.64033 229.74582 220.83330 212.99879 205.98427
 199.80176 194.72324 191.28873 189.31421 188.33470 188.38218 189.20067 190.49215
 192.20064 194.27912 196.52561 198.86809 201.29658 203.76006 205.83155 207.65703
 209.26652 210.39500 210.60749 210.81897 210.73945 210.42794 210.04442 209.65791
 209.25839 208.95188 208.74336 208.59085 208.50233 208.81682 209.18630 209.55879
 210.33527 211.49676 212.73024 214.49673 216.40821 218.43470 220.51318 222.57967
 224.62315 226.69064 228.77112 230.86061 232.97309 235.12858 237.36806 239.72155
 242.32603 244.56052 246.54600 248.29449 249.69497 250.80145 251.60694 251.90642
 251.92691 251.68439 251.02788 249.95936 248.54885 246.69333 244.58582 242.40230
 240.17679 237.96427 235.76776 233.59024 231.43373 229.28421 227.29370 225.43418
 223.70067 222.15615 220.76964 219.52512 218.39061 217.33409 216.42158 215.54606
 214.77155 213.93503 213.01652 212.36400 211.79749 212.88422 215.45172 217.32349
 218.23303 219.75679 221.44339 222.90204 224.45238 226.27321 228.88365 230.99734
 232.22281 233.13957 234.72014 237.86404 242.07451 246.46281 250.66640 254.55417
 257.99063 261.04919 263.88034 266.54395 268.97122 271.09271 272.91910 274.59882
 276.27100 277.83234 279.23145 280.56802 281.75092 282.80670 283.78271 284.66821
 285.46094 286.15997 286.77902 287.62100
 366.78100 356.31822 345.73343 334.58265 322.96886 311.14608 298.99929 286.78551
 274.48072 262.36094 250.35316 239.63737 229.74259 220.82980 212.99502 205.98023
 199.79745 194.71866 191.28388 189.30910 188.32931 188.37653 189.19474 190.48596
 192.19417 194.27239 196.51860 198.86082 201.28904 203.75225 205.82347 207.64868
 209.25790 210.38611 210.59833 210.80954 210.72976 210.41797 210.03419 209.64741
 209.24762 208.94084 208.73205 208.57927 208.49048 208.80470 209.17391 209.54613
 210.32235 211.48356 212.71678 214.48299 216.39421 218.42042 220.49864 222.56485
 224.60807 226.67529 228.75550 230.84472 232.95693 235.11215 237.35136 239.70458
 242.30879 244.54301 246.52823 248.27644 249.67666 250.78287 251.58809 251.88730
 251.90752 251.66473 251.00795 249.93917 248.52838 246.67260 244.56481 242.38103
 240.15524 237.94246 235.74567 233.56789 231.41111 229.26132 227.27054 225.41075
 223.67697 222.13218 220.74540 219.50061 218.36583 217.30904 216.39626 215.52048
 214.74569 213.90891 212.99012 212.33734 211.77055 212.88017 215.50177 217.41205
 218.37431 219.94461 221.55412 222.93684 224.50450 226.27521 228.83649 230.90787
 231.97652 232.76588 234.45259 237.74629 241.99217 246.40529 250.62299 254.53748
 258.00281 261.07947 263.89917 266.55655 268.98621 271.11533 272.89145 274.50220
 276.16220 277.73264 279.17667 280.52432 281.70535 282.75409 283.71005 284.59100
 285.41092 286.12018 286.73999 287.59250
 366.78100 356.31844 345.73388 334.58332 322.96976 311.14720 299.00064 286.78708
 274.48252 262.36296 250.35540 239.63984 229.74528 220.83272 212.99816 205.98360
 199.80104 194.72248 191.28792 189.31336 188.33380 188.38124 189.19968 190.49112
 192.19956 194.27800 196.52444 198.86688 201.29532 203.75876 205.83020 207.65564
 209.26507 210.39351 210.60595 210.81739 210.73783 210.42627 210.04271 209.65615
 209.25659 208.95003 208.74147 208.58891 208.50035 208.81479 209.18423 209.55667
 210.33311 211.49455 212.72799 214.49443 216.40587 218.43231 220.51075 222.57719
 224.62063 226.68807 228.76851 230.85795 232.97039 235.12583 237.36527 239.71871
 242.32315 244.55759 246.54303 248.29147 249.69191 250.79835 251.60379 251.90323
 251.92367 251.68111 251.02455 249.95599 248.54543 246.68987 244.58231 242.39875
 240.17319 237.96063 235.76407 233.58651 231.42995 229.28039 227.28983 225.43027
 223.69671 222.15215 220.76559 219.52103 218.38647 217.32991 216.41734 215.54178
 214.76722 213.93066 213.01210 212.35954 211.79298 212.89973 215.51454 217.54591
 218.52821 220.06898 221.66640 223.01199 224.56541 226.28973 228.81607 230.76514
 231.67799 232.37794 234.19193 237.60556 241.89993 246.35088 250.58293 254.52069
 258.01385 261.10535 263.91342 266.55191 268.97012 271.09467 272.83029 274.40256
 276.06998 277.66614 279.17606 280.53485 281.71634 282.76425 283.72150 284.60294
 285.41885 286.13834 286.76263 287.61639
 366.78100 356.31800 345.73300 334.58200 322.96800 311.14500 298.99800 286.78400
 274.47900 262.35900 250.35100 239.63500 229.74000 220.82700 212.99199 205.97699
 199.79399 194.71499 191.27999 189.30499 188.32499 188.37199 189.18999 190.48099
 192.18899 194.26699 196.51299 198.85499 201.28299 203.74599 205.81699 207.64199
 209.25099 210.37899 210.59099 210.80199 210.72199 210.40999 210.02599 209.63899
 209.23898 208.93198 208.72298 208.56998 208.48098 208.79498 209.16398 209.53598
 210.31198 211.47298 212.70598 214.47198 216.38298 218.40898 220.48698 222.55298
 224.59598 226.66298 228.74298 230.83198 232.94398 235.09898 237.33798 239.69098
 242.29498 244.52898 246.51398 248.26197 249.66197 250.76797 251.57297 251.87197
 251.89197 251.64897 250.99197 249.92297 248.51197 246.65597 244.54797 242.36397
 240.13797 237.92497 235.72797 233.54997 231.39297 229.24297 227.25197 225.39197
 223.65797 222.11297 220.72597 219.48097 218.34597 217.28897 216.37596 215.49996
 214.72496 213.88796 212.96896 212.31596 211.74896 212.88406 215.56589 217.67767
 218.66817 220.16702 221.73741 223.06596 224.68886 226.39543 228.83566 230.56429
 231.32948 231.99155 233.87450 237.44281 241.84099 246.31769 250.56003 254.51073
 258.02505 261.12534 263.92200 266.53046 268.92859 271.04749 272.76337 274.33319
 276.00656 277.66934 279.19968 280.56030 281.74371 282.79449 283.75323 284.63608
 285.44894 286.17844 286.80450 287.66342
 366.78100 356.31752 345.73204 334.58056 322.96609 311.14261 298.99513 286.78065
 274.47517 262.35469 250.34621 239.62974 229.73426 220.82078 212.98530 205.96982
 199.78634 194.70686 191.27139 189.29591 188.31543 188.36195 189.17947 190.46999
 192.17751 194.25504 196.50056 198.84208 201.26960 203.73212 205.80264 207.62716
 209.23569 210.36321 210.57473 210.78525 210.70477 210.39229 210.00781 209.62034
 209.21986 208.91238 208.70290 208.54942 208.45994 208.77346 209.14199 209.51351
 210.28903 211.44955 212.68207 214.44759 216.35811 218.38363 220.46116 222.52668
 224.56920 226.63572 228.71524 230.80376 232.91528 235.06981 237.30833 239.66085
 242.26437 244.49789 246.48241 248.22993 249.62946 250.73498 251.53950 251.83802
 251.85754 251.61406 250.95658 249.88711 248.47563 246.61915 244.51067 242.32619
 240.09971 237.88623 235.68876 233.51028 231.35280 229.20232 227.21084 225.35036
 223.61588 222.07041 220.68293 219.43745 218.30197 217.24449 216.33101 215.45453
 214.67906 213.84158 212.92210 212.26862 211.70114 212.86671 215.62051 217.80872
 218.79936 220.26221 221.83206 223.19295 224.72357 226.41771 228.90094 230.55061
 230.94754 231.37550 233.61464 237.38693 241.82045 246.29828 250.53731 254.48637
 258.01276 261.12714 263.92389 266.50748 268.89560 271.02853 272.74097 274.30902
 275.97269 277.68021 279.21765 280.57855 281.76257 282.81458 283.77588 284.65958
 285.47406 286.20972 286.83798 287.70230
 366.78100 356.31727 345.73153 334.57980 322.96506 311.14133 298.99359 286.77886
 274.47312 262.35239 250.34366 239.62692 229.73119 220.81745 212.98172 205.96598
 199.78225 194.70251 191.26678 189.29104 188.31031 188.35658 189.17384 190.46411
 192.17137 194.24864 196.49390 198.83517 201.26243 203.72470 205.79497 207.61923
 209.22750 210.35476 210.56603 210.77629 210.69556 210.38282 209.99809 209.61036
 209.20962 208.90189 208.69215 208.53842 208.44868 208.76195 209.13021 209.50148
 210.27675 211.43701 212.66928 214.43454 216.34481 218.37007 220.44734 222.51260
 224.55487 226.62113 228.70040 230.78867 232.89993 235.05420 237.29246 239.64473
 242.24799 244.48126 246.46552 248.21279 249.61206 250.71732 251.52159 251.81985
 251.83912 251.59538 250.93765 249.86791 248.45618 246.59945 244.49071 242.30598
 240.07924 237.86551 235.66777 233.48904 231.33130 229.18057 227.18884 225.32810
 223.59337 222.04763 220.65990 219.41416 218.27843 217.22069 216.30696 215.43022
 214.65449 213.81676 212.89702 212.24329 211.67555 212.86278 215.66774 217.94296
 218.90096 220.36702 221.97389 223.36082 224.74959 226.37285 228.88649 230.49922
 230.62909 230.86441 233.40668 237.33923 241.78438 246.26073 250.49364 254.44279
 257.98386 261.11981 263.92896 266.49542 268.88260 271.03891 272.74991 274.30023
 275.95206 277.68347 279.22629 280.58945 281.77502 282.82758 283.79037 284.67569
 285.49075 286.22748 286.85852 287.73068
 366.78100 356.31715 345.73129 334.57944 322.96459 311.14074 298.99288 286.77803
 274.47218 262.35132 250.34247 239.62562 229.72977 220.81591 212.98006 205.96421
 199.78035 194.70050 191.26465 189.28880 188.30794 188.35409 189.17124 190.46138
 192.16853 194.24568 196.49083 198.83197 201.25912 203.72127 205.79141 207.61556
 209.22371 210.35085 210.56200 210.77215 210.69130 210.37844 209.99359 209.60574
 209.20488 208.89703 208.68718 208.53333 208.44347 208.75662 209.12477 209.49591
 210.27106 211.43121 212.66336 214.42850 216.33865 218.36380 220.44094 222.50609
 224.54824 226.61439 228.69353 230.78168 232.89283 235.04697 237.28512 239.63727
 242.24042 244.47356 246.45771 248.20486 249.60400 250.70915 251.51330 251.81145
 251.83059 251.58674 250.92889 249.85903 248.44718 246.59033 244.48148 242.29662
 240.06977 237.85592 235.65806 233.47921 231.32136 229.17050 227.17865 225.31780
 223.58295 222.03709 220.64924 219.40339 218.26753 217.20968 216.29583 215.41898
 214.64312 213.80527 212.88542 212.23156 211.66371 212.86871 215.71564 218.05063
 219.01862 220.46094 222.09598 223.54782 224.85414 226.35185 228.79222 230.31506
 230.32495 230.49500 233.22096 237.27039 241.73537 246.22089 250.44852 254.39656
 257.95261 261.11279 263.93689 266.48895 268.87729 271.05664 272.76331 274.29346
 275.94064 277.67789 279.22665 280.59152 281.77890 282.83423 283.79889 284.68494
 285.49890 286.23630 286.87549 287.75070
 366.78100 356.31712 345.73125 334.57937 322.96450 311.14062 298.99275 286.77787
 274.47200 262.35112 250.34225 239.62537 229.72950 220.81562 212.97975 205.96387
 199.78000 194.70012 191.26425 189.28837 188.30750 188.35362 189.17075 190.46087
 192.16800 194.24512 196.49025 198.83137 201.25850 203.72062 205.79075 207.61487
 209.22299 210.35012 210.56124 210.77137 210.69049 210.37762 209.99274 209.60487
 209.20399 208.89612 208.68624 208.53237 208.44249 208.75562 209.12374 209.49487
 210.26999 211.43012 212.66224 214.42737 216.33749 218.36262 220.43974 222.50487
 224.54699 226.61312 228.69224 230.78037 232.89149 235.04562 237.28374 239.63586
 242.23899 244.47211 246.45624 248.20336 249.60249 250.70761 251.51174 251.80986
 251.82899 251.58511 250.92724 249.85736 248.44549 246.58861 244.47974 242.29486
 240.06799 237.85411 235.65624 233.47736 231.31949 229.16861 227.17674 225.31586
 223.58099 222.03511 220.64724 219.40136 218.26549 217.20761 216.29373 215.41686
 214.64098 213.80311 212.88323 212.22936 211.66148 212.88237 215.76686 218.12544
 219.15434 220.56871 222.18156 223.70946 225.00362 226.37811 228.67317 230.04367
 230.00771 230.21330 233.04323 237.19403 241.69496 246.18729 250.40698 254.35335
 257.92288 261.10440 263.94315 266.48022 268.86755 271.06201 272.75897 274.27509
 275.94006 277.68423 279.23712 280.60605 281.79541 282.85477 283.82321 284.71207
 285.53061 286.27100 286.92438 287.82721
 366.78100 356.31723 345.73147 334.57970 322.96494 311.14117 298.99341 286.77864
 274.47288 262.35211 250.34335 239.62658 229.73082 220.81705 212.98129 205.96552
 199.78176 194.70199 191.26622 189.29046 188.30969 188.35593 189.17316 190.46340
 192.17063 194.24787 196.49310 198.83434 201.26157 203.72381 205.79404 207.61828
 209.22651 210.35375 210.56498 210.77521 210.69445 210.38168 209.99692 209.60915
 209.20839 208.90062 208.69086 208.53709 208.44733 208.76056 209.12880 209.50003
 210.27527 211.43550 212.66774 214.43297 216.34320 218.36844 220.44567 222.51091
 224.55314 226.61938 228.69861 230.78685 232.89808 235.05232 237.29055 239.64279
 242.24602 244.47926 246.46349 248.21072 249.60996 250.71519 251.51943 251.81766
 251.83690 251.59313 250.93537 249.86560 248.45384 246.59707 244.48831 242.30354
 240.07678 237.86301 235.66525 233.48648 231.32871 229.17795 227.18618 225.32542
 223.59065 222.04489 220.65712 219.41136 218.27559 217.21783 216.30406 215.42730
 214.65153 213.81377 212.89400 212.24024 211.67247 212.90443 215.81509 218.19142
 219.27724 220.69687 222.26984 223.83253 225.14331 226.43073 228.56154 229.75674
 229.68510 229.96768 232.87189 237.11510 241.66362 246.15622 250.36606 254.31143
 257.89413 261.09549 263.94678 266.46906 268.85522 271.05930 272.74963 274.25266
 275.94522 277.69620 279.25156 280.62137 281.81256 282.87234 283.84302 284.73325
 285.55032 286.29303 286.94601 287.85574
 366.78100 356.31745 345.73190 334.58035 322.96579 311.14224 298.99469 286.78014
 274.47459 262.35404 250.34549 239.62893 229.73338 220.81983 212.98428 205.96873
 199.78518 194.70563 191.27008 189.29452 188.31397 188.36042 189.17787 190.46832
 192.17577 194.25322 196.49866 198.84011 201.26756 203.73001 205.80046 207.62491
 209.23336 210.36080 210.57225 210.78270 210.70215 210.38960 210.00505 209.61750
 209.21695 208.90939 208.69984 208.54629 208.45674 208.77019 209.13864 209.51009
 210.28553 211.44598 212.67843 214.44388 216.35433 218.37978 220.45723 222.52267
 224.56512 226.63157 228.71102 230.79947 232.91092 235.06537 237.30382 239.65626
 242.25971 244.49316 246.47761 248.22506 249.62451 250.72996 251.53440 251.83285
 251.85230 251.60875 250.95120 249.88165 248.47010 246.61354 244.50499 242.32044
 240.09389 237.88034 235.68279 233.50424 231.34668 229.19613 227.20458 225.34403
 223.60948 222.06393 220.67638 219.43083 218.29527 217.23772 216.32417 215.44762
 214.67207 213.83452 212.91497 212.26141 211.69386 212.93323 215.86134 218.26064
 219.38002 220.82553 222.38298 223.93428 225.25496 226.48572 228.46080 229.48404
 229.36430 229.73611 232.71326 237.04549 241.63791 246.12187 250.32268 254.26781
 257.86438 261.08563 263.95026 266.45950 268.84439 271.05270 272.73834 274.24756
 275.94913 277.70258 279.25867 280.62817 281.82031 282.88068 283.85147 284.74286
 285.55704 286.29831 286.95166 287.86789
 366.78100 356.31767 345.73235 334.58102 322.96669 311.14337 298.99604 286.78172
 274.47639 262.35606 250.34774 239.63141 229.73608 220.82276 212.98743 205.97211
 199.78878 194.70945 191.27413 189.29880 188.31847 188.36515 189.18282 190.47350
 192.18117 194.25884 196.50452 198.84619 201.27386 203.73654 205.80721 207.63188
 209.24056 210.36823 210.57991 210.79058 210.71025 210.39793 210.01360 209.62627
 209.22595 208.91862 208.70930 208.55597 208.46664 208.78032 209.14899 209.52066
 210.29634 211.45701 212.68968 214.45536 216.36603 218.39171 220.46938 222.53505
 224.57773 226.64440 228.72407 230.81275 232.92442 235.07910 237.31777 239.67044
 242.27412 244.50779 246.49246 248.24014 249.63981 250.74549 251.55016 251.84883
 251.86851 251.62518 250.96785 249.89853 248.48720 246.63087 244.52255 242.33822
 240.11190 237.89857 235.70124 233.52292 231.36559 229.21526 227.22394 225.36361
 223.62929 222.08396 220.69663 219.45131 218.31598 217.25865 216.34533 215.46900
 214.69367 213.85635 212.93702 212.28370 211.71637 212.96375 215.91080 218.32687
 219.47495 220.94467 222.51231 224.03101 225.34552 226.53107 228.37001 229.22652
 229.04994 229.52399 232.57335 236.98209 241.60829 246.08414 250.27840 254.22050
 257.82739 261.06979 263.95142 266.45493 268.84116 271.05594 272.74313 274.23932
 275.95117 277.70383 279.25934 280.62997 281.81970 282.88022 283.85074 284.73987
 285.55478 286.29141 286.94498 287.85944
 366.78100 356.31790 345.73280 334.58170 322.96760 311.14450 298.99740 286.78330
 274.47820 262.35810 250.35000 239.63390 229.73881 220.82571 212.99061 205.97551
 199.79241 194.71331 191.27821 189.30311 188.32301 188.36991 189.18781 190.47871
 192.18661 194.26451 196.51041 198.85231 201.28021 203.74311 205.81401 207.63891
 209.24781 210.37571 210.58762 210.79852 210.71842 210.40632 210.02222 209.63512
 209.23502 208.92792 208.71882 208.56572 208.47662 208.79052 209.15942 209.53132
 210.30722 211.46812 212.70102 214.46692 216.37782 218.40372 220.48162 222.54752
 224.59042 226.65733 228.73723 230.82613 232.93803 235.09293 237.33183 239.68473
 242.28863 244.52253 246.50743 248.25533 249.65523 250.76113 251.56603 251.86493
 251.88483 251.64173 250.98463 249.91553 248.50443 246.64833 244.54023 242.35613
 240.13004 237.91694 235.71984 233.54174 231.38464 229.23454 227.24344 225.38334
 223.64924 222.10414 220.71704 219.47194 218.33684 217.27974 216.36664 215.49054
 214.71544 213.87834 212.95924 212.30614 211.73904 212.99532 215.96339 218.38672
 219.56548 221.06029 222.64362 224.12579 225.42290 226.56213 228.28653 228.97578
 228.74562 229.33852 232.45018 236.91757 241.57141 246.04622 250.23689 254.17441
 257.78674 261.04858 263.94775 266.45343 268.84146 271.05942 272.75220 274.24219
 275.94962 277.70209 279.25711 280.62793 281.81781 282.87717 283.84808 284.73709
 285.55084 286.28909 286.94202 287.86240
 366.78100 356.31817 345.73333 334.58250 322.96867 311.14584 298.99900 286.78517
 274.48034 262.36051 250.35267 239.63684 229.74201 220.82918 212.99434 205.97951
 199.79668 194.71785 191.28301 189.30818 188.32835 188.37552 189.19368 190.48485
 192.19302 194.27119 196.51735 198.85952 201.28769 203.75086 205.82202 207.64719
 209.25636 210.38453 210.59669 210.80786 210.72803 210.41620 210.03236 209.64553
 209.24570 208.93887 208.73003 208.57720 208.48837 208.80254 209.17170 209.54387
 210.32004 211.48121 212.71437 214.48054 216.39171 218.41788 220.49604 222.56221
 224.60538 226.67255 228.75271 230.84188 232.95405 235.10922 237.34838 239.70155
 242.30572 244.53989 246.52505 248.27322 249.67339 250.77956 251.58472 251.88389
 251.90406 251.66123 251.00439 249.93556 248.52473 246.66890 244.56106 242.37723
 240.15140 237.93857 235.74173 233.56390 231.40707 229.25724 227.26640 225.40657
 223.67274 222.12790 220.74107 219.49624 218.36141 217.30457 216.39174 215.51591
 214.74108 213.90424 212.98541 212.33258 211.76575 213.02933 216.01465 218.43927
 219.65303 221.17822 222.77106 224.22354 225.48935 226.58148 228.20810 228.72229
 228.45454 229.18237 232.34160 236.84985 241.52969 246.00891 250.20016 254.13251
 257.74591 261.02267 263.94049 266.45370 268.84286 271.05835 272.75388 274.25089
 275.95114 277.70294 279.25983 280.63080 281.82086 282.88065 283.85281 284.74130
 285.55850 286.29706 286.94931 287.87799
 366.78100 356.31851 345.73402 334.58353 322.97004 311.14755 299.00106 286.78757
 274.48308 262.36359 250.35610 239.64062 229.74613 220.83364 212.99915 205.98466
 199.80217 194.72368 191.28919 189.31470 188.33521 188.38272 189.20123 190.49274
 192.20125 194.27976 196.52627 198.86878 201.29729 203.76080 205.83231 207.65783
 209.26734 210.39585 210.60836 210.81987 210.74038 210.42889 210.04540 209.65891
 209.25942 208.95293 208.74444 208.59195 208.50346 208.81797 209.18748 209.55999
 210.33650 211.49801 212.73152 214.49803 216.40955 218.43606 220.51457 222.58108
 224.62459 226.69210 228.77261 230.86212 232.97463 235.13014 237.36965 239.72316
 242.32767 244.56218 246.54769 248.29620 249.69671 250.80322 251.60873 251.90824
 251.92876 251.68627 251.02978 249.96129 248.55080 246.69531 244.58782 242.40433
 240.17884 237.96635 235.76986 233.59237 231.43588 229.28639 227.29590 225.43641
 223.70292 222.15843 220.77194 219.52745 218.39296 217.33648 216.42399 215.54850
 214.77401 213.93752 213.01903 212.36654 211.80005 213.06776 216.06287 218.48592
 219.73837 221.29912 222.89458 224.32487 225.54988 226.59428 228.13039 228.46814
 228.17937 229.04810 232.24361 236.78166 241.48543 245.97110 250.16606 254.09483
 257.70718 260.99460 263.92892 266.45392 268.84155 271.04138 272.73792 274.30685
 275.94254 277.69327 279.25555 280.62906 281.82355 282.88599 283.85919 284.75052
 285.56635 286.30676 286.96295 287.88831
 366.78100 356.31895 345.73490 334.58486 322.97181 311.14976 299.00371 286.79067
 274.48662 262.36757 250.36052 239.64548 229.75143 220.83938 213.00533 205.99129
 199.80924 194.73119 191.29714 189.32310 188.34405 188.39200 189.21095 190.50290
 192.21186 194.29081 196.53776 198.88071 201.30967 203.77362 205.84557 207.67152
 209.28148 210.41043 210.62338 210.83533 210.75629 210.44524 210.06219 209.67614
 209.27710 208.97105 208.76300 208.61095 208.52290 208.83786 209.20781 209.58076
 210.35771 211.51967 212.75362 214.52057 216.43252 218.45948 220.53843 222.60538
 224.64933 226.71729 228.79824 230.88819 233.00114 235.15710 237.39705 239.75100
 242.35595 244.59090 246.57686 248.32581 249.72676 250.83371 251.63967 251.93962
 251.96057 251.71852 251.06248 249.99443 248.58438 246.72933 244.62229 242.43924
 240.21419 238.00214 235.80610 233.62905 231.47300 229.32395 227.33390 225.47486
 223.74181 222.19776 220.81171 219.56767 218.43362 217.37757 216.46552 215.59048
 214.81643 213.98038 213.06233 212.41029 211.84424 213.11113 216.10432 218.52792
 219.82553 221.41660 223.01323 224.42879 225.59680 226.60521 228.05199 228.21399
 227.92126 228.93527 232.15970 236.71545 241.43755 245.93057 250.13264 254.05942
 257.66885 260.96335 263.91339 266.45636 268.84308 271.02875 272.72891 274.27304
 275.96597 277.72165 279.28098 280.65356 281.84601 282.90799 283.88013 284.77054
 285.58606 286.32593 286.98050 287.91180
 366.78100 356.31963 345.73626 334.58689 322.97451 311.15314 299.00777 286.79540
 274.49203 262.37366 250.36728 239.65291 229.75954 220.84817 213.01480 206.00143
 199.82006 194.74268 191.30931 189.33594 188.35757 188.40620 189.22583 190.51846
 192.22808 194.30771 196.55534 198.89897 201.32860 203.79323 205.86585 207.69248
 209.30311 210.43274 210.64637 210.85900 210.78063 210.47025 210.08788 209.70251
 209.30414 208.99877 208.79140 208.64003 208.55265 208.86828 209.23891 209.61254
 210.39017 211.55280 212.78742 214.55505 216.46768 218.49531 220.57494 222.64257
 224.68720 226.75582 228.83745 230.92808 233.04171 235.19834 237.43897 239.79360
 242.39922 244.63485 246.62148 248.37111 249.77274 250.88037 251.68699 251.98762
 252.00925 251.76788 251.11251 250.04514 248.63577 246.78139 244.67502 242.49265
 240.26828 238.05691 235.86154 233.68517 231.52979 229.38142 227.39205 225.53368
 223.80131 222.25794 220.87256 219.62919 218.49582 217.44045 216.52908 215.65471
 214.88134 214.04596 213.12859 212.47722 211.91185 213.16624 216.12988 218.57346
 219.91341 221.53172 223.13318 224.52802 225.64088 226.61079 227.96461 227.97247
 227.68095 228.83519 232.08601 236.65176 241.38893 245.89032 250.09950 254.02478
 257.63065 260.93076 263.89548 266.46069 268.84332 271.00800 272.71304 274.30557
 275.96622 277.72360 279.28760 280.66339 281.85809 282.92264 283.89636 284.78809
 285.60443 286.34698 287.00113 287.93552
 366.78100 356.32034 345.73767 334.58901 322.97734 311.15668 299.01201 286.80035
 274.49769 262.38002 250.37436 239.66069 229.76803 220.85736 213.02470 206.01204
 199.83137 194.75471 191.32204 189.34938 188.37171 188.42105 189.24139 190.53472
 192.24506 194.32539 196.57373 198.91807 201.34840 203.81374 205.88707 207.71441
 209.32574 210.45608 210.67042 210.88375 210.80609 210.49642 210.11476 209.73009
 209.33243 209.02777 208.82110 208.67044 208.58377 208.90011 209.27144 209.64578
 210.42412 211.58745 212.82279 214.59112 216.50446 218.53279 220.61313 222.68147
 224.72680 226.79614 228.87847 230.96981 233.08414 235.24148 237.48282 239.83815
 242.44449 244.68082 246.66816 248.41849 249.82083 250.92917 251.73650 252.03784
 252.06017 251.81951 251.16485 250.09818 248.68952 246.83585 244.73019 242.54852
 240.32486 238.11420 235.91953 233.74387 231.58920 229.44154 227.45287 225.59521
 223.86355 222.32088 220.93622 219.69355 218.56089 217.50622 216.59556 215.72190
 214.94923 214.11457 213.19790 212.54724 211.98257 213.22385 216.15651 218.60384
 220.01260 221.64287 223.25189 224.63438 225.68126 226.62268 227.87814 227.73009
 227.43967 228.73947 232.02875 236.59523 241.33871 245.84726 250.06688 253.99480
 257.59869 260.90225 263.87970 266.46741 268.84042 270.97601 272.67780 274.14786
 276.05667 277.80923 279.34744 280.71167 281.89996 282.95901 283.92853 284.81857
 285.63409 286.37552 287.02954 287.96060
 366.78100 356.32094 345.73889 334.59083 322.97977 311.15971 299.01566 286.80460
 274.50254 262.38548 250.38043 239.66737 229.77531 220.86525 213.03320 206.02114
 199.84108 194.76502 191.33297 189.36091 188.38385 188.43379 189.25474 190.54868
 192.25962 194.34056 196.58951 198.93445 201.36539 203.83134 205.90528 207.73322
 209.34516 210.47611 210.69105 210.90499 210.82793 210.51888 210.13782 209.75376
 209.35670 209.05265 208.84659 208.69653 208.61047 208.92742 209.29936 209.67430
 210.45324 211.61719 212.85313 214.62207 216.53601 218.56496 220.64590 222.71484
 224.76078 226.83073 228.91367 231.00561 233.12056 235.27850 237.52044 239.87638
 242.48333 244.72027 246.70821 248.45915 249.86210 250.97104 251.77898 252.08092
 252.10387 251.86381 251.20975 250.14369 248.73564 246.88258 244.77752 242.59646
 240.37341 238.16335 235.96929 233.79423 231.64018 229.49312 227.50506 225.64801
 223.91695 222.37489 220.99083 219.74878 218.61672 217.56266 216.65260 215.77955
 215.00749 214.17343 213.25737 212.60732 212.04326 213.27684 216.19131 218.62325
 220.09424 221.77744 223.38104 224.72304 225.73575 226.65681 227.79022 227.47491
 227.19046 228.65466 231.97925 236.53697 241.28343 245.80284 250.03625 253.96739
 257.56738 260.87106 263.86249 266.47610 268.84192 270.95139 272.65521 274.07541
 276.04843 277.83276 279.38046 280.74689 281.93558 282.99170 283.96179 284.85040
 285.66302 286.40335 287.05676 287.98853
 366.78100 356.32173 345.74047 334.59320 322.98293 311.16367 299.02040 286.81013
 274.50887 262.39260 250.38833 239.67607 229.78480 220.87553 213.04427 206.03300
 199.85373 194.77847 191.34720 189.37593 188.39967 188.45040 189.27213 190.56687
 192.27860 194.36033 196.61007 198.95580 201.38753 203.85427 205.92900 207.75773
 209.37047 210.50220 210.71793 210.93267 210.85640 210.54813 210.16787 209.78460
 209.38833 209.08507 208.87980 208.73053 208.64527 208.96300 209.33573 209.71146
 210.49120 211.65593 212.89266 214.66240 216.57713 218.60686 220.68860 222.75833
 224.80506 226.87580 228.95953 231.05226 233.16800 235.32673 237.56946 239.92620
 242.53393 244.77166 246.76040 248.51213 249.91586 251.02560 251.83433 252.13706
 252.16080 251.92153 251.26826 250.20300 248.79573 246.94346 244.83920 242.65893
 240.43666 238.22740 236.03413 233.85986 231.70660 229.56033 227.57306 225.71680
 223.98653 222.44526 221.06200 219.82073 218.68946 217.63620 216.72693 215.85466
 215.08340 214.25013 213.33486 212.68560 212.12233 213.33806 216.21037 218.66364
 220.15219 221.88631 223.50696 224.85851 225.81415 226.67316 227.69066 227.28574
 226.99063 228.53586 231.91637 236.48192 241.22923 245.75969 250.00182 253.92950
 257.52161 260.82382 263.82751 266.47055 268.83221 270.91940 272.62631 274.17804
 276.06189 277.84531 279.40289 280.77283 281.96420 283.02139 283.99213 284.87988
 285.69131 286.42938 287.08255 288.01376
 366.78100 356.32254 345.74208 334.59563 322.98617 311.16771 299.02525 286.81579
 274.51533 262.39988 250.39642 239.68496 229.79450 220.88604 213.05558 206.04513
 199.86667 194.79221 191.36175 189.39129 188.41583 188.46738 189.28992 190.58546
 192.29800 194.38054 196.63108 198.97763 201.41017 203.87771 205.95325 207.78279
 209.39633 210.52888 210.74542 210.96096 210.88550 210.57804 210.19858 209.81613
 209.42067 209.11821 208.91375 208.76529 208.68084 208.99938 209.37292 209.74946
 210.53000 211.69554 212.93309 214.70363 216.61917 218.64971 220.73225 222.80279
 224.85034 226.92188 229.00642 231.09996 233.21650 235.37604 237.61959 239.97713
 242.58567 244.82421 246.81375 248.56629 249.97084 251.08138 251.89092 252.19446
 252.21900 251.98054 251.32809 250.26363 248.85717 247.00571 244.90225 242.72279
 240.50134 238.29288 236.10042 233.92696 231.77450 229.62905 227.64259 225.78713
 224.05767 222.51721 221.13475 219.89430 218.76384 217.71138 216.80292 215.93146
 215.16100 214.32855 213.41409 212.76563 212.20317 213.39915 216.22481 218.70840
 220.22200 221.96405 223.65004 225.00615 225.86382 226.65759 227.59161 227.13756
 226.82513 228.42159 231.86865 236.44035 241.18347 245.72107 249.96831 253.89236
 257.47699 260.77637 263.79056 266.46210 268.81439 270.87070 272.57333 274.23236
 276.05997 277.84143 279.40552 280.78275 281.97687 283.03723 284.00995 284.89813
 285.71024 286.44604 287.09512 288.03073
 366.78100 356.32323 345.74347 334.59770 322.98893 311.17117 299.02940 286.82063
 274.52086 262.40610 250.40333 239.69256 229.80280 220.89503 213.06526 206.05550
 199.87773 194.80396 191.37420 189.40443 188.42966 188.48189 189.30513 190.60136
 192.31459 194.39783 196.64906 198.99629 201.42953 203.89776 205.97399 207.80423
 209.41846 210.55169 210.76892 210.98516 210.91039 210.60362 210.22486 209.84309
 209.44832 209.14656 208.94279 208.79502 208.71126 209.03049 209.40472 209.78195
 210.56319 211.72942 212.96765 214.73889 216.65512 218.68635 220.76959 222.84082
 224.88905 226.96129 229.04652 231.14075 233.25799 235.41822 237.66245 240.02068
 242.62992 244.86915 246.85938 248.61262 250.01785 251.12908 251.93932 252.24355
 252.26878 252.03102 251.37925 250.31548 248.90971 247.05895 244.95618 242.77741
 240.55665 238.34888 236.15711 233.98435 231.83258 229.68781 227.70205 225.84728
 224.11851 222.57874 221.19698 219.95721 218.82744 217.77568 216.86791 215.99714
 215.22738 214.39561 213.48184 212.83408 212.27231 213.45378 216.24513 218.73552
 220.31664 222.02682 223.76112 225.15079 225.94237 226.66446 227.48259 226.98170
 226.66724 228.31900 231.83748 236.40802 241.14072 245.68118 249.93355 253.85745
 257.43549 260.73181 263.75540 266.45364 268.79700 270.81998 272.52359 274.24326
 276.05624 277.83807 279.40659 280.78513 281.98145 283.04498 284.01587 284.90628
 285.71661 286.45297 287.10217 288.03629
 366.78100 356.32397 345.74495 334.59992 322.99190 311.17487 299.03385 286.82582
 274.52680 262.41277 250.41075 239.70072 229.81170 220.90467 213.07565 206.06662
 199.88960 194.81657 191.38755 189.41852 188.44450 188.49747 189.32145 190.61842
 192.33240 194.41637 196.66835 199.01632 201.45029 203.91927 205.99624 207.82722
 209.44219 210.57617 210.79414 211.01112 210.93709 210.63107 210.25304 209.87202
 209.47799 209.17697 208.97394 208.82692 208.74389 209.06387 209.43884 209.81682
 210.59879 211.76577 213.00474 214.77672 216.69369 218.72567 220.80964 222.88161
 224.93059 227.00356 229.08954 231.18451 233.30249 235.46346 237.70844 240.06741
 242.67739 244.91736 246.90834 248.66231 250.06829 251.18026 251.99124 252.29621
 252.32219 252.08516 251.43414 250.37111 248.96609 247.11606 245.01404 242.83601
 240.61599 238.40896 236.21793 234.04591 231.89488 229.75086 227.76583 225.91181
 224.18378 222.64476 221.26373 220.02471 218.89568 217.84466 216.93763 216.06761
 215.29858 214.46756 213.55453 212.90751 212.34648 213.51079 216.26160 218.75452
 220.41309 222.11005 223.83255 225.25763 226.05049 226.70999 227.36156 226.82501
 226.53206 228.22969 231.81221 236.37730 241.09673 245.63963 249.89813 253.82204
 257.39178 260.68286 263.71323 266.43854 268.77460 270.77139 272.47946 274.23538
 276.05420 277.83795 279.40701 280.78574 281.98169 283.04468 284.01682 284.90704
 285.71680 286.45059 287.10150 288.03757
 366.78100 356.32483 345.74667 334.60250 322.99534 311.17917 299.03900 286.83184
 274.53367 262.42051 250.41934 239.71017 229.82201 220.91584 213.08768 206.07951
 199.90334 194.83118 191.40301 189.43485 188.46168 188.51551 189.34035 190.63818
 192.35302 194.43785 196.69068 199.03952 201.47435 203.94419 206.02202 207.85386
 209.46969 210.60452 210.82336 211.04119 210.96803 210.66286 210.28569 209.90553
 209.51236 209.21220 209.01003 208.86386 208.78170 209.10253 209.47837 209.85720
 210.64003 211.80787 213.04770 214.82054 216.73837 218.77120 220.85604 222.92887
 224.97871 227.05254 229.13937 231.23521 233.35404 235.51588 237.76171 240.12154
 242.73238 244.97321 246.96505 248.71988 250.12671 251.23955 252.05138 252.35722
 252.38405 252.14788 251.49772 250.43555 249.03139 247.18222 245.08105 242.90389
 240.68472 238.47856 236.28839 234.11722 231.96706 229.82389 227.83973 225.98656
 224.25940 222.72123 221.34106 220.10290 218.97473 217.92457 217.01840 216.14923
 215.38107 214.55090 213.63874 212.99257 212.43240 213.57341 216.26917 218.77609
 220.49956 222.21700 223.89235 225.32263 226.16298 226.78064 227.24034 226.67668
 226.41545 228.14357 231.78481 236.34756 241.05444 245.60149 249.86783 253.79239
 257.35373 260.63617 263.67029 266.41721 268.74463 270.71216 272.42191 274.23645
 276.03806 277.82187 279.39355 280.77286 281.97180 283.03491 284.00787 284.89584
 285.70663 286.44070 287.08932 288.02087
 366.78100 356.32568 345.74835 334.60503 322.99871 311.18338 299.04406 286.83774
 274.54041 262.42809 250.42777 239.71944 229.83212 220.92680 213.09947 206.09215
 199.91683 194.84551 191.41818 189.45086 188.47854 188.53321 189.35889 190.65757
 192.37324 194.45892 196.71260 199.06227 201.49795 203.96863 206.04730 207.87998
 209.49666 210.63233 210.85201 211.07069 210.99836 210.69404 210.31772 209.93839
 209.54607 209.24675 209.04542 208.90010 208.81878 209.14046 209.51713 209.89681
 210.68049 211.84916 213.08984 214.86352 216.78219 218.81587 220.90155 222.97522
 225.02590 227.10058 229.18825 231.28493 233.40461 235.56728 237.81396 240.17464
 242.78631 245.02799 247.02067 248.77634 250.18402 251.29770 252.11037 252.41705
 252.44473 252.20940 251.56008 250.49876 249.09544 247.24711 245.14679 242.97047
 240.75214 238.54682 236.35750 234.18717 232.03785 229.89553 227.91220 226.05988
 224.33356 222.79623 221.41691 220.17959 219.05226 218.00294 217.09762 216.22929
 215.46197 214.63265 213.72132 213.07600 212.51668 213.63541 216.27856 218.79562
 220.57869 222.32332 223.95349 225.36908 226.27158 226.86371 227.14262 226.54579
 226.30464 228.05307 231.75122 236.31664 241.01187 245.56110 249.83330 253.75819
 257.31290 260.58752 263.62488 266.39322 268.71585 270.66006 272.35803 274.19681
 276.02512 277.80771 279.37704 280.75513 281.95312 283.01581 283.98822 284.87607
 285.68338 286.41757 287.06528 287.99826
 366.78100 356.32636 345.74972 334.60708 323.00144 311.18679 299.04815 286.84251
 274.54587 262.43423 250.43459 239.72695 229.84031 220.93567 213.10903 206.10238
 199.92774 194.85710 191.43046 189.46382 188.49218 188.54754 189.37390 190.67326
 192.38962 194.47597 196.73033 199.08069 201.51705 203.98841 206.06777 207.90113
 209.51849 210.65485 210.87521 211.09456 211.02292 210.71928 210.34364 209.96500
 209.57336 209.27472 209.07408 208.92944 208.84880 209.17115 209.54851 209.92887
 210.71323 211.88259 213.12395 214.89831 216.81767 218.85203 220.93839 223.01274
 225.06410 227.13946 229.22782 231.32518 233.44554 235.60890 237.85626 240.21762
 242.82998 245.07233 247.06569 248.82205 250.23041 251.34477 252.15813 252.46549
 252.49385 252.25921 251.61057 250.54992 249.14728 247.29964 245.20000 243.02436
 240.80672 238.60208 236.41344 234.24380 232.09516 229.95351 227.97087 226.11923
 224.39359 222.85695 221.47831 220.24167 219.11503 218.06639 217.16175 216.29410
 215.52746 214.69882 213.78818 213.14354 212.58490 213.68709 216.29109 218.81564
 220.65645 222.40944 224.00560 225.40633 226.36938 226.94917 227.08397 226.44106
 226.20050 227.96820 231.71977 236.28938 240.97359 245.52229 249.79602 253.71751
 257.26166 260.52563 263.56219 266.34528 268.66129 270.58691 272.31274 274.24188
 276.00116 277.77332 279.34457 280.72470 281.92239 282.98569 283.95908 284.84528
 285.65387 286.38690 287.03415 287.96472
 366.78100 356.32701 345.75101 334.60902 323.00403 311.19003 299.05204 286.84705
 274.55105 262.44006 250.44107 239.73407 229.84808 220.94409 213.11809 206.11210
 199.93811 194.86811 191.44212 189.47613 188.50513 188.56114 189.38814 190.68815
 192.40516 194.49216 196.74717 199.09818 201.53518 204.00719 206.08720 207.92120
 209.53921 210.67622 210.89722 211.11723 211.04624 210.74324 210.36825 209.99026
 209.59926 209.30127 209.10128 208.95728 208.87729 209.20030 209.57830 209.95931
 210.74432 211.91432 213.15633 214.93134 216.85134 218.88635 220.97336 223.04836
 225.10037 227.17638 229.26538 231.36339 233.48439 235.64840 237.89641 240.25841
 242.87142 245.11443 247.10843 248.86544 250.27445 251.38945 252.20346 252.51147
 252.54047 252.30648 251.65849 250.59849 249.19650 247.34951 245.25051 243.07552
 240.85853 238.65453 236.46654 234.29755 232.14955 230.00856 228.02657 226.17557
 224.45058 222.91459 221.53659 220.30060 219.17461 218.12661 217.22262 216.35563
 215.58963 214.76164 213.85165 213.20765 212.64966 213.73540 216.30058 218.84047
 220.74188 222.48430 224.04828 225.43257 226.44470 227.02255 227.05392 226.35146
 226.09698 227.89296 231.69464 236.26810 240.94261 245.48843 249.76192 253.68091
 257.21597 260.46866 263.50208 266.29523 268.60287 270.50143 272.03302 274.02847
 275.97537 277.75793 279.31949 280.69501 281.88980 282.95151 283.92307 284.80945
 285.61884 286.35199 286.99857 287.92654
 366.78100 356.32773 345.75246 334.61118 323.00691 311.19364 299.05637 286.85210
 274.55682 262.44655 250.44828 239.74201 229.85673 220.95346 213.12819 206.12292
 199.94965 194.88037 191.45510 189.48983 188.51956 188.57629 189.40401 190.70474
 192.42247 194.51020 196.76592 199.11765 201.55538 204.02811 206.10884 207.94356
 209.56229 210.70002 210.92175 211.14248 211.07220 210.76993 210.39566 210.01839
 209.62811 209.33084 209.13157 208.98830 208.90903 209.23275 209.61148 209.99321
 210.77894 211.94967 213.19239 214.96812 216.88885 218.92458 221.01230 223.08803
 225.14076 227.21749 229.30722 231.40594 233.52767 235.69240 237.94113 240.30386
 242.91758 245.16131 247.15604 248.91377 250.32349 251.43922 252.25395 252.56268
 252.59241 252.35913 251.71186 250.65259 249.25132 247.40505 245.30677 243.13250
 240.91623 238.71296 236.52568 234.35741 232.21014 230.06987 228.08860 226.23832
 224.51405 222.97878 221.60151 220.36624 219.24096 218.19369 217.29042 216.42415
 215.65888 214.83160 213.92233 213.27906 212.72179 213.78732 216.30478 218.86244
 220.83273 222.55869 224.08731 225.45363 226.50352 227.08713 227.03749 226.25163
 225.97290 227.81601 231.67128 236.25061 240.91542 245.45549 249.72691 253.64270
 257.17047 260.41458 263.44595 266.25504 268.57001 270.46524 272.05450 273.93835
 275.93906 277.72589 279.28259 280.65240 281.84555 282.90417 283.87442 284.76099
 285.56955 286.30389 286.95303 287.87619
 366.78100 356.32856 345.75411 334.61367 323.01022 311.19778 299.06133 286.85789
 274.56344 262.45400 250.45656 239.75111 229.86667 220.96422 213.13978 206.13533
 199.96289 194.89444 191.47000 189.50555 188.53611 188.59367 189.42222 190.72378
 192.44233 194.53089 196.78744 199.14000 201.57855 204.05211 206.13367 207.96922
 209.58878 210.72733 210.94989 211.17144 211.10200 210.80055 210.42711 210.05066
 209.66122 209.36478 209.16633 209.02389 208.94544 209.27000 209.64955 210.03211
 210.81866 211.99022 213.23378 215.01033 216.93189 218.96844 221.05700 223.13355
 225.18711 227.26466 229.35522 231.45477 233.57733 235.74289 237.99244 240.35600
 242.97055 245.21511 247.21066 248.96922 250.37977 251.49633 252.31189 252.62144
 252.65200 252.41955 251.77311 250.71466 249.31422 247.46877 245.37133 243.19788
 240.98244 238.78000 236.59355 234.42611 232.27966 230.14022 228.15977 226.31033
 224.58688 223.05244 221.67600 220.44155 219.31711 218.27066 217.36822 216.50277
 215.73833 214.91188 214.00344 213.36099 212.80455 213.84499 216.30315 218.88351
 220.91948 222.63364 224.12413 225.46716 226.55397 227.15828 227.04430 226.16725
 225.85622 227.74628 231.65054 236.23682 240.89099 245.42097 249.68639 253.59587
 257.11279 260.34467 263.37216 266.19351 268.51352 270.40283 271.97546 273.88013
 275.88528 277.66925 279.22348 280.59348 281.78445 282.84534 283.81522 284.70187
 285.51077 286.24725 286.89557 287.82516
 366.78100 356.32933 345.75566 334.61599 323.01332 311.20165 299.06598 286.86331
 274.56964 262.46097 250.46430 239.75963 229.87596 220.97429 213.15062 206.14696
 199.97529 194.90762 191.48395 189.52028 188.55161 188.60994 189.43927 190.74160
 192.46093 194.55026 196.80759 199.16092 201.60025 204.07458 206.15691 207.99324
 209.61357 210.75290 210.97623 211.19856 211.12989 210.82922 210.45655 210.08088
 209.69221 209.39654 209.19887 209.05720 208.97954 209.30487 209.68520 210.06853
 210.85586 212.02819 213.27252 215.04985 216.97218 219.00951 221.09884 223.17617
 225.23050 227.30883 229.40016 231.50049 233.62382 235.79015 238.04048 240.40481
 243.02014 245.26547 247.26180 249.02113 250.43246 251.54979 252.36612 252.67645
 252.70778 252.47612 251.83045 250.77278 249.37311 247.52844 245.43177 243.25910
 241.04443 238.84276 236.65709 234.49042 232.34475 230.20608 228.22641 226.37774
 224.65507 223.12140 221.74573 220.51206 219.38839 218.34272 217.44105 216.57638
 215.81271 214.98704 214.07937 213.43770 212.88203 213.89847 216.29991 218.89882
 221.01071 222.70218 224.15512 225.47704 226.59258 227.23248 227.06946 226.09747
 225.74919 227.68423 231.63179 236.22649 240.86900 245.38446 249.63972 253.54131
 257.04486 260.26202 263.28394 266.11432 268.43668 270.31949 271.93573 273.91061
 275.81836 277.59314 279.14987 280.52209 281.71451 282.77567 283.74692 284.63449
 285.44449 286.18250 286.82904 287.75562
 366.78100 356.33007 345.75714 334.61820 323.01627 311.20534 299.07041 286.86848
 274.57555 262.46761 250.47168 239.76775 229.88482 220.98389 213.16096 206.15802
 199.98709 194.92016 191.49723 189.53430 188.56637 188.62543 189.45550 190.75857
 192.47864 194.56871 196.82677 199.18084 201.62091 204.09598 206.17905 208.01612
 209.63718 210.77725 211.00132 211.22439 211.15646 210.85653 210.48459 210.10966
 209.72173 209.42680 209.22987 209.08894 209.01200 209.33807 209.71914 210.10321
 210.89128 212.06434 213.30941 215.08748 217.01055 219.04862 221.13869 223.21675
 225.27182 227.35089 229.44296 231.54403 233.66810 235.83516 238.08623 240.45130
 243.06737 245.31344 247.31051 249.07057 250.48264 251.60071 252.41778 252.72885
 252.76091 252.52998 251.88505 250.82812 249.42919 247.58526 245.48932 243.31739
 241.10346 238.90253 236.71760 234.55167 232.40673 230.26880 228.28987 226.44194
 224.72001 223.18707 221.81214 220.57921 219.45628 218.41135 217.51042 216.64648
 215.88355 215.05862 214.15169 213.51076 212.95583 213.94934 216.29663 218.91632
 221.09660 222.77551 224.17023 225.47447 226.63141 227.31410 227.10097 226.03868
 225.65315 227.62617 231.61246 236.21889 240.85019 245.34860 249.59395 253.48840
 256.98090 260.18414 263.19995 266.04303 268.37451 270.25842 271.84869 273.85501
 275.74863 277.51819 279.07462 280.44656 281.64005 282.70078 283.67188 284.56094
 285.37195 286.10944 286.75888 287.68494
 366.78100 356.33095 345.75890 334.62084 323.01979 311.20974 299.07569 286.87464
 274.58258 262.47553 250.48048 239.77743 229.89538 220.99533 213.17327 206.17122
 200.00117 194.93512 191.51307 189.55101 188.58396 188.64391 189.47486 190.77881
 192.49975 194.59070 196.84965 199.20460 201.64555 204.12149 206.20544 208.04339
 209.66534 210.80629 211.03123 211.25518 211.18813 210.88908 210.51803 210.14398
 209.75692 209.46287 209.26682 209.12677 209.05072 209.37766 209.75961 210.14456
 210.93351 212.10746 213.35340 215.13235 217.05630 219.09525 221.18620 223.26514
 225.32109 227.40104 229.49399 231.59594 233.72088 235.88883 238.14078 240.50673
 243.12368 245.37063 247.36857 249.12952 250.54247 251.66142 252.47937 252.79131
 252.82426 252.59421 251.95016 250.89411 249.49605 247.65300 245.55795 243.38690
 241.17385 238.97379 236.78974 234.62469 232.48064 230.34359 228.36553 226.51848
 224.79743 223.26538 221.89133 220.65928 219.53722 218.49317 217.59312 216.73007
 215.96802 215.14396 214.23791 213.59786 213.04381 214.00725 216.28346 218.95102
 221.18027 222.81883 224.19389 225.47223 226.64868 227.39655 227.15074 225.98965
 225.56111 227.57149 231.59299 236.21353 240.83427 245.31371 249.54678 253.43025
 256.90875 260.09378 263.10233 265.95593 268.29797 270.19180 271.86649 273.87027
 275.66632 277.42535 278.98502 280.35919 281.55380 282.61661 283.58859 284.47739
 285.28860 286.02658 286.67691 287.59644
 366.78100 356.33162 345.76023 334.62285 323.02247 311.21309 299.07970 286.87932
 274.58794 262.48155 250.48717 239.78479 229.90340 221.00402 213.18264 206.18126
 200.01187 194.94649 191.52511 189.56372 188.59734 188.65796 189.48957 190.79419
 192.51581 194.60743 196.86704 199.22266 201.66428 204.14089 206.22551 208.06413
 209.68674 210.82836 211.05398 211.27860 211.21221 210.91383 210.54345 210.17006
 209.78368 209.49030 209.29492 209.15553 209.08015 209.40777 209.79038 210.17600
 210.96562 212.14023 213.38685 215.16647 217.09109 219.13070 221.22232 223.30194
 225.35855 227.43917 229.53279 231.63540 233.76102 235.92964 238.18226 240.54887
 243.16649 245.41411 247.41272 249.17434 250.58796 251.70757 252.52619 252.83881
 252.87243 252.64304 251.99966 250.94428 249.54689 247.70451 245.61013 243.43974
 241.22736 239.02798 236.84460 234.68021 232.53683 230.40045 228.42306 226.57668
 224.85630 223.32492 221.95153 220.72015 219.59877 218.55538 217.65600 216.79362
 216.03223 215.20885 214.30347 213.66409 213.11070 214.05382 216.28201 218.96500
 221.29787 222.85933 224.13091 225.46759 226.72305 227.49493 227.18689 225.94478
 225.48393 227.52405 231.57626 236.21327 240.82292 245.28026 249.49884 253.37231
 256.83804 260.00742 263.01022 265.87869 268.23538 270.12875 271.81903 273.82834
 275.58374 277.33484 278.89371 280.26727 281.46286 282.52560 283.49646 284.38513
 285.19791 285.93600 286.58667 287.50446
 366.78100 356.33210 345.76121 334.62431 323.02441 311.21552 299.08262 286.88272
 274.59183 262.48593 250.49203 239.79014 229.90924 221.01034 213.18945 206.18855
 200.01965 194.95476 191.53386 189.57296 188.60707 188.66817 189.50027 190.80538
 192.52748 194.61958 196.87969 199.23579 201.67789 204.15500 206.24010 208.07920
 209.70231 210.84441 211.07051 211.29562 211.22972 210.93182 210.56193 210.18903
 209.80313 209.51024 209.31534 209.17644 209.10155 209.42965 209.81275 210.19886
 210.98896 212.16406 213.41117 215.19127 217.11637 219.15648 221.24858 223.32868
 225.38579 227.46689 229.56099 231.66410 233.79020 235.95930 238.21241 240.57951
 243.19761 245.44572 247.44482 249.20692 250.62103 251.74113 252.56023 252.87334
 252.90744 252.67854 252.03565 250.98075 249.58385 247.74196 245.64806 243.47816
 241.26627 239.06737 236.88447 234.72058 232.57768 230.44178 228.46489 226.61899
 224.89909 223.36820 221.99530 220.76440 219.64351 218.60061 217.70171 216.83982
 216.07892 215.25602 214.35113 213.71223 213.15933 214.09016 216.28937 218.97374
 221.39491 222.93500 224.10812 225.45985 226.75731 227.53520 227.19543 225.92821
 225.45107 227.49438 231.56339 236.21651 240.81438 245.24687 249.45026 253.31557
 256.77026 259.92395 262.91898 265.79883 268.16519 270.06763 271.78232 273.75729
 275.50555 277.25327 278.80933 280.17908 281.37228 282.43402 283.40482 284.29504
 285.10696 285.84769 286.50342 287.41589
 366.78100 356.33271 345.76242 334.62613 323.02684 311.21855 299.08626 286.88697
 274.59668 262.49139 250.49810 239.79681 229.91652 221.01823 213.19794 206.19765
 200.02936 194.96507 191.54477 189.58448 188.61919 188.68090 189.51361 190.81932
 192.54203 194.63474 196.89545 199.25216 201.69487 204.17258 206.25829 208.09800
 209.72171 210.86442 211.09113 211.31684 211.25155 210.95426 210.58497 210.21268
 209.82739 209.53510 209.34081 209.20252 209.12823 209.45694 209.84065 210.22736
 211.01807 212.19378 213.44149 215.22220 217.14790 219.18861 221.28132 223.36203
 225.41974 227.50145 229.59616 231.69987 233.82658 235.99629 238.25000 240.61771
 243.23642 245.48513 247.48484 249.24755 250.66226 251.78297 252.60268 252.91639
 252.95110 252.72281 252.08052 251.02623 249.62994 247.78865 245.69536 243.52607
 241.31478 239.11649 236.93420 234.77091 232.62862 230.49333 228.51703 226.67174
 224.95245 223.42216 222.04987 220.81958 219.69929 218.65700 217.75871 216.89742
 216.13713 215.31484 214.41055 213.77226 213.21997 214.13147 216.28497 219.00192
 221.47173 223.00471 224.11761 225.45023 226.74973 227.53400 227.20158 225.95049
 225.45909 227.47546 231.55089 236.22041 240.80644 245.21461 249.40485 253.26474
 256.70892 259.84399 262.82846 265.71866 268.10358 270.03827 271.78812 273.60092
 275.44461 277.17432 278.71445 280.07938 281.27005 282.32843 283.29929 284.18787
 285.00101 285.74380 286.39612 287.30716
 366.78100 356.33339 345.76378 334.62817 323.02957 311.22196 299.09035 286.89174
 274.60213 262.49752 250.50491 239.80430 229.92470 221.02709 213.20748 206.20787
 200.04026 194.97665 191.55704 189.59744 188.63283 188.69522 189.52861 190.83500
 192.55839 194.65178 196.91317 199.27057 201.71396 204.19235 206.27874 208.11913
 209.74352 210.88691 211.11430 211.34070 211.27609 210.97948 210.61087 210.23926
 209.85465 209.56304 209.36944 209.23183 209.15822 209.48761 209.87200 210.25939
 211.05078 212.22717 213.47557 215.25696 217.18335 219.22474 221.31813 223.39952
 225.45791 227.54031 229.63570 231.74009 233.86748 236.03787 238.29226 240.66065
 243.28004 245.52944 247.52983 249.29322 250.70861 251.83000 252.65039 252.96478
 253.00017 252.77257 252.13096 251.07735 249.68174 247.84113 245.74852 243.57991
 241.36931 239.17170 236.99009 234.82748 232.68587 230.55126 228.57565 226.73104
 225.01244 223.48283 222.11122 220.88161 219.76200 218.72039 217.82278 216.96218
 216.20257 215.38096 214.47735 213.83974 213.28813 214.17609 216.27399 219.03789
 221.55052 223.06296 224.12743 225.42984 226.72548 227.52232 227.21277 225.98984
 225.48361 227.46051 231.53708 236.22433 240.80119 245.18764 249.36613 253.22235
 256.65604 259.77316 262.74515 265.64691 268.05328 270.00778 271.77002 273.42615
 275.38223 277.06665 278.59381 279.95816 281.14862 282.20712 283.17737 284.06760
 284.88049 285.62265 286.27734 287.18246
 366.78100 356.33399 345.76499 334.62998 323.03197 311.22497 299.09396 286.89596
 274.60695 262.50294 250.51094 239.81093 229.93192 221.03492 213.21591 206.21690
 200.04990 194.98689 191.56788 189.60888 188.64487 188.70787 189.54186 190.84885
 192.57285 194.66684 196.92883 199.28683 201.73082 204.20981 206.29681 208.13780
 209.76279 210.90679 211.13478 211.36178 211.29777 211.00176 210.63376 210.26275
 209.87874 209.58774 209.39473 209.25772 209.18472 209.51471 209.89970 210.28770
 211.07969 212.25669 213.50568 215.28767 217.21467 219.25666 221.35065 223.43265
 225.49164 227.57463 229.67063 231.77562 233.90361 236.07461 238.32960 240.69860
 243.31859 245.56858 247.56958 249.33357 250.74956 251.87156 252.69255 253.00754
 253.04354 252.81653 252.17553 251.12252 249.72751 247.88751 245.79550 243.62749
 241.41749 239.22048 237.03947 234.87747 232.73646 230.60245 228.62745 226.78344
 225.06544 223.53643 222.16542 220.93642 219.81741 218.77640 217.87940 217.01939
 216.26038 215.43938 214.53637 213.89936 213.34836 214.21637 216.26712 219.06830
 221.63432 223.11946 224.12981 225.39667 226.69527 227.50758 227.22035 226.03468
 225.52094 227.45201 231.52316 236.22897 240.80063 245.16786 249.33621 253.18820
 256.61133 259.70810 262.66565 265.57309 267.98880 269.94232 271.72278 273.46085
 275.25455 276.93936 278.47119 279.83716 281.02591 282.08502 283.05612 283.94516
 284.75681 285.49847 286.15231 287.05283
 366.78100 356.33451 345.76603 334.63154 323.03406 311.22757 299.09709 286.89960
 274.61112 262.50763 250.51615 239.81666 229.93817 221.04169 213.22320 206.22472
 200.05823 194.99575 191.57726 189.61878 188.65529 188.71880 189.55332 190.86083
 192.58535 194.67986 196.94238 199.30089 201.74541 204.22492 206.31244 208.15395
 209.77946 210.92398 211.15249 211.38001 211.31652 211.02104 210.65355 210.28307
 209.89958 209.60910 209.41661 209.28012 209.20764 209.53815 209.92367 210.31218
 211.10470 212.28221 213.53173 215.31424 217.24175 219.28427 221.37878 223.46130
 225.52081 227.60433 229.70084 231.80636 233.93487 236.10639 238.36190 240.73141
 243.35193 245.60244 247.60396 249.36847 250.78499 251.90750 252.72902 253.04453
 253.08105 252.85456 252.21407 251.16159 249.76710 247.92762 245.83613 243.66865
 241.45916 239.26268 237.08219 234.92070 232.78022 230.64673 228.67225 226.82876
 225.11128 223.58279 222.21231 220.98382 219.86534 218.82485 217.92836 217.06888
 216.31039 215.48991 214.58742 213.95094 213.40045 214.25208 216.26411 219.09206
 221.71866 223.18149 224.13281 225.35793 226.65877 227.48164 227.21338 226.07820
 225.56949 227.45193 231.51201 236.23630 240.80699 245.15753 249.31625 253.16534
 256.58035 259.65759 262.59726 265.50543 267.92432 269.87503 271.66660 273.43887
 275.14767 276.83130 278.36325 279.72714 280.91592 281.97327 282.94363 283.83115
 284.64124 285.38040 286.03278 286.92609
 366.78100 356.33499 345.76699 334.63298 323.03597 311.22996 299.09996 286.90295
 274.61494 262.51193 250.52093 239.82192 229.94391 221.04791 213.22990 206.23189
 200.06588 195.00388 191.58587 189.62786 188.66485 188.72885 189.56384 190.87183
 192.59683 194.69182 196.95481 199.31380 201.75880 204.23879 206.32678 208.16877
 209.79477 210.93976 211.16875 211.39675 211.33374 211.03873 210.67172 210.30172
 209.91871 209.62870 209.43669 209.30069 209.22868 209.55967 209.94567 210.33466
 211.12765 212.30564 213.55564 215.33863 217.26662 219.30961 221.40461 223.48760
 225.54759 227.63159 229.72858 231.83457 233.96356 236.13556 238.39155 240.76154
 243.38253 245.63353 247.63552 249.40051 250.81751 251.94050 252.76249 253.07848
 253.11548 252.88947 252.24946 251.19745 249.80345 247.96444 245.87343 243.70643
 241.49742 239.30141 237.12140 234.96040 232.82039 230.68738 228.71337 226.87037
 225.15336 223.62535 222.25535 221.02734 219.90933 218.86932 217.97332 217.11431
 216.35630 215.53629 214.63429 213.99828 213.44827 214.28557 216.26376 219.11038
 221.79729 223.25063 224.14601 225.32391 226.61441 227.43707 227.18588 226.11681
 225.62837 227.46030 231.50211 236.24529 240.81822 245.15465 249.30449 253.15221
 256.56119 259.62045 262.54102 265.44809 267.87628 269.83167 271.61804 273.35812
 275.07376 276.73279 278.25403 279.61584 280.80148 281.85739 282.82654 283.71060
 284.51938 285.25351 285.90463 286.78894
 366.78100 356.33545 345.76790 334.63435 323.03780 311.23225 299.10270 286.90615
 274.61860 262.51605 250.52550 239.82695 229.94940 221.05385 213.23630 206.23875
 200.07320 195.01165 191.59410 189.63654 188.67399 188.73844 189.57389 190.88234
 192.60779 194.70324 196.96669 199.32614 201.77159 204.25204 206.34049 208.18294
 209.80939 210.95484 211.18429 211.41274 211.35019 211.05564 210.68909 210.31954
 209.93699 209.64744 209.45589 209.32034 209.24879 209.58024 209.96669 210.35614
 211.14959 212.32804 213.57849 215.36194 217.29039 219.33384 221.42929 223.51274
 225.57318 227.65763 229.75508 231.86153 233.99098 236.16343 238.41988 240.79033
 243.41178 245.66323 247.66568 249.43113 250.84858 251.97203 252.79448 253.11093
 253.14838 252.92283 252.28328 251.23173 249.83818 247.99963 245.90908 243.74253
 241.53398 239.33843 237.15888 234.99833 232.85878 230.72623 228.75268 226.91013
 225.19358 223.66603 222.29648 221.06893 219.95137 218.91182 218.01627 217.15772
 216.40017 215.58062 214.67907 214.04352 213.49397 214.31824 216.26569 219.12834
 221.86884 223.32133 224.16809 225.29909 226.56570 227.37494 227.13869 226.13533
 225.67990 227.47914 231.50095 236.25934 240.83893 245.16315 249.30296 253.14946
 256.55164 259.59201 262.49112 265.39197 267.82339 269.78305 271.56271 273.28629
 275.00473 276.63992 278.15271 279.51285 280.69809 281.75253 282.72003 283.60495
 284.41434 285.15613 285.80881 286.69577
 366.78100 356.33605 345.76910 334.63615 323.04020 311.23525 299.10630 286.91035
 274.62340 262.52145 250.53150 239.83355 229.95659 221.06164 213.24469 206.24774
 200.08279 195.02184 191.60489 189.64794 188.68599 188.75104 189.58709 190.89614
 192.62219 194.71824 196.98229 199.34234 201.78839 204.26944 206.35849 208.20154
 209.82859 210.97464 211.20468 211.43373 211.37178 211.07783 210.71188 210.34293
 209.96098 209.67203 209.48108 209.34613 209.27518 209.60723 209.99428 210.38433
 211.17838 212.35743 213.60848 215.39253 217.32158 219.36563 221.46168 223.54573
 225.60677 227.69182 229.78987 231.89692 234.02697 236.20002 238.45707 240.82812
 243.45017 245.70222 247.70527 249.47132 250.88937 252.01342 252.83647 253.15352
 253.19157 252.96662 252.32767 251.27672 249.88377 248.04582 245.95586 243.78991
 241.58196 239.38701 237.20806 235.04811 232.90916 230.77721 228.80426 226.96231
 225.24636 223.71941 222.35046 221.12351 220.00656 218.96761 218.07266 217.21471
 216.45776 215.63881 214.73786 214.10291 213.55396 214.35994 216.26414 219.13564
 221.94795 223.40703 224.19446 225.26669 226.48988 227.27846 227.07564 226.16991
 225.75220 227.50087 231.49994 236.27211 240.86034 245.17767 249.31155 253.15852
 256.55679 259.57791 262.45062 265.33966 267.77005 269.72034 271.48859 273.21057
 274.91843 276.54700 278.06128 279.42029 280.60519 281.65768 282.62045 283.50397
 284.31671 285.06473 285.71283 286.57480
 366.78100 356.33715 345.77130 334.63945 323.04460 311.24075 299.11290 286.91805
 274.63220 262.53136 250.54251 239.84566 229.96981 221.07596 213.26011 206.26426
 200.10041 195.04056 191.62471 189.66886 188.70801 188.77416 189.61131 190.92146
 192.64862 194.74577 197.01092 199.37207 201.81922 204.30137 206.39152 208.23567
 209.86382 211.01097 211.24212 211.47227 211.41142 211.11857 210.75372 210.38587
 210.00503 209.71718 209.52733 209.39348 209.32363 209.65678 210.04493 210.43608
 211.23123 212.41138 213.66353 215.44868 217.37883 219.42398 221.52113 223.60628
 225.66843 227.75459 229.85374 231.96189 234.09304 236.26719 238.52534 240.89749
 243.52064 245.77379 247.77794 249.54509 250.96424 252.08939 252.91354 253.23169
 253.27085 253.04700 252.40915 251.35930 249.96745 248.13060 246.04175 243.87690
 241.67005 239.47620 237.29835 235.13950 233.00165 230.87080 228.89895 227.05810
 225.34325 223.81741 222.44956 221.22371 220.10786 219.07001 218.17616 217.31931
 216.56346 215.74561 214.84576 214.21191 213.66406 214.43181 216.24571 219.11922
 222.02927 223.51321 224.24809 225.24147 226.39273 227.13206 226.95142 226.14926
 225.81337 227.56767 231.52942 236.30641 240.90730 245.21957 249.34346 253.18732
 256.57785 259.57510 262.41766 265.29227 267.69165 269.62579 271.39468 273.11298
 274.84540 276.46201 277.94080 279.28500 280.46320 281.51126 282.46942 283.35321
 284.19272 284.95792 285.60336 286.46030
 366.78100 356.33763 345.77226 334.64090 323.04653 311.24316 299.11579 286.92143
 274.63606 262.53569 250.54732 239.85096 229.97559 221.08222 213.26685 206.27149
 200.10812 195.04875 191.63338 189.67801 188.71765 188.78428 189.62191 190.93254
 192.66018 194.75781 197.02344 199.38507 201.83271 204.31534 206.40597 208.25060
 209.87924 211.02687 211.25850 211.48913 211.42876 211.13640 210.77203 210.40466
 210.02429 209.73693 209.54756 209.41419 209.34482 209.67846 210.06709 210.45872
 211.25435 212.43498 213.68762 215.47325 217.40388 219.44951 221.54715 223.63278
 225.69541 227.78204 229.88168 231.99031 234.12194 236.29657 238.55521 240.92784
 243.55147 245.80510 247.80973 249.57737 250.99700 252.12263 252.94726 253.26590
 253.30553 253.08216 252.44479 251.39543 250.00406 248.16769 246.07932 243.91496
 241.70859 239.51522 237.33785 235.17948 233.04212 230.91175 228.94038 227.10001
 225.38565 223.86028 222.49291 221.26754 220.15218 219.11481 218.22144 217.36507
 216.60971 215.79234 214.89297 214.25960 213.71223 214.47359 216.27237 219.04079
 222.09529 223.61533 224.26031 225.22237 226.35571 227.03458 226.80064 226.08456
 225.75375 227.54282 231.53668 236.33887 241.00475 245.35876 249.48489 253.34369
 256.75504 259.71786 262.44003 265.26987 267.66141 269.49747 271.19037 272.93930
 274.62210 276.26929 277.81052 279.18237 280.38089 281.44409 282.42975 283.32629
 284.12320 284.80051 285.37659 286.11078
 366.78100 356.33778 345.77257 334.64135 323.04713 311.24391 299.11670 286.92248
 274.63726 262.53705 250.54883 239.85261 229.97739 221.08418 213.26896 206.27374
 200.11052 195.05131 191.63609 189.68087 188.72066 188.78744 189.62522 190.93600
 192.66379 194.76157 197.02735 199.38914 201.83692 204.31970 206.41048 208.25527
 209.88405 211.03183 211.26362 211.49440 211.43418 211.14196 210.77775 210.41053
 210.03031 209.74309 209.55388 209.42066 209.35144 209.68523 210.07401 210.46579
 211.26157 212.44236 213.69514 215.48092 217.41171 219.45749 221.55527 223.64105
 225.70384 227.79062 229.89040 231.99919 234.13097 236.30575 238.56453 240.93732
 243.56110 245.81488 247.81966 249.58745 251.00723 252.13301 252.95780 253.27658
 253.31636 253.09314 252.45593 251.40671 250.01549 248.17928 246.09106 243.92684
 241.72062 239.52741 237.35019 235.19197 233.05475 230.92454 228.95332 227.11310
 225.39889 223.87367 222.50645 221.28123 220.16602 219.12880 218.23558 217.37937
 216.62415 215.80693 214.90771 214.27450 213.72728 214.49919 216.35205 219.02864
 222.03108 223.46049 224.12399 225.21930 226.49504 227.15436 226.77351 226.21010
 225.53017 227.35233 231.40855 236.34238 241.05695 245.40572 249.51994 253.38887
 256.84711 259.85861 262.61530 265.31949 267.66675 269.55786 271.10617 272.96249
 274.53952 276.10684 277.46002 278.63947 279.76486 280.80096 281.77286 282.67905
 283.49902 284.22922 284.86710 285.67999
 366.78100 356.33753 345.77206 334.64059 323.04612 311.24265 299.11517 286.92070
 274.63523 262.53476 250.54629 239.84982 229.97435 221.08088 213.26541 206.26994
 200.10646 195.04699 191.63152 189.67605 188.71558 188.78211 189.61964 190.93017
 192.65770 194.75523 197.02076 199.38228 201.82981 204.31234 206.40287 208.24740
 209.87593 211.02346 211.25499 211.48552 211.42505 211.13257 210.76810 210.40063
 210.02016 209.73269 209.54322 209.40975 209.34028 209.67381 210.06234 210.45387
 211.24939 212.42992 213.68245 215.46798 217.39851 219.44404 221.54157 223.62710
 225.68963 227.77616 229.87568 231.98421 234.11574 236.29027 238.54880 240.92133
 243.54486 245.79839 247.80292 249.57045 250.98997 252.11550 252.94003 253.25856
 253.29809 253.07462 252.43715 251.38768 249.99621 248.15974 246.07127 243.90679
 241.70032 239.50685 237.32938 235.17091 233.03344 230.90297 228.93150 227.09103
 225.37656 223.85108 222.48361 221.25814 220.14267 219.10520 218.21173 217.35526
 216.59979 215.78232 214.88285 214.24938 213.70190 214.49913 216.45815 219.10580
 221.75328 223.28940 224.22672 225.30763 226.60759 227.38733 226.80321 226.34483
 225.36708 227.31560 231.41570 236.28687 240.99586 245.37265 249.52451 253.39439
 256.85794 259.88882 262.68018 265.40302 267.73193 269.58865 271.17120 272.83478
 274.51901 276.01083 277.23657 278.54898 279.76434 280.93094 282.10004 283.15915
 284.11169 284.95993 285.70096 286.64529
 366.78100 356.33605 345.76910 334.63615 323.04020 311.23525 299.10631 286.91036
 274.62341 262.52146 250.53151 239.83356 229.95661 221.06166 213.24471 206.24776
 200.08281 195.02187 191.60492 189.64797 188.68602 188.75107 189.58712 190.89617
 192.62222 194.71827 196.98232 199.34237 201.78843 204.26948 206.35853 208.20158
 209.82863 210.97468 211.20473 211.43378 211.37183 211.07788 210.71194 210.34299
 209.96104 209.67209 209.48114 209.34619 209.27524 209.60729 209.99434 210.38439
 211.17844 212.35750 213.60855 215.39260 217.32165 219.36570 221.46175 223.54580
 225.60685 227.69190 229.78995 231.89700 234.02706 236.20011 238.45716 240.82821
 243.45026 245.70231 247.70536 249.47141 250.88946 252.01351 252.83656 253.15362
 253.19167 252.96672 252.32777 251.27682 249.88387 248.04592 245.95597 243.79002
 241.58207 239.38712 237.20818 235.04823 232.90928 230.77733 228.80438 226.96243
 225.24648 223.71953 222.35058 221.12363 220.00669 218.96774 218.07279 217.21484
 216.45789 215.63894 214.73799 214.10304 213.55409 214.42349 216.52519 219.18469
 221.65459 223.20378 224.30077 225.42366 226.58733 227.17175 226.92337 226.15367
 225.31593 227.17403 231.38066 236.31042 240.97995 245.35062 249.51039 253.35542
 256.77762 259.80930 262.67075 265.42871 267.80072 269.68204 271.28299 272.90527
 274.58420 276.06769 277.34863 278.64084 279.84833 280.93903 281.97141 282.93835
 283.80798 284.58240 285.25891 286.12106
 366.78100 356.33601 345.76902 334.63604 323.04005 311.23506 299.10607 286.91009
 274.62310 262.52111 250.53112 239.83313 229.95615 221.06116 213.24417 206.24718
 200.08219 195.02121 191.60422 189.64723 188.68524 188.75026 189.58627 190.89528
 192.62129 194.71730 196.98132 199.34133 201.78734 204.26835 206.35737 208.20038
 209.82739 210.97340 211.20341 211.43243 211.37044 211.07645 210.71046 210.34147
 209.95949 209.67050 209.47951 209.34452 209.27354 209.60555 209.99256 210.38257
 211.17658 212.35560 213.60661 215.39062 217.31963 219.36364 221.45966 223.54367
 225.60468 227.68969 229.78771 231.89472 234.02473 236.19774 238.45475 240.82577
 243.44778 245.69979 247.70280 249.46882 250.88683 252.01084 252.83385 253.15086
 253.18888 252.96389 252.32490 251.27391 249.88092 248.04294 245.95295 243.78696
 241.57897 239.38399 237.20500 235.04501 232.90602 230.77403 228.80105 226.95906
 225.24307 223.71608 222.34710 221.12011 220.00312 218.96413 218.06914 217.21116
 216.45417 215.63518 214.73419 214.09920 213.55022 214.43066 216.51085 219.16095
 221.90308 223.48318 224.42271 225.46165 226.32591 226.82397 226.91812 226.04340
 225.69275 227.47472 231.46712 236.30446 240.97461 245.34361 249.50504 253.32712
 256.73474 259.72958 262.55249 265.25458 267.60965 269.52441 271.21899 272.86832
 274.49457 275.98444 277.30508 278.53470 279.70609 280.69507 281.57770 282.44885
 283.25125 284.01733 284.68762 285.54184
 366.78100 356.33775 345.77250 334.64126 323.04701 311.24376 299.11651 286.92227
 274.63702 262.53677 250.54852 239.85228 229.97703 221.08378 213.26853 206.27328
 200.11004 195.05079 191.63554 189.68029 188.72005 188.78680 189.62455 190.93530
 192.66305 194.76081 197.02656 199.38831 201.83606 204.31882 206.40957 208.25432
 209.88307 211.03083 211.26258 211.49333 211.43308 211.14083 210.77659 210.40934
 210.02909 209.74184 209.55260 209.41935 209.35010 209.68385 210.07260 210.46436
 211.26011 212.44086 213.69361 215.47937 217.41012 219.45587 221.55362 223.63938
 225.70213 227.78888 229.88863 231.99738 234.12914 236.30389 238.56264 240.93539
 243.55915 245.81290 247.81765 249.58540 251.00515 252.13091 252.95566 253.27441
 253.31416 253.09092 252.45367 251.40442 250.01317 248.17693 246.08868 243.92443
 241.71818 239.52493 237.34769 235.18944 233.05219 230.92194 228.95070 227.11045
 225.39620 223.87095 222.50371 221.27846 220.16321 219.12596 218.23271 217.37647
 216.62122 215.80397 214.90472 214.27148 213.72423 214.53673 216.47789 219.14725
 221.93797 223.51505 224.37012 225.33325 226.19476 226.75558 226.94260 226.35384
 225.71164 227.37613 231.37454 236.24287 241.01634 245.38046 249.48752 253.30180
 256.69525 259.70096 262.52991 265.22864 267.58585 269.50281 271.18301 272.74759
 274.30591 275.77582 277.10468 278.18869 279.16522 280.13229 281.05707 281.95346
 282.82477 283.60065 284.27847 285.14224
 366.78100 356.34009 345.77717 334.64826 323.05635 311.25544 299.13052 286.93861
 274.65570 262.55779 250.57187 239.87796 230.00505 221.11414 213.30122 206.30831
 200.14740 195.09048 191.67757 189.72466 188.76675 188.83583 189.67592 190.98901
 192.71910 194.81918 197.08727 199.45136 201.90145 204.38653 206.47962 208.32671
 209.95779 211.10788 211.34197 211.57506 211.51714 211.22723 210.86532 210.50041
 210.12249 209.83758 209.65067 209.51976 209.45284 209.78893 210.18002 210.57410
 211.37219 212.55528 213.81037 215.59845 217.53154 219.57963 221.67972 223.76780
 225.83289 227.92198 230.02407 232.13515 234.26924 236.44633 238.70741 241.08250
 243.70859 245.96468 247.97176 249.74185 251.16394 252.29203 253.11911 253.44020
 253.48229 253.26138 252.62646 251.57955 250.19064 248.35672 246.27081 244.10890
 241.90499 239.71407 237.53916 235.38325 233.24834 231.12042 229.15151 227.31360
 225.60169 224.07877 222.71386 221.49095 220.37803 219.34312 218.45221 217.59830
 216.84538 216.03047 215.13356 214.50265 213.95773 214.67928 216.53197 219.22427
 221.79605 223.41035 224.62469 225.58955 226.35890 226.71736 226.74377 226.33287
 225.92174 227.73421 231.51392 236.20779 240.94284 245.38263 249.52596 253.30602
 256.65472 259.66595 262.50165 265.16452 267.48923 269.41873 271.09283 272.66690
 274.18024 275.50787 276.74182 278.24014 279.67590 280.94620 282.10513 283.15506
 284.09937 284.94025 285.67484 286.61099
 366.78100 356.33968 345.77637 334.64705 323.05474 311.25342 299.12811 286.93579
 274.65248 262.55416 250.56785 239.87353 230.00022 221.10890 213.29559 206.30227
 200.14096 195.08364 191.67033 189.71701 188.75870 188.82738 189.66707 190.97975
 192.70944 194.80912 197.07681 199.44049 201.89018 204.37486 206.46755 208.31423
 209.94492 211.09460 211.32829 211.56097 211.50266 211.21234 210.85003 210.48471
 210.10640 209.82108 209.63377 209.50245 209.43514 209.77082 210.16151 210.55519
 211.35288 212.53556 213.79025 215.57793 217.51062 219.55830 221.65799 223.74567
 225.81036 227.89904 230.00073 232.11141 234.24510 236.42178 238.68247 241.05715
 243.68284 245.93852 247.94521 249.71489 251.13658 252.26426 253.09095 253.41163
 253.45332 253.23200 252.59669 251.54937 250.16006 248.32574 246.23943 244.07711
 241.87280 239.68148 237.50617 235.34985 233.21454 231.08622 229.11691 227.27859
 225.56628 224.04296 222.67765 221.45433 220.34102 219.30570 218.41439 217.56007
 216.80676 215.99144 215.09413 214.46281 213.91750 214.68559 216.69073 219.22552
 221.70746 223.57909 224.92107 225.87437 226.43820 226.43604 226.86584 225.72787
 225.63968 227.74106 231.62810 236.30510 241.03325 245.51822 249.68741 253.47011
 256.79498 259.76996 262.55783 265.13739 267.39597 269.32608 271.00104 272.64819
 274.17484 276.21808 278.04565 279.65042 281.03922 282.26791 283.38895 284.40451
 285.31790 286.13129 286.84183 287.74734
 366.78100 356.33891 345.77482 334.64473 323.05164 311.24955 299.12346 286.93037
 274.64627 262.54718 250.56009 239.86500 229.99091 221.09882 213.28473 206.29064
 200.12855 195.07046 191.65637 189.70228 188.74319 188.81110 189.65001 190.96192
 192.69082 194.78973 197.05664 199.41955 201.86846 204.35237 206.44428 208.29019
 209.92010 211.06901 211.30192 211.53383 211.47474 211.18365 210.82056 210.45446
 210.07537 209.78928 209.60119 209.46910 209.40101 209.73592 210.12583 210.51874
 211.31565 212.49756 213.75147 215.53838 217.47029 219.51720 221.61611 223.70301
 225.76692 227.85483 229.95574 232.06565 234.19856 236.37447 238.63438 241.00829
 243.63320 245.88811 247.89402 249.66293 251.08384 252.21075 253.03665 253.35656
 253.39747 253.17538 252.53929 251.49120 250.10111 248.26602 246.17893 244.01584
 241.81075 239.61866 237.44257 235.28548 233.14939 231.02030 229.05020 227.21111
 225.49802 223.97393 222.60784 221.38375 220.26966 219.23357 218.34148 217.48639
 216.73230 215.91621 215.01812 214.38603 213.83994 214.66003 216.76054 219.22055
 221.68265 223.58281 224.92592 225.86887 226.40244 226.51950 226.85991 225.59280
 225.41336 227.60329 231.63255 236.35898 241.12332 245.65240 249.85928 253.67682
 257.04163 260.00751 262.74710 265.31787 267.62241 269.49155 270.95178 272.55048
 274.61795 276.82309 278.74338 280.42950 281.88873 283.17975 284.35764 285.42471
 286.38440 287.23904 287.98563 288.93707
 366.78100 356.33877 345.77454 334.64431 323.05108 311.24885 299.12262 286.92939
 274.64517 262.54594 250.55871 239.86348 229.98925 221.09702 213.28279 206.28856
 200.12633 195.06810 191.65387 189.69964 188.74041 188.80818 189.64695 190.95872
 192.68750 194.78627 197.05304 199.41581 201.86458 204.34835 206.44012 208.28589
 209.91566 211.06443 211.29720 211.52897 211.46974 211.17851 210.81528 210.44906
 210.06983 209.78360 209.59537 209.46314 209.39491 209.72968 210.11945 210.51222
 211.30899 212.49076 213.74453 215.53130 217.46307 219.50984 221.60862 223.69539
 225.75916 227.84693 229.94770 232.05747 234.19024 236.36601 238.62578 240.99955
 243.62432 245.87909 247.88486 249.65363 251.07440 252.20117 253.02695 253.34672
 253.38749 253.16526 252.52903 251.48080 250.09057 248.25534 246.16811 244.00488
 241.79965 239.60742 237.43119 235.27396 233.13773 231.00851 229.03828 227.19905
 225.48582 223.96159 222.59536 221.37113 220.25690 219.22067 218.32844 217.47321
 216.71898 215.90275 215.00452 214.37229 213.82607 214.66191 216.77110 219.19212
 221.68671 223.67223 224.89090 225.61351 226.11082 226.59821 226.78610 225.77278
 225.49602 227.50870 231.53165 236.27487 241.02220 245.52080 249.70612 253.51573
 256.91278 259.94672 262.77411 265.40247 267.71613 269.58279 271.15237 272.76904
 274.83578 276.79062 278.68857 280.35837 281.80344 283.08197 284.24841 285.30515
 286.25555 287.10190 287.84125 288.78345
 366.78100 356.33867 345.77435 334.64402 323.05070 311.24837 299.12205 286.92872
 274.64440 262.54507 250.55775 239.86242 229.98810 221.09577 213.28145 206.28712
 200.12480 195.06647 191.65215 189.69782 188.73850 188.80617 189.64485 190.95652
 192.68520 194.78387 197.05055 199.41322 201.86190 204.34557 206.43725 208.28292
 209.91260 211.06127 211.29395 211.52562 211.46630 211.17497 210.81165 210.44532
 210.06600 209.77967 209.59135 209.45902 209.39070 209.72537 210.11505 210.50772
 211.30440 212.48607 213.73975 215.52642 217.45810 219.50477 221.60345 223.69012
 225.75380 227.84147 229.94215 232.05182 234.18450 236.36017 238.61985 240.99352
 243.61820 245.87287 247.87855 249.64722 251.06790 252.19457 253.02025 253.33992
 253.38060 253.15827 252.52195 251.47362 250.08330 248.24797 246.16065 243.99732
 241.79200 239.59967 237.42335 235.26602 233.12970 231.00037 229.03005 227.19072
 225.47740 223.95307 222.58675 221.36242 220.24810 219.21177 218.31945 217.46412
 216.70980 215.89347 214.99515 214.36282 213.81650 214.66644 216.78264 219.17975
 221.59027 223.73285 225.03043 225.57224 225.88191 226.34428 226.53279 225.88377
 225.92572 227.77405 231.63872 236.32086 241.03781 245.50334 249.62527 253.34830
 256.64868 259.68436 262.57300 265.23624 267.48154 269.35272 271.03488 272.74384
 274.70142 276.54150 278.19955 279.78104 281.15967 282.37936 283.49219 284.50031
 285.40701 286.21442 286.91977 287.81866
 366.78100 356.33926 345.77553 334.64579 323.05305 311.25132 299.12558 286.93284
 274.64910 262.55037 250.56363 239.86889 229.99516 221.10342 213.28968 206.29595
 200.13421 195.07647 191.66273 189.70900 188.75026 188.81852 189.65779 190.97005
 192.69931 194.79858 197.06584 199.42910 201.87837 204.36263 206.45489 208.30115
 209.93142 211.08068 211.31394 211.54621 211.48747 211.19673 210.83400 210.46826
 210.08952 209.80379 209.61605 209.48431 209.41657 209.75184 210.14210 210.53536
 211.33263 212.51489 213.76915 215.55642 217.48868 219.53594 221.63520 223.72247
 225.78673 227.87499 229.97626 232.08652 234.21978 236.39605 238.65631 241.03057
 243.65584 245.91110 247.91736 249.68662 251.10789 252.23515 253.06141 253.38168
 253.42294 253.20120 252.56547 251.51773 250.12799 248.29325 246.20652 244.04378
 241.83904 239.64731 237.47157 235.31483 233.17910 231.05036 229.08062 227.24189
 225.52915 224.00541 222.63967 221.41594 220.30220 219.26646 218.37473 217.51999
 216.76625 215.95052 215.05278 214.42104 213.87531 214.71959 216.84952 219.18640
 221.61813 223.77992 225.14056 225.75223 225.97311 226.22389 226.40126 225.49780
 225.59854 227.77969 231.72359 236.38831 241.13292 245.64597 249.79497 253.51726
 256.77478 259.69049 262.40396 264.92599 267.12994 268.97382 270.64377 272.57556
 274.62277 276.63751 278.43744 280.01791 281.38565 282.59576 283.69980 284.69998
 285.59955 286.40060 287.10040 287.99219
 366.78100 356.33988 345.77677 334.64765 323.05553 311.25442 299.12930 286.93719
 274.65407 262.55595 250.56984 239.87572 230.00260 221.11149 213.29837 206.30525
 200.14414 195.08702 191.67391 189.72079 188.76267 188.83156 189.67144 190.98432
 192.71421 194.81409 197.08197 199.44586 201.89574 204.38063 206.47351 208.32039
 209.95128 211.10116 211.33504 211.56793 211.50981 211.21969 210.85758 210.49246
 210.11435 209.82923 209.64211 209.51100 209.44388 209.77976 210.17065 210.56453
 211.36241 212.54530 213.80018 215.58806 217.52095 219.56883 221.66872 223.75660
 225.82148 227.91037 230.01225 232.12313 234.25702 236.43390 238.69478 241.06967
 243.69555 245.95144 247.95832 249.72820 251.15009 252.27797 253.10485 253.42574
 253.46762 253.24650 252.61139 251.56427 250.17516 248.34104 246.25492 244.09281
 241.88869 239.69757 237.52246 235.36634 233.23122 231.10311 229.13399 227.29588
 225.58376 224.06064 222.69553 221.47241 220.35929 219.32418 218.43306 217.57894
 216.82583 216.01071 215.11360 214.48248 213.93736 214.77690 216.92735 219.20619
 221.50238 223.54543 224.97189 225.85515 226.21022 226.33096 226.37080 225.15941
 225.47414 227.76518 231.76332 236.47804 241.24844 245.80157 250.00368 253.73520
 257.02386 259.93674 262.58527 264.95523 266.92633 268.66913 270.82535 273.77600
 276.33704 278.53223 280.43182 282.09979 283.54327 284.82037 285.98557 287.04114
 287.99048 288.83591 289.57446 290.51562
 366.78100 356.34066 345.77831 334.64997 323.05863 311.25828 299.13394 286.94260
 274.66026 262.56291 250.57757 239.88423 230.01188 221.12154 213.30920 206.31685
 200.15651 195.10017 191.68782 189.73548 188.77814 188.84780 189.68845 191.00211
 192.73277 194.83342 197.10208 199.46674 201.91739 204.40305 206.49671 208.34437
 209.97602 211.12668 211.36134 211.59499 211.53765 211.24831 210.88696 210.52262
 210.14528 209.86093 209.67459 209.54425 209.47791 209.81456 210.20622 210.60088
 211.39953 212.58319 213.83885 215.62750 217.56116 219.60982 221.71047 223.79913
 225.86479 227.95445 230.05710 232.16876 234.30342 236.48107 238.74273 241.11839
 243.74504 246.00170 248.00936 249.78002 251.20267 252.33133 253.15899 253.48064
 253.52330 253.30296 252.66861 251.62227 250.23393 248.40058 246.31524 244.15390
 241.95056 239.76021 237.58587 235.43053 233.29618 231.16884 229.20050 227.36315
 225.65181 224.12947 222.76512 221.54278 220.43044 219.39610 218.50575 217.65241
 216.90007 216.08572 215.18938 214.55904 214.01469 214.81900 216.91620 219.24988
 221.49998 223.53075 225.00201 225.69708 226.03714 226.58835 226.70210 225.47948
 225.32146 227.50467 231.60495 236.35938 241.12682 245.66632 249.89554 253.72893
 257.12024 260.19113 263.03412 265.64203 267.80435 269.39261 271.63950 274.64493
 277.34973 279.66815 281.67438 283.43597 284.96051 286.30930 287.53989 288.65472
 289.65738 290.55026 291.33026 292.32428
 366.78100 356.34043 345.77786 334.64929 323.05772 311.25715 299.13258 286.94101
 274.65844 262.56087 250.57531 239.88174 230.00917 221.11860 213.30603 206.31346
 200.15289 195.09632 191.68375 189.73118 188.77361 188.84304 189.68347 190.99690
 192.72733 194.82776 197.09619 199.46062 201.91105 204.39648 206.48992 208.33735
 209.96878 211.11921 211.35364 211.58707 211.52950 211.23993 210.87836 210.51379
 210.13622 209.85165 209.66508 209.53451 209.46794 209.80437 210.19580 210.59023
 211.38866 212.57209 213.82753 215.61596 217.54939 219.59782 221.69825 223.78668
 225.85211 227.94154 230.04397 232.15540 234.28983 236.46726 238.72869 241.10412
 243.73055 245.98698 247.99441 249.76484 251.18727 252.31570 253.14314 253.46457
 253.50700 253.28643 252.65186 251.60529 250.21672 248.38315 246.29758 244.13601
 241.93244 239.74187 237.56730 235.41173 233.27716 231.14959 229.18102 227.34345
 225.63188 224.10931 222.74475 221.52218 220.40961 219.37504 218.48447 217.63090
 216.87833 216.06376 215.16719 214.53662 213.99205 214.80699 216.87238 219.20926
 221.52171 223.71350 225.16751 225.65218 225.74983 226.12204 226.02997 225.92311
 225.96970 227.71982 231.59973 236.30014 241.00427 245.47519 249.59479 253.30499
 256.63205 259.68665 262.55380 265.22232 267.65439 269.86340 271.88803 273.86584
 275.92120 277.87814 279.72882 281.35385 282.76016 284.00439 285.13956 286.16797
 287.09286 287.91653 288.63605 289.55301
 366.78100 356.34085 345.77870 334.65054 323.05939 311.25924 299.13509 286.94394
 274.66179 262.56463 250.57948 239.88633 230.01418 221.12403 213.31188 206.31972
 200.15957 195.10342 191.69127 189.73912 188.78197 188.85181 189.69266 191.00651
 192.73736 194.83821 197.10706 199.47190 201.92275 204.40860 206.50245 208.35030
 209.98215 211.13299 211.36784 211.60169 211.54454 211.25539 210.89423 210.53008
 210.15293 209.86878 209.68263 209.55248 209.48632 209.82317 210.21502 210.60987
 211.40872 212.59257 213.84841 215.63726 217.57111 219.61996 221.72081 223.80966
 225.87550 227.96535 230.06820 232.18005 234.31490 236.49275 238.75459 241.13044
 243.75729 246.01414 248.02199 249.79284 251.21568 252.34453 253.17238 253.49423
 253.53708 253.31692 252.68277 251.63662 250.24847 248.41532 246.33017 244.16901
 241.96586 239.77571 237.60156 235.44641 233.31226 231.18510 229.21695 227.37980
 225.66865 224.14650 222.78235 221.56019 220.44804 219.41389 218.52374 217.67059
 216.91844 216.10428 215.20813 214.57798 214.03383 214.84404 216.88979 219.18770
 221.51100 223.67557 225.21159 225.76634 225.77342 225.96495 225.98799 225.54672
 225.78305 227.78712 231.65515 236.36244 241.12573 245.65601 249.82375 253.56499
 256.85040 259.74841 262.42661 264.94501 267.24176 269.26767 271.20767 273.36029
 275.47849 277.40216 279.17163 280.72534 282.06998 283.25961 284.34497 285.32825
 286.21259 287.00009 287.68805 288.56476
 366.78100 356.34071 345.77841 334.65012 323.05882 311.25853 299.13423 286.94294
 274.66064 262.56335 250.57805 239.88476 230.01247 221.12217 213.30988 206.31758
 200.15729 195.10099 191.68870 189.73640 188.77911 188.84881 189.68952 191.00323
 192.73393 194.83464 197.10334 199.46805 201.91875 204.40446 206.49816 208.34587
 209.97757 211.12828 211.36299 211.59669 211.53940 211.25010 210.88881 210.52451
 210.14722 209.86292 209.67663 209.54633 209.48004 209.81675 210.20845 210.60316
 211.40186 212.58557 213.84127 215.62998 217.56368 219.61239 221.71310 223.80180
 225.86751 227.95721 230.05992 232.17162 234.30633 236.48403 238.74574 241.12144
 243.74815 246.00486 248.01256 249.78327 251.20597 252.33468 253.16238 253.48409
 253.52679 253.30650 252.67220 251.62591 250.23762 248.40432 246.31903 244.15773
 241.95444 239.76414 237.58985 235.43455 233.30026 231.17296 229.20467 227.36738
 225.65608 224.13379 222.76949 221.54720 220.43490 219.40061 218.51031 217.65702
 216.90472 216.09043 215.19414 214.56384 214.01955 214.85971 216.97610 219.17181
 221.48192 223.66579 225.18428 225.76346 225.73785 225.90042 226.42255 225.49171
 225.77888 227.91547 231.76642 236.41721 241.19046 245.75519 249.94945 253.71193
 257.00485 259.88757 262.51556 264.95303 267.13284 269.09937 271.24164 273.77380
 276.34320 278.55338 280.46591 282.14526 283.59857 284.88440 286.05753 287.12030
 288.07614 288.92731 289.67087 290.61847
 366.78100 356.34050 345.77801 334.64951 323.05802 311.25752 299.13303 286.94153
 274.65904 262.56154 250.57605 239.88255 230.01006 221.11956 213.30707 206.31457
 200.15407 195.09758 191.68508 189.73259 188.77509 188.84460 189.68510 190.99861
 192.72911 194.82962 197.09812 199.46263 201.91313 204.39864 206.49214 208.33964
 209.97115 211.12165 211.35616 211.58966 211.53217 211.24267 210.88118 210.51668
 210.13919 209.85469 209.66820 209.53770 209.47121 209.80771 210.19921 210.59372
 211.39222 212.57573 213.83123 215.61974 217.55324 219.60175 221.70225 223.79076
 225.85626 227.94577 230.04827 232.15977 234.29428 236.47178 238.73329 241.10879
 243.73530 245.99180 247.99931 249.76981 251.19232 252.32082 253.14833 253.46983
 253.51234 253.29184 252.65734 251.61085 250.22235 248.38886 246.30336 244.14187
 241.93837 239.74788 237.57338 235.41789 233.28339 231.15590 229.18740 227.34991
 225.63841 224.11591 222.75142 221.52892 220.41643 219.38193 218.49144 217.63794
 216.88545 216.07095 215.17446 214.54396 213.99947 214.85957 217.02237 219.18077
 221.40967 223.62601 225.15146 225.74739 225.68166 225.79364 226.43803 225.62674
 225.79776 227.83752 231.70189 236.37163 241.13403 245.66974 249.88115 253.70148
 257.06296 259.99866 262.67447 265.17090 267.38553 269.26736 271.55173 274.28479
 277.05624 279.43179 281.48746 283.29248 284.85458 286.23663 287.49753 288.63983
 289.66721 290.58206 291.38129 292.39981
 366.78100 356.34130 345.77960 334.65190 323.06120 311.26150 299.13780 286.94710
 274.66541 262.56871 250.58401 239.89131 230.01961 221.12991 213.31821 206.32651
 200.16681 195.11111 191.69941 189.74771 188.79101 188.86131 189.70262 191.01692
 192.74822 194.84952 197.11882 199.48412 201.93542 204.42172 206.51602 208.36432
 209.99662 211.14792 211.38322 211.61752 211.56083 211.27213 210.91143 210.54773
 210.17103 209.88733 209.70163 209.57193 209.50623 209.84353 210.23583 210.63113
 211.43043 212.61473 213.87104 215.66034 217.59464 219.64394 221.74524 223.83454
 225.90084 227.99114 230.09444 232.20674 234.34204 236.52034 238.78264 241.15894
 243.78625 246.04355 248.05185 249.82315 251.24645 252.37575 253.20405 253.52635
 253.56965 253.34995 252.71625 251.67055 250.28285 248.45015 246.36546 244.20476
 242.00206 239.81236 237.63866 235.48396 233.35026 231.22356 229.25586 227.41916
 225.70846 224.18676 222.82306 221.60136 220.48967 219.45597 218.56627 217.71357
 216.96187 216.14817 215.25247 214.62277 214.07907 214.90860 217.02917 219.21507
 221.33875 223.53740 225.21233 225.80626 225.67029 225.57561 226.04112 225.78630
 226.06450 227.94695 231.69830 236.32625 241.06699 245.56628 249.76024 253.59747
 256.99127 259.98785 262.70209 265.25577 267.53473 269.32013 271.85034 274.75937
 277.55188 279.94550 282.01675 283.83551 285.40945 286.80200 288.07251 289.22348
 290.25864 291.18048 291.98578 293.01202
 366.78100 356.34201 345.78103 334.65404 323.06405 311.26507 299.14208 286.95209
 274.67111 262.57512 250.59113 239.89915 230.02816 221.13917 213.32819 206.33720
 200.17821 195.12323 191.71224 189.76125 188.80527 188.87628 189.71829 191.03331
 192.76532 194.86733 197.13735 199.50336 201.95537 204.44239 206.53740 208.38641
 210.01943 211.17144 211.40745 211.64247 211.58648 211.29849 210.93851 210.57552
 210.19953 209.91655 209.73156 209.60257 209.53759 209.87560 210.26861 210.66462
 211.46464 212.64965 213.90666 215.69668 217.63169 219.68170 221.78372 223.87373
 225.94074 228.03176 230.13577 232.24878 234.38480 236.56381 238.82682 241.20384
 243.83185 246.08986 248.09888 249.87089 251.29490 252.42492 253.25393 253.57694
 253.62096 253.40197 252.76898 251.72400 250.33701 248.50502 246.42104 244.26105
 242.05906 239.87008 237.69709 235.54310 233.41012 231.28413 229.31714 227.48116
 225.77117 224.25018 222.88720 221.66621 220.55522 219.52224 218.63325 217.78126
 217.03028 216.21729 215.32230 214.69332 214.15033 214.94922 217.00610 219.22507
 221.34401 223.50475 225.17940 225.76163 225.55843 225.62825 225.58972 225.85754
 226.35339 228.04068 231.74367 236.37534 241.10431 245.59656 249.74434 253.52687
 256.90805 259.95731 262.74414 265.32458 267.57245 269.56497 271.97110 274.47629
 277.01688 279.27542 281.22983 282.94595 284.43109 285.74509 286.94388 288.02991
 289.00668 289.87650 290.63635 291.60471
 366.78100 356.34142 345.77983 334.65225 323.06167 311.26209 299.13850 286.94792
 274.66634 262.56976 250.58517 239.89259 230.02101 221.13142 213.31984 206.32826
 200.16868 195.11309 191.70151 189.74993 188.79335 188.86376 189.70518 191.01960
 192.75101 194.85243 197.12185 199.48727 201.93868 204.42510 206.51952 208.36794
 210.00035 211.15177 211.38719 211.62161 211.56502 211.27644 210.91586 210.55227
 210.17569 209.89211 209.70653 209.57694 209.51136 209.84878 210.24120 210.63661
 211.43603 212.62045 213.87686 215.66628 217.60070 219.65012 221.75153 223.84095
 225.90737 227.99779 230.10120 232.21362 234.34904 236.52745 238.78987 241.16629
 243.79371 246.05112 248.05954 249.83096 251.25438 252.38379 253.21221 253.53463
 253.57804 253.35846 252.72488 251.67930 250.29171 248.45913 246.37455 244.21397
 242.01138 239.82180 237.64822 235.49363 233.36005 231.23347 229.26589 227.42930
 225.71872 224.19714 222.83356 221.61197 220.50039 219.46681 218.57723 217.72464
 216.97306 216.15948 215.26389 214.63431 214.09073 214.92017 216.98608 219.20247
 221.28662 223.42339 225.05992 225.60483 225.48534 225.52245 225.46718 225.62256
 226.37688 228.19131 231.78624 236.39021 241.14607 245.66272 249.83336 253.58150
 256.88168 259.85260 262.63864 265.24448 267.60901 269.75528 271.87305 274.10733
 276.21368 278.05118 279.75360 281.31192 282.66049 283.85364 284.94223 285.92838
 286.81534 287.60516 288.29517 289.17447
 366.78100 356.34119 345.77938 334.65156 323.06075 311.26094 299.13713 286.94632
 274.66450 262.56769 250.58288 239.89007 230.01826 221.12844 213.31663 206.32482
 200.16501 195.10920 191.69738 189.74557 188.78876 188.85895 189.70013 191.01432
 192.74551 194.84670 197.11589 199.48107 201.93226 204.41845 206.51264 208.36083
 209.99301 211.14420 211.37939 211.61358 211.55677 211.26795 210.90714 210.54333
 210.16652 209.88271 209.69689 209.56708 209.50127 209.83846 210.23065 210.62583
 211.42502 212.60921 213.86540 215.65459 217.58877 219.63796 221.73915 223.82834
 225.89453 227.98471 230.08790 232.20009 234.33528 236.51346 238.77565 241.15184
 243.77903 246.03622 248.04440 249.81559 251.23878 252.36797 253.19616 253.51834
 253.56153 253.34172 252.70791 251.66210 250.27428 248.44147 246.35666 244.19585
 241.99304 239.80322 237.62941 235.47460 233.34079 231.21398 229.24616 227.40935
 225.69854 224.17673 222.81292 221.59110 220.47929 219.44548 218.55567 217.70286
 216.95104 216.13723 215.24142 214.61161 214.06779 214.91470 216.99435 219.20212
 221.18457 223.30075 225.01830 225.56140 225.38831 225.31104 225.51692 225.56982
 226.40132 228.25760 231.80522 236.41713 241.16840 245.70175 249.90512 253.70709
 257.04352 259.98553 262.69666 265.25363 267.59946 269.71381 271.76126 273.86166
 275.88718 277.68417 279.27045 280.72647 282.05334 283.22729 284.29837 285.26865
 286.14133 286.91846 287.59735 288.46249
 366.78100 356.34128 345.77956 334.65184 323.06112 311.26140 299.13768 286.94696
 274.66524 262.56852 250.58380 239.89108 230.01936 221.12964 213.31792 206.32619
 200.16647 195.11075 191.69903 189.74731 188.79059 188.86087 189.70215 191.01643
 192.74771 194.84899 197.11827 199.48355 201.93483 204.42111 206.51539 208.36367
 209.99595 211.14723 211.38251 211.61679 211.56007 211.27135 210.91063 210.54691
 210.17019 209.88647 209.70075 209.57103 209.50530 209.84258 210.23486 210.63014
 211.42942 212.61370 213.86998 215.65926 217.59354 219.64282 221.74410 223.83338
 225.89966 227.98994 230.09322 232.20550 234.34078 236.51906 238.78134 241.15762
 243.78490 246.04218 248.05046 249.82174 251.24502 252.37430 253.20258 253.52486
 253.56814 253.34841 252.71469 251.66897 250.28125 248.44853 246.36381 244.20309
 242.00037 239.81065 237.63693 235.48221 233.34849 231.22177 229.25405 227.41733
 225.70661 224.18489 222.82117 221.59945 220.48773 219.45401 218.56429 217.71157
 216.95985 216.14613 215.25041 214.62069 214.07697 214.92819 217.01125 219.20413
 221.12613 223.24312 224.96777 225.44000 225.27795 225.17514 225.40387 225.65071
 226.46880 228.37714 231.87622 236.46773 241.21581 245.73674 249.92334 253.73358
 257.07925 260.04642 262.77557 265.35275 267.71664 269.82932 271.84918 273.84622
 275.80121 277.59109 279.16632 280.58774 281.91486 283.08902 284.16028 285.13074
 286.00360 286.78085 287.45987 288.32516
 366.78100 356.34075 345.77851 334.65026 323.05902 311.25877 299.13452 286.94328
 274.66103 262.56378 250.57854 239.88529 230.01305 221.12280 213.31055 206.31831
 200.15806 195.10182 191.68957 189.73732 188.78008 188.84983 189.69058 191.00434
 192.73509 194.83585 197.10460 199.46935 201.92011 204.40586 206.49962 208.34737
 209.97912 211.12988 211.36463 211.59838 211.54114 211.25189 210.89065 210.52640
 210.14915 209.86491 209.67866 209.54841 209.48217 209.81892 210.21068 210.60543
 211.40418 212.58794 213.84369 215.63245 217.56620 219.61495 221.71571 223.80446
 225.87021 227.95997 230.06272 232.17448 234.30923 236.48698 238.74874 241.12449
 243.75125 246.00800 248.01575 249.78651 251.20926 252.33801 253.16577 253.48752
 253.53028 253.31003 252.67578 251.62954 250.24129 248.40805 246.32280 244.16155
 241.95831 239.76806 237.59381 235.43857 233.30432 231.17708 229.20883 227.37158
 225.66034 224.13809 222.77385 221.55160 220.43935 219.40511 218.51486 217.66161
 216.90937 216.09512 215.19888 214.56863 214.02438 214.90639 217.03711 219.20634
 221.03218 223.12515 224.86906 225.30273 225.15785 225.04865 225.25557 225.58969
 226.54204 228.43086 231.94705 236.53471 241.27667 245.78345 249.96532 253.75441
 257.08377 260.03616 262.77368 265.38300 267.77905 269.94891 272.00027 273.99557
 275.83865 277.50040 279.02692 280.39902 281.63849 282.81213 283.88611 284.85904
 285.73407 286.51331 287.19403 288.06152
 366.78100 356.34093 345.77885 334.65078 323.05971 311.25964 299.13556 286.94449
 274.66242 262.56534 250.58027 239.88720 230.01513 221.12505 213.31298 206.32091
 200.16083 195.10476 191.69269 189.74062 188.78354 188.85347 189.69440 191.00833
 192.73925 194.84018 197.10911 199.47403 201.92496 204.41089 206.50482 208.35274
 209.98467 211.13560 211.37052 211.60445 211.54738 211.25831 210.89723 210.53316
 210.15609 209.87201 209.68594 209.55587 209.48980 209.82672 210.21865 210.61358
 211.41250 212.59643 213.85236 215.64129 217.57521 219.62414 221.72507 223.81399
 225.87992 227.96985 230.07278 232.18470 234.31963 236.49756 238.75948 241.13541
 243.76234 246.01927 248.02719 249.79812 251.22105 252.34998 253.17790 253.49983
 253.54276 253.32268 252.68861 251.64254 250.25447 248.42139 246.33632 244.17525
 241.97217 239.78210 237.60803 235.45296 233.31888 231.19181 229.22374 227.38666
 225.67559 224.15352 222.78945 221.56737 220.45530 219.42123 218.53115 217.67808
 216.92601 216.11194 215.21586 214.58579 214.04172 214.91675 217.01715 219.26779
 220.94966 222.89117 224.74803 225.22363 225.10883 224.90572 225.07388 225.47610
 226.53302 228.38120 231.99736 236.59972 241.35121 245.85713 250.03862 253.82126
 257.14639 260.08423 262.79181 265.37195 267.75574 269.94016 272.05173 274.08847
 275.94916 277.54147 278.89157 280.22043 281.41605 282.51199 283.55206 284.50333
 285.35886 286.12070 286.78625 287.63440
 366.78100 356.34203 345.78107 334.65410 323.06413 311.26517 299.14220 286.95224
 274.67127 262.57530 250.59134 239.89937 230.02840 221.13944 213.32847 206.33750
 200.17854 195.12357 191.71260 189.76164 188.80567 188.87671 189.71874 191.03377
 192.76581 194.86784 197.13787 199.50391 201.95594 204.44297 206.53801 208.38704
 210.02007 211.17211 211.40814 211.64318 211.58721 211.29924 210.93928 210.57631
 210.20034 209.91738 209.73241 209.60344 209.53848 209.87651 210.26955 210.66558
 211.46561 212.65065 213.90768 215.69771 217.63275 219.68278 221.78481 223.87485
 225.94188 228.03291 230.13695 232.24998 234.38602 236.56505 238.82808 241.20512
 243.83315 246.09118 248.10022 249.87225 251.29628 252.42632 253.25535 253.57838
 253.62242 253.40345 252.77049 251.72552 250.33855 248.50659 246.42262 244.26265
 242.06069 239.87172 237.69875 235.54479 233.41182 231.28586 229.31889 227.48292
 225.77296 224.25199 222.88902 221.66806 220.55709 219.52412 218.63516 217.78319
 217.03222 216.21926 215.32429 214.69533 214.15236 214.97852 216.95291 219.32095
 221.02449 222.84917 224.66701 225.11671 225.02809 224.77151 224.92836 225.49039
 226.52000 228.37015 232.07509 236.67673 241.43607 245.95163 250.12820 253.90231
 257.22104 260.16418 262.86707 265.40778 267.75333 269.92313 272.04297 274.11655
 275.98618 277.56989 278.87463 280.03558 281.22061 282.28699 283.27185 284.19077
 285.02612 285.77002 286.41989 287.24805
 366.78100 356.34222 345.78145 334.65467 323.06490 311.26612 299.14335 286.95357
 274.67280 262.57702 250.59324 239.90147 230.03069 221.14192 213.33114 206.34037
 200.18159 195.12682 191.71604 189.76527 188.80949 188.88071 189.72294 191.03816
 192.77039 194.87261 197.14284 199.50906 201.96129 204.44851 206.54373 208.39296
 210.02618 211.17841 211.41463 211.64986 211.59408 211.30631 210.94653 210.58375
 210.20798 209.92520 209.74043 209.61165 209.54688 209.88510 210.27833 210.67455
 211.47477 212.66000 213.91722 215.70745 217.64267 219.69290 221.79512 223.88535
 225.95257 228.04380 230.14802 232.26124 234.39747 236.57669 238.83992 241.21714
 243.84537 246.10359 248.11282 249.88504 251.30926 252.43949 253.26871 253.59194
 253.63616 253.41739 252.78461 251.73984 250.35306 248.52128 246.43751 244.27773
 242.07596 239.88718 237.71441 235.56063 233.42786 231.30208 229.33531 227.49953
 225.78975 224.26898 222.90620 221.68543 220.57465 219.54188 218.65310 217.80133
 217.05055 216.23777 215.34300 214.71422 214.17145 214.99745 216.95552 219.28766
 221.11443 222.90291 224.56967 224.99966 224.88283 224.60022 224.84694 225.50476
 226.45384 228.50764 232.23251 236.78102 241.53511 246.05742 250.22426 253.99200
 257.28781 260.21954 262.93021 265.46283 267.79022 269.94876 272.08435 274.15845
 276.01962 277.58154 278.85974 279.96170 281.08365 282.14117 283.10519 283.98181
 284.80643 285.54626 286.19257 287.01620
 366.78100 356.34183 345.78066 334.65348 323.06331 311.26414 299.14097 286.95080
 274.66963 262.57345 250.58928 239.89711 230.02594 221.13677 213.32559 206.33442
 200.17525 195.12008 191.70891 189.75774 188.80156 188.87239 189.71422 191.02905
 192.76088 194.86271 197.13253 199.49836 201.95019 204.43702 206.53185 208.38067
 210.01350 211.16533 211.40116 211.63599 211.57982 211.29164 210.93147 210.56830
 210.19213 209.90896 209.72378 209.59461 209.52944 209.86727 210.26010 210.65593
 211.45575 212.64058 213.89741 215.68724 217.62207 219.67189 221.77372 223.86355
 225.93038 228.02121 230.12504 232.23786 234.37369 236.55252 238.81535 241.19218
 243.82001 246.07783 248.08666 249.85849 251.28232 252.41215 253.24097 253.56380
 253.60763 253.38846 252.75529 251.71012 250.32294 248.49077 246.40660 244.24643
 242.04426 239.85508 237.68191 235.52774 233.39457 231.26840 229.30123 227.46505
 225.75488 224.23371 222.87054 221.64937 220.53820 219.50502 218.61585 217.76368
 217.01251 216.19934 215.30416 214.67499 214.13182 214.98653 217.00587 219.22704
 221.17322 222.92029 224.45520 224.91362 224.76425 224.43272 224.68056 225.51521
 226.46484 228.58257 232.35837 236.90770 241.63985 246.16565 250.32298 254.08621
 257.36414 260.27304 262.97266 265.50183 267.82260 269.97745 272.12924 274.22232
 276.06546 277.60608 278.89343 279.96072 280.91501 281.88901 282.87704 283.76648
 284.56583 285.29840 285.93839 286.75394
 366.78100 356.34211 345.78122 334.65432 323.06443 311.26554 299.14265 286.95276
 274.67186 262.57597 250.59208 239.90019 230.02930 221.14040 213.32951 206.33862
 200.17973 195.12484 191.71394 189.76305 188.80716 188.87827 189.72038 191.03549
 192.76759 194.86970 197.13981 199.50592 201.95803 204.44513 206.54024 208.38935
 210.02246 211.17457 211.41067 211.64578 211.58989 211.30200 210.94211 210.57921
 210.20332 209.92043 209.73554 209.60665 209.54175 209.87986 210.27297 210.66908
 211.46919 212.65429 213.91140 215.70151 217.63662 219.68673 221.78883 223.87894
 225.94605 228.03716 230.14127 232.25438 234.39048 236.56959 238.83270 241.20981
 243.83792 246.09602 248.10513 249.87724 251.30135 252.43146 253.26056 253.58367
 253.62778 253.40889 252.77600 251.73110 250.34421 248.51232 246.42843 244.26854
 242.06664 239.87775 237.70486 235.55097 233.41808 231.29218 229.32529 227.48940
 225.77951 224.25862 222.89572 221.67483 220.56394 219.53105 218.64216 217.79027
 217.03937 216.22648 215.33159 214.70270 214.15981 215.00833 217.01309 219.22063
 221.18684 222.90056 224.37537 224.82410 224.60728 224.27502 224.52232 225.48094
 226.45946 228.67159 232.46907 237.03769 241.75929 246.27548 250.42516 254.17783
 257.44269 260.33301 263.01550 265.53073 267.84262 270.00266 272.17642 274.28091
 276.09808 277.60172 278.86279 279.93143 280.84473 281.83676 282.81525 283.71201
 284.50031 285.23425 285.87543 286.69254
 366.78100 356.34277 345.78255 334.65632 323.06710 311.26887 299.14664 286.95742
 274.67719 262.58197 250.59874 239.90751 230.03729 221.14906 213.33884 206.34861
 200.19038 195.13616 191.72593 189.77570 188.82048 188.89225 189.73503 191.05080
 192.78357 194.88635 197.15712 199.52390 201.97667 204.46444 206.56022 208.40999
 210.04377 211.19654 211.43331 211.66909 211.61386 211.32664 210.96741 210.60518
 210.22996 209.94773 209.76351 209.63528 209.57105 209.90983 210.30360 210.70038
 211.50115 212.68692 213.94470 215.73547 217.67125 219.72202 221.82479 223.91557
 225.98334 228.07511 230.17989 232.29366 234.43044 236.61021 238.87398 241.25176
 243.88053 246.13931 248.14908 249.92185 251.34663 252.47740 253.30718 253.63095
 253.67572 253.45750 252.82527 251.78105 250.39482 248.56359 246.48037 244.32114
 242.11992 239.93169 237.75946 235.60624 233.47401 231.34879 229.38256 227.54733
 225.83811 224.31788 222.95566 221.73543 220.62520 219.59298 218.70475 217.85352
 217.10330 216.29107 215.39685 214.76862 214.22639 215.04825 216.98999 219.26105
 221.14565 222.88171 224.33395 224.72636 224.42989 224.06940 224.37018 225.43657
 226.43030 228.77396 232.62350 237.19119 241.88994 246.38577 250.51654 254.25314
 257.50198 260.38690 263.06662 265.56696 267.87042 270.04330 272.23782 274.34293
 276.12189 277.56238 278.76141 279.80441 280.77139 281.81717 282.79388 283.69327
 284.48233 285.20773 285.84805 286.66403
 366.78100 356.34321 345.78343 334.65764 323.06886 311.27107 299.14929 286.96050
 274.68072 262.58593 250.60315 239.91236 230.04258 221.15479 213.34500 206.35522
 200.19743 195.14365 191.73386 189.78408 188.82929 188.90151 189.74472 191.06094
 192.79415 194.89737 197.16858 199.53579 201.98901 204.47722 206.57344 208.42365
 210.05787 211.21108 211.44830 211.68451 211.62973 211.34294 210.98416 210.62237
 210.24758 209.96580 209.78201 209.65423 209.59044 209.92966 210.32387 210.72109
 211.52230 212.70852 213.96673 215.75795 217.69416 219.74537 221.84859 223.93980
 226.00802 228.10023 230.20545 232.31966 234.45688 236.63709 238.90131 241.27952
 243.90874 246.16795 248.17816 249.95138 251.37659 252.50781 253.33802 253.66224
 253.70745 253.48967 252.85788 251.81410 250.42831 248.59753 246.51474 244.35596
 242.15517 239.96738 237.79560 235.64281 233.51103 231.38624 229.42046 227.58567
 225.87689 224.35710 222.99532 221.77553 220.66575 219.63396 218.74617 217.89539
 217.14560 216.33382 215.44003 214.81225 214.27046 215.07759 216.98451 219.28661
 221.11250 222.84445 224.25519 224.62836 224.30867 223.89772 224.17676 225.33606
 226.46979 228.88257 232.76457 237.33569 242.01485 246.49130 250.60316 254.31802
 257.55609 260.44531 263.13046 265.61655 267.90848 270.09448 272.31116 274.41434
 276.15240 277.52972 278.67484 279.69485 280.69489 281.73141 282.71082 283.60782
 284.40103 285.11871 285.75604 286.56824
 366.78100 356.34337 345.78374 334.65810 323.06947 311.27184 299.15021 286.96157
 274.68194 262.58731 250.60468 239.91404 230.04441 221.15678 213.34715 206.35751
 200.19988 195.14625 191.73662 189.78699 188.83235 188.90472 189.74809 191.06446
 192.79782 194.90119 197.17256 199.53993 201.99329 204.48166 206.57803 208.42840
 210.06277 211.21613 211.45350 211.68987 211.63524 211.34860 210.98997 210.62834
 210.25371 209.97207 209.78844 209.66081 209.59718 209.93654 210.33091 210.72828
 211.52965 212.71602 213.97438 215.76575 217.70212 219.75349 221.85685 223.94822
 226.01659 228.10896 230.21432 232.32869 234.46606 236.64643 238.91080 241.28916
 243.91853 246.17790 248.18827 249.96163 251.38700 252.51837 253.34874 253.67310
 253.71847 253.50084 252.86921 251.82557 250.43994 248.60931 246.52668 244.36805
 242.16741 239.97978 237.80815 235.65552 233.52388 231.39925 229.43362 227.59899
 225.89035 224.37072 223.00909 221.78946 220.67983 219.64819 218.76056 217.90993
 217.16030 216.34866 215.45503 214.82740 214.28577 215.09467 217.00577 219.26888
 221.15131 222.82115 224.12180 224.49434 224.21118 223.79663 224.00560 225.13803
 226.50287 229.02229 232.90381 237.47701 242.14149 246.59894 250.69449 254.38637
 257.61606 260.51318 263.20560 265.67264 267.94498 270.13632 272.37814 274.47913
 276.17651 277.49844 278.62408 279.62885 280.64499 281.69070 282.67056 283.56870
 284.38220 285.09119 285.72702 286.53732
 366.78100 356.34339 345.78377 334.65816 323.06955 311.27193 299.15032 286.96170
 274.68209 262.58748 250.60486 239.91425 230.04464 221.15702 213.34741 206.35779
 200.20018 195.14657 191.73695 189.78734 188.83273 188.90511 189.74850 191.06488
 192.79827 194.90166 197.17304 199.54043 201.99382 204.48220 206.57859 208.42897
 210.06336 211.21675 211.45413 211.69052 211.63591 211.34929 210.99068 210.62906
 210.25445 209.97284 209.78922 209.66161 209.59800 209.93738 210.33177 210.72916
 211.53054 212.71693 213.97531 215.76670 217.70309 219.75447 221.85786 223.94925
 226.01763 228.11002 230.21540 232.32979 234.46718 236.64756 238.91195 241.29034
 243.91972 246.17911 248.18949 249.96288 251.38827 252.51965 253.35004 253.67443
 253.71981 253.50220 252.87058 251.82697 250.44136 248.61074 246.52813 244.36952
 242.16890 239.98129 237.80968 235.65706 233.52545 231.40083 229.43522 227.60061
 225.89199 224.37238 223.01077 221.79115 220.68154 219.64992 218.76231 217.91170
 217.16208 216.35047 215.45686 214.82924 214.28763 215.10641 217.04089 219.22874
 221.20523 222.82632 223.98796 224.32724 224.08206 223.68542 223.88419 224.93954
 226.44318 229.15565 233.07710 237.63559 242.27721 246.71016 250.78581 254.45465
 257.67682 260.58371 263.28006 265.73590 267.99832 270.20096 272.45190 274.52554
 276.15967 277.43256 278.52463 279.54877 280.66055 281.70935 282.68692 283.58725
 284.39355 285.10394 285.71924 286.51883
 366.78100 356.34345 345.78390 334.65835 323.06980 311.27225 299.15070 286.96215
 274.68260 262.58805 250.60550 239.91495 230.04540 221.15785 213.34831 206.35876
 200.20121 195.14766 191.73811 189.78856 188.83401 188.90646 189.74991 191.06636
 192.79981 194.90326 197.17471 199.54216 201.99561 204.48406 206.58051 208.43096
 210.06541 211.21886 211.45631 211.69276 211.63821 211.35166 210.99311 210.63156
 210.25701 209.97547 209.79192 209.66437 209.60082 209.94027 210.33472 210.73217
 211.53362 212.72007 213.97852 215.76997 217.70642 219.75787 221.86132 223.95277
 226.02122 228.11367 230.21912 232.33357 234.47102 236.65147 238.91592 241.29437
 243.92382 246.18327 248.19372 249.96717 251.39263 252.52408 253.35453 253.67898
 253.72443 253.50688 252.87533 251.83178 250.44623 248.61568 246.53313 244.37458
 242.17403 239.98648 237.81493 235.66238 233.53083 231.40628 229.44073 227.60618
 225.89763 224.37808 223.01653 221.79698 220.68743 219.65588 218.76833 217.91779
 217.16824 216.35669 215.46314 214.83559 214.29404 215.11995 217.07126 219.19592
 221.20981 222.81876 223.87958 224.16441 223.93538 223.53239 223.75537 224.78989
 226.35315 229.24915 233.26675 237.81209 242.42198 246.82828 250.88112 254.52768
 257.74103 260.65585 263.35867 265.80338 268.05780 270.26779 272.52899 274.58289
 276.15329 277.36469 278.41046 279.48123 280.61795 281.66479 282.62387 283.50351
 284.31506 285.05933 285.67944 286.47711
 366.78100 356.34370 345.78441 334.65911 323.07082 311.27352 299.15223 286.96393
 274.68463 262.59034 250.60804 239.91775 230.04845 221.16116 213.35186 206.36256
 200.20527 195.15197 191.74268 189.79338 188.83909 188.91179 189.75549 191.07220
 192.80590 194.90961 197.18131 199.54902 202.00272 204.49142 206.58813 208.43883
 210.07354 211.22724 211.46495 211.70165 211.64735 211.36106 211.00276 210.64147
 210.26717 209.98588 209.80258 209.67528 209.61199 209.95169 210.34640 210.74410
 211.54581 212.73251 213.99121 215.78292 217.71962 219.77133 221.87503 223.96674
 226.03544 228.12814 230.23385 232.34855 234.48626 236.66696 238.93167 241.31037
 243.94007 246.19978 248.21048 249.98419 251.40989 252.54159 253.37230 253.69700
 253.74271 253.52541 252.89412 251.85082 250.46552 248.63523 246.55293 244.39464
 242.19434 240.00705 237.83575 235.68345 233.55216 231.42786 229.46257 227.62827
 225.91998 224.40068 223.03938 221.82009 220.71079 219.67950 218.79220 217.94191
 217.19261 216.38131 215.48802 214.86072 214.31943 215.14081 217.08141 219.18221
 221.19394 222.79820 223.78842 224.00600 223.78012 223.36188 223.61075 224.65211
 226.27824 229.33211 233.44978 237.99188 242.56998 246.94936 250.97963 254.60812
 257.81555 260.73724 263.44595 265.87997 268.12161 270.33249 272.59961 274.64328
 276.17383 277.35080 278.36703 279.41809 280.55087 281.59949 282.55994 283.43881
 284.24606 284.98114 285.61768 286.42258
 366.78100 356.34410 345.78520 334.66030 323.07239 311.27549 299.15459 286.96669
 274.68779 262.59389 250.61199 239.92209 230.05318 221.16628 213.35738 206.36848
 200.21158 195.15868 191.74978 189.80088 188.84697 188.92007 189.76417 191.08127
 192.81537 194.91947 197.19157 199.55967 202.01376 204.50286 206.59996 208.45106
 210.08616 211.24026 211.47836 211.71546 211.66155 211.37565 211.01775 210.65685
 210.28295 210.00205 209.81915 209.69224 209.62934 209.96944 210.36454 210.76264
 211.56474 212.75184 214.01094 215.80303 217.74013 219.79223 221.89633 223.98843
 226.05753 228.15063 230.25673 232.37182 234.50992 236.69102 238.95612 241.33522
 243.96532 246.22542 248.23652 250.01061 251.43671 252.56881 253.39991 253.72501
 253.77111 253.55421 252.92330 251.88040 250.49550 248.66560 246.58370 244.42580
 242.22590 240.03900 237.86809 235.71619 233.58529 231.46139 229.49649 227.66259
 225.95469 224.43579 223.07488 221.85598 220.74708 219.71618 218.82928 217.97938
 217.23048 216.41958 215.52667 214.89977 214.35887 215.16731 217.07732 219.18175
 221.18019 222.77092 223.70648 223.84804 223.60234 223.17523 223.44867 224.52164
 226.23264 229.42233 233.62520 238.16965 242.72044 247.07463 251.08456 254.69547
 257.89883 260.82904 263.54483 265.96304 268.19357 270.39374 272.65738 274.68277
 276.17859 277.33066 278.33548 279.39703 280.53799 281.58966 282.55264 283.43396
 284.23810 284.96634 285.60583 286.41550
 366.78100 356.34450 345.78599 334.66149 323.07398 311.27748 299.15697 286.96947
 274.69096 262.59746 250.61595 239.92645 230.05794 221.17144 213.36293 206.37443
 200.21792 195.16542 191.75691 189.80841 188.85490 188.92840 189.77289 191.09039
 192.82488 194.92938 197.20187 199.57037 202.02486 204.51436 206.61185 208.46335
 210.09884 211.25334 211.49183 211.72933 211.67582 211.39032 211.03282 210.67231
 210.29881 210.01830 209.83580 209.70929 209.64679 209.98728 210.38278 210.78127
 211.58377 212.77126 214.03076 215.82325 217.76075 219.81324 221.91774 224.01023
 226.07973 228.17322 230.27972 232.39521 234.53371 236.71520 238.98070 241.36019
 243.99069 246.25118 248.26268 250.03717 251.46367 252.59616 253.42766 253.75315
 253.79965 253.58315 252.95264 251.91014 250.52563 248.69613 246.61462 244.45712
 242.25761 240.07111 237.90060 235.74910 233.61859 231.49509 229.53058 227.69708
 225.98957 224.47107 223.11056 221.89206 220.78355 219.75305 218.86654 218.01704
 217.26853 216.45803 215.56552 214.93902 214.39851 215.19374 217.07254 219.18286
 221.16698 222.73575 223.62648 223.69519 223.40979 222.97849 223.27283 224.39670
 226.20732 229.52023 233.79684 238.34483 242.87236 247.20511 251.19775 254.79132
 257.98947 260.92633 263.64752 266.05341 268.26859 270.45941 272.70929 274.71259
 276.17725 277.30426 278.30298 279.40173 280.55084 281.60245 282.56799 283.45074
 284.25189 284.97614 285.61081 286.42767
 366.78100 356.34492 345.78685 334.66277 323.07570 311.27962 299.15955 286.97247
 274.69440 262.60132 250.62025 239.93117 230.06310 221.17702 213.36895 206.38087
 200.22480 195.17272 191.76465 189.81657 188.86350 188.93742 189.78235 191.10027
 192.83520 194.94012 197.21305 199.58197 202.03690 204.52682 206.62475 208.47667
 210.11260 211.26752 211.50645 211.74437 211.69130 211.40622 211.04915 210.68907
 210.31600 210.03592 209.85385 209.72777 209.66570 210.00662 210.40255 210.80147
 211.60440 212.79232 214.05225 215.84517 217.78310 219.83602 221.94095 224.03387
 226.10380 228.19772 230.30465 232.42057 234.55950 236.74142 239.00735 241.38727
 244.01820 246.27912 248.29105 250.06597 251.49290 252.62582 253.45775 253.78367
 253.83060 253.61452 252.98445 251.94237 250.55830 248.72922 246.64815 244.49107
 242.29200 240.10592 237.93585 235.78477 233.65470 231.53162 229.56755 227.73447
 226.02740 224.50932 223.14925 221.93117 220.82310 219.79302 218.90695 218.05787
 217.30980 216.49972 215.60765 214.98157 214.44150 215.22357 217.07132 219.17838
 221.15210 222.69884 223.54663 223.54297 223.20764 222.77513 223.08571 224.27058
 226.18976 229.62491 233.96501 238.51587 243.02513 247.34161 251.32118 254.89972
 258.09341 261.03104 263.74936 266.15067 268.34161 270.53305 272.75848 274.74112
 276.18243 277.29758 278.29510 279.41333 280.56528 281.61841 282.58380 283.46588
 284.26605 284.98630 285.61920 286.42871
 366.78100 356.34538 345.78776 334.66414 323.07752 311.28190 299.16228 286.97566
 274.69804 262.60542 250.62480 239.93618 230.06857 221.18295 213.37533 206.38771
 200.23209 195.18047 191.77285 189.82523 188.87261 188.94699 189.79237 191.11075
 192.84613 194.95151 197.22489 199.59427 202.04965 204.54003 206.63841 208.49079
 210.12717 211.28255 211.52194 211.76032 211.70770 211.42308 211.06646 210.70684
 210.33422 210.05460 209.87298 209.74736 209.68574 210.02712 210.42350 210.82288
 211.62626 212.81464 214.07502 215.86840 217.80678 219.86016 221.96554 224.05892
 226.12931 228.22369 230.33107 232.44745 234.58683 236.76921 239.03559 241.41597
 244.04735 246.30873 248.32111 250.09649 251.52387 252.65725 253.48963 253.81601
 253.86339 253.64777 253.01815 251.97653 250.59291 248.76429 246.68368 244.52706
 242.32844 240.14282 237.97320 235.82258 233.69296 231.57034 229.60672 227.77410
 226.06748 224.54986 223.19024 221.97262 220.86500 219.83538 218.94976 218.10114
 217.35352 216.54390 215.65228 215.02666 214.48705 215.25545 217.07088 219.16211
 221.13852 222.67331 223.47694 223.39610 222.99858 222.55644 222.87712 224.13126
 226.16977 229.73232 234.13391 238.68823 243.18436 247.48997 251.45975 255.02441
 258.21313 261.15085 263.86078 266.24026 268.42950 270.59250 272.79074 274.74854
 276.17935 277.29718 278.30576 279.44934 280.60687 281.65845 282.62634 283.50931
 284.31076 285.03342 285.66602 286.47842
 366.78100 356.34577 345.78853 334.66530 323.07907 311.28384 299.16460 286.97837
 274.70114 262.60890 250.62867 239.94044 230.07321 221.18797 213.38074 206.39351
 200.23827 195.18704 191.77981 189.83258 188.88034 188.95511 189.80088 191.11964
 192.85541 194.96118 197.23494 199.60471 202.06048 204.55125 206.65001 208.50278
 210.13955 211.29531 211.53508 211.77385 211.72162 211.43738 211.08115 210.72192
 210.34968 210.07045 209.88922 209.76399 209.70275 210.04452 210.44129 210.84105
 211.64482 212.83359 214.09436 215.88812 217.82689 219.88066 221.98642 224.08019
 226.15096 228.24573 230.35349 232.47026 234.61003 236.79279 239.05956 241.44033
 244.07210 246.33386 248.34663 250.12240 251.55016 252.68393 253.51670 253.84346
 253.89123 253.67600 253.04677 252.00553 250.62230 248.79407 246.71383 244.55760
 242.35937 240.17414 238.00490 235.85467 233.72544 231.60320 229.63997 227.80774
 226.10151 224.58427 223.22504 222.00781 220.90057 219.87134 218.98611 218.13788
 217.39064 216.58141 215.69018 215.06494 214.52571 215.28172 217.06789 219.14392
 221.12450 222.65234 223.41052 223.24930 222.78436 222.32785 222.65489 223.98933
 226.15411 229.84065 234.30107 238.85808 243.34982 247.64926 251.60916 255.15834
 258.34183 261.28748 264.00775 266.24716 268.54996 270.67776 272.83057 274.74756
 276.15933 277.28598 278.32303 279.50409 280.66705 281.72015 282.68817 283.57208
 284.37335 285.09579 285.72803 286.53378
 366.78100 356.34622 345.78943 334.66665 323.08086 311.28608 299.16729 286.98151
 274.70472 262.61294 250.63316 239.94537 230.07859 221.19380 213.38702 206.40023
 200.24545 195.19466 191.78788 189.84110 188.88931 188.96453 189.81074 191.12996
 192.86617 194.97239 197.24660 199.61682 202.07304 204.56425 206.66347 208.51668
 210.15390 211.31011 211.55033 211.78954 211.73776 211.45398 211.09819 210.73941
 210.36762 210.08884 209.90805 209.78327 209.72248 210.06470 210.46192 210.86213
 211.66635 212.85556 214.11678 215.91099 217.85021 219.90443 222.01064 224.10486
 226.17607 228.27129 230.37950 232.49672 234.63693 236.82015 239.08737 241.46858
 244.10080 246.36301 248.37623 250.15244 251.58066 252.71487 253.54809 253.87531
 253.92352 253.70874 253.07995 252.03917 250.65638 248.82860 246.74881 244.59303
 242.39525 240.21046 238.04168 235.89189 233.76311 231.64132 229.67854 227.84675
 226.14097 224.62419 223.26540 222.04862 220.94183 219.91305 219.02826 218.18048
 217.43369 216.62491 215.73413 215.10934 214.57056 215.31053 217.05881 219.12979
 221.10912 222.62413 223.34544 223.10864 222.57239 222.09201 222.41833 223.83153
 226.13524 229.94728 234.46257 239.02617 243.51952 247.81670 251.76796 255.30402
 258.48923 261.44525 264.17679 266.22107 268.62164 270.77512 272.89297 274.77576
 276.15482 277.27066 278.34109 279.55627 280.72559 281.77939 282.74881 283.63168
 284.43552 285.15915 285.79364 286.60101
 366.78100 356.34650 345.79000 334.66750 323.08200 311.28750 299.16901 286.98351
 274.70701 262.61551 250.63601 239.94851 230.08201 221.19751 213.39101 206.40451
 200.25001 195.19952 191.79302 189.84652 188.89502 188.97052 189.81702 191.13652
 192.87302 194.97952 197.25402 199.62452 202.08103 204.57253 206.67203 208.52553
 210.16303 211.31953 211.56003 211.79953 211.74803 211.46453 211.10903 210.75054
 210.37904 210.10054 209.92004 209.79554 209.73504 210.07754 210.47504 210.87554
 211.68004 212.86954 214.13105 215.92555 217.86505 219.91955 222.02605 224.12055
 226.19205 228.28755 230.39605 232.51355 234.65405 236.83756 239.10506 241.48656
 244.11906 246.38156 248.39506 250.17156 251.60006 252.73456 253.56806 253.89556
 253.94407 253.72957 253.10107 252.06057 250.67807 248.85057 246.77107 244.61557
 242.41807 240.23357 238.06507 235.91558 233.78708 231.66558 229.70308 227.87158
 226.16608 224.64958 223.29108 222.07458 220.96808 219.93958 219.05509 218.20759
 217.46109 216.65259 215.76209 215.13759 214.59909 215.33276 217.06616 219.10951
 221.09575 222.60251 223.26848 222.96291 222.35849 221.83897 222.14958 223.66890
 226.12346 230.05661 234.62981 239.20731 243.69672 247.99480 251.94536 255.47412
 258.66409 261.62616 264.35544 266.20175 268.65921 270.85797 272.96609 274.83380
 276.20505 277.30853 278.37653 279.59393 280.76364 281.81714 282.78586 283.67078
 284.47757 285.20300 285.83884 286.65250
 366.78100 356.34661 345.79022 334.66783 323.08244 311.28805 299.16966 286.98427
 274.70788 262.61649 250.63710 239.94971 230.08332 221.19893 213.39254 206.40615
 200.25176 195.20138 191.79499 189.84860 188.89721 188.97282 189.81943 191.13904
 192.87565 194.98226 197.25687 199.62748 202.08409 204.57570 206.67531 208.52892
 210.16653 211.32314 211.56375 211.80336 211.75197 211.46858 211.11319 210.75480
 210.38341 210.10502 209.92463 209.80024 209.73985 210.08246 210.48007 210.88068
 211.68529 212.87491 214.13652 215.93113 217.87074 219.92535 222.03196 224.12657
 226.19818 228.29379 230.40240 232.52001 234.66062 236.84423 239.11184 241.49345
 244.12606 246.38867 248.40228 250.17889 251.60750 252.74211 253.57572 253.90333
 253.95194 253.73755 253.10916 252.06877 250.68638 248.85899 246.77960 244.62421
 242.42682 240.24244 238.07405 235.92466 233.79627 231.67488 229.71249 227.88110
 226.17571 224.65932 223.30093 222.08454 220.97815 219.94976 219.06537 218.21798
 217.47159 216.66320 215.77281 215.14842 214.61003 215.34497 217.08130 219.08586
 221.06216 222.59694 223.21332 222.79034 222.12733 221.57953 221.89998 223.50171
 226.09320 230.15785 234.80222 239.40532 243.88782 248.17610 252.12241 255.64381
 258.83139 261.78683 264.50293 266.28885 268.60834 270.88467 273.01349 274.87509
 276.27356 277.41006 278.46170 279.63361 280.79730 281.85022 282.82065 283.70605
 284.51471 285.24600 285.88583 286.71066
 366.78100 356.34693 345.79085 334.66878 323.08370 311.28963 299.17155 286.98648
 274.71040 262.61933 250.64025 239.95318 230.08710 221.20303 213.39695 206.41088
 200.25680 195.20673 191.80065 189.85458 188.90350 188.97943 189.82635 191.14628
 192.88320 194.99013 197.26505 199.63598 202.09290 204.58483 206.68475 208.53868
 210.17660 211.33353 211.57445 211.81438 211.76330 211.48023 211.12515 210.76708
 210.39600 210.11793 209.93785 209.81378 209.75370 210.09663 210.49455 210.89548
 211.70040 212.89033 214.15226 215.94718 217.88711 219.94203 222.04896 224.14388
 226.21581 228.31173 230.42066 232.53858 234.67951 236.86343 239.13136 241.51328
 244.14621 246.40913 248.42306 250.19998 251.62891 252.76383 253.59776 253.92568
 253.97461 253.76053 253.13246 252.09238 250.71031 248.88323 246.80416 244.64908
 242.45201 240.26793 238.09986 235.95078 233.82271 231.70163 229.73956 227.90848
 226.20341 224.68733 223.32926 222.11318 221.00711 219.97903 219.09496 218.24788
 217.50181 216.69373 215.80366 215.17958 214.64151 215.36519 217.07497 219.07924
 221.02090 222.55710 223.21396 222.68987 221.82886 221.25069 221.61337 223.40337
 226.15417 230.27879 234.96570 239.60919 244.07930 248.34291 252.27344 255.79001
 258.98160 261.92636 264.61795 266.47604 268.65747 270.84692 273.01871 274.87085
 276.29651 277.48679 278.56958 279.68683 280.83997 281.89484 282.86575 283.75635
 284.56876 285.30548 285.95215 286.78714
 366.78100 356.34724 345.79148 334.66973 323.08497 311.29121 299.17345 286.98869
 274.71294 262.62218 250.64342 239.95666 230.09090 221.20715 213.40139 206.41563
 200.26187 195.21211 191.80636 189.86060 188.90984 188.98608 189.83332 191.15357
 192.89081 194.99805 197.27329 199.64453 202.10178 204.59402 206.69426 208.54850
 210.18674 211.34399 211.58523 211.82547 211.77471 211.49195 211.13720 210.77944
 210.40868 210.13092 209.95117 209.82741 209.76765 210.11089 210.50913 210.91038
 211.71562 212.90586 214.16810 215.96334 217.90359 219.95883 222.06607 224.16131
 226.23355 228.32980 230.43904 232.55728 234.69852 236.88276 239.15101 241.53325
 244.16649 246.42973 248.44397 250.22122 251.65046 252.78570 253.61994 253.94818
 253.99743 253.78367 253.15591 252.11615 250.73439 248.90764 246.82888 244.67412
 242.47736 240.29360 238.12585 235.97709 233.84933 231.72857 229.76681 227.93606
 226.23130 224.71554 223.35778 222.14202 221.03627 220.00851 219.12475 218.27799
 217.53223 216.72448 215.83472 215.21096 214.67320 215.38304 217.06012 219.07407
 221.00273 222.49297 223.14908 222.67038 221.73679 220.81612 221.23122 223.36591
 226.23991 230.38411 235.11342 239.79918 244.26939 248.51031 252.43008 255.94006
 259.13638 262.07092 264.72617 266.67819 268.71408 270.79318 273.01425 274.85162
 276.29242 277.52240 278.63254 279.74924 280.90350 281.95752 282.92953 283.81943
 284.63519 285.37524 286.02509 286.87198
 366.78100 356.34735 345.79170 334.67005 323.08541 311.29176 299.17411 286.98946
 274.71381 262.62316 250.64452 239.95787 230.09222 221.20857 213.40292 206.41727
 200.26363 195.21398 191.80833 189.86268 188.91203 188.98838 189.83573 191.15609
 192.89344 195.00079 197.27614 199.64749 202.10484 204.59720 206.69755 208.55190
 210.19025 211.34760 211.58895 211.82931 211.77866 211.49601 211.14136 210.78371
 210.41306 210.13541 209.95577 209.83212 209.77247 210.11582 210.51417 210.91552
 211.72088 212.91123 214.17358 215.96893 217.90928 219.96463 222.07199 224.16734
 226.23969 228.33604 230.44539 232.56374 234.70509 236.88945 239.15780 241.54015
 244.17350 246.43685 248.45120 250.22856 251.65791 252.79326 253.62761 253.95596
 254.00531 253.79167 253.16402 252.12437 250.74272 248.91607 246.83742 244.68278
 242.48613 240.30248 238.13483 235.98618 233.85853 231.73788 229.77624 227.94559
 226.24094 224.72529 223.36764 222.15199 221.04635 220.01870 219.13505 218.28840
 217.54275 216.73510 215.84546 215.22181 214.68416 215.39037 217.05885 219.05460
 220.98615 222.44945 223.03278 222.56319 221.65370 220.50485 220.92067 223.24782
 226.26115 230.49968 235.26164 239.97954 244.46135 248.66530 252.56747 256.08368
 259.29007 262.22617 264.85217 266.82129 268.77707 270.78821 273.01822 274.82742
 276.26904 277.51788 278.63666 279.79880 280.95996 282.01315 282.98477 283.87619
 284.69113 285.43210 286.08420 286.94040
 366.78100 356.34736 345.79173 334.67009 323.08546 311.29182 299.17418 286.98955
 274.71391 262.62328 250.64464 239.95801 230.09237 221.20873 213.40310 206.41746
 200.26383 195.21419 191.80855 189.86292 188.91228 188.98865 189.83601 191.15637
 192.89374 195.00110 197.27647 199.64783 202.10519 204.59756 206.69792 208.55229
 210.19065 211.34802 211.58938 211.82974 211.77911 211.49647 211.14184 210.78420
 210.41356 210.13593 209.95629 209.83266 209.77302 210.11638 210.51475 210.91611
 211.72148 212.91184 214.17420 215.96957 217.90993 219.96530 222.07266 224.16803
 226.24039 228.33675 230.44612 232.56448 234.70585 236.89021 239.15857 241.54094
 244.17430 246.43767 248.45203 250.22939 251.65876 252.79412 253.62849 253.95685
 254.00621 253.79258 253.16494 252.12531 250.74367 248.91704 246.83840 244.68376
 242.48713 240.30349 238.13586 235.98722 233.85958 231.73895 229.77731 227.94668
 226.24204 224.72640 223.36877 222.15313 221.04750 220.01986 219.13622 218.28959
 217.54395 216.73632 215.84668 215.22305 214.68541 215.39001 217.05475 219.03262
 220.96463 222.41431 222.92575 222.41762 221.51115 220.26581 220.65541 223.09102
 226.26277 230.62782 235.42007 240.14163 244.62874 248.82152 252.71930 256.20886
 259.41452 262.36517 264.99023 266.93329 268.81088 270.90494 273.07245 274.80524
 276.22040 277.46320 278.60800 279.83173 281.00009 282.05383 283.02536 283.91568
 284.73038 285.47186 286.12610 286.99030
 366.78100 356.34744 345.79188 334.67031 323.08575 311.29219 299.17463 286.99006
 274.71450 262.62394 250.64538 239.95882 230.09325 221.20969 213.40413 206.41857
 200.26500 195.21544 191.80988 189.86432 188.91376 188.99019 189.83763 191.15807
 192.89551 195.00294 197.27838 199.64982 202.10726 204.59970 206.70013 208.55457
 210.19301 211.35045 211.59189 211.83232 211.78176 211.49920 211.14464 210.78707
 210.41651 210.13895 209.95939 209.83583 209.77626 210.11970 210.51814 210.91958
 211.72501 212.91545 214.17789 215.97333 217.91377 219.96920 222.07664 224.17208
 226.24452 228.34095 230.45039 232.56883 234.71027 236.89471 239.16314 241.54558
 244.17902 246.44246 248.45689 250.23433 251.66377 252.79921 253.63365 253.96208
 254.01152 253.79796 253.17040 252.13083 250.74927 248.92271 246.84415 244.68959
 242.49302 240.30946 238.14190 235.99334 233.86577 231.74521 229.78365 227.95309
 226.24853 224.73296 223.37540 222.15984 221.05428 220.02671 219.14315 218.29659
 217.55103 216.74347 215.85390 215.23034 214.69278 215.39296 217.04721 219.01820
 220.93658 222.38310 222.82315 222.24898 221.32974 220.05304 220.40417 222.93559
 226.26704 230.74910 235.58049 240.31328 244.77722 248.96187 252.83824 256.32327
 259.52966 262.50049 265.13251 267.12491 268.97543 271.08267 273.10397 274.74948
 276.15930 277.42358 278.57831 279.77753 280.93445 281.98218 282.94778 283.83411
 284.64508 285.38513 286.03876 286.91144
 366.78100 356.34750 345.79200 334.67050 323.08600 311.29250 299.17501 286.99051
 274.71501 262.62451 250.64601 239.95951 230.09401 221.21051 213.40501 206.41951
 200.26602 195.21652 191.81102 189.86552 188.91502 188.99152 189.83902 191.15952
 192.89702 195.00452 197.28003 199.65153 202.10903 204.60153 206.70203 208.55653
 210.19503 211.35253 211.59403 211.83453 211.78403 211.50154 211.14704 210.78954
 210.41904 210.14154 209.96204 209.83854 209.77904 210.12254 210.52104 210.92255
 211.72805 212.91855 214.18105 215.97655 217.91705 219.97255 222.08005 224.17555
 226.24805 228.34456 230.45406 232.57256 234.71406 236.89856 239.16706 241.54956
 244.18306 246.44656 248.46106 250.23856 251.66807 252.80357 253.63807 253.96657
 254.01607 253.80257 253.17507 252.13557 250.75407 248.92757 246.84908 244.69458
 242.49808 240.31458 238.14708 235.99858 233.87108 231.75058 229.78908 227.95858
 226.25409 224.73859 223.38109 222.16559 221.06009 220.03259 219.14909 218.30259
 217.55709 216.74959 215.86009 215.23660 214.69910 215.39342 217.03384 219.01590
 220.90601 222.35521 222.73878 222.05231 221.07939 219.81961 220.18575 222.82594
 226.30583 230.88586 235.75687 240.51591 244.97664 249.12900 252.96385 256.38931
 259.57715 262.53070 265.17578 267.23843 269.10971 271.19424 273.12457 274.75266
 276.20874 277.51031 278.65701 279.78912 280.93518 281.98471 282.94937 283.83289
 284.64374 285.38181 286.03320 286.91806
 366.78100 356.34730 345.79160 334.66990 323.08520 311.29150 299.17380 286.98910
 274.71340 262.62269 250.64399 239.95729 230.09159 221.20789 213.40219 206.41649
 200.26279 195.21309 191.80739 189.86169 188.91099 188.98729 189.83459 191.15489
 192.89219 194.99948 197.27478 199.64608 202.10338 204.59568 206.69598 208.55028
 210.18858 211.34588 211.58718 211.82748 211.77678 211.49408 211.13938 210.78168
 210.41098 210.13328 209.95357 209.82987 209.77017 210.11347 210.51177 210.91307
 211.71837 212.90867 214.17097 215.96627 217.90657 219.96187 222.06917 224.16447
 226.23677 228.33307 230.44237 232.56066 234.70196 236.88626 239.15456 241.53686
 244.17016 246.43346 248.44776 250.22506 251.65436 252.78966 253.62396 253.95226
 254.00156 253.78786 253.16016 252.12045 250.73875 248.91205 246.83335 244.67865
 242.48195 240.29825 238.13055 235.98185 233.85415 231.73345 229.77175 227.94105
 226.23635 224.72065 223.36295 222.14725 221.04154 220.01384 219.13014 218.28344
 217.53774 216.73004 215.84034 215.21664 214.67894 215.37996 217.03616 218.99947
 220.87642 222.31444 222.65553 221.87767 220.79771 219.56721 219.95682 222.71568
 226.35959 231.03442 235.93149 240.70189 245.17317 249.33014 253.15173 256.52914
 259.66681 262.57666 265.19260 267.31912 269.20126 271.26654 273.15466 274.81122
 276.32877 277.67416 278.83038 279.84329 280.86334 281.89325 282.85583 283.73956
 284.54794 285.28851 285.94470 286.83878
 354.97500 345.04800 334.58700 324.11500 313.32600 302.53700 291.65000 280.76700
 269.93100 259.19300 248.62200 238.61700 229.08700 220.35500 212.54000 205.53500
 199.46400 194.49300 191.14300 189.19000 188.08900 188.01400 188.72400 189.90600
 191.46900 193.38200 195.40300 197.55600 199.80700 202.06000 204.28800 206.47900
 208.55200 210.37800 212.02500 213.65900 214.99800 216.11800 217.17200 218.25900
 219.49400 220.64500 221.67900 222.61400 223.54500 224.98200 226.57100 228.19000
 229.79700 231.81100 233.86500 235.97200 238.24200 240.55300 242.89900 245.25300
 247.48800 249.53500 251.36600 252.84800 254.09800 255.16700 256.02700 256.25300
 256.09500 255.54300 253.93500 252.56600 251.38400 250.24500 249.05200 247.70100
 246.01600 243.99600 241.78400 239.39300 236.81300 234.22300 231.65800 229.14400
 226.74000 224.47300 222.33500 220.32500 218.44000 216.67700 214.96200 213.47200
 212.20000 211.10800 210.26000 209.63900 209.24400 209.03100 209.05800 209.33300
 209.78400 210.62600 211.33100 212.39100 213.62500 214.84668 217.72949 219.47640
 220.32566 220.86828 220.88710 220.27371 219.43733 218.84250 219.04934 220.86203
 222.60583 225.72206 229.03064 232.61777 236.12270 239.51333 242.70767 245.68587
 248.41061 250.90679 253.19353 254.91714 256.48655 257.94920 259.39966 260.69384
 261.81714 262.77997 263.71679 264.54570 265.26305 265.89772 266.47676 267.00133
 267.47312 267.89325 268.26027 268.72800
