|-------------------------------------------------------------------------|
|   File Name : in_temp.dat
|   Subject   : temperature profiles used for initial guess atmosphere
|   File Type : input of gmtr
|   Data Type : atmospherical data
|   Author/s  : WRF-Chem
|   Date      : Fri Jul 26 15:39:24 2024
|-------------------------------------------------------------------------|

 WRF-Chem temperature
#
 values of T (K)    (8f10.5)
#
 354.97500 345.04800 334.58700 324.11500 313.32600 302.53700 291.65000 280.76700
 269.93100 259.19300 248.62200 238.61700 229.08700 220.35500 212.54000 205.53500
 199.46400 194.49300 191.14300 189.19000 188.08900 188.01400 188.72400 189.90600
 191.46900 193.38200 195.40300 197.55600 199.80700 202.06000 204.28800 206.47900
 208.55200 210.37800 212.02500 213.65900 214.99800 216.11800 217.17200 218.25900
 219.49400 220.64500 221.67900 222.61400 223.54500 224.98200 226.57100 228.19000
 229.79700 231.81100 233.86500 235.97200 238.24200 240.55300 242.89900 245.25300
 247.48800 249.53500 251.36600 252.84800 254.09800 255.16700 256.02700 256.25300
 256.09500 255.54300 253.93500 252.56600 251.38400 250.24500 249.05200 247.70100
 246.01600 243.99600 241.78400 239.39300 236.81300 234.22300 231.65800 229.14400
 226.74000 224.47300 222.33500 220.32500 218.44000 216.67700 214.96200 213.47200
 212.20000 211.10800 210.26000 209.63900 209.24400 209.03100 209.05800 209.33300
 209.78400 210.62600 211.33100 212.39100 213.62500 214.84668 217.72949 219.47640
 220.32566 220.86828 220.88710 220.27371 219.43733 218.84250 219.04934 220.86203
 222.60583 225.72206 229.03064 232.61777 236.12270 239.51333 242.70767 245.68587
 248.41061 250.90679 253.19353 254.91714 256.48655 257.94920 259.39966 260.69384
 261.81714 262.77997 263.71679 264.54570 265.26305 265.89772 266.47676 267.00133
 267.47312 267.89325 268.26027 268.72800
 366.78100 356.33500 345.76700 334.63300 323.03600 311.23000 299.10000 286.90300
 274.61500 262.51200 250.52100 239.82200 229.94400 221.04800 213.23000 206.23200
 200.06600 195.00400 191.58600 189.62800 188.66500 188.72900 189.56400 190.87200
 192.59700 194.69200 196.95500 199.31400 201.75900 204.23900 206.32700 208.16900
 209.79500 210.94000 211.16900 211.39700 211.33400 211.03900 210.67200 210.30200
 209.91900 209.62900 209.43700 209.30100 209.22900 209.56000 209.94600 210.33500
 211.12800 212.30600 213.55600 215.33900 217.26700 219.31000 221.40500 223.48800
 225.54800 227.63200 229.72900 231.83500 233.96400 236.13600 238.39200 240.76200
 243.38300 245.63400 247.63600 249.40100 250.81800 251.94100 252.76300 253.07900
 253.11600 252.89000 252.25000 251.19800 249.80400 247.96500 245.87400 243.70700
 241.49800 239.30200 237.12200 234.96100 232.82100 230.68800 228.71400 226.87100
 225.15400 223.62600 222.25600 221.02800 219.91000 218.87000 217.97400 217.11500
 216.35700 215.53700 214.63500 213.99900 213.44900 212.85855 212.01316 212.61654
 214.26826 216.08686 218.14273 220.53346 223.40855 226.78828 231.49734 235.90155
 239.42278 243.28576 247.23140 251.11907 254.80144 258.23331 261.38913 264.27520
 266.89312 269.26852 271.44504 273.08845 274.58484 275.98591 277.39845 278.65879
 279.75272 280.69038 281.56708 282.34086 283.01050 283.60295 284.14348 284.63317
 285.07358 285.46577 285.80838 286.24500
 381.81900 372.39900 361.20600 349.77600 337.62200 324.85300 311.81000 298.35300
 284.86000 271.32400 258.56100 246.30400 236.08700 226.79600 218.44800 211.29000
 205.52200 200.89400 197.38100 194.84800 193.01500 192.31500 192.25000 192.43100
 192.91200 193.53700 194.13600 194.71200 195.26200 195.83100 196.39300 196.97600
 197.60400 198.14900 198.58400 199.05700 199.69500 200.37800 201.05400 201.70800
 202.31300 202.85700 203.35500 203.86200 204.56900 205.29700 206.02600 206.98700
 208.19300 209.44100 210.96900 212.57600 214.46200 216.51300 218.63000 220.85300
 223.34100 225.96200 228.73900 231.69700 234.70600 237.70600 240.69200 243.65700
 246.73700 249.69900 252.52100 255.06300 257.29000 259.23300 260.63300 261.68000
 262.46100 262.79800 262.69100 262.22400 261.06900 259.52500 257.70700 255.50700
 253.00100 250.30200 247.39800 244.45200 241.65400 239.05400 236.73300 234.59000
 232.59500 230.72500 228.83400 226.82600 224.66600 222.38700 220.10400 217.71500
 215.45900 213.06600 210.54600 208.09300 205.35400 202.08130 196.05959 200.71215
 209.01611 216.90438 223.84126 229.78593 235.00632 240.20838 245.98943 250.68668
 254.32982 257.93487 261.55666 264.96801 268.15192 271.06452 273.76717 276.25691
 278.57680 280.74479 282.77456 284.60533 286.27232 287.81705 289.31715 290.65561
 291.81734 292.81312 293.70701 294.49387 295.17482 295.77730 296.32696 296.82492
 297.27278 297.67160 298.02000 298.46400
 399.33000 389.90700 379.81300 368.66800 357.52200 345.30100 333.07400 320.22700
 307.21600 293.84800 280.37600 267.29600 254.61000 242.98700 232.15100 221.97700
 212.67200 204.28600 197.66900 192.82100 189.48600 187.45200 186.81400 187.08900
 187.78100 189.05400 190.64800 192.54200 194.63000 196.75200 198.67100 200.15800
 201.53500 202.48700 202.97500 203.34000 203.53900 203.49700 203.38500 203.24700
 203.00500 202.78600 202.60300 202.43700 202.42600 202.88800 203.42000 203.95100
 204.89500 205.99200 207.30100 208.95800 210.73800 213.10000 215.56400 218.18000
 220.96600 223.91800 226.96100 230.09200 233.29300 236.55700 239.95500 243.53700
 246.84500 249.39000 251.54200 253.47400 255.19500 256.48400 257.43100 258.05900
 258.21200 258.04000 257.58200 256.64300 255.23900 253.50700 251.40800 249.05600
 246.57600 243.99400 241.38900 238.83000 236.34400 233.98600 231.96900 230.11800
 228.42300 226.89900 225.54800 224.29700 223.10500 221.96500 220.95800 220.11300
 219.49000 218.92000 218.32500 217.88100 217.42300 216.96366 216.35568 216.80261
 217.73415 218.28582 218.64258 219.10077 220.44626 222.53987 226.38451 230.35736
 233.59734 237.39164 241.29814 245.22796 248.98002 252.51130 255.78595 258.80109
 261.54781 264.05210 266.34239 268.04198 269.58951 271.01303 272.35754 273.55718
 274.59842 275.49092 276.28989 276.99307 277.60161 278.14001 278.63122 279.07623
 279.47646 279.83287 280.14422 280.54100
 399.73800 389.78500 379.66200 368.15100 356.64100 344.35000 331.79200 318.88800
 305.72600 292.49300 279.20900 266.73800 254.69600 244.21100 234.45700 225.43300
 217.56900 210.45100 204.30000 199.30600 195.45800 192.57600 191.02700 190.38600
 190.23900 190.53400 191.16600 191.92500 192.79500 193.76600 194.73200 195.31200
 195.80000 196.05200 196.11500 196.11500 196.03900 195.72300 195.34000 194.98900
 194.75100 194.79200 195.13300 195.59800 196.50600 198.13600 199.85800 201.56600
 204.17900 206.82300 209.89300 213.28400 216.82800 220.60500 224.38700 228.20900
 232.03200 235.82500 239.56000 243.25800 246.84500 250.20100 253.70900 257.46800
 261.53000 264.22100 266.60100 268.68100 270.32900 271.74100 272.83600 273.47400
 273.89800 274.00200 273.75700 273.28800 272.37100 271.10000 269.58900 267.77900
 265.81600 263.72100 261.39300 258.91600 256.29800 253.42300 250.33100 247.11400
 243.83700 240.52900 237.24900 233.99900 230.72800 227.51500 224.25400 220.95200
 217.62700 213.65600 210.12100 206.78900 204.01000 201.99491 199.07309 198.76551
 199.40006 200.48994 201.46112 202.31912 203.45100 204.96110 207.47502 210.85391
 213.70530 217.29629 220.99574 224.72316 228.28753 231.64854 234.68024 237.40893
 239.70644 241.60899 243.46854 245.67368 247.68154 249.52395 251.24767 252.78566
 254.12057 255.26479 256.23740 257.09036 257.82852 258.48160 259.07744 259.61723
 260.10271 260.53504 260.91270 261.39400
 399.73800 389.78500 379.66200 368.15100 356.64100 344.35000 331.79200 318.88800
 305.72600 292.49300 279.20900 266.73800 254.69600 244.21100 234.45700 225.43300
 217.56900 210.45100 204.30000 199.30600 195.45800 192.57600 191.02700 190.38600
 190.23900 190.53400 191.16600 191.92500 192.79500 193.76600 194.73200 195.31200
 195.80000 196.05200 196.11500 196.11500 196.03900 195.72300 195.34000 194.98900
 194.75100 194.79200 195.13300 195.59800 196.50600 198.13600 199.85800 201.56600
 204.17900 206.82300 209.89300 213.28400 216.82800 220.60500 224.38700 228.20900
 232.03200 235.82500 239.56000 243.25800 246.84500 250.20100 253.70900 257.46800
 261.53000 264.22100 266.60100 268.68100 270.32900 271.74100 272.83600 273.47400
 273.89800 274.00200 273.75700 273.28800 272.37100 271.10000 269.58900 267.77900
 265.81600 263.72100 261.39300 258.91600 256.29800 253.42300 250.33100 247.11400
 243.83700 240.52900 237.24900 233.99900 230.72800 227.51500 224.25400 220.95200
 217.62700 213.65600 210.12100 206.78900 204.01000 201.99491 199.07309 198.76551
 199.40006 200.48994 201.46112 202.31912 203.45100 204.96110 207.47502 210.85391
 213.70530 217.29629 220.99574 224.72316 228.28753 231.64854 234.68024 237.40893
 239.70644 241.60899 243.46854 245.67368 247.68154 249.52395 251.24767 252.78566
 254.12057 255.26479 256.23740 257.09036 257.82852 258.48160 259.07744 259.61723
 260.10271 260.53504 260.91270 261.39400
 399.33000 389.90700 379.81300 368.66800 357.52200 345.30100 333.07400 320.22700
 307.21600 293.84800 280.37600 267.29600 254.61000 242.98700 232.15100 221.97700
 212.67200 204.28600 197.66900 192.82100 189.48600 187.45200 186.81400 187.08900
 187.78100 189.05400 190.64800 192.54200 194.63000 196.75200 198.67100 200.15800
 201.53500 202.48700 202.97500 203.34000 203.53900 203.49700 203.38500 203.24700
 203.00500 202.78600 202.60300 202.43700 202.42600 202.88800 203.42000 203.95100
 204.89500 205.99200 207.30100 208.95800 210.73800 213.10000 215.56400 218.18000
 220.96600 223.91800 226.96100 230.09200 233.29300 236.55700 239.95500 243.53700
 246.84500 249.39000 251.54200 253.47400 255.19500 256.48400 257.43100 258.05900
 258.21200 258.04000 257.58200 256.64300 255.23900 253.50700 251.40800 249.05600
 246.57600 243.99400 241.38900 238.83000 236.34400 233.98600 231.96900 230.11800
 228.42300 226.89900 225.54800 224.29700 223.10500 221.96500 220.95800 220.11300
 219.49000 218.92000 218.32500 217.88100 217.42300 216.96366 216.35568 216.80261
 217.73415 218.28582 218.64258 219.10077 220.44626 222.53987 226.38451 230.35736
 233.59734 237.39164 241.29814 245.22796 248.98002 252.51130 255.78595 258.80109
 261.54781 264.05210 266.34239 268.04198 269.58951 271.01303 272.35754 273.55718
 274.59842 275.49092 276.28989 276.99307 277.60161 278.14001 278.63122 279.07623
 279.47646 279.83287 280.14422 280.54100
 381.81900 372.39900 361.20600 349.77600 337.62200 324.85300 311.81000 298.35300
 284.86000 271.32400 258.56100 246.30400 236.08700 226.79600 218.44800 211.29000
 205.52200 200.89400 197.38100 194.84800 193.01500 192.31500 192.25000 192.43100
 192.91200 193.53700 194.13600 194.71200 195.26200 195.83100 196.39300 196.97600
 197.60400 198.14900 198.58400 199.05700 199.69500 200.37800 201.05400 201.70800
 202.31300 202.85700 203.35500 203.86200 204.56900 205.29700 206.02600 206.98700
 208.19300 209.44100 210.96900 212.57600 214.46200 216.51300 218.63000 220.85300
 223.34100 225.96200 228.73900 231.69700 234.70600 237.70600 240.69200 243.65700
 246.73700 249.69900 252.52100 255.06300 257.29000 259.23300 260.63300 261.68000
 262.46100 262.79800 262.69100 262.22400 261.06900 259.52500 257.70700 255.50700
 253.00100 250.30200 247.39800 244.45200 241.65400 239.05400 236.73300 234.59000
 232.59500 230.72500 228.83400 226.82600 224.66600 222.38700 220.10400 217.71500
 215.45900 213.06600 210.54600 208.09300 205.35400 202.08130 196.05959 200.71215
 209.01611 216.90438 223.84126 229.78593 235.00632 240.20838 245.98943 250.68668
 254.32982 257.93487 261.55666 264.96801 268.15192 271.06452 273.76717 276.25691
 278.57680 280.74479 282.77456 284.60533 286.27232 287.81705 289.31715 290.65561
 291.81734 292.81312 293.70701 294.49387 295.17482 295.77730 296.32696 296.82492
 297.27278 297.67160 298.02000 298.46400
 366.78100 356.34174 345.78047 334.65321 323.06294 311.26368 299.14041 286.95015
 274.66888 262.57262 250.58836 239.89609 230.02483 221.13556 213.32430 206.33303
 200.17377 195.11850 191.70724 189.75598 188.79971 188.87045 189.71218 191.02692
 192.75865 194.86039 197.13013 199.49586 201.94760 204.43433 206.52907 208.37780
 210.01054 211.16227 211.39801 211.63275 211.57648 211.28822 210.92795 210.56469
 210.18842 209.90516 209.71989 209.59063 209.52537 209.86310 210.25584 210.65157
 211.45131 212.63604 213.89278 215.68251 217.61725 219.66699 221.76872 223.85846
 225.92519 228.01593 230.11966 232.23240 234.36814 236.54687 238.80961 241.18634
 243.81408 246.07181 248.08055 249.85228 251.27602 252.40576 253.23449 253.55723
 253.60096 253.38170 252.74843 251.70317 250.31590 248.48364 246.39938 244.23911
 242.03685 239.84758 237.67432 235.52005 233.38679 231.26052 229.29326 227.45700
 225.74673 224.22547 222.86220 221.64094 220.52967 219.49641 218.60715 217.75488
 217.00362 216.19035 215.29509 214.66582 214.12256 213.26537 211.24237 210.34937
 210.89925 212.53113 214.67772 216.60229 219.25153 223.53816 229.34833 234.48700
 238.36354 242.15442 245.92802 249.81660 253.84471 257.45801 260.20132 262.16360
 264.95340 267.77017 270.10199 271.96579 273.77118 275.57538 277.17700 278.80215
 280.52646 282.12546 283.59232 284.94797 286.12936 287.17700 288.13736 289.01047
 289.79742 290.50430 291.12854 291.95718
 366.78100 356.34189 345.78079 334.65368 323.06358 311.26447 299.14137 286.95126
 274.67016 262.57405 250.58995 239.89784 230.02673 221.13763 213.32652 206.33542
 200.17631 195.12121 191.71010 189.75900 188.80289 188.87379 189.71568 191.03058
 192.76247 194.86436 197.13426 199.50015 201.95205 204.43894 206.53384 208.38273
 210.01563 211.16752 211.40342 211.63831 211.58220 211.29410 210.93399 210.57089
 210.19478 209.91168 209.72657 209.59747 209.53236 209.87026 210.26315 210.65905
 211.45894 212.64383 213.90073 215.69062 217.62552 219.67541 221.77731 223.86720
 225.93410 228.02499 230.12889 232.24178 234.37767 236.55657 238.81946 241.19636
 243.82425 246.08215 248.09104 249.86294 251.28683 252.41673 253.24562 253.56852
 253.61241 253.39330 252.76020 251.71509 250.32799 248.49588 246.41178 244.25167
 242.04957 239.86046 237.68736 235.53325 233.40014 231.27404 229.30693 227.47083
 225.76072 224.23962 222.87651 221.65541 220.54430 219.51120 218.62209 217.76999
 217.01888 216.20577 215.31067 214.68156 214.13846 213.30092 211.32390 210.42824
 210.97754 212.61394 214.76485 216.65845 219.23454 223.47356 229.29242 234.41029
 238.27028 242.05132 245.82251 249.72699 253.80206 257.38495 260.08313 262.06543
 264.86664 267.69910 270.04355 271.89102 273.65833 275.43829 277.05853 278.70187
 280.43118 282.02884 283.49216 284.84793 286.03006 287.07855 288.03922 288.91132
 289.70123 290.40802 291.03156 291.86121
 366.78100 356.34187 345.78074 334.65361 323.06348 311.26435 299.14123 286.95110
 274.66997 262.57384 250.58971 239.89758 230.02645 221.13732 213.32619 206.33506
 200.17593 195.12081 191.70968 189.75855 188.80242 188.87329 189.71516 191.03003
 192.76190 194.86377 197.13364 199.49952 201.95139 204.43826 206.53313 208.38200
 210.01487 211.16674 211.40261 211.63748 211.58135 211.29322 210.93310 210.56997
 210.19384 209.91071 209.72558 209.59645 209.53132 209.86919 210.26206 210.65793
 211.45780 212.64268 213.89955 215.68942 217.62429 219.67416 221.77603 223.86590
 225.93277 228.02364 230.12751 232.24038 234.37626 236.55513 238.81800 241.19487
 243.82274 246.08061 248.08948 249.86135 251.28522 252.41509 253.24397 253.56684
 253.61071 253.39158 252.75845 251.71332 250.32619 248.49406 246.40993 244.24980
 242.04767 239.85855 237.68542 235.53129 233.39816 231.27203 229.30490 227.46877
 225.75864 224.23751 222.87438 221.65325 220.54213 219.50900 218.61987 217.76774
 217.01661 216.20348 215.30835 214.67922 214.13609 213.32466 211.40897 210.51707
 211.04955 212.70535 214.85651 216.70361 219.21431 223.41481 229.23589 234.33168
 238.17482 241.94641 245.71722 249.63939 253.76131 257.30884 259.96225 261.96527
 264.77490 267.62289 269.98172 271.81619 273.54916 275.30792 276.94583 278.60620
 280.33936 281.93527 283.39758 284.75345 285.93359 286.98251 287.94397 288.81601
 289.60675 290.31494 290.93933 291.76978
 366.78100 356.34170 345.78041 334.65311 323.06282 311.26352 299.14023 286.94993
 274.66864 262.57234 250.58805 239.89575 230.02446 221.13516 213.32387 206.33257
 200.17328 195.11798 191.70669 189.75539 188.79910 188.86980 189.71151 191.02621
 192.75792 194.85962 197.12933 199.49503 201.94674 204.43344 206.52815 208.37685
 210.00956 211.16126 211.39697 211.63167 211.57538 211.28708 210.92679 210.56349
 210.18720 209.90390 209.71861 209.58931 209.52402 209.86172 210.25443 210.65013
 211.44984 212.63454 213.89125 215.68095 217.61566 219.66536 221.76707 223.85677
 225.92348 228.01418 230.11789 232.23059 234.36629 236.54500 238.80770 241.18441
 243.81211 246.06982 248.07852 249.85023 251.27393 252.40364 253.23234 253.55505
 253.59875 253.37946 252.74616 251.70087 250.31357 248.48128 246.39698 244.23669
 242.03439 239.84510 237.67180 235.51751 233.38421 231.25792 229.29062 227.45433
 225.74403 224.22274 222.85944 221.63815 220.52685 219.49356 218.60426 217.75197
 217.00067 216.18738 215.29208 214.66279 214.11949 213.33911 211.49638 210.61311
 211.12273 212.79678 214.94632 216.75453 219.18745 223.35902 229.17944 234.25433
 238.07881 241.84004 245.61102 249.55226 253.71851 257.23019 259.84006 261.86475
 264.67810 267.53864 269.91260 271.73721 273.44342 275.18509 276.84067 278.51697
 280.25220 281.84769 283.30710 284.66281 285.84500 286.89355 287.85474 288.72763
 289.51862 290.22543 290.85330 291.68314
 366.78100 356.34146 345.77992 334.65238 323.06184 311.26230 299.13876 286.94823
 274.66669 262.57015 250.58561 239.89307 230.02153 221.13199 213.32045 206.32891
 200.16937 195.11383 191.70229 189.75075 188.79422 188.86468 189.70614 191.02060
 192.75206 194.85352 197.12298 199.48844 201.93990 204.42636 206.52082 208.36928
 210.00174 211.15321 211.38867 211.62313 211.56659 211.27805 210.91751 210.55397
 210.17743 209.89389 209.70835 209.57881 209.51327 209.85073 210.24320 210.63866
 211.43812 212.62258 213.87904 215.66850 217.60296 219.65242 221.75388 223.84334
 225.90980 228.00026 230.10372 232.21619 234.35165 236.53011 238.79257 241.16903
 243.79649 246.05395 248.06241 249.83387 251.25733 252.38679 253.21525 253.53772
 253.58118 253.36164 252.72810 251.68256 250.29502 248.46248 246.37794 244.21740
 242.01486 239.82532 237.65178 235.49724 233.36371 231.23717 229.26963 227.43309
 225.72255 224.20101 222.83747 221.61593 220.50439 219.47085 218.58131 217.72877
 216.97723 216.16370 215.26816 214.63862 214.09508 213.34808 211.58391 210.71329
 211.20401 212.88356 215.03149 216.81773 219.15636 223.30063 229.12325 234.17694
 237.98152 241.73221 245.50610 249.46841 253.67387 257.14832 259.71622 261.76324
 264.57559 267.44464 269.83331 271.65302 273.34198 275.07294 276.74600 278.43573
 280.17136 281.76752 283.22382 284.57886 285.76141 286.81110 287.77136 288.64578
 289.43481 290.14554 290.77045 291.60477
 366.78100 356.34117 345.77935 334.65152 323.06070 311.26087 299.13705 286.94622
 274.66440 262.56757 250.58275 239.88992 230.01810 221.12827 213.31645 206.32462
 200.16479 195.10897 191.69714 189.74532 188.78849 188.85867 189.69984 191.01402
 192.74519 194.84637 197.11554 199.48072 201.93189 204.41807 206.51224 208.36041
 209.99259 211.14376 211.37894 211.61311 211.55629 211.26746 210.90664 210.54281
 210.16599 209.88216 209.69634 209.56651 209.50069 209.83786 210.23003 210.62521
 211.42438 212.60856 213.86473 215.65391 217.58808 219.63726 221.73843 223.82761
 225.89378 227.98396 230.08713 232.19931 234.33448 236.51266 238.77483 241.15100
 243.77818 246.03535 248.04353 249.81470 251.23788 252.36705 253.19523 253.51740
 253.56058 253.34075 252.70693 251.66110 250.27328 248.44045 246.35562 244.19480
 241.99197 239.80215 237.62832 235.47350 233.33967 231.21285 229.24502 227.40820
 225.69737 224.17555 222.81172 221.58990 220.47807 219.44424 218.55442 217.70159
 216.94977 216.13594 215.24012 214.61029 214.06647 213.35356 211.66971 210.81819
 211.29097 212.96935 215.11566 216.88216 219.13225 223.23820 229.06471 234.09567
 237.88229 241.62453 245.40610 249.39143 253.62910 257.06448 259.59201 261.66110
 264.46695 267.33987 269.74158 271.56143 273.24393 274.97226 276.66125 278.36255
 280.09717 281.69193 283.14621 284.50177 285.68530 286.73468 287.69543 288.56845
 289.36182 290.07077 290.69443 291.53415
 366.78100 356.34083 345.77866 334.65048 323.05931 311.25914 299.13497 286.94380
 274.66163 262.56445 250.57928 239.88611 230.01394 221.12377 213.31160 206.31942
 200.15925 195.10308 191.69091 189.73874 188.78157 188.85139 189.69222 191.00605
 192.73688 194.83771 197.10654 199.47136 201.92219 204.40802 206.50185 208.34968
 209.98151 211.13233 211.36716 211.60099 211.54382 211.25465 210.89348 210.52930
 210.15213 209.86796 209.68179 209.55162 209.48545 209.82227 210.21410 210.60893
 211.40776 212.59159 213.84741 215.63624 217.57007 219.61890 221.71973 223.80856
 225.87438 227.96421 230.06704 232.17887 234.31370 236.49153 238.75335 241.12918
 243.75601 246.01284 248.02067 249.79150 251.21432 252.34315 253.17098 253.49281
 253.53564 253.31547 252.68129 251.63512 250.24695 248.41378 246.32861 244.16744
 241.96426 239.77409 237.59992 235.44475 233.31058 231.18341 229.21523 227.37806
 225.66689 224.14472 222.78055 221.55838 220.44620 219.41203 218.52186 217.66869
 216.91652 216.10234 215.20617 214.57600 214.03183 213.35510 211.75652 210.92264
 211.38565 213.05283 215.19810 216.94965 219.11388 223.18048 229.00507 234.00607
 237.77635 241.51355 245.30954 249.32152 253.58354 256.97980 259.46921 261.56085
 264.35419 267.22324 269.63699 271.46121 273.14816 274.88519 276.58810 278.29645
 280.03073 281.62219 283.07617 284.43179 285.61401 286.66437 287.62582 288.49982
 289.29233 290.00150 290.62772 291.46765
 366.78100 356.34048 345.77796 334.64944 323.05792 311.25739 299.13287 286.94135
 274.65883 262.56131 250.57579 239.88227 230.00975 221.11923 213.30670 206.31418
 200.15366 195.09714 191.68462 189.73210 188.77458 188.84406 189.68454 190.99801
 192.72849 194.82897 197.09745 199.46193 201.91241 204.39789 206.49137 208.33885
 209.97032 211.12080 211.35528 211.58876 211.53124 211.24172 210.88020 210.51568
 210.13815 209.85363 209.66711 209.53659 209.47007 209.80655 210.19803 210.59251
 211.39099 212.57446 213.82994 215.61842 217.55190 219.60038 221.70086 223.78934
 225.85482 227.94430 230.04677 232.15825 234.29273 236.47021 238.73169 241.10717
 243.73365 245.99013 247.99761 249.76808 251.19056 252.31904 253.14652 253.46800
 253.51048 253.28996 252.65544 251.60892 250.22039 248.38687 246.30135 244.13983
 241.93631 239.74579 237.57127 235.41575 233.28123 231.15370 229.18518 227.34766
 225.63614 224.11362 222.74910 221.52658 220.41406 219.37954 218.48901 217.63549
 216.88297 216.06845 215.17193 214.54141 213.99689 213.35555 211.84039 211.02698
 211.48354 213.14357 215.28009 217.00763 219.10890 223.12653 228.93982 233.90761
 237.66498 241.40126 245.21767 249.25861 253.53760 256.89526 259.35043 261.46515
 264.23715 267.09448 269.51715 271.35059 273.05478 274.80920 276.52640 278.23660
 279.97015 281.55798 283.01215 284.36884 285.55164 286.60178 287.56302 288.43759
 289.22839 289.93991 290.56696 291.40793
 366.78100 356.34014 345.77728 334.64842 323.05656 311.25569 299.13083 286.93897
 274.65611 262.55825 250.57239 239.87853 230.00567 221.11480 213.30194 206.30908
 200.14822 195.09136 191.67850 189.72564 188.76778 188.83691 189.67705 190.99019
 192.72033 194.82047 197.08861 199.45275 201.90289 204.38802 206.48116 208.32830
 209.95944 211.10958 211.34372 211.57686 211.51900 211.22913 210.86727 210.50241
 210.12455 209.83969 209.65283 209.52197 209.45511 209.79124 210.18238 210.57652
 211.37466 212.55780 213.81294 215.60108 217.53422 219.58235 221.68249 223.77063
 225.83577 227.92491 230.02705 232.13819 234.27233 236.44946 238.71060 241.08574
 243.71188 245.96802 247.97516 249.74530 251.16744 252.29557 253.12271 253.44385
 253.48599 253.26513 252.63027 251.58341 250.19455 248.36068 246.27482 244.11296
 241.90910 239.71824 237.54338 235.38752 233.25266 231.12479 229.15593 227.31807
 225.60621 224.08335 222.71849 221.49563 220.38277 219.34790 218.45704 217.60318
 216.85032 216.03546 215.13860 214.50774 213.96288 213.35539 211.92017 211.14217
 211.58496 213.21826 215.36526 217.06743 219.09988 223.08031 228.87648 233.80684
 237.55042 241.28767 245.12958 249.20100 253.49048 256.81189 259.23901 261.37994
 264.12155 266.95734 269.38449 271.22913 272.95779 274.73981 276.46753 278.17700
 279.91058 281.49707 282.95572 284.31122 285.49432 286.54465 287.50665 288.38095
 289.17313 289.88422 290.50974 291.35190
 366.78100 356.33927 345.77554 334.64580 323.05307 311.25134 299.12561 286.93288
 274.64914 262.55041 250.56368 239.86895 229.99522 221.10349 213.28975 206.29602
 200.13429 195.07656 191.66283 189.70909 188.75036 188.81863 189.65790 190.97017
 192.69943 194.79870 197.06597 199.42924 201.87851 204.36277 206.45504 208.30131
 209.93158 211.08085 211.31411 211.54638 211.48765 211.19692 210.83419 210.46846
 210.08972 209.80399 209.61626 209.48453 209.41680 209.75206 210.14233 210.53560
 211.33287 212.51514 213.76940 215.55667 217.48894 219.53621 221.63548 223.72274
 225.78701 227.87528 229.97655 232.08682 234.22009 236.39635 238.65662 241.03089
 243.65616 245.91143 247.91769 249.68696 251.10823 252.23550 253.06177 253.38203
 253.42330 253.20157 252.56584 251.51811 250.12837 248.29364 246.20691 244.04418
 241.83945 239.64772 237.47198 235.31525 233.17952 231.05079 229.08106 227.24232
 225.52959 224.00586 222.64013 221.41640 220.30266 219.26693 218.37520 217.52047
 216.76674 215.95100 215.05327 214.42154 213.87581 213.32715 212.03087 211.24666
 211.68140 213.28822 215.43936 217.13138 219.11182 223.04182 228.80510 233.69943
 237.43373 241.17607 245.04855 249.15103 253.44237 256.72974 259.13559 261.30389
 264.00696 266.81183 269.23795 271.09604 272.85764 274.67401 276.41235 278.11789
 279.84991 281.43729 282.90268 284.25912 285.44296 286.49271 287.45404 288.33069
 289.12238 289.83478 290.46201 291.30322
 366.78100 356.33837 345.77373 334.64310 323.04947 311.24683 299.12020 286.92657
 274.64193 262.54230 250.55466 239.85903 229.98440 221.09176 213.27713 206.28250
 200.11986 195.06123 191.64660 189.69196 188.73233 188.79970 189.63806 190.94943
 192.67779 194.77616 197.04253 199.40489 201.85326 204.33663 206.42799 208.27336
 209.90273 211.05109 211.28346 211.51483 211.45519 211.16356 210.79992 210.43329
 210.05366 209.76702 209.57839 209.44576 209.37712 209.71149 210.10086 210.49322
 211.28959 212.47096 213.72432 215.51069 217.44206 219.48842 221.58679 223.67315
 225.73652 227.82389 229.92425 232.03362 234.16599 236.34135 238.60072 240.97409
 243.59845 245.85282 247.85819 249.62655 251.04692 252.17328 252.99865 253.31802
 253.35838 253.13575 252.49912 251.45048 250.05985 248.22422 246.13658 243.97295
 241.76732 239.57468 237.39805 235.24041 233.10378 230.97415 229.00351 227.16388
 225.45025 223.92561 222.55898 221.33435 220.21971 219.18308 218.29045 217.43481
 216.68018 215.86355 214.96491 214.33228 213.78564 213.29536 212.13702 211.37526
 211.73579 213.36186 215.55089 217.19460 219.12048 223.00208 228.74210 233.59798
 237.31938 241.06689 244.97211 249.10417 253.38860 256.63843 259.02676 261.22626
 263.88885 266.65567 269.08072 270.95767 272.76074 274.61972 276.36713 278.06445
 279.79211 281.37823 282.85495 284.21277 285.39603 286.44638 287.40802 288.28345
 289.07721 289.78641 290.41763 291.25949
 366.78100 356.33810 345.77319 334.64229 323.04838 311.24548 299.11857 286.92467
 274.63976 262.53986 250.55195 239.85605 229.98115 221.08824 213.27334 206.27843
 200.11553 195.05662 191.64172 189.68681 188.72691 188.79400 189.63210 190.94320
 192.67129 194.76939 197.03548 199.39758 201.84567 204.32877 206.41986 208.26496
 209.89405 211.04215 211.27425 211.50534 211.44544 211.15353 210.78963 210.42272
 210.04282 209.75591 209.56701 209.43410 209.36520 209.69930 210.08839 210.48049
 211.27658 212.45768 213.71077 215.49687 217.42796 219.47406 221.57215 223.65825
 225.72135 227.80844 229.90854 232.01763 234.14973 236.32482 238.58392 240.95701
 243.58111 245.83520 247.84030 249.60840 251.02849 252.15459 252.97968 253.29878
 253.33887 253.11597 252.47906 251.43016 250.03925 248.20335 246.11545 243.95154
 241.74564 239.55273 237.37583 235.21792 233.08102 230.95111 228.98021 227.14030
 225.42640 223.90149 222.53459 221.30969 220.19478 219.15788 218.26497 217.40907
 216.65416 215.83726 214.93835 214.30545 213.75854 213.29691 212.20624 211.47084
 211.89050 213.42159 215.62462 217.27354 219.14140 222.97406 228.65698 233.47160
 237.18741 240.94814 244.89452 249.05884 253.33055 256.54327 258.92139 261.15643
 263.77570 266.50070 268.92365 270.82343 272.67145 274.57529 276.33182 278.01715
 279.73813 281.32233 282.80945 284.16821 285.35138 286.40198 287.36414 288.23837
 289.03275 289.74432 290.37292 291.21945
 366.78100 356.33733 345.77167 334.64000 323.04533 311.24167 299.11400 286.91934
 274.63367 262.53300 250.54434 239.84767 229.97200 221.07834 213.26267 206.26701
 200.10334 195.04367 191.62801 189.67234 188.71167 188.77801 189.61534 190.92568
 192.65301 194.75034 197.01568 199.37701 201.82434 204.30668 206.39701 208.24135
 209.86968 211.01701 211.24835 211.47868 211.41801 211.12535 210.76068 210.39302
 210.01235 209.72468 209.53502 209.40135 209.33168 209.66502 210.05335 210.44469
 211.24002 212.42035 213.67269 215.45802 217.38835 219.43369 221.53102 223.61636
 225.67869 227.76502 229.86436 231.97269 234.10402 236.27836 238.53669 240.90903
 243.53236 245.78569 247.79003 249.55736 250.97669 252.10203 252.92636 253.24469
 253.28403 253.06036 252.42270 251.37303 249.98136 248.14470 246.05603 243.89136
 241.68470 239.49103 237.31337 235.15470 233.01703 230.88637 228.91470 227.07403
 225.35937 223.83370 222.46604 221.24037 220.12470 219.08704 218.19337 217.33670
 216.58104 215.76337 214.86371 214.23004 213.68237 213.27396 212.30904 211.54193
 211.95224 213.64403 215.75282 217.27968 219.11815 222.88023 228.57120 233.35384
 237.05913 240.83998 244.83109 249.02411 253.27719 256.45700 258.83081 261.10065
 263.67181 266.34781 268.76700 270.69009 272.58176 274.52994 276.29233 277.96582
 279.68161 281.26221 282.76849 284.12708 285.31113 286.36258 287.32339 288.19833
 288.99319 289.70377 290.33633 291.18234
 366.78100 356.33651 345.77002 334.63753 323.04204 311.23756 299.10907 286.91358
 274.62709 262.52560 250.53611 239.83862 229.96213 221.06764 213.25116 206.25467
 200.09018 195.02969 191.61320 189.65671 188.69522 188.76073 189.59724 190.90676
 192.63327 194.72978 196.99429 199.35480 201.80131 204.28282 206.37233 208.21585
 209.84336 210.98987 211.22038 211.44989 211.38840 211.09491 210.72942 210.36093
 209.97945 209.69096 209.50047 209.36598 209.29549 209.62800 210.01551 210.40602
 211.20053 212.38005 213.63156 215.41607 217.34558 219.39009 221.48660 223.57111
 225.63262 227.71813 229.81665 231.92416 234.05467 236.22818 238.48569 240.85720
 243.47971 245.73222 247.73573 249.50225 250.92076 252.04527 252.86878 253.18629
 253.22480 253.00031 252.36182 251.31133 249.91885 248.08136 245.99187 243.82638
 241.61889 239.42440 237.24591 235.08642 232.94793 230.81645 228.84396 227.00247
 225.28698 223.76049 222.39200 221.16551 220.04902 219.01054 218.11605 217.25856
 216.50207 215.68358 214.78309 214.14860 213.60011 213.24597 212.40926 211.65652
 211.98273 213.81174 215.88486 217.30566 219.09615 222.78871 228.49879 233.24858
 236.94046 240.74524 244.78020 248.99680 253.22313 256.37045 258.74164 261.04547
 263.56906 266.19373 268.60468 270.55273 272.48871 274.48206 276.24933 277.90891
 279.61975 281.20023 282.72931 284.09213 285.27466 286.32584 287.28796 288.16360
 288.95712 289.67010 290.30017 291.15210
 366.78100 356.33590 345.76880 334.63569 323.03959 311.23449 299.10539 286.90929
 274.62218 262.52008 250.52998 239.83188 229.95477 221.05967 213.24257 206.24547
 200.08037 195.01926 191.60216 189.64506 188.68296 188.74786 189.58375 190.89265
 192.61855 194.71445 196.97834 199.33824 201.78414 204.26504 206.35394 208.19683
 209.82373 210.96963 211.19953 211.42843 211.36632 211.07222 210.70612 210.33702
 209.95492 209.66581 209.47471 209.33961 209.26851 209.60040 209.98730 210.37720
 211.17110 212.35000 213.60089 215.38479 217.31369 219.35759 221.45349 223.53738
 225.59828 227.68318 229.78108 231.88797 234.01787 236.19077 238.44767 240.81857
 243.44046 245.69236 247.69526 249.46116 250.87906 252.00295 252.82585 253.14275
 253.18065 252.95555 252.31644 251.26534 249.87224 248.03414 245.94403 243.77793
 241.56983 239.37473 237.19563 235.03552 232.89642 230.76432 228.79122 226.94912
 225.23301 223.70591 222.33681 221.10971 219.99260 218.95350 218.05840 217.20030
 216.44320 215.62409 214.72299 214.08789 213.53879 213.22771 212.49275 211.77490
 212.05696 213.93259 215.98477 217.34595 219.09550 222.71085 228.43335 233.14471
 236.82660 240.65683 244.73570 248.97168 253.16368 256.27698 258.64645 260.98480
 263.46371 266.03760 268.44135 270.41565 272.39941 274.43924 276.21329 277.85648
 279.56201 281.15195 282.68762 284.05255 285.23782 286.28912 287.25110 288.12692
 288.92096 289.63455 290.26468 291.11716
 366.78100 356.33532 345.76764 334.63396 323.03728 311.23160 299.10192 286.90523
 274.61755 262.51487 250.52419 239.82551 229.94783 221.05215 213.23447 206.23679
 200.07111 195.00943 191.59175 189.63407 188.67139 188.73570 189.57102 190.87934
 192.60466 194.69998 196.96330 199.32262 201.76794 204.24826 206.33658 208.17890
 209.80522 210.95054 211.17986 211.40817 211.34549 211.05081 210.68413 210.31445
 209.93177 209.64209 209.45041 209.31473 209.24305 209.57437 209.96069 210.35001
 211.14332 212.32164 213.57196 215.35528 217.28360 219.32692 221.42224 223.50556
 225.56588 227.65020 229.74752 231.85384 233.98316 236.15548 238.41179 240.78211
 243.40343 245.65475 247.65707 249.42239 250.83971 251.96303 252.78535 253.10167
 253.13899 252.91331 252.27363 251.22194 249.82826 247.98958 245.89890 243.73222
 241.52354 239.32786 237.14818 234.98750 232.84782 230.71514 228.74146 226.89878
 225.18210 223.65441 222.28473 221.05705 219.93937 218.89969 218.00401 217.14533
 216.38765 215.56797 214.66629 214.03061 213.48093 213.21095 212.57309 211.88264
 212.16637 214.03960 216.05258 217.38664 219.10767 222.64688 228.36485 233.04013
 236.71619 240.57585 244.69676 248.94852 253.09746 256.17511 258.54480 260.91757
 263.35745 265.88449 268.28387 270.28818 272.31870 274.40356 276.18375 277.81094
 279.50751 281.10617 282.64502 284.01038 285.19641 286.24921 287.21130 288.08682
 288.88358 289.59653 290.22720 291.08282
 366.78100 356.33468 345.76637 334.63205 323.03473 311.22842 299.09810 286.90079
 274.61247 262.50915 250.51784 239.81852 229.94020 221.04389 213.22557 206.22725
 200.06094 194.99862 191.58030 189.62199 188.65867 188.72236 189.55704 190.86472
 192.58941 194.68409 196.94677 199.30546 201.75014 204.22982 206.31751 208.15919
 209.78487 210.92956 211.15824 211.38593 211.32261 211.02729 210.65998 210.28966
 209.90634 209.61603 209.42371 209.28739 209.21508 209.54576 209.93144 210.32013
 211.11281 212.29050 213.54018 215.32286 217.25055 219.29323 221.38791 223.47060
 225.53028 227.61396 229.71065 231.81633 233.94502 236.11670 238.37238 240.74207
 243.36275 245.61343 247.61512 249.37980 250.79648 251.91917 252.74085 253.05653
 253.09322 252.86690 252.22659 251.17427 249.77995 247.94064 245.84932 243.68200
 241.47269 239.27637 237.09605 234.93474 232.79442 230.66110 228.68679 226.84347
 225.12616 223.59784 222.22752 220.99921 219.88089 218.84057 217.94426 217.08494
 216.32662 215.50631 214.60399 213.96767 213.41736 213.19054 212.65463 211.99190
 212.28174 214.14330 216.10829 217.42317 219.11752 222.59810 228.29378 232.93726
 236.61295 240.50259 244.66351 248.92589 253.02467 256.06458 258.43567 260.84369
 263.25299 265.73837 268.13696 270.17389 272.24728 274.37152 276.15512 277.76758
 279.45172 281.06122 282.60278 283.96918 285.15549 286.20865 287.17181 288.04935
 288.84363 289.55679 290.19025 291.04663
 366.78100 356.33395 345.76489 334.62984 323.03179 311.22473 299.09368 286.89563
 274.60657 262.50252 250.51047 239.81041 229.93136 221.03431 213.21525 206.21620
 200.04915 194.98609 191.56704 189.60799 188.64393 188.70688 189.54083 190.84777
 192.57172 194.66567 196.92762 199.28556 201.72951 204.20846 206.29540 208.13635
 209.76130 210.90524 211.13319 211.36014 211.29608 211.00003 210.63198 210.26092
 209.87687 209.58582 209.39276 209.25571 209.18266 209.51260 209.89755 210.28550
 211.07744 212.25439 213.50334 215.28528 217.21223 219.25418 221.34812 223.43007
 225.48902 227.57196 229.66791 231.77286 233.90080 236.07175 238.32670 240.69564
 243.31559 245.56554 247.56648 249.33043 250.74638 251.86832 252.68927 253.00422
 253.04017 252.81311 252.17206 251.11901 249.72395 247.88390 245.79185 243.62379
 241.41374 239.21669 237.03563 234.87358 232.73253 230.59847 228.62342 226.77937
 225.06131 223.53226 222.16121 220.93215 219.81310 218.77205 217.87499 217.01494
 216.25589 215.43483 214.53178 213.89473 213.34367 213.16406 212.73970 212.11003
 212.39256 214.24239 216.15871 217.45418 219.13092 222.56073 228.22504 232.83919
 236.51775 240.43765 244.63498 248.90178 252.94179 255.94267 258.31808 260.76279
 263.15164 265.60355 268.00330 270.07587 272.18622 274.34064 276.12521 277.72449
 279.39597 281.01697 282.55951 283.92700 285.11441 286.16797 287.13028 288.00858
 288.80347 289.51724 290.14807 291.01007
 366.78100 356.33312 345.76324 334.62736 323.02848 311.22060 299.08872 286.88985
 274.59997 262.49509 250.50221 239.80133 229.92145 221.02357 213.20369 206.20381
 200.03593 194.97205 191.55217 189.59229 188.62742 188.68954 189.52266 190.82878
 192.55190 194.64502 196.90614 199.26326 201.70638 204.18450 206.27062 208.11074
 209.73486 210.87799 211.10511 211.33123 211.26635 210.96947 210.60059 210.22871
 209.84383 209.55195 209.35807 209.22019 209.14631 209.47544 209.85956 210.24668
 211.03780 212.21392 213.46204 215.24316 217.16928 219.21040 221.30352 223.38464
 225.44276 227.52488 229.62001 231.72413 233.85125 236.02137 238.27549 240.64361
 243.26273 245.51185 247.51197 249.27509 250.69021 251.81133 252.63145 252.94558
 252.98070 252.75282 252.11094 251.05706 249.66118 247.82030 245.72742 243.55854
 241.34766 239.14978 236.96790 234.80502 232.66315 230.52827 228.55239 226.70751
 224.98863 223.45875 222.08687 220.85699 219.73711 218.69523 217.79735 216.93647
 216.17659 215.35472 214.45084 213.81296 213.26108 213.13214 212.82748 212.23860
 212.50201 214.33315 216.19514 217.47652 219.15068 222.52715 228.16205 232.74744
 236.43216 240.38173 244.61011 248.87399 252.84888 255.81020 258.19360 260.67545
 263.05353 265.48013 267.88318 269.99094 272.13306 274.31100 276.09369 277.68204
 279.34204 280.97247 282.51614 283.88538 285.07199 286.12708 287.08917 287.96802
 288.76196 289.47803 290.10950 290.96979
 366.78100 356.33222 345.76144 334.62466 323.02488 311.21609 299.08331 286.88353
 274.59275 262.48697 250.49319 239.79141 229.91063 221.01185 213.19107 206.19028
 200.02150 194.95672 191.53594 189.57516 188.60938 188.67060 189.50282 190.80804
 192.53026 194.62247 196.88269 199.23891 201.68113 204.15835 206.24357 208.08279
 209.70601 210.84823 211.07445 211.29966 211.23388 210.93610 210.56632 210.19354
 209.80776 209.51498 209.32020 209.18142 209.10664 209.43485 209.81807 210.20429
 210.99451 212.16973 213.41695 215.19717 217.12239 219.16261 221.25483 223.33504
 225.39226 227.47348 229.56770 231.67092 233.79714 235.96636 238.21958 240.58680
 243.20502 245.45323 247.45245 249.21467 250.62889 251.74911 252.56833 252.88155
 252.91577 252.68699 252.04420 250.98942 249.59264 247.75086 245.65708 243.48730
 241.27552 239.07674 236.89396 234.73018 232.58739 230.45161 228.47483 226.62905
 224.90927 223.37849 222.00571 220.77493 219.65415 218.61137 217.71258 216.85080
 216.09002 215.26724 214.36246 213.72368 213.17090 213.09569 212.91800 212.37712
 212.61581 214.40935 216.20636 217.49370 219.17841 222.49818 228.10481 232.66489
 236.35817 240.33559 244.58832 248.84247 252.74673 255.67105 258.06458 260.57944
 262.95526 265.36520 267.77652 269.91971 272.08887 274.28394 276.06549 277.64203
 279.28888 280.92899 282.47458 283.84210 285.03015 286.08429 287.04797 287.92532
 288.72284 289.43512 290.06943 290.93195
 366.78100 356.33129 345.75958 334.62187 323.02117 311.21146 299.07775 286.87704
 274.58533 262.47862 250.48391 239.78121 229.89950 220.99979 213.17808 206.17637
 200.00666 194.94095 191.51925 189.55754 188.59083 188.65112 189.48241 190.78670
 192.50799 194.59929 196.85858 199.21387 201.65516 204.13145 206.21574 208.05403
 209.67632 210.81762 211.04291 211.26720 211.20049 210.90178 210.53107 210.15736
 209.77066 209.47695 209.28124 209.14153 209.06582 209.39311 209.77540 210.16070
 210.94999 212.12428 213.37057 215.14986 217.07415 219.11344 221.20474 223.28403
 225.34032 227.42061 229.51390 231.61619 233.74148 235.90978 238.16207 240.52836
 243.14565 245.39294 247.39123 249.15252 250.56582 251.68511 252.50340 252.81569
 252.84898 252.61927 251.97556 250.91986 249.52215 247.67944 245.58473 243.41402
 241.20131 239.00160 236.81790 234.65319 232.50948 230.37277 228.39506 226.54835
 224.82764 223.29593 221.92223 220.69052 219.56881 218.52510 217.62539 216.76268
 216.00097 215.17727 214.27156 213.63185 213.07814 213.05753 213.00885 212.52562
 212.73465 214.47214 216.19218 217.49991 219.21039 222.47299 228.05376 232.59373
 236.29607 240.30064 244.57233 248.81004 252.63873 255.52798 257.92975 260.47009
 262.85004 265.25464 267.67950 269.86053 272.05627 274.26254 276.04285 277.60843
 279.24173 280.88669 282.43240 283.80087 284.98785 286.04236 287.00626 287.88376
 288.67999 289.39630 290.02896 290.89026
 366.78100 356.33036 345.75772 334.61907 323.01743 311.20679 299.07215 286.87050
 274.57786 262.47022 250.47458 239.77093 229.88829 220.98765 213.16501 206.16237
 199.99172 194.92508 191.50244 189.53980 188.57215 188.63151 189.46187 190.76523
 192.48559 194.57594 196.83430 199.18866 201.62902 204.10437 206.18773 208.02509
 209.64645 210.78680 211.01116 211.23452 211.16688 210.86724 210.49559 210.12095
 209.73331 209.43867 209.24202 209.10138 209.02474 209.35110 209.73245 210.11681
 210.90517 212.07853 213.32389 215.10224 217.02560 219.06396 221.15432 223.23267
 225.28803 227.36739 229.45975 231.56111 233.68546 235.85282 238.10418 240.46954
 243.08589 245.33225 247.32961 249.08997 250.50232 251.62068 252.43804 252.74940
 252.78176 252.55111 251.90647 250.84983 249.45119 247.60754 245.51190 243.34026
 241.12662 238.92598 236.74133 234.57569 232.43105 230.29341 228.31476 226.46712
 224.74548 223.21284 221.83819 220.60555 219.48291 218.43827 217.53763 216.67398
 215.91134 215.08670 214.18006 213.53941 212.98477 213.01961 213.10188 212.67538
 212.86484 214.51967 216.14919 217.50352 219.24332 222.45639 228.01013 232.53587
 236.24750 240.27797 244.56393 248.77837 252.52731 255.37952 257.78519 260.34308
 262.73392 265.14474 267.59076 269.81354 272.03549 274.24686 276.02246 277.57956
 279.20544 280.84406 282.39053 283.75830 284.94693 286.00113 286.96515 287.84299
 288.63940 289.35513 289.98691 290.85110
 366.78100 356.32962 345.75624 334.61686 323.01449 311.20311 299.06773 286.86535
 274.57197 262.46359 250.46722 239.76284 229.87946 220.97808 213.15470 206.15132
 199.97995 194.91257 191.48919 189.52581 188.55743 188.61605 189.44568 190.74830
 192.46792 194.55754 196.81516 199.16878 201.60841 204.08303 206.16565 208.00227
 209.62289 210.76251 210.98614 211.20876 211.14038 210.84000 210.46762 210.09224
 209.70387 209.40849 209.21111 209.06973 208.99235 209.31797 209.69860 210.08222
 210.86984 212.04246 213.28708 215.06470 216.98732 219.02495 221.11457 223.19219
 225.24681 227.32543 229.41705 231.51768 233.64130 235.80792 238.05854 240.42316
 243.03878 245.28441 247.28103 249.04065 250.45227 251.56989 252.38651 252.69714
 252.72876 252.49738 251.85200 250.79462 249.39524 247.55087 245.45449 243.28211
 241.06773 238.86635 236.68097 234.51460 232.36922 230.23084 228.25146 226.40308
 224.68070 223.14733 221.77195 220.53857 219.41519 218.36981 217.46843 216.60406
 215.84068 215.01530 214.10792 213.46654 212.91116 212.99252 213.18477 212.84425
 212.98183 214.54880 216.10675 217.50061 219.27563 222.44339 227.97813 232.49226
 236.21181 240.26820 244.56328 248.74886 252.41283 255.22484 257.63052 260.19934
 262.60611 265.03387 267.50775 269.77444 272.02127 274.23138 275.99652 277.54370
 279.17133 280.80377 282.35077 283.71875 284.90695 285.96115 286.92685 287.80420
 288.59912 289.31683 289.94873 290.81192
 366.78100 356.32820 345.75340 334.61260 323.00880 311.19599 299.05919 286.85539
 274.56059 262.45079 250.45299 239.74719 229.86239 220.95958 213.13478 206.12998
 199.95718 194.88838 191.46358 189.49878 188.52898 188.58617 189.41437 190.71557
 192.43377 194.52197 196.77817 199.13037 201.56857 204.04176 206.12296 207.95816
 209.57736 210.71556 210.93776 211.15896 211.08916 210.78735 210.41355 210.03675
 209.64695 209.35015 209.15135 209.00855 208.92975 209.25394 209.63314 210.01534
 210.80154 211.97274 213.21594 214.99214 216.91334 218.94953 221.03773 223.11393
 225.16713 227.24433 229.33453 231.43373 233.55593 235.72112 237.97032 240.33352
 242.94772 245.19192 247.18712 248.94532 250.35552 251.47171 252.28691 252.59611
 252.62631 252.39351 251.74671 250.68791 249.28711 247.44130 245.34350 243.16970
 240.95390 238.75110 236.56430 234.39650 232.24970 230.10989 228.12909 226.27929
 224.55549 223.02069 221.64389 220.40909 219.28429 218.23748 217.33468 216.46888
 215.70408 214.87728 213.96848 213.32568 212.76888 212.93245 213.31891 212.96889
 213.12210 214.58487 216.01744 217.48666 219.31564 222.43610 227.94879 232.45695
 236.18849 240.27185 244.57335 248.72429 252.29961 255.06914 257.47119 260.04312
 262.46860 264.92065 267.42737 269.73865 272.00803 274.21109 275.96170 277.50098
 279.11957 280.77695 282.31735 283.68466 284.87207 285.92511 286.89044 287.76828
 288.56500 289.28055 289.91302 290.77502
 366.78100 356.32715 345.75131 334.60946 323.00462 311.19077 299.05293 286.84808
 274.55223 262.44139 250.44254 239.73570 229.84985 220.94601 213.12016 206.11431
 199.94047 194.87062 191.44478 189.47893 188.50809 188.56424 189.39139 190.69155
 192.40870 194.49586 196.75101 199.10217 201.53932 204.01147 206.09163 207.92578
 209.54394 210.68109 210.90225 211.12240 211.05155 210.74871 210.37386 209.99602
 209.60517 209.30733 209.10748 208.96363 208.88379 209.20694 209.58510 209.96625
 210.75141 211.92156 213.16371 214.93887 216.85902 218.89418 220.98133 223.05649
 225.10864 227.18479 229.27395 231.37210 233.49326 235.65741 237.90557 240.26772
 242.88087 245.12403 247.11818 248.87534 250.28449 251.39965 252.21380 252.52195
 252.55111 252.31726 251.66942 250.60957 249.20773 247.36088 245.26203 243.08719
 240.87034 238.66650 236.47865 234.30981 232.16196 230.02111 228.03927 226.18842
 224.46358 222.92773 221.54989 220.31404 219.18819 218.14035 217.23650 216.36966
 215.60381 214.77597 213.86612 213.22227 212.66443 212.89076 213.42551 213.17390
 213.19078 214.55733 215.96086 217.47519 219.34238 222.44432 227.94006 232.44225
 236.18535 240.29344 244.59482 248.70232 252.18233 254.90282 257.29688 259.86600
 262.31406 264.79980 267.34674 269.70602 271.99832 274.19449 275.93152 277.46216
 279.05475 280.75513 282.29440 283.65564 284.84152 285.89401 286.85754 287.73538
 288.53156 289.24713 289.87872 290.74005
 366.78100 356.32786 345.75272 334.61158 323.00744 311.19430 299.05716 286.85301
 274.55787 262.44773 250.44959 239.74345 229.85831 220.95517 213.13003 206.12489
 199.95175 194.88261 191.45747 189.49233 188.52218 188.57904 189.40690 190.70776
 192.42562 194.51348 196.76934 199.12120 201.55906 204.03192 206.11278 207.94764
 209.56650 210.70436 210.92621 211.14707 211.07693 210.77479 210.40065 210.02351
 209.63337 209.33623 209.13709 208.99395 208.91481 209.23867 209.61753 209.99938
 210.78524 211.95610 213.19896 214.97482 216.89568 218.93154 221.01940 223.09526
 225.14812 227.22498 229.31484 231.41370 233.53555 235.70041 237.94927 240.31213
 242.92599 245.16985 247.16471 248.92257 250.33243 251.44829 252.26315 252.57201
 252.60187 252.36872 251.72158 250.66244 249.26130 247.41516 245.31702 243.14288
 240.92674 238.72360 236.53646 234.36832 232.22118 230.08104 228.09989 226.24975
 224.52561 222.99047 221.61333 220.37819 219.25305 218.20591 217.30277 216.43663
 215.67149 214.84435 213.93521 213.29207 212.73492 212.93565 213.40987 213.47250
 213.34351 214.45235 215.79611 217.49011 219.45892 222.45251 227.92998 232.43227
 236.18620 240.31920 244.61354 248.66707 252.04320 254.71002 257.09799 259.66840
 262.14761 264.67963 267.27469 269.68481 272.00079 274.18820 275.91406 277.43527
 279.00562 280.72937 282.26819 283.62927 284.81268 285.86520 286.82620 287.70462
 288.50168 289.21460 289.84744 290.70361
 366.78100 356.32692 345.75084 334.60876 323.00368 311.18960 299.05152 286.84644
 274.55036 262.43928 250.44019 239.73311 229.84703 220.94295 213.11687 206.11079
 199.93671 194.86663 191.44055 189.47447 188.50339 188.55931 189.38623 190.68615
 192.40307 194.48999 196.74491 199.09583 201.53274 204.00466 206.08458 207.91850
 209.53642 210.67334 210.89426 211.11418 211.04310 210.74002 210.36494 209.98686
 209.59578 209.29770 209.09762 208.95354 208.87346 209.19638 209.57429 209.95521
 210.74013 211.91005 213.15197 214.92689 216.84681 218.88173 220.96865 223.04357
 225.09549 227.17141 229.26033 231.35825 233.47917 235.64309 237.89101 240.25293
 242.86585 245.10876 247.10268 248.85960 250.26852 251.38344 252.19736 252.50528
 252.53420 252.30012 251.65204 250.59196 249.18988 247.34280 245.24372 243.06864
 240.85156 238.64748 236.45940 234.29031 232.14223 230.00115 228.01907 226.16799
 224.44291 222.90683 221.52875 220.29267 219.16659 218.11851 217.21443 216.34735
 215.58127 214.75319 213.84311 213.19903 212.64095 212.90218 213.51935 213.68324
 213.41861 214.37076 215.69957 217.53400 219.57393 222.47461 227.91664 232.41847
 236.18742 240.34595 244.62624 248.61691 251.88582 254.50099 256.89056 259.46716
 261.98599 264.57181 267.21713 269.67902 272.01328 274.18628 275.89908 277.41092
 278.98068 280.69489 282.23630 283.59863 284.78207 285.83533 286.79739 287.67496
 288.47171 289.18607 289.81775 290.67648
 366.78100 356.32552 345.74804 334.60456 322.99808 311.18261 299.04313 286.83665
 274.53917 262.42669 250.42621 239.71773 229.83025 220.92477 213.09730 206.08982
 199.91434 194.84286 191.41538 189.44790 188.47542 188.52994 189.35547 190.65399
 192.36951 194.45503 196.70855 199.05807 201.49359 203.96411 206.04263 207.87516
 209.49168 210.62720 210.84672 211.06524 210.99276 210.68828 210.31180 209.93232
 209.53985 209.24037 209.03889 208.89341 208.81193 209.13345 209.50997 209.88949
 210.67301 211.84154 213.08206 214.85558 216.77410 218.80762 220.89314 222.96666
 225.01718 227.09170 229.17923 231.27575 233.39527 235.55779 237.80431 240.16483
 242.77635 245.01787 247.01040 248.76592 250.17344 251.28696 252.09948 252.40600
 252.43352 252.19804 251.54856 250.48709 249.08361 247.23513 245.13465 242.95817
 240.73969 238.53421 236.34473 234.17425 232.02478 229.88230 227.89882 226.04634
 224.31986 222.78238 221.40290 220.16542 219.03794 217.98847 217.08299 216.21451
 215.44703 214.61755 213.70607 213.06059 212.50111 212.84856 213.66943 213.82054
 213.48669 214.35475 215.68199 217.55687 219.62520 222.50174 227.89209 232.39601
 236.18692 240.37282 244.63417 248.55695 251.72137 254.29297 256.68942 259.27194
 261.83328 264.47455 267.17014 269.67838 272.02527 274.17819 275.87363 277.37778
 278.94101 280.66931 282.21014 283.57190 284.75574 285.80615 286.76950 287.64502
 288.44232 289.15787 289.78632 290.64258
 366.78100 356.32483 345.74666 334.60249 322.99532 311.17914 299.03897 286.83180
 274.53363 262.42046 250.41929 239.71012 229.82195 220.91578 213.08760 206.07943
 199.90326 194.83109 191.40292 189.43475 188.46158 188.51541 189.34023 190.63806
 192.35289 194.43772 196.69055 199.03938 201.47421 203.94404 206.02187 207.85369
 209.46952 210.60435 210.82318 211.04101 210.96784 210.66267 210.28550 209.90533
 209.51215 209.21198 209.00981 208.86364 208.78147 209.10230 209.47813 209.85696
 210.63978 211.80761 213.04744 214.82027 216.73810 218.77093 220.85576 222.92859
 224.97842 227.05224 229.13907 231.23490 233.35373 235.51556 237.76139 240.12122
 242.73205 244.97288 246.96470 248.71953 250.12636 251.23919 252.05102 252.35685
 252.38368 252.14751 251.49733 250.43516 249.03099 247.18182 245.08065 242.90348
 240.68431 238.47814 236.28797 234.11679 231.96662 229.82345 227.83928 225.98611
 224.25894 222.72077 221.34060 220.10243 218.97425 217.92408 217.01791 216.14874
 215.38057 214.55040 213.63823 212.99206 212.43188 212.83342 213.78210 213.94305
 213.58998 214.36841 215.67657 217.54594 219.64374 222.53172 227.85994 232.37399
 236.19144 240.40405 244.64247 248.49347 251.55736 254.08949 256.49329 259.08066
 261.68472 264.38226 267.12613 269.67447 272.02963 274.16113 275.83850 277.33896
 278.91074 280.63754 282.17990 283.54269 284.72583 285.77637 286.73984 287.61829
 288.41226 289.12729 289.75787 290.60904
 366.78100 356.32488 345.74675 334.60263 322.99550 311.17938 299.03925 286.83213
 274.53400 262.42088 250.41976 239.71063 229.82251 220.91638 213.08826 206.08013
 199.90401 194.83188 191.40376 189.43564 188.46251 188.51639 189.34126 190.63914
 192.35401 194.43889 196.69176 199.04064 201.47552 203.94539 206.02327 207.85514
 209.47102 210.60589 210.82477 211.04264 210.96952 210.66439 210.28727 209.90715
 209.51402 209.21390 209.01177 208.86565 208.78352 209.10440 209.48027 209.85915
 210.64203 211.80990 213.04978 214.82265 216.74053 218.77340 220.85828 222.93115
 224.98103 227.05491 229.14178 231.23766 233.35653 235.51841 237.76428 240.12416
 242.73503 244.97591 246.96779 248.72266 250.12954 251.24241 252.05429 252.36016
 252.38704 252.15091 251.50079 250.43867 249.03454 247.18542 245.08429 242.90717
 240.68804 238.48192 236.29179 234.12067 231.97055 229.82742 227.84330 225.99017
 224.26305 222.72492 221.34480 220.10667 218.97855 217.92843 217.02230 216.15318
 215.38505 214.55493 213.64280 212.99668 212.43655 212.85793 213.85347 214.07016
 213.71249 214.39401 215.66698 217.51981 219.65434 222.56245 227.82666 232.35936
 236.20100 240.43768 244.64778 248.42314 251.38882 253.88336 256.29572 258.88889
 261.53696 264.29114 267.08060 269.66498 272.02615 274.13736 275.79813 277.29843
 278.88589 280.60507 282.14868 283.51276 284.69650 285.74817 286.71246 287.58884
 288.38419 289.09869 289.72629 290.57928
 366.78100 356.32533 345.74767 334.60400 322.99734 311.18167 299.04200 286.83534
 274.53767 262.42501 250.42434 239.71567 229.82801 220.92234 213.09468 206.08701
 199.91135 194.83968 191.41201 189.44435 188.47168 188.52602 189.35135 190.64968
 192.36502 194.45035 196.70369 199.05302 201.48835 203.95869 206.03702 207.86936
 209.48569 210.62102 210.84036 211.05869 210.98603 210.68136 210.30469 209.92503
 209.53236 209.23270 209.03103 208.88536 208.80370 209.12503 209.50137 209.88070
 210.66404 211.83237 213.07270 214.84604 216.76437 218.79771 220.88304 222.95637
 225.00671 227.08104 229.16838 231.26471 233.38404 235.54638 237.79271 240.15305
 242.76438 245.00571 246.99805 248.75338 250.16072 251.27405 252.08638 252.39272
 252.42005 252.18439 251.53472 250.47305 249.06939 247.22072 245.12006 242.94339
 240.72473 238.51906 236.32939 234.15873 232.00906 229.86640 227.88273 226.03006
 224.30340 222.76573 221.38607 220.14840 219.02073 217.97107 217.06540 216.19674
 215.42907 214.59940 213.68774 213.04207 212.48241 212.90527 213.90436 214.19339
 213.84317 214.43546 215.66600 217.49542 219.65952 222.58907 227.79424 232.34918
 236.21320 240.46823 244.64401 248.33850 251.20883 253.66922 256.09402 258.69717
 261.39151 264.20242 267.03445 269.64996 272.01721 274.11209 275.76328 277.26819
 278.88104 280.55923 282.10715 283.47495 284.66113 285.71255 286.67429 287.55280
 288.34686 289.06116 289.69034 290.53409
 366.78100 356.32595 345.74889 334.60584 322.99979 311.18474 299.04568 286.83963
 274.54258 262.43053 250.43047 239.72242 229.83537 220.93032 213.10326 206.09621
 199.92116 194.85010 191.42305 189.45600 188.48395 188.53889 189.36484 190.66379
 192.37974 194.46568 196.71963 199.06958 201.50552 203.97647 206.05542 207.88837
 209.50531 210.64126 210.86121 211.08016 211.00810 210.70405 210.32800 209.94895
 209.55689 209.25784 209.05679 208.91173 208.83068 209.15263 209.52958 209.90952
 210.69347 211.86242 213.10337 214.87731 216.79626 218.83021 220.91616 222.99010
 225.04105 227.11600 229.20394 231.30089 233.42084 235.58379 237.83073 240.19168
 242.80363 245.04558 247.03852 248.79447 250.20242 251.31636 252.12931 252.43626
 252.46421 252.22915 251.58010 250.51905 249.11600 247.26794 245.16789 242.99184
 240.77379 238.56873 236.37968 234.20963 232.06057 229.91852 227.93547 226.08342
 224.35736 222.82031 221.44126 220.20421 219.07715 218.02810 217.12305 216.25500
 215.48794 214.65889 213.74784 213.10278 212.54373 212.96205 213.95038 214.30153
 213.97958 214.49271 215.68304 217.47942 219.65739 222.61125 227.76405 232.33971
 236.22485 240.49187 244.62691 248.23526 251.01561 253.44769 255.89032 258.50885
 261.25131 264.11600 266.98502 269.62625 271.99951 274.08047 275.72321 277.23505
 278.85037 280.53192 282.07944 283.44760 284.63422 285.68719 286.65265 287.53021
 288.32962 289.04883 289.67841 290.52243
 366.78100 356.32664 345.75029 334.60793 323.00258 311.18822 299.04986 286.84451
 274.54815 262.43679 250.43744 239.73008 229.84373 220.93937 213.11301 206.10666
 199.93230 194.86195 191.43559 189.46923 188.49788 188.55352 189.38017 190.67981
 192.39645 194.48310 196.73774 199.08838 201.52503 203.99667 206.07632 207.90996
 209.52760 210.66425 210.88489 211.10454 211.03318 210.72982 210.35447 209.97611
 209.58476 209.28640 209.08604 208.94169 208.86133 209.18397 209.56162 209.94226
 210.72691 211.89655 213.13819 214.91284 216.83248 218.86713 220.95377 223.02841
 225.08006 227.15570 229.24435 231.34199 233.46263 235.62628 237.87392 240.23556
 242.84821 245.09085 247.08450 248.84114 250.24978 251.36443 252.17807 252.48572
 252.51436 252.28000 251.63165 250.57129 249.16893 247.32158 245.22222 243.04687
 240.82951 238.62515 236.43680 234.26744 232.11909 229.97773 227.99537 226.14402
 224.41866 222.88231 221.50395 220.26759 219.14124 218.09288 217.18852 216.32117
 215.55481 214.72646 213.81610 213.17174 212.61339 213.02449 213.99576 214.39255
 214.12204 214.56189 215.71535 217.48055 219.65935 222.62599 227.73593 232.32892
 236.23404 240.50522 244.59224 248.11081 250.80783 253.21849 255.68565 258.32852
 261.12018 264.03345 266.93237 269.59521 271.97269 274.04169 275.68008 277.20325
 278.82068 280.50204 282.05106 283.41879 284.60654 285.65891 286.62354 287.50189
 288.30258 289.01993 289.65051 290.49240
 366.78100 356.32751 345.75202 334.61053 323.00604 311.19255 299.05506 286.85057
 274.55508 262.44459 250.44610 239.73961 229.85413 220.95064 213.12515 206.11966
 199.94617 194.87668 191.45119 189.48570 188.51521 188.57172 189.39923 190.69974
 192.41725 194.50476 196.76027 199.11178 201.54929 204.02180 206.10231 207.93682
 209.55533 210.69284 210.91435 211.13486 211.06438 210.76189 210.38740 210.00991
 209.61942 209.32193 209.12244 208.97895 208.89946 209.22297 209.60148 209.98299
 210.76850 211.93901 213.18152 214.95703 216.87754 218.91305 221.00056 223.07607
 225.12858 227.20509 229.29460 231.39312 233.51463 235.67914 237.92765 240.29016
 242.90367 245.14718 247.14169 248.89920 250.30871 251.42422 252.23873 252.54724
 252.57675 252.34326 251.69577 250.63628 249.23479 247.38830 245.28981 243.11532
 240.89883 238.69534 236.50786 234.33937 232.19188 230.05139 228.06990 226.21941
 224.49492 222.95943 221.58194 220.34645 219.22096 218.17347 217.26998 216.40349
 215.63800 214.81051 213.90102 213.25753 212.70004 213.09708 214.03514 214.47385
 214.26474 214.64151 215.77179 217.49547 219.65817 222.63943 227.71184 232.31773
 236.24002 240.50708 244.53685 247.95984 250.57996 252.97997 255.48289 258.16135
 261.00455 263.96173 266.88165 269.55832 271.93832 273.99515 275.63257 277.17072
 278.79282 280.46664 282.01376 283.38229 284.56897 285.62216 286.58707 287.46707
 288.26382 288.98309 289.61288 290.45154
 366.78100 356.32862 345.75423 334.61385 323.01046 311.19808 299.06170 286.85831
 274.56393 262.45454 250.45716 239.75178 229.86739 220.96501 213.14063 206.13624
 199.96386 194.89547 191.47109 189.50671 188.53732 188.59494 189.42355 190.72517
 192.44379 194.53240 196.78902 199.14163 201.58025 204.05387 206.13548 207.97110
 209.59071 210.72933 210.95195 211.17356 211.10418 210.80279 210.42941 210.05303
 209.66364 209.36726 209.16888 209.02649 208.94811 209.27272 209.65234 210.03496
 210.82157 211.99319 213.23680 215.01342 216.93504 218.97165 221.06027 223.13688
 225.19050 227.26812 229.35873 231.45835 233.58096 235.74658 237.99620 240.35981
 242.97443 245.21905 247.21466 248.97328 250.38389 251.50051 252.31613 252.62574
 252.65636 252.42397 251.77759 250.71921 249.31882 247.47344 245.37605 243.20267
 240.98729 238.78490 236.59852 234.43113 232.28475 230.14537 228.16498 226.31560
 224.59221 223.05783 221.68145 220.44706 219.32268 218.27630 217.37391 216.50853
 215.74414 214.91776 214.00938 213.36699 212.81061 213.18326 214.06371 214.55034
 214.40929 214.72800 215.83734 217.53375 219.67731 222.64499 227.68658 232.30507
 236.24255 240.49710 244.45879 247.78156 250.33328 252.73409 255.28307 258.00732
 260.90329 263.89856 266.83301 269.51743 271.89816 273.94260 275.58316 277.13547
 278.75989 280.42432 281.97061 283.33823 284.52542 285.57767 286.54391 287.42224
 288.22217 288.93918 289.56561 290.40845
 366.78100 356.32996 345.75692 334.61789 323.01585 311.20481 299.06977 286.86773
 274.57469 262.46666 250.47062 239.76658 229.88354 220.98250 213.15946 206.15643
 199.98539 194.91835 191.49531 189.53227 188.56424 188.62320 189.45316 190.75612
 192.47608 194.56604 196.82401 199.17797 201.61793 204.09289 206.17585 208.01281
 209.63378 210.77374 210.99770 211.22066 211.15262 210.85258 210.48055 210.10551
 209.71747 209.42243 209.22539 209.08436 209.00732 209.33328 209.71424 210.09820
 210.88616 212.05913 213.30409 215.08205 217.00501 219.04297 221.13293 223.21090
 225.26586 227.34482 229.43678 231.53774 233.66171 235.82867 238.07963 240.44459
 243.06055 245.30651 247.30348 249.06344 250.47540 251.59336 252.41032 252.72128
 252.75325 252.52221 251.87717 250.82013 249.42109 247.57705 245.48102 243.30898
 241.09494 238.89390 236.70886 234.54283 232.39779 230.25975 228.28071 226.43267
 224.71063 223.17760 221.80256 220.56952 219.44648 218.40144 217.50040 216.63637
 215.87333 215.04829 214.14125 213.50021 212.94518 213.28209 214.07805 214.62566
 214.55035 214.82164 215.91881 217.58612 219.69450 222.65797 227.66885 232.29625
 236.24298 240.47545 244.35925 247.57712 250.06732 252.47852 255.08139 257.85962
 260.81165 263.84189 266.78339 269.47324 271.85715 273.89682 275.54291 277.10306
 278.72443 280.37445 281.91937 283.28748 284.47281 285.52631 286.49069 287.37000
 288.16971 288.88351 289.51462 290.35162
 366.78100 356.33147 345.75995 334.62242 323.02190 311.21237 299.07885 286.87832
 274.58680 262.48027 250.48575 239.78322 229.90170 221.00217 213.18065 206.17912
 200.00959 194.94407 191.52254 189.56102 188.59449 188.65497 189.48644 190.79092
 192.51239 194.60387 196.86334 199.21882 201.66029 204.13677 206.22124 208.05971
 209.68219 210.82366 211.04914 211.27361 211.20709 210.90856 210.53804 210.16451
 209.77799 209.48446 209.28894 209.14941 209.07389 209.40136 209.78383 210.16931
 210.95878 212.13326 213.37973 215.15921 217.08368 219.12316 221.21463 223.29411
 225.35058 227.43106 229.52453 231.62700 233.75248 235.92095 238.17343 240.53990
 243.15738 245.40485 247.40333 249.16480 250.57828 251.69775 252.51623 252.82870
 252.86218 252.63265 251.98912 250.93360 249.53607 247.69355 245.59902 243.42850
 241.21597 239.01645 236.83292 234.66840 232.52487 230.38835 228.41082 226.56430
 224.84377 223.31224 221.93872 220.70719 219.58567 218.54214 217.64262 216.78009
 216.01857 215.19504 214.28952 213.64999 213.09647 213.39044 214.08496 214.68114
 214.72238 214.92174 215.98781 217.64752 219.73253 222.66991 227.64861 232.28781
 236.23990 240.44237 244.23930 247.34967 249.78818 252.21973 254.88301 257.72198
 260.73056 263.79074 266.73383 269.42581 271.81702 273.85870 275.51498 277.07693
 278.68488 280.31461 281.85733 283.22617 284.41238 285.46515 286.42935 287.30933
 288.10672 288.82281 289.45300 290.29099
 366.78100 356.33373 345.76447 334.62920 323.03093 311.22366 299.09240 286.89413
 274.60486 262.50060 250.50833 239.80806 229.92880 221.03153 213.21226 206.21299
 200.04573 194.98246 191.56319 189.60393 188.63966 188.70239 189.53613 190.84286
 192.56659 194.66032 196.92206 199.27979 201.72352 204.20226 206.28899 208.12972
 209.75445 210.89819 211.12592 211.35265 211.28839 210.99212 210.62385 210.25259
 209.86832 209.57705 209.38378 209.24652 209.17325 209.50298 209.88772 210.27545
 211.06718 212.24392 213.49265 215.27438 217.20111 219.24285 221.33658 223.41831
 225.47705 227.55978 229.65551 231.76024 233.88798 236.05871 238.31344 240.68218
 243.30191 245.55164 247.55238 249.31611 250.73184 251.85357 252.67431 252.98904
 253.02477 252.79751 252.15624 251.10297 249.70771 247.86744 245.77517 243.60690
 241.39664 239.19937 237.01810 234.85584 232.71457 230.58030 228.60503 226.76077
 225.04250 223.51323 222.14197 220.91270 219.79343 218.75217 217.85490 216.99463
 216.23536 215.41410 214.51083 213.87356 213.32230 213.53726 214.04515 214.76302
 214.89354 215.02853 216.08864 217.71075 219.72336 222.67577 227.63811 232.28490
 236.23555 240.39893 244.10190 247.10464 249.50093 251.96144 254.68965 257.59418
 260.65979 263.74393 266.68341 269.37485 271.77386 273.82565 275.49747 277.05963
 278.64639 280.24664 281.78641 283.15427 284.34073 285.39334 286.35855 287.23676
 288.03577 288.75150 289.38116 290.21466
 366.78100 356.33615 345.76930 334.63646 323.04061 311.23576 299.10691 286.91107
 274.62422 262.52237 250.53252 239.83468 229.95783 221.06298 213.24613 206.24929
 200.08444 195.02359 191.60674 189.64990 188.68805 188.75320 189.58935 190.89851
 192.62466 194.72081 196.98496 199.34511 201.79127 204.27242 206.36157 208.20472
 209.83188 210.97803 211.20818 211.43733 211.37549 211.08164 210.71579 210.34694
 209.96510 209.67625 209.48540 209.35055 209.27971 209.61186 209.99901 210.38916
 211.18331 212.36247 213.61362 215.39777 217.32692 219.37108 221.46723 223.55138
 225.61253 227.69769 229.79584 231.90299 234.03314 236.20630 238.46345 240.83460
 243.45675 245.70891 247.71206 249.47821 250.89636 252.02052 252.84367 253.16082
 253.19897 252.97412 252.33528 251.28443 249.89158 248.05373 245.96389 243.79804
 241.59019 239.39534 237.21650 235.05665 232.91780 230.78595 228.81311 226.97126
 225.25541 223.72856 222.35972 221.13287 220.01602 218.97717 218.08233 217.22448
 216.46763 215.64878 214.74793 214.11309 213.56424 213.69403 214.00067 214.81644
 215.11217 215.12976 216.16809 217.78940 219.77763 222.65181 227.62457 232.28751
 236.22717 240.34225 243.94324 246.83759 249.20164 251.69815 254.49626 257.47394
 260.59784 263.70258 266.63480 269.32321 271.72992 273.79593 275.49075 277.05795
 278.61832 280.17261 281.70755 283.07541 284.26178 285.31360 286.27869 287.15805
 287.95676 288.67401 289.30472 290.13818
 366.78100 356.33768 345.77236 334.64104 323.04672 311.24339 299.11607 286.92175
 274.63643 262.53611 250.54779 239.85147 229.97615 221.08283 213.26750 206.27218
 200.10886 195.04954 191.63422 189.67890 188.71858 188.78526 189.62294 190.93361
 192.66129 194.75897 197.02465 199.38633 201.83401 204.31669 206.40737 208.25205
 209.88072 211.02840 211.26008 211.49076 211.43044 211.13812 210.77380 210.40648
 210.02616 209.73883 209.54951 209.41619 209.34687 209.68055 210.06923 210.46091
 211.25659 212.43727 213.68994 215.47562 217.40630 219.45198 221.54966 223.63534
 225.69802 227.78470 229.88438 231.99305 234.12473 236.29941 238.55809 240.93077
 243.55445 245.80813 247.81281 249.58049 251.00016 252.12584 252.95052 253.26920
 253.30888 253.08556 252.44824 251.39892 250.00760 248.17127 246.08295 243.91863
 241.71231 239.51899 237.34167 235.18335 233.04603 230.91571 228.94438 227.10406
 225.38974 223.86442 222.49710 221.27178 220.15646 219.11914 218.22582 217.36949
 216.61417 215.79685 214.89753 214.26421 213.71689 213.80769 214.02222 214.80685
 215.27803 215.29027 216.22424 217.86372 219.83499 222.69756 227.62364 232.29198
 236.21854 240.27400 243.76628 246.55315 248.89432 251.43333 254.30603 257.36270
 260.54514 263.66806 266.59052 269.27509 271.68814 273.76840 275.48755 277.06421
 278.59406 280.09845 281.62750 282.99500 284.18143 285.23306 286.19846 287.07950
 287.87692 288.59576 289.22647 290.05951
 366.78100 356.33928 345.77557 334.64585 323.05313 311.25141 299.12570 286.93298
 274.64926 262.55054 250.56383 239.86911 229.99539 221.10367 213.28996 206.29624
 200.13452 195.07680 191.66309 189.70937 188.75065 188.81893 189.65822 190.97050
 192.69978 194.79906 197.06635 199.42963 201.87891 204.36319 206.45548 208.30176
 209.93204 211.08133 211.31461 211.54689 211.48817 211.19746 210.83474 210.46902
 210.09030 209.80459 209.61687 209.48515 209.41743 209.75272 210.14300 210.53628
 211.33356 212.51585 213.77013 215.55741 217.48969 219.53698 221.63626 223.72354
 225.78782 227.87611 229.97739 232.08767 234.22095 236.39724 238.65752 241.03180
 243.65709 245.91237 247.91865 249.68793 251.10922 252.23650 253.06278 253.38306
 253.42435 253.20263 252.56691 251.51919 250.12948 248.29476 246.20804 244.04532
 241.84061 239.64889 237.47317 235.31645 233.18074 231.05202 229.08230 227.24358
 225.53087 224.00715 222.64143 221.41772 220.30400 219.26828 218.37656 217.52185
 216.76813 215.95241 215.05469 214.42298 213.87726 213.92487 214.03734 214.80800
 215.44724 215.43071 216.26096 217.92531 219.88788 222.78206 227.63213 232.29807
 236.20518 240.19275 243.57475 246.25899 248.58821 251.17374 254.12238 257.26047
 260.49921 263.63651 266.54657 269.22571 271.64703 273.74609 275.49146 277.07739
 278.57562 280.02548 281.54797 282.91638 284.10129 285.15335 286.11972 286.99832
 287.79788 288.51642 289.14932 289.98026
 366.78100 356.34088 345.77875 334.65063 323.05950 311.25938 299.13525 286.94413
 274.66200 262.56488 250.57975 239.88663 230.01450 221.12438 213.31225 206.32013
 200.16000 195.10388 191.69175 189.73963 188.78250 188.85238 189.69325 191.00713
 192.73800 194.83888 197.10775 199.47263 201.92350 204.40938 206.50325 208.35113
 209.98300 211.13388 211.36875 211.60263 211.54551 211.25638 210.89526 210.53113
 210.15401 209.86988 209.68376 209.55363 209.48751 209.82438 210.21626 210.61113
 211.41001 212.59388 213.84976 215.63863 217.57251 219.62138 221.72226 223.81113
 225.87701 227.96688 230.06976 232.18163 234.31651 236.49438 238.75626 241.13213
 243.75901 246.01588 248.02376 249.79463 251.21751 252.34638 253.17426 253.49614
 253.53901 253.31889 252.68476 251.63864 250.25051 248.41739 246.33226 244.17114
 241.96801 239.77789 237.60376 235.44864 233.31451 231.18739 229.21926 227.38214
 225.67101 224.14889 222.78476 221.56264 220.45051 219.41639 218.52626 217.67314
 216.92101 216.10689 215.21076 214.58064 214.03651 214.04138 214.05287 214.80513
 215.62518 215.54924 216.30403 217.99702 219.93393 222.86646 227.64656 232.30270
 236.18398 240.10344 243.37924 245.96765 248.29135 250.92242 253.94392 257.16284
 260.45444 263.60178 266.49701 269.17184 271.60449 273.72739 275.50159 277.10062
 278.57327 279.96451 281.47235 282.83740 284.02197 285.07281 286.03778 286.91769
 287.71619 288.43680 289.06876 289.90155
 366.78100 356.34243 345.78186 334.65529 323.06572 311.26714 299.14457 286.95500
 274.67443 262.57886 250.59529 239.90372 230.03315 221.14457 213.33400 206.34343
 200.18486 195.13029 191.71972 189.76915 188.81358 188.88500 189.72743 191.04286
 192.77529 194.87772 197.14815 199.51458 201.96701 204.45443 206.54986 208.39929
 210.03272 211.18515 211.42158 211.65701 211.60144 211.31387 210.95429 210.59172
 210.21615 209.93358 209.74901 209.62044 209.55587 209.89430 210.28772 210.68415
 211.48458 212.67001 213.92744 215.71787 217.65330 219.70373 221.80615 223.89658
 225.96401 228.05544 230.15987 232.27330 234.40973 236.58916 238.85259 241.23001
 243.85844 246.11687 248.12630 249.89873 251.32316 252.45359 253.28302 253.60644
 253.65087 253.43230 252.79973 251.75516 250.36859 248.53702 246.45345 244.29387
 242.09230 239.90373 237.73116 235.57759 233.44502 231.31945 229.35288 227.51730
 225.80773 224.28716 222.92459 221.70402 220.59345 219.56088 218.67231 217.82074
 217.07016 216.25759 215.36302 214.73445 214.19188 214.15628 214.07219 214.80389
 215.77670 215.67046 216.36214 218.07504 219.97386 222.93170 227.67172 232.31253
 236.16534 240.01787 243.18903 245.68367 248.00153 250.67506 253.76671 257.06714
 260.40738 263.56216 266.44354 269.11560 271.56241 273.71027 275.51334 277.12494
 278.57965 279.94696 281.39557 282.75604 283.94110 284.99338 285.95746 286.83853
 287.63864 288.35880 288.99350 289.82455
 366.78100 356.34392 345.78485 334.65977 323.07170 311.27462 299.15354 286.96547
 274.68639 262.59231 250.61024 239.92016 230.05109 221.16401 213.35493 206.36586
 200.20878 195.15571 191.74663 189.79755 188.84348 188.91640 189.76032 191.07725
 192.81117 194.91510 197.18702 199.55494 202.00887 204.49779 206.59472 208.44564
 210.08056 211.23449 211.47241 211.70933 211.65526 211.36918 211.01111 210.65003
 210.27595 209.99488 209.81180 209.68473 209.62165 209.96157 210.35650 210.75442
 211.55634 212.74327 214.00219 215.79412 217.73104 219.78296 221.88689 223.97881
 226.04774 228.14066 230.24658 232.36151 234.49943 236.68035 238.94528 241.32420
 243.95413 246.21405 248.22497 249.99890 251.42482 252.55675 253.38767 253.71259
 253.75852 253.54144 252.91036 251.86729 250.48221 248.65214 246.57006 244.41198
 242.21191 240.02483 237.85376 235.70168 233.57060 231.44653 229.48145 227.64737
 225.93930 224.42022 223.05915 221.84007 220.73099 219.69992 218.81284 217.96277
 217.21369 216.40261 215.50954 214.88246 214.34138 214.26761 214.09329 214.80971
 215.89301 215.80518 216.43056 218.14767 220.01137 222.98306 227.70851 232.33095
 236.15538 239.93657 242.99966 245.39987 247.71251 250.42976 253.59268 256.97369
 260.36093 263.52039 266.39001 269.06082 271.52197 273.69388 275.52426 277.14777
 278.58530 279.93707 281.32849 282.68433 283.87051 284.92291 285.89001 286.77069
 287.57178 288.29260 288.92493 289.75961
 366.78100 356.34528 345.78757 334.66385 323.07714 311.28142 299.16171 286.97499
 274.69728 262.60456 250.62385 239.93513 230.06742 221.18170 213.37399 206.38627
 200.23056 195.17884 191.77113 189.82341 188.87070 188.94498 189.79027 191.10855
 192.84383 194.94912 197.22240 199.59169 202.04697 204.53726 206.63554 208.48783
 210.12411 211.27940 211.51868 211.75697 211.70425 211.41954 211.06282 210.70311
 210.33039 210.05068 209.86896 209.74325 209.68153 210.02282 210.41910 210.81838
 211.62167 212.80995 214.07024 215.86352 217.80181 219.85509 221.96038 224.05366
 226.12395 228.21823 230.32552 232.44180 234.58109 236.76337 239.02966 241.40994
 244.04123 246.30251 248.31480 250.09008 251.51737 252.65065 253.48293 253.80922
 253.85650 253.64079 253.01107 251.96936 250.58564 248.75693 246.67621 244.51950
 242.32078 240.13507 237.96535 235.81464 233.68492 231.56221 229.59849 227.76578
 226.05906 224.54135 223.18163 221.96392 220.85620 219.82648 218.94077 218.09205
 217.34434 216.53462 215.64291 215.01719 214.47748 214.37073 214.11853 214.82332
 215.99229 215.94139 216.50261 218.20914 220.04762 223.03072 227.75128 232.35075
 236.14825 239.84888 242.80362 245.11633 247.43004 250.19458 253.42789 256.88541
 260.31329 263.47516 266.33429 269.00519 271.48148 273.67923 275.53812 277.17529
 278.59949 279.93219 281.27176 282.62421 283.81158 284.86563 285.83157 286.71194
 287.51474 288.23502 288.87164 289.70209
 366.78100 356.34643 345.78986 334.66728 323.08171 311.28714 299.16857 286.98300
 274.70642 262.61485 250.63528 239.94771 230.08114 221.19657 213.38999 206.40342
 200.24885 195.19828 191.79171 189.84513 188.89356 188.96899 189.81542 191.13485
 192.87127 194.97770 197.25213 199.62256 202.07899 204.57042 206.66984 208.52327
 210.16070 211.31713 211.55756 211.79698 211.74541 211.46184 211.10627 210.74770
 210.37612 210.09755 209.91698 209.79241 209.73184 210.07427 210.47169 210.87212
 211.67655 212.86598 214.12741 215.92183 217.86126 219.91569 222.02212 224.11655
 226.18797 228.28340 230.39183 232.50926 234.64969 236.83312 239.10054 241.48197
 244.11440 246.37683 248.39026 250.16668 251.59511 252.72954 253.56297 253.89040
 253.93882 253.72425 253.09568 252.05511 250.67254 248.84497 246.76539 244.60982
 242.41225 240.22768 238.05911 235.90953 233.78096 231.65939 229.69682 227.86525
 226.15967 224.64310 223.28453 222.06796 220.96139 219.93282 219.04824 218.20067
 217.45410 216.64553 215.75496 215.13038 214.59181 214.46028 214.14954 214.85037
 216.08199 216.05435 216.57739 218.26363 220.08841 223.08022 227.79318 232.36357
 236.13380 239.75095 242.60646 244.84546 247.16653 249.97603 253.27364 256.80038
 260.26093 263.42178 266.27252 268.94766 271.44208 273.66467 275.55118 277.20523
 278.62003 279.93515 281.23221 282.58057 283.76926 284.82239 285.78995 286.67340
 287.47476 288.19614 288.82935 289.66107
 366.78100 356.34728 345.79156 334.66984 323.08512 311.29141 299.17369 286.98897
 274.71325 262.62253 250.64381 239.95709 230.09137 221.20765 213.40194 206.41622
 200.26250 195.21278 191.80706 189.86134 188.91062 188.98690 189.83418 191.15447
 192.89175 194.99903 197.27431 199.64559 202.10287 204.59515 206.69543 208.54971
 210.18799 211.34528 211.58656 211.82684 211.77612 211.49340 211.13868 210.78096
 210.41024 210.13252 209.95281 209.82909 209.76937 210.11265 210.51093 210.91221
 211.71749 212.90777 214.17005 215.96534 217.90562 219.96090 222.06818 224.16346
 226.23574 228.33202 230.44130 232.55958 234.70087 236.88515 239.15343 241.53571
 244.16899 246.43227 248.44655 250.22383 251.65311 252.78840 253.62268 253.95096
 254.00024 253.78652 253.15880 252.11908 250.73736 248.91064 246.83192 244.67721
 242.48049 240.29677 238.12905 235.98033 233.85261 231.73189 229.77017 227.93945
 226.23474 224.71902 223.36130 222.14558 221.03986 220.01214 219.12842 218.28170
 217.53598 216.72827 215.83855 215.21483 214.67711 214.53250 214.19083 214.89532
 216.14433 216.13994 216.66263 218.32281 220.14709 223.13878 227.83621 232.36885
 236.10861 239.64439 242.40875 244.58345 246.91537 249.76784 253.12575 256.71515
 260.20233 263.36319 266.21176 268.89490 271.40622 273.65195 275.56360 277.23349
 278.63724 279.93732 281.20419 282.55038 283.73956 284.79349 285.75967 286.64236
 287.44495 288.16595 288.79877 289.63440
 366.78100 356.34779 345.79258 334.67137 323.08717 311.29396 299.17675 286.99254
 274.71733 262.62712 250.64891 239.96270 230.09750 221.21429 213.40908 206.42387
 200.27066 195.22145 191.81624 189.87104 188.92083 188.99762 189.84541 191.16620
 192.90399 195.01178 197.28757 199.65937 202.11716 204.60995 206.71074 208.56553
 210.20432 211.36211 211.60391 211.84470 211.79449 211.51228 211.15807 210.80086
 210.43065 210.15345 209.97424 209.85103 209.79182 210.13561 210.53440 210.93619
 211.74198 212.93278 214.19557 215.99136 217.93215 219.98794 222.09573 224.19152
 226.26432 228.36111 230.47090 232.58969 234.73148 236.91627 239.18506 241.56785
 244.20165 246.46544 248.48023 250.25802 251.68781 252.82360 253.65839 253.98719
 254.03698 253.82377 253.19656 252.15735 250.77614 248.94993 246.87172 244.71752
 242.52131 240.33810 238.17089 236.02268 233.89547 231.77526 229.81406 227.98385
 226.27964 224.76443 223.40722 222.19201 221.08680 220.05959 219.17639 218.33018
 217.58497 216.77776 215.88855 215.26534 214.72813 214.58505 214.24699 214.94637
 216.17140 216.22237 216.76611 218.39067 220.22957 223.20726 227.87909 232.36662
 236.06815 239.52287 242.19788 244.31577 246.66589 249.56554 252.98436 256.63031
 260.14035 263.30298 266.15482 268.84787 271.37485 273.64175 275.57858 277.26154
 278.65320 279.94003 281.18744 282.53152 283.71951 284.77423 285.74106 286.62128
 287.42490 288.14450 288.77869 289.60626
 366.78100 356.34790 345.79280 334.67170 323.08760 311.29450 299.17740 286.99330
 274.71820 262.62810 250.65000 239.96390 230.09880 221.21570 213.41060 206.42550
 200.27239 195.22329 191.81819 189.87309 188.92299 188.99989 189.84779 191.16869
 192.90659 195.01449 197.29039 199.66229 202.12019 204.61309 206.71399 208.56889
 210.20779 211.36569 211.60759 211.84849 211.79839 211.51629 211.16219 210.80509
 210.43499 210.15789 209.97879 209.85569 209.79659 210.14049 210.53939 210.94128
 211.74718 212.93808 214.20098 215.99688 217.93778 219.99368 222.10158 224.19748
 226.27038 228.36728 230.47718 232.59608 234.73798 236.92288 239.19178 241.57468
 244.20858 246.47248 248.48738 250.26528 251.69518 252.83108 253.66598 253.99488
 254.04478 253.83168 253.20458 252.16548 250.78438 248.95828 246.88017 244.72607
 242.52997 240.34687 238.17977 236.03167 233.90457 231.78447 229.82337 227.99327
 226.28917 224.77407 223.41697 222.20187 221.09677 220.06967 219.18657 218.34047
 217.59537 216.78827 215.89917 215.27607 214.73897 214.61548 214.32372 214.98212
 216.18956 216.32242 216.88461 218.46309 220.31783 223.27495 227.91908 232.35832
 236.01303 239.38383 241.96790 244.03818 246.41884 249.37396 252.85344 256.54977
 260.07761 263.24213 266.09872 268.80249 271.34512 273.63510 275.59940 277.29654
 278.67535 279.94559 281.17944 282.52145 283.70886 284.76364 285.72879 286.60944
 287.41013 288.13019 288.76428 289.58978
 366.78100 356.34780 345.79260 334.67140 323.08720 311.29400 299.17680 286.99260
 274.71740 262.62720 250.64900 239.96280 230.09760 221.21440 213.40920 206.42400
 200.27080 195.22160 191.81640 189.87120 188.92100 188.99780 189.84560 191.16640
 192.90420 195.01200 197.28780 199.65961 202.11741 204.61021 206.71101 208.56581
 210.20461 211.36241 211.60421 211.84501 211.79481 211.51261 211.15841 210.80121
 210.43101 210.15381 209.97461 209.85141 209.79221 210.13601 210.53481 210.93661
 211.74241 212.93321 214.19601 215.99181 217.93261 219.98841 222.09621 224.19201
 226.26481 228.36161 230.47141 232.59021 234.73201 236.91681 239.18561 241.56841
 244.20221 246.46601 248.48081 250.25861 251.68841 252.82421 253.65901 253.98781
 254.03761 253.82441 253.19721 252.15801 250.77681 248.95061 246.87241 244.71822
 242.52202 240.33882 238.17162 236.02342 233.89622 231.77602 229.81482 227.98462
 226.28042 224.76522 223.40802 222.19282 221.08762 220.06042 219.17722 218.33102
 217.58582 216.77862 215.88942 215.26622 214.72902 214.63354 214.40799 215.01274
 216.20900 216.44055 217.00546 218.52988 220.41029 223.34161 227.95256 232.34174
 235.94241 239.22449 241.72121 243.75949 246.18529 249.20096 252.73732 256.47498
 260.01318 263.17679 266.03970 268.75504 271.31567 273.63062 275.62558 277.33914
 278.70413 279.95703 281.17731 282.51724 283.70480 284.75845 285.72400 286.60178
 287.40231 288.11984 288.75381 289.57593
 366.78100 356.34750 345.79200 334.67050 323.08600 311.29250 299.17500 286.99051
 274.71501 262.62451 250.64601 239.95951 230.09401 221.21051 213.40501 206.41951
 200.26601 195.21651 191.81101 189.86552 188.91502 188.99152 189.83902 191.15952
 192.89702 195.00452 197.28002 199.65152 202.10902 204.60152 206.70202 208.55653
 210.19503 211.35253 211.59403 211.83453 211.78403 211.50153 211.14703 210.78953
 210.41903 210.14153 209.96203 209.83854 209.77904 210.12254 210.52104 210.92254
 211.72804 212.91854 214.18104 215.97654 217.91704 219.97254 222.08004 224.17554
 226.24805 228.34455 230.45405 232.57255 234.71405 236.89855 239.16705 241.54955
 244.18305 246.44655 248.46105 250.23855 251.66806 252.80356 253.63806 253.96656
 254.01606 253.80256 253.17506 252.13556 250.75406 248.92756 246.84906 244.69456
 242.49807 240.31457 238.14707 235.99857 233.87107 231.75057 229.78907 227.95857
 226.25407 224.73857 223.38107 222.16557 221.06007 220.03258 219.14908 218.30258
 217.55708 216.74958 215.86008 215.23658 214.69908 214.63933 214.49818 215.04099
 216.22791 216.56606 217.14691 218.60129 220.47395 223.39078 227.97821 232.32181
 235.86555 239.05746 241.47528 243.49532 245.97324 249.04800 252.63213 256.40091
 259.94055 263.10190 265.97406 268.70441 271.28616 273.62772 275.65466 277.38589
 278.73788 279.97183 281.18060 282.51797 283.70532 284.75842 285.72195 286.60031
 287.39948 288.11743 288.74860 289.56763
 366.78100 356.34708 345.79117 334.66925 323.08433 311.29042 299.17250 286.98758
 274.71167 262.62075 250.64183 239.95492 230.08900 221.20508 213.39917 206.41325
 200.25933 195.20942 191.80350 189.85758 188.90667 188.98275 189.82983 191.14992
 192.88700 194.99408 197.26917 199.64025 202.09733 204.58942 206.68950 208.54358
 210.18167 211.33875 211.57983 211.81992 211.76900 211.48608 211.13117 210.77325
 210.40233 210.12442 209.94450 209.82058 209.76067 210.10375 210.50183 210.90292
 211.70800 212.89808 214.16017 215.95525 217.89533 219.95042 222.05750 224.15258
 226.22467 228.32075 230.42983 232.54792 234.68900 236.87308 239.14117 241.52325
 244.15633 246.41942 248.43350 250.21058 251.63967 252.77475 253.60883 253.93692
 253.98600 253.77208 253.14417 252.10425 250.72233 248.89542 246.81650 244.66158
 242.46467 240.28075 238.11283 235.96392 233.83600 231.71508 229.75317 227.92225
 226.21733 224.70142 223.34350 222.12758 221.02167 219.99375 219.10983 218.26292
 217.51700 216.70908 215.81917 215.19525 214.65733 214.63658 214.58757 215.07533
 216.24234 216.69571 217.28027 218.65198 220.55083 223.46555 228.01224 232.30930
 235.78709 238.88141 241.22131 243.23112 245.76440 248.89905 252.52847 256.32166
 259.85883 263.02060 265.90872 268.65671 271.25970 273.62973 275.68732 277.43500
 278.77481 279.99194 281.18610 282.52237 283.70911 284.76120 285.72427 286.60181
 287.39853 288.11652 288.74600 289.56259
 366.78100 356.34697 345.79095 334.66892 323.08390 311.28987 299.17185 286.98682
 274.71080 262.61977 250.64075 239.95372 230.08770 221.20367 213.39765 206.41162
 200.25760 195.20757 191.80155 189.85552 188.90450 188.98047 189.82745 191.14742
 192.88440 194.99137 197.26635 199.63732 202.09430 204.58627 206.68625 208.54022
 210.17820 211.33517 211.57615 211.81612 211.76510 211.48207 211.12705 210.76902
 210.39800 210.11997 209.93995 209.81592 209.75590 210.09887 210.49685 210.89782
 211.70280 212.89277 214.15475 215.94972 217.88970 219.94467 222.05165 224.14662
 226.21860 228.31457 230.42355 232.54152 234.68250 236.86647 239.13445 241.51642
 244.14940 246.41237 248.42635 250.20332 251.63230 252.76727 253.60125 253.92922
 253.97820 253.76417 253.13615 252.09612 250.71410 248.88707 246.80805 244.65302
 242.45600 240.27197 238.10395 235.95492 233.82690 231.70587 229.74385 227.91282
 226.20780 224.69177 223.33375 222.11772 221.01170 219.98367 219.09965 218.25262
 217.50660 216.69857 215.80855 215.18452 214.64650 214.64700 214.64818 215.14429
 216.20676 216.84058 217.48299 218.73972 220.60561 223.52136 228.03879 232.29321
 235.69046 238.67758 240.94434 242.95757 245.55640 248.75606 252.43098 256.24493
 259.78049 262.94922 265.85516 268.61786 271.23874 273.63364 275.71729 277.47803
 278.80594 280.01132 281.19376 282.52835 283.71445 284.76675 285.72781 286.60513
 287.40146 288.11884 288.74625 289.56097
 366.78100 356.34721 345.79141 334.66962 323.08483 311.29103 299.17324 286.98845
 274.71265 262.62186 250.64307 239.95627 230.09048 221.20669 213.40089 206.41510
 200.26131 195.21152 191.80572 189.85993 188.90914 188.98534 189.83255 191.15276
 192.88996 194.99717 197.27238 199.64358 202.10079 204.59300 206.69320 208.54741
 210.18562 211.34282 211.58403 211.82424 211.77344 211.49065 211.13586 210.77806
 210.40727 210.12948 209.94968 209.82589 209.76610 210.10930 210.50751 210.90872
 211.71393 212.90413 214.16634 215.96155 217.90175 219.95696 222.06417 224.15937
 226.23158 228.32779 230.43699 232.55520 234.69641 236.88061 239.14882 241.53103
 244.16423 246.42744 248.44165 250.21885 251.64806 252.78327 253.61747 253.94568
 253.99489 253.78109 253.15330 252.11351 250.73172 248.90492 246.82613 244.67134
 242.47454 240.29075 238.12296 235.97416 233.84637 231.72558 229.76378 227.93299
 226.22820 224.71240 223.35461 222.13882 221.03302 220.00523 219.12144 218.27464
 217.52885 216.72106 215.83126 215.20747 214.66968 214.67174 214.67662 215.25790
 216.14195 216.92578 217.67612 218.88176 220.67830 223.57130 228.06511 232.27487
 235.58012 238.46054 240.66585 242.69720 245.36790 248.63351 252.34917 256.17917
 259.71429 262.89008 265.80957 268.58218 271.21753 273.63287 275.74020 277.51138
 278.82785 280.02145 281.20117 282.53613 283.72144 284.77332 285.73358 286.60944
 287.40549 288.11942 288.74771 289.55734
 366.78100 356.34728 345.79156 334.66984 323.08512 311.29140 299.17368 286.98895
 274.71323 262.62251 250.64379 239.95707 230.09135 221.20763 213.40191 206.41619
 200.26247 195.21275 191.80703 189.86131 188.91059 188.98686 189.83414 191.15442
 192.89170 194.99898 197.27426 199.64554 202.10282 204.59510 206.69538 208.54966
 210.18794 211.34522 211.58649 211.82677 211.77605 211.49333 211.13861 210.78089
 210.41017 210.13245 209.95273 209.82901 209.76929 210.11257 210.51085 210.91213
 211.71740 212.90768 214.16996 215.96524 217.90552 219.96080 222.06808 224.16336
 226.23564 228.33192 230.44120 232.55948 234.70076 236.88503 239.15331 241.53559
 244.16887 246.43215 248.44643 250.22371 251.65299 252.78827 253.62255 253.95083
 254.00011 253.78639 253.15866 252.11894 250.73722 248.91050 246.83178 244.67706
 242.48034 240.29662 238.12890 235.98018 233.85246 231.73174 229.77002 227.93930
 226.23457 224.71885 223.36113 222.14541 221.03969 220.01197 219.12825 218.28153
 217.53581 216.72809 215.83837 215.21465 214.67693 214.68611 214.70781 215.37245
 216.09860 216.98427 217.87224 219.01897 220.74768 223.62537 228.08809 232.24489
 235.45627 238.23653 240.39365 242.45483 245.19975 248.52870 252.27928 256.12003
 259.65140 262.83093 265.75958 268.54242 271.19052 273.62778 275.75861 277.54169
 278.84735 280.02734 281.20941 282.54333 283.72961 284.78165 285.74039 286.61533
 287.41159 288.12415 288.75137 289.55865
 366.78100 356.34689 345.79077 334.66866 323.08355 311.28943 299.17132 286.98620
 274.71009 262.61898 250.63986 239.95275 230.08664 221.20252 213.39641 206.41030
 200.25618 195.20607 191.79995 189.85384 188.90273 188.97861 189.82550 191.14539
 192.88227 194.98916 197.26404 199.63493 202.09182 204.58370 206.68359 208.53748
 210.17536 211.33225 211.57314 211.81302 211.76191 211.47879 211.12368 210.76557
 210.39445 210.11634 209.93623 209.81211 209.75200 210.09489 210.49277 210.89366
 211.69854 212.88843 214.15032 215.94520 217.88509 219.93998 222.04686 224.14175
 226.21364 228.30952 230.41841 232.53629 234.67718 236.86107 239.12895 241.51084
 244.14373 246.40661 248.42050 250.19738 251.62627 252.76116 253.59504 253.92293
 253.97182 253.75770 253.12959 252.08948 250.70736 248.88025 246.80113 244.64602
 242.44891 240.26479 238.09668 235.94757 233.81945 231.69834 229.73623 227.90511
 226.20000 224.68388 223.32577 222.10966 221.00354 219.97543 219.09132 218.24420
 217.49809 216.68998 215.79986 215.17575 214.63763 214.67546 214.76486 215.45163
 216.09325 217.04553 218.06750 219.15576 220.81219 223.66801 228.10028 232.19688
 235.32236 238.01173 240.12952 242.22731 245.04620 248.43520 252.21481 256.06088
 259.58484 262.76443 265.70370 268.49796 271.16379 273.62024 275.77661 277.57428
 278.87332 280.03903 281.21823 282.55103 283.73688 284.78705 285.74734 286.62198
 287.41519 288.12885 288.75607 289.55878
 366.78100 356.34632 345.78964 334.66697 323.08129 311.28661 299.16793 286.98225
 274.70558 262.61390 250.63422 239.94654 230.07986 221.19519 213.38851 206.40183
 200.24715 195.19648 191.78980 189.84312 188.89144 188.96676 189.81309 191.13241
 192.86873 194.97505 197.24937 199.61970 202.07602 204.56734 206.66666 208.51998
 210.15731 211.31363 211.55395 211.79327 211.74159 211.45792 211.10224 210.74356
 210.37188 210.09320 209.91253 209.78785 209.72717 210.06949 210.46682 210.86714
 211.67146 212.86078 214.12210 215.91643 217.85575 219.91007 222.01639 224.11071
 226.18204 228.27736 230.38568 232.50300 234.64332 236.82665 239.09397 241.47529
 244.10761 246.36993 248.38326 250.15958 251.58790 252.72222 253.55555 253.88287
 253.93119 253.71651 253.08783 252.04716 250.66448 248.83680 246.75712 244.60144
 242.40377 240.21909 238.05041 235.90073 233.77205 231.65038 229.68770 227.85602
 226.15034 224.63366 223.27499 222.05831 220.95163 219.92295 219.03827 218.19060
 217.44392 216.63524 215.74456 215.11989 214.58121 214.65527 214.83028 215.51067
 216.11275 217.12444 218.24431 219.29250 220.87791 223.69234 228.10489 232.13742
 235.19046 237.79398 239.87665 242.01257 244.90231 248.34747 252.15221 255.99896
 259.51294 262.69226 265.64380 268.45212 271.13507 273.61264 275.79382 277.60907
 278.90573 280.06143 281.22577 282.55756 283.74188 284.79279 285.75104 286.62289
 287.41669 288.12997 288.75339 289.55743
 366.78100 356.34579 345.78858 334.66537 323.07917 311.28396 299.16475 286.97854
 274.70133 262.60912 250.62892 239.94071 230.07350 221.18829 213.38108 206.39387
 200.23866 195.18746 191.78025 189.83304 188.88083 188.95562 189.80141 191.12021
 192.85600 194.96179 197.23558 199.60537 202.06116 204.55195 206.65075 208.50354
 210.14033 211.29612 211.53591 211.77470 211.72249 211.43829 211.08208 210.72287
 210.35066 210.07145 209.89024 209.76504 209.70383 210.04562 210.44241 210.84220
 211.64599 212.83478 214.09558 215.88937 217.82816 219.88195 221.98774 224.08153
 226.15233 228.24712 230.35491 232.47170 234.61149 236.79428 239.06107 241.44187
 244.07366 246.33545 248.34824 250.12403 251.55182 252.68562 253.51841 253.84520
 253.89299 253.67778 253.04857 252.00736 250.62416 248.79595 246.71574 244.55953
 242.36132 240.17611 238.00691 235.85670 233.72749 231.60528 229.64207 227.80986
 226.10365 224.58645 223.22724 222.01003 220.90282 219.87361 218.98840 218.14019
 217.39299 216.58378 215.69257 215.06736 214.52815 214.63577 214.89003 215.56578
 216.15099 217.20993 218.39499 219.42247 220.94633 223.70505 228.10968 232.07597
 235.06624 237.58688 239.63686 241.81245 244.76910 248.26642 252.09183 255.93498
 259.43829 262.61755 265.58182 268.40475 271.10403 273.60074 275.80453 277.63300
 278.92630 280.07486 281.23325 282.56430 283.74841 284.79932 285.75757 286.63010
 287.42300 288.13513 288.75995 289.55832
 366.78100 356.34521 345.78741 334.66362 323.07683 311.28104 299.16124 286.97445
 274.69666 262.60386 250.62307 239.93428 230.06649 221.18069 213.37290 206.38511
 200.22931 195.17752 191.76973 189.82194 188.86914 188.94335 189.78856 191.10676
 192.84197 194.94718 197.22038 199.58959 202.04480 204.53501 206.63321 208.48542
 210.12163 211.27683 211.51604 211.75425 211.70146 211.41666 211.05987 210.70008
 210.32728 210.04749 209.86570 209.73991 209.67811 210.01932 210.41553 210.81473
 211.61794 212.80615 214.06636 215.85956 217.79777 219.85098 221.95618 224.04939
 226.11960 228.21381 230.32101 232.43722 234.57643 236.75863 239.02484 241.40505
 244.03626 246.29746 248.30967 250.08488 251.51208 252.64529 253.47750 253.80371
 253.85091 253.63512 253.00533 251.96353 250.57974 248.75095 246.67015 244.51336
 242.31457 240.12878 237.95898 235.80819 233.67840 231.55560 229.59181 227.75902
 226.05223 224.53443 223.17464 221.95685 220.84905 219.81926 218.93347 218.08468
 217.33688 216.52709 215.63530 215.00950 214.46971 214.61253 214.95000 215.61774
 216.20822 217.28725 218.51353 219.53665 221.01225 223.71458 228.11517 232.01476
 234.95483 237.39545 239.41565 241.63084 244.65129 248.19463 252.03639 255.87485
 259.36700 262.54700 265.52133 268.35669 271.07242 273.58664 275.81027 277.65115
 278.94189 280.08722 281.23218 282.56256 283.74609 284.79495 285.75153 286.62204
 287.41251 288.12549 288.74811 289.54559
 366.78100 356.34457 345.78613 334.66170 323.07427 311.27783 299.15740 286.96997
 274.69153 262.59810 250.61667 239.92723 230.05880 221.17237 213.36393 206.37550
 200.21906 195.16663 191.75820 189.80976 188.85633 188.92990 189.77446 191.09203
 192.82660 194.93116 197.20373 199.57230 202.02686 204.51643 206.61400 208.46556
 210.10113 211.25570 211.49426 211.73183 211.67840 211.39296 211.03553 210.67510
 210.30166 210.02123 209.83880 209.71236 209.64993 209.99049 210.38606 210.78463
 211.58719 212.77476 214.03433 215.82689 217.76446 219.81703 221.92159 224.01416
 226.08373 228.17729 230.28386 232.39943 234.53799 236.71956 238.98513 241.36469
 243.99526 246.25583 248.26739 250.04196 251.46853 252.60109 253.43266 253.75822
 253.80479 253.58836 252.95792 251.91549 250.53106 248.70162 246.62019 244.46276
 242.26332 240.07689 237.90646 235.75502 233.62459 231.50116 229.53672 227.70329
 225.99586 224.47742 223.11699 221.89856 220.79012 219.75969 218.87326 218.02382
 217.27539 216.46496 215.57252 214.94609 214.40565 214.58559 215.01071 215.67769
 216.26836 217.34871 218.59872 219.62659 221.06125 223.71733 228.11688 231.95746
 234.85231 237.21732 239.21396 241.46831 244.54877 248.13263 251.98747 255.82114
 259.30643 262.48773 265.46906 268.31464 271.04517 273.57535 275.81784 277.67096
 278.95267 280.08713 281.22617 282.55423 283.73932 284.78775 285.74377 286.61530
 287.40616 288.11978 288.74469 289.54031
 366.78100 356.34394 345.78488 334.65982 323.07177 311.27471 299.15365 286.96559
 274.68653 262.59247 250.61042 239.92036 230.05130 221.16424 213.35518 206.36612
 200.20906 195.15601 191.74695 189.79789 188.84383 188.91677 189.76071 191.07766
 192.81160 194.91554 197.18748 199.55542 202.00936 204.49830 206.59525 208.44619
 210.08113 211.23507 211.47301 211.70995 211.65590 211.36984 211.01178 210.65072
 210.27666 209.99560 209.81255 209.68549 209.62243 209.96237 210.35731 210.75525
 211.55719 212.74414 214.00308 215.79502 217.73196 219.78390 221.88784 223.97979
 226.04873 228.14167 230.24761 232.36255 234.50049 236.68143 238.94638 241.32532
 243.95526 246.21520 248.22614 250.00008 251.42603 252.55797 253.38891 253.71385
 253.75979 253.54273 252.91167 251.86862 250.48356 248.65350 246.57144 244.41338
 242.21332 240.02627 237.85521 235.70315 233.57209 231.44803 229.48297 227.64891
 225.94086 224.42180 223.06074 221.84168 220.73262 219.70156 218.81451 217.96445
 217.21539 216.40433 215.51127 214.88421 214.34315 214.55804 215.06575 215.75488
 216.32173 217.39604 218.65881 219.69089 221.09119 223.71443 228.11137 231.90106
 234.75023 237.04272 239.02472 241.32246 244.45979 248.07956 251.94522 255.77548
 259.25842 262.44153 265.42755 268.28238 271.02478 273.57007 275.82935 277.68854
 278.96786 280.09592 281.24747 282.54333 283.72977 284.77887 285.73535 286.60559
 287.39597 288.10846 288.73331 289.53323
 366.78100 356.34362 345.78424 334.65887 323.07049 311.27311 299.15173 286.96335
 274.68397 262.58960 250.60722 239.91684 230.04746 221.16008 213.35070 206.36133
 200.20395 195.15057 191.74119 189.79181 188.83743 188.91006 189.75368 191.07030
 192.80392 194.90754 197.17916 199.54679 202.00041 204.48903 206.58565 208.43627
 210.07090 211.22452 211.46214 211.69876 211.64438 211.35800 210.99963 210.63825
 210.26387 209.98249 209.79911 209.67173 209.60836 209.94798 210.34260 210.74022
 211.54184 212.72846 213.98709 215.77871 217.71533 219.76695 221.87057 223.96219
 226.03082 228.12344 230.22906 232.34368 234.48130 236.66193 238.92655 241.30517
 243.93479 246.19441 248.20503 249.97866 251.40428 252.53590 253.36652 253.69114
 253.73676 253.51939 252.88801 251.84463 250.45925 248.62887 246.54649 244.38812
 242.18774 240.00036 237.82898 235.67660 233.54522 231.42085 229.45547 227.62109
 225.91271 224.39333 223.03196 221.81258 220.70320 219.67182 218.78444 217.93406
 217.18469 216.37331 215.47993 214.85255 214.31117 214.54422 215.09483 215.85603
 216.38885 217.44003 218.71928 219.74294 221.11334 223.71994 228.10750 231.83876
 234.64308 236.86661 238.84038 241.18755 244.38055 248.03365 251.90791 255.73372
 259.21588 262.40308 265.39359 268.25821 271.01184 273.56653 275.83838 277.70026
 278.99039 280.11517 281.24713 282.56693 283.75418 284.81006 285.77524 286.65665
 287.46204 288.19446 288.86014 289.72629
 366.78100 356.34350 345.78399 334.65849 323.06998 311.27248 299.15098 286.96247
 274.68297 262.58847 250.60596 239.91546 230.04595 221.15845 213.34895 206.35944
 200.20194 195.14843 191.73893 189.78943 188.83492 188.90742 189.75092 191.06741
 192.80091 194.90440 197.17590 199.54340 201.99689 204.48539 206.58188 208.43238
 210.06688 211.22037 211.45787 211.69437 211.63986 211.35336 210.99485 210.63335
 210.25885 209.97734 209.79384 209.66633 209.60283 209.94233 210.33682 210.73432
 211.53581 212.72231 213.98081 215.77230 217.70880 219.76030 221.86379 223.95529
 226.02378 228.11628 230.22178 232.33627 234.47377 236.65426 238.91876 241.29726
 243.92675 246.18625 248.19675 249.97024 251.39574 252.52723 253.35773 253.68223
 253.72772 253.51022 252.87871 251.83521 250.44971 248.61920 246.53670 244.37820
 242.17769 239.99019 237.81868 235.66618 233.53468 231.41017 229.44467 227.61016
 225.90166 224.38216 223.02065 221.80115 220.69165 219.66014 218.77264 217.92213
 217.17263 216.36113 215.46762 214.84012 214.29861 214.53905 215.10707 215.95621
 216.49727 217.50752 218.78400 219.78635 221.13791 223.73764 228.09402 231.75722
 234.51030 236.67134 238.64667 241.05284 244.30371 247.98988 251.87408 255.69530
 259.17877 262.37173 265.36606 268.24228 271.00516 273.56821 275.85388 277.72574
 279.02457 280.14621 281.24930 282.60590 283.79465 284.84955 285.81857 286.70340
 287.51028 288.24283 288.91006 289.77823
 366.78100 356.34361 345.78422 334.65882 323.07043 311.27304 299.15165 286.96325
 274.68386 262.58947 250.60708 239.91669 230.04729 221.15990 213.35051 206.36112
 200.20373 195.15033 191.74094 189.79155 188.83716 188.90976 189.75337 191.06998
 192.80359 194.90720 197.17880 199.54641 202.00002 204.48863 206.58524 208.43584
 210.07045 211.22406 211.46167 211.69827 211.64388 211.35749 210.99910 210.63771
 210.26331 209.98192 209.79853 209.67114 209.60774 209.94735 210.34196 210.73957
 211.54118 212.72778 213.98639 215.77800 217.71461 219.76622 221.86982 223.96143
 226.03004 228.12265 230.22825 232.34286 234.48047 236.66108 238.92569 241.30429
 243.93390 246.19351 248.20412 249.97773 251.40333 252.53494 253.36555 253.69016
 253.73576 253.51837 252.88698 251.84359 250.45820 248.62780 246.54541 244.38702
 242.18663 239.99923 237.82784 235.67545 233.54406 231.41967 229.45427 227.61988
 225.91149 224.39210 223.03071 221.81131 220.70192 219.67053 218.78314 217.93274
 217.18335 216.37196 215.47857 214.85118 214.30978 214.54573 215.10318 216.04648
 216.63449 217.60332 218.85797 219.82735 221.15273 223.74533 228.06003 231.65443
 234.35300 236.45903 238.44713 240.92143 244.23003 247.94882 251.84334 255.65918
 259.14478 262.34265 265.34116 268.23111 271.00223 273.57355 275.87451 277.76227
 279.07803 280.19385 281.28354 282.61896 283.80765 284.86313 285.83102 286.71368
 287.52075 288.25037 288.91476 289.77631
 366.78100 356.34431 345.78562 334.66093 323.07324 311.27655 299.15586 286.96817
 274.68948 262.59578 250.61409 239.92440 230.05571 221.16902 213.36033 206.37164
 200.21495 195.16226 191.75357 189.80488 188.85119 188.92450 189.76881 191.08612
 192.82043 194.92474 197.19705 199.56535 202.01966 204.50897 206.60628 208.45759
 210.09290 211.24721 211.48552 211.72283 211.66914 211.38345 211.02576 210.66507
 210.29138 210.01069 209.82800 209.70131 209.63862 209.97892 210.37423 210.77254
 211.57485 212.76216 214.02147 215.81378 217.75109 219.80340 221.90771 224.00002
 226.06933 228.16264 230.26895 232.38426 234.52257 236.70388 238.96919 241.34849
 243.97880 246.23911 248.25042 250.02473 251.45104 252.58335 253.41466 253.73997
 253.78628 253.56959 252.93890 251.89621 250.51152 248.68183 246.60014 244.44245
 242.24276 240.05606 237.88537 235.73368 233.60299 231.47930 229.51461 227.68092
 225.97323 224.45454 223.09385 221.87516 220.76647 219.73578 218.84909 217.99940
 217.25071 216.44002 215.54732 214.92063 214.37994 214.58191 215.05905 216.14362
 216.80240 217.71886 218.91518 219.86125 221.17632 223.75578 228.01018 231.53435
 234.17656 236.24039 238.25197 240.80116 244.16406 247.91191 251.81462 255.62413
 259.10962 262.31256 265.31619 268.22098 271.00345 273.58130 275.90134 277.81009
 279.14069 280.24820 281.31332 282.62845 283.81677 284.87265 285.83981 286.72122
 287.52740 288.25558 288.92130 289.78558
 366.78100 356.34543 345.78786 334.66430 323.07773 311.28216 299.16259 286.97603
 274.69846 262.60589 250.62532 239.93675 230.06919 221.18362 213.37605 206.38848
 200.23291 195.18135 191.77378 189.82621 188.87364 188.94808 189.79351 191.11194
 192.84737 194.95280 197.22624 199.59567 202.05110 204.54153 206.63997 208.49240
 210.12883 211.28426 211.52369 211.76213 211.70956 211.42499 211.06842 210.70886
 210.33629 210.05672 209.87515 209.74958 209.68802 210.02945 210.42588 210.82531
 211.62874 212.81718 214.07761 215.87104 217.80947 219.86291 221.96834 224.06177
 226.13220 228.22663 230.33407 232.45050 234.58993 236.77236 239.03880 241.41923
 244.05066 246.31209 248.32452 250.09996 251.52739 252.66082 253.49325 253.81968
 253.86712 253.65155 253.02198 251.98041 250.59685 248.76828 246.68771 244.53114
 242.33257 240.14701 237.97744 235.82687 233.69730 231.57474 229.61117 227.77860
 226.07203 224.55446 223.19490 221.97733 220.86976 219.84019 218.95462 218.10606
 217.35849 216.54892 215.65735 215.03179 214.49222 214.63911 214.98615 216.24956
 216.98033 217.85545 218.98598 219.90446 221.20940 223.75623 227.94147 231.39610
 233.97972 236.01756 238.06396 240.69283 244.10460 247.87938 251.78864 255.58908
 259.07532 262.28546 265.29587 268.21411 271.00732 273.59283 275.93372 277.87180
 279.21542 280.31827 281.34671 282.62753 283.81577 284.87091 285.83850 286.71909
 287.52271 288.25183 288.91165 289.76810
 366.78100 356.34612 345.78924 334.66637 323.08049 311.28561 299.16673 286.98085
 274.70397 262.61210 250.63222 239.94434 230.07746 221.19258 213.38570 206.39883
 200.24395 195.19307 191.78619 189.83931 188.88743 188.96256 189.80868 191.12780
 192.86392 194.97004 197.24416 199.61429 202.07041 204.56153 206.66065 208.51377
 210.15090 211.30702 211.54714 211.78626 211.73438 211.45050 211.09463 210.73575
 210.36387 210.08499 209.90411 209.77923 209.71836 210.06048 210.45760 210.85772
 211.66184 212.85096 214.11209 215.90621 217.84533 219.89945 222.00557 224.09969
 226.17082 228.26594 230.37406 232.49118 234.63130 236.81443 239.08155 241.46267
 244.09479 246.35691 248.37003 250.14616 251.57428 252.70840 253.54152 253.86864
 253.91676 253.70189 253.07301 252.03213 250.64925 248.82137 246.74149 244.58562
 242.38774 240.20286 238.03398 235.88410 233.75522 231.63335 229.67047 227.83859
 226.13271 224.61583 223.25696 222.04008 220.93320 219.90432 219.01944 218.17156
 217.42469 216.61581 215.72493 215.10005 214.56117 214.67447 214.94214 216.32199
 217.15813 218.02831 219.10339 219.95474 221.21597 223.73738 227.86163 231.24954
 233.77423 235.80499 237.89362 240.60118 244.05383 247.85196 251.76477 255.55197
 259.03854 262.25436 265.27267 268.20551 271.00571 273.59723 275.95599 277.92758
 279.27264 280.38205 281.37039 282.62378 283.81076 284.86646 285.83185 286.71213
 287.51486 288.24207 288.89322 289.75201
 366.78100 356.34598 345.78896 334.66594 323.07992 311.28490 299.16587 286.97985
 274.70283 262.61081 250.63079 239.94277 230.07575 221.19073 213.38371 206.39669
 200.24166 195.19064 191.78362 189.83660 188.88458 188.95956 189.80554 191.12452
 192.86050 194.96648 197.24046 199.61043 202.06641 204.55739 206.65637 208.50935
 210.14633 211.30231 211.54229 211.78127 211.72925 211.44523 211.08920 210.73018
 210.35816 210.07914 209.89812 209.77310 209.71208 210.05406 210.45104 210.85102
 211.65499 212.84397 214.10495 215.89893 217.83791 219.89189 221.99787 224.09185
 226.16283 228.25781 230.36579 232.48276 234.62274 236.80572 239.07270 241.45368
 244.08566 246.34764 248.36062 250.13660 251.56458 252.69855 253.53153 253.85851
 253.90649 253.69147 253.06245 252.02143 250.63841 248.81039 246.73037 244.57435
 242.37632 240.19130 238.02228 235.87226 233.74324 231.62122 229.65820 227.82618
 226.12016 224.60314 223.24411 222.02709 220.92007 219.89105 219.00603 218.15801
 217.41099 216.60197 215.71095 215.08593 214.54691 214.66862 214.95619 216.33568
 217.32185 218.22340 219.22696 219.99017 221.21158 223.71985 227.78470 231.10872
 233.57951 235.60954 237.74324 240.52452 244.01176 247.82770 251.74092 255.51321
 258.99658 262.21448 265.23840 268.18549 270.99283 273.58813 275.95572 277.93253
 279.29428 280.41486 281.40607 282.61078 283.79031 284.84320 285.80505 286.68103
 287.47849 288.19754 288.83167 289.65311
 366.78100 356.34563 345.78825 334.66488 323.07850 311.28313 299.16376 286.97738
 274.70001 262.60763 250.62726 239.93889 230.07151 221.18614 213.37876 206.39139
 200.23602 195.18464 191.77727 189.82989 188.87752 188.95215 189.79777 191.11640
 192.85202 194.95765 197.23128 199.60090 202.05653 204.54715 206.64578 208.49840
 210.13503 211.29066 211.53028 211.76891 211.71653 211.43216 211.07579 210.71641
 210.34404 210.06466 209.88329 209.75792 209.69654 210.03817 210.43479 210.83442
 211.63805 212.82667 214.08730 215.88092 217.81955 219.87318 221.97880 224.07243
 226.14305 228.23768 230.34531 232.46193 234.60156 236.78418 239.05081 241.43144
 244.06306 246.32469 248.33731 250.11294 251.54057 252.67419 253.50682 253.83344
 253.88107 253.66570 253.03632 251.99495 250.61157 248.78320 246.70283 244.54645
 242.34808 240.16270 237.99333 235.84296 233.71358 231.59121 229.62783 227.79546
 226.08909 224.57171 223.21234 221.99496 220.88759 219.85821 218.97284 218.12447
 217.37709 216.56772 215.67634 215.05097 214.51160 214.65279 214.98636 216.33504
 217.45137 218.40515 219.34421 220.01764 221.21443 223.71837 227.71924 230.98085
 233.40329 235.42790 237.60724 240.45891 243.97792 247.80637 251.71783 255.47444
 258.95337 262.16968 265.19620 268.15683 270.97144 273.56903 275.94321 277.92249
 279.28635 280.40997 281.42560 282.59598 283.76654 284.82153 285.78091 286.65594
 287.45242 288.17065 288.80209 289.61420
 366.78100 356.34554 345.78807 334.66461 323.07814 311.28268 299.16322 286.97675
 274.69929 262.60683 250.62636 239.93790 230.07043 221.18497 213.37751 206.39004
 200.23458 195.18312 191.77565 189.82819 188.87572 188.95026 189.79580 191.11433
 192.84987 194.95541 197.22894 199.59848 202.05401 204.54455 206.64309 208.49562
 210.13216 211.28770 211.52723 211.76577 211.71330 211.42884 211.07238 210.71291
 210.34045 210.06099 209.87952 209.75406 209.69259 210.03413 210.43067 210.83020
 211.63374 212.82228 214.08281 215.87635 217.81488 219.86842 221.97396 224.06749
 226.13803 228.23257 230.34010 232.45664 234.59617 236.77871 239.04525 241.42578
 244.05732 246.31886 248.33139 250.10693 251.53446 252.66800 253.50054 253.82707
 253.87461 253.65915 253.02968 251.98822 250.60475 248.77629 246.69583 244.53936
 242.34090 240.15544 237.98597 235.83551 233.70604 231.58358 229.62012 227.78765
 226.08119 224.56373 223.20426 221.98680 220.87933 219.84987 218.96441 218.11594
 217.36848 216.55902 215.66755 215.04209 214.50262 214.64925 214.99565 216.36658
 217.54782 218.54626 219.45679 220.05470 221.23506 223.73727 227.66537 230.86047
 233.23427 235.24985 237.47617 240.39830 243.94809 247.78729 251.69612 255.43683
 258.90979 262.12241 265.15146 268.12543 270.94672 273.54556 275.92538 277.90771
 279.26663 280.39035 281.42465 282.57959 283.74957 284.80209 285.76334 286.63913
 287.43616 288.15402 288.78677 289.60190
 366.78100 356.34582 345.78864 334.66546 323.07928 311.28410 299.16492 286.97874
 274.70155 262.60937 250.62919 239.94101 230.07383 221.18865 213.38147 206.39429
 200.23911 195.18793 191.78075 189.83357 188.88139 188.95621 189.80202 191.12084
 192.85666 194.96248 197.23630 199.60612 202.06194 204.55276 206.65158 208.50440
 210.14122 211.29704 211.53686 211.77568 211.72349 211.43931 211.08313 210.72395
 210.35177 210.07259 209.89141 209.76623 209.70505 210.04687 210.44369 210.84351
 211.64733 212.83615 214.09696 215.89078 217.82960 219.88342 221.98924 224.08306
 226.15388 228.24870 230.35652 232.47334 234.61316 236.79598 239.06280 241.44362
 244.07543 246.33725 248.35007 250.12589 251.55371 252.68753 253.52035 253.84717
 253.89499 253.67981 253.05063 252.00945 250.62627 248.79809 246.71791 244.56172
 242.36354 240.17836 238.00918 235.85900 233.72982 231.60764 229.64446 227.81228
 226.10610 224.58892 223.22974 222.01256 220.90538 219.87619 218.99101 218.14283
 217.39565 216.58647 215.69529 215.07011 214.53093 214.66260 214.97369 216.42235
 217.65498 218.67006 219.56955 220.09988 221.25900 223.75684 227.60588 230.72688
 233.04935 235.05873 237.34032 240.33806 243.92111 247.77200 251.67853 255.40311
 258.87018 262.07922 265.10846 268.09445 270.92059 273.51801 275.90140 277.88278
 279.23798 280.36404 281.41348 282.56424 283.73434 284.78851 285.75000 286.62558
 287.42410 288.14337 288.77609 289.59268
 366.78100 356.34636 345.78973 334.66709 323.08146 311.28682 299.16819 286.98255
 274.70591 262.61428 250.63464 239.94701 230.08037 221.19574 213.38910 206.40247
 200.24783 195.19719 191.79056 189.84392 188.89229 188.96765 189.81402 191.13338
 192.86974 194.97611 197.25047 199.62084 202.07720 204.56857 206.66793 208.52129
 210.15866 211.31502 211.55539 211.79475 211.74312 211.45948 211.10384 210.74521
 210.37357 210.09494 209.91430 209.78967 209.72903 210.07140 210.46876 210.86912
 211.67349 212.86285 214.12422 215.91858 217.85795 219.91231 222.01867 224.11304
 226.18440 228.27977 230.38813 232.50550 234.64586 236.82922 239.09659 241.47795
 244.11032 246.37268 248.38605 250.16241 251.59078 252.72514 253.55850 253.88587
 253.93423 253.71960 253.09096 252.05033 250.66769 248.84005 246.76042 244.60478
 242.40715 240.22251 238.05388 235.90424 233.77560 231.65397 229.69133 227.85970
 226.15406 224.63743 223.27879 222.06215 220.95552 219.92688 219.04225 218.19461
 217.44798 216.63934 215.74871 215.12407 214.58543 214.68745 214.92847 216.47289
 217.79402 218.80630 219.68907 220.14777 221.27327 223.75797 227.52669 230.56848
 232.84341 234.85812 237.20651 240.28583 243.90408 247.76682 251.67001 255.37823
 258.83841 262.04321 265.07187 268.06625 270.89279 273.48627 275.86807 277.84326
 279.19565 280.32770 281.39175 282.55112 283.72162 284.77548 285.73727 286.61417
 287.41391 288.13290 288.76596 289.58368
 366.78100 356.34691 345.79082 334.66873 323.08364 311.28955 299.17146 286.98637
 274.71028 262.61919 250.64010 239.95301 230.08692 221.20283 213.39674 206.41065
 200.25656 195.20648 191.80039 189.85430 188.90321 188.97912 189.82603 191.14594
 192.88285 194.98976 197.26467 199.63558 202.09249 204.58440 206.68431 208.53822
 210.17613 211.33304 211.57395 211.81386 211.76277 211.47968 211.12459 210.76650
 210.39541 210.11732 209.93723 209.81314 209.75305 210.09596 210.49387 210.89478
 211.69969 212.88960 214.15151 215.94643 217.88634 219.94125 222.04816 224.14307
 226.21498 228.31089 230.41980 232.53771 234.67862 236.86253 239.13044 241.51235
 244.14526 246.40817 248.42208 250.19899 251.62790 252.76281 253.59672 253.92463
 253.97354 253.75945 253.13136 252.09127 250.70918 248.88209 246.80300 244.64791
 242.45082 240.26673 238.09864 235.94955 233.82147 231.70038 229.73829 227.90720
 226.20211 224.68602 223.32793 222.11184 221.00575 219.97766 219.09357 218.24648
 217.50039 216.69230 215.80221 215.17812 214.64003 214.71112 214.87906 216.50772
 217.94719 218.95583 219.81749 220.19841 221.27571 223.73730 227.42941 230.39400
 232.63153 234.66498 237.08908 240.25006 243.90244 247.77420 251.67117 255.36060
 258.81088 262.00952 265.03687 268.03619 270.85947 273.44632 275.82178 277.78320
 279.13409 280.27695 281.35895 282.53870 283.71207 284.76544 285.72818 286.60547
 287.40399 288.12421 288.75693 289.57516
 366.78100 356.34731 345.79162 334.66994 323.08525 311.29156 299.17387 286.98918
 274.71350 262.62281 250.64412 239.95743 230.09174 221.20805 213.40237 206.41668
 200.26299 195.21330 191.80761 189.86193 188.91124 188.98755 189.83486 191.15517
 192.89249 194.99980 197.27511 199.64642 202.10373 204.59605 206.69636 208.55067
 210.18898 211.34629 211.58760 211.82792 211.77723 211.49454 211.13985 210.78216
 210.41148 210.13379 209.95410 209.83041 209.77072 210.11404 210.51235 210.91366
 211.71897 212.90928 214.17160 215.96691 217.90722 219.96253 222.06984 224.16516
 226.23747 228.33378 230.44309 232.56140 234.70271 236.88703 239.15534 241.53765
 244.17096 246.43427 248.44859 250.22590 251.65521 252.79052 253.62483 253.95315
 254.00246 253.78877 253.16108 252.12139 250.73971 248.91302 246.83433 244.67964
 242.48295 240.29926 238.13158 235.98289 233.85520 231.73451 229.77282 227.94214
 226.23745 224.72176 223.36407 222.14838 221.04270 220.01501 219.13132 218.28463
 217.53894 216.73126 215.84157 215.21788 214.68019 214.72687 214.83714 216.52621
 218.09616 219.11517 219.95430 220.25281 221.27425 223.69899 227.31805 230.21545
 232.42870 234.49060 236.99109 240.23015 243.91338 247.79068 251.67676 255.34393
 258.78113 261.97250 264.99896 267.99976 270.81790 273.39526 275.75958 277.70154
 279.05386 280.21231 281.32669 282.52386 283.69708 284.75262 285.71667 286.59485
 287.39343 288.11374 288.74734 289.56500
 366.78100 356.34758 345.79217 334.67075 323.08633 311.29292 299.17550 286.99108
 274.71566 262.62525 250.64683 239.96041 230.09500 221.21158 213.40616 206.42075
 200.26733 195.21791 191.81250 189.86708 188.91666 188.99324 189.84083 191.16141
 192.89899 195.00658 197.28216 199.65374 202.11133 204.60391 206.70449 208.55907
 210.19766 211.35524 211.59682 211.83741 211.78699 211.50457 211.15016 210.79274
 210.42232 210.14491 209.96549 209.84207 209.78265 210.12624 210.52482 210.92640
 211.73199 212.92257 214.18515 215.98074 217.92132 219.97690 222.08449 224.18007
 226.25265 228.34923 230.45882 232.57740 234.71898 236.90357 239.17215 241.55473
 244.18832 246.45190 248.46648 250.24406 251.67365 252.80923 253.64381 253.97240
 254.02198 253.80856 253.18115 252.14173 250.76031 248.93390 246.85548 244.70106
 242.50464 240.32123 238.15381 236.00539 233.87798 231.75756 229.79614 227.96573
 226.26131 224.74589 223.38848 222.17306 221.06764 220.04022 219.15681 218.31039
 217.56497 216.75756 215.86814 215.24472 214.70731 214.73549 214.80205 216.52954
 218.23734 219.28540 220.10291 220.31143 221.26247 223.64650 227.20276 230.03954
 232.23515 234.33047 236.90732 240.22200 243.93410 247.81357 251.68433 255.32695
 258.74823 261.93170 264.95816 267.95752 270.76740 273.33472 275.68106 277.59918
 278.95883 280.13580 281.21970 282.52975 283.71051 284.76083 285.72018 286.59497
 287.39096 288.10941 288.73938 289.55429
 366.78100 356.34779 345.79258 334.67137 323.08716 311.29395 299.17674 286.99253
 274.71732 262.62711 250.64890 239.96269 230.09748 221.21427 213.40906 206.42385
 200.27064 195.22143 191.81622 189.87102 188.92081 188.99760 189.84539 191.16618
 192.90397 195.01176 197.28755 199.65934 202.11713 204.60992 206.71071 208.56550
 210.20429 211.36208 211.60387 211.84466 211.79445 211.51224 211.15803 210.80082
 210.43061 210.15340 209.97419 209.85098 209.79177 210.13556 210.53435 210.93614
 211.74193 212.93272 214.19551 215.99130 217.93209 219.98788 222.09567 224.19147
 226.26426 228.36105 230.47084 232.58963 234.73142 236.91621 239.18500 241.56779
 244.20158 246.46537 248.48016 250.25795 251.68774 252.82353 253.65832 253.98711
 254.03690 253.82369 253.19648 252.15727 250.77606 248.94985 246.87164 244.71743
 242.52122 240.33801 238.17080 236.02259 233.89538 231.77517 229.81396 227.98375
 226.27954 224.76433 223.40712 222.19191 221.08671 220.05950 219.17629 218.33008
 217.58487 216.77766 215.88845 215.26524 214.72803 214.74023 214.76909 216.52196
 218.37529 219.46347 220.25203 220.37122 221.25420 223.58191 227.07617 229.86485
 232.05194 234.18227 236.83418 240.22295 243.96335 247.84187 251.69333 255.30975
 258.71277 261.88803 264.91693 267.91061 270.70810 273.26288 275.58456 277.47861
 278.85147 280.05249 281.18573 282.51413 283.69907 284.75259 285.71393 286.59048
 287.38766 288.10538 288.73517 289.55374
 366.78100 356.34797 345.79294 334.67191 323.08789 311.29486 299.17783 286.99380
 274.71877 262.62874 250.65072 239.96469 230.09966 221.21663 213.41160 206.42657
 200.27354 195.22452 191.81949 189.87446 188.92443 189.00140 189.84937 191.17035
 192.90832 195.01629 197.29226 199.66423 202.12220 204.61517 206.71615 208.57112
 210.21009 211.36806 211.61003 211.85100 211.80098 211.51895 211.16492 210.80789
 210.43786 210.16083 209.98181 209.85878 209.79975 210.14372 210.54269 210.94466
 211.75063 212.94161 214.20458 216.00055 217.94152 219.99749 222.10546 224.20144
 226.27441 228.37138 230.48135 232.60032 234.74229 236.92726 239.19624 241.57921
 244.21318 246.47715 248.49212 250.27009 251.70007 252.83604 253.67101 253.99998
 254.04995 253.83692 253.20989 252.17087 250.78984 248.96381 246.88578 244.73175
 242.53572 240.35270 238.18567 236.03764 233.91061 231.79058 229.82955 227.99952
 226.29550 224.78047 223.42344 222.20841 221.10338 220.07635 219.19333 218.34730
 217.60227 216.79524 215.90621 215.28318 214.74615 214.74339 214.73688 216.50899
 218.50745 219.64565 220.40842 220.42993 221.21747 223.50421 226.95856 229.69781
 231.87198 234.03783 236.76707 240.23183 244.00150 247.87695 251.70537 255.29373
 258.67682 261.84354 264.87491 267.85876 270.64197 273.18039 275.47055 277.34079
 278.73172 279.96558 281.16342 282.49979 283.68747 284.74246 285.70749 286.58453
 287.38367 288.10217 288.73325 289.55029
 366.78100 356.34812 345.79324 334.67236 323.08848 311.29560 299.17872 286.99484
 274.71996 262.63008 250.65220 239.96632 230.10144 221.21856 213.41368 206.42880
 200.27592 195.22704 191.82216 189.87728 188.92740 189.00452 189.85264 191.17376
 192.91188 195.02000 197.29612 199.66824 202.12636 204.61948 206.72061 208.57573
 210.21485 211.37297 211.61509 211.85621 211.80633 211.52445 211.17057 210.81369
 210.44381 210.16693 209.98805 209.86517 209.80629 210.15041 210.54953 210.95165
 211.75777 212.94889 214.21201 216.00813 217.94925 220.00537 222.11349 224.20961
 226.28273 228.37985 230.48997 232.60909 234.75121 236.93633 239.20545 241.58857
 244.22269 246.48681 248.50193 250.28005 251.71017 252.84629 253.68141 254.01053
 254.06065 253.84777 253.22089 252.18201 250.80113 248.97525 246.89737 244.74349
 242.54761 240.36473 238.19785 236.04997 233.92309 231.80321 229.84233 228.01245
 226.30857 224.79369 223.43682 222.22194 221.11706 220.09018 219.20730 218.36142
 217.61654 216.80966 215.92078 215.29790 214.76102 214.74510 214.70749 216.49487
 218.63866 219.82140 220.54678 220.49397 221.20645 223.42007 226.82011 229.52254
 231.69492 233.90062 236.70886 240.25049 244.04973 247.91954 251.72075 255.27879
 258.63840 261.79672 264.83072 267.80142 270.56671 273.08530 275.33972 277.18628
 278.60385 279.88190 281.14697 282.49039 283.67944 284.73529 285.69980 286.57922
 287.37735 288.09814 288.72665 289.53906
 366.78100 356.34823 345.79346 334.67270 323.08893 311.29616 299.17939 286.99563
 274.72086 262.63109 250.65332 239.96756 230.10279 221.22002 213.41525 206.43049
 200.27772 195.22895 191.82418 189.87942 188.92965 189.00688 189.85511 191.17635
 192.91458 195.02281 197.29904 199.67128 202.12951 204.62274 206.72397 208.57921
 210.21844 211.37667 211.61890 211.86014 211.81037 211.52860 211.17483 210.81807
 210.44830 210.17153 209.99276 209.87000 209.81123 210.15546 210.55469 210.95693
 211.76316 212.95439 214.21762 216.01386 217.95509 220.01132 222.11955 224.21579
 226.28902 228.38625 230.49648 232.61572 234.75795 236.94318 239.21241 241.59565
 244.22988 246.49411 248.50934 250.28758 251.71781 252.85404 253.68927 254.01851
 254.06874 253.85597 253.22920 252.19044 250.80967 248.98390 246.90613 244.75237
 242.55660 240.37383 238.20706 236.05930 233.93253 231.81276 229.85199 228.02223
 226.31846 224.80369 223.44692 222.23216 221.12739 220.10062 219.21785 218.37208
 217.62732 216.82055 215.93178 215.30901 214.77225 214.74574 214.68312 216.47581
 218.76950 220.00624 220.69249 220.54733 221.14320 223.32181 226.70036 229.35672
 231.51814 233.76488 236.65634 240.27730 244.10698 247.96875 251.73854 255.26376
 258.59778 261.74838 264.78693 267.73999 270.48523 272.98010 275.19485 277.02161
 278.47241 279.80560 281.13266 282.48242 283.67084 284.72794 285.69223 286.57315
 287.37250 288.09137 288.72000 289.53235
 366.78100 356.34826 345.79352 334.67278 323.08904 311.29630 299.17956 286.99582
 274.72108 262.63134 250.65359 239.96785 230.10311 221.22037 213.41563 206.43089
 200.27815 195.22941 191.82467 189.87993 188.93019 189.00745 189.85571 191.17697
 192.91523 195.02349 197.29975 199.67201 202.13027 204.62352 206.72478 208.58004
 210.21930 211.37756 211.61982 211.86108 211.81134 211.52960 211.17586 210.81912
 210.44938 210.17264 209.99390 209.87116 209.81242 210.15668 210.55594 210.95820
 211.76446 212.95571 214.21897 216.01523 217.95649 220.01275 222.12101 224.21727
 226.29053 228.38779 230.49805 232.61731 234.75957 236.94483 239.21409 241.59735
 244.23161 246.49587 248.51113 250.28939 251.71964 252.85590 253.69116 254.02042
 254.07068 253.85794 253.23120 252.19246 250.81172 248.98598 246.90824 244.75450
 242.55876 240.37602 238.20928 236.06154 233.93480 231.81506 229.85432 228.02457
 226.32083 224.80609 223.44935 222.23461 221.12987 220.10313 219.22039 218.37465
 217.62991 216.82317 215.93443 215.31169 214.77495 214.74287 214.66713 216.45045
 218.88422 220.19060 220.84952 220.61194 221.09802 223.19769 226.55444 229.18646
 231.34438 233.63696 236.61536 240.31728 244.17723 248.02840 251.76295 255.25348
 258.56052 261.70355 264.74600 267.67679 270.39929 272.86649 275.04031 276.85275
 278.34402 279.73636 281.11777 282.47134 283.66046 284.71970 285.68433 286.56516
 287.36426 288.08249 288.70947 289.52170
 366.78100 356.34817 345.79333 334.67250 323.08866 311.29583 299.17900 286.99516
 274.72033 262.63049 250.65266 239.96683 230.10199 221.21916 213.41433 206.42949
 200.27666 195.22782 191.82299 189.87816 188.92832 189.00549 189.85365 191.17482
 192.91299 195.02115 197.29732 199.66948 202.12765 204.62082 206.72198 208.57715
 210.21632 211.37448 211.61665 211.85781 211.80798 211.52615 211.17231 210.81548
 210.44564 210.16881 209.98998 209.86714 209.80831 210.15247 210.55164 210.95381
 211.75997 212.95114 214.21430 216.01047 217.95164 220.00780 222.11597 224.21214
 226.28530 228.38247 230.49263 232.61180 234.75397 236.93913 239.20830 241.59146
 244.22563 246.48980 248.50496 250.28313 251.71329 252.84946 253.68463 254.01379
 254.06396 253.85113 253.22429 252.18546 250.80462 248.97879 246.90096 244.74712
 242.55129 240.36845 238.20162 236.05379 233.92695 231.80712 229.84628 228.01645
 226.31262 224.79778 223.44095 222.22611 221.12128 220.09445 219.21161 218.36578
 217.62095 216.81411 215.92528 215.30244 214.76561 214.73402 214.65944 216.42665
 218.96851 220.34348 220.98416 220.68195 221.07216 223.07704 226.40407 229.02151
 231.18558 233.52884 236.59422 240.37550 244.26472 248.10204 251.79701 255.24925
 258.52682 261.66357 264.70682 267.61316 270.30872 272.74365 274.87314 276.67569
 278.21823 279.67407 281.09958 282.45871 283.64890 284.70612 285.67258 286.55399
 287.35242 288.07178 288.69858 289.50861
 366.78100 356.34794 345.79287 334.67181 323.08775 311.29469 299.17762 286.99356
 274.71850 262.62843 250.65037 239.96431 230.09924 221.21618 213.41112 206.42606
 200.27299 195.22393 191.81887 189.87380 188.92374 189.00068 189.84862 191.16955
 192.90749 195.01543 197.29136 199.66330 202.12124 204.61417 206.71511 208.57005
 210.20899 211.36692 211.60886 211.84980 211.79973 211.51767 211.16361 210.80655
 210.43648 210.15942 209.98036 209.85729 209.79823 210.14217 210.54110 210.94304
 211.74898 212.93992 214.20285 215.99879 217.93973 219.99566 222.10360 224.19954
 226.27248 228.36941 230.47935 232.59829 234.74022 236.92516 239.19410 241.57703
 244.21097 246.47491 248.48985 250.26778 251.69772 252.83366 253.66859 253.99753
 254.04747 253.83441 253.20734 252.16828 250.78722 248.96115 246.88309 244.72903
 242.53297 240.34990 238.18284 236.03478 233.90771 231.78765 229.82659 227.99652
 226.29246 224.77740 223.42034 222.20527 221.10021 220.07315 219.19008 218.34402
 217.59896 216.79190 215.90283 215.27977 214.74271 214.71796 214.65945 216.40959
 219.03641 220.46246 221.09537 220.74193 221.03716 222.95786 226.26239 228.86989
 231.04462 233.44185 236.59174 240.44963 244.36595 248.18584 251.83746 255.25037
 258.49838 261.62634 264.66797 267.54529 270.20996 272.60950 274.69867 276.50256
 278.09930 279.60977 281.08124 282.44275 283.63132 284.68939 285.65509 286.53384
 287.33313 288.04892 288.67795 289.48456
 366.78100 356.34749 345.79198 334.67047 323.08596 311.29245 299.17494 286.99042
 274.71491 262.62440 250.64589 239.95938 230.09387 221.21036 213.40485 206.41934
 200.26583 195.21632 191.81081 189.86530 188.91478 188.99127 189.83876 191.15925
 192.89674 195.00423 197.27972 199.65121 202.10870 204.60119 206.70168 208.55617
 210.19465 211.35214 211.59363 211.83412 211.78361 211.50110 211.14659 210.78908
 210.41857 210.14106 209.96155 209.83804 209.77853 210.12201 210.52050 210.92199
 211.72748 212.91797 214.18046 215.97595 217.91644 219.97193 222.07942 224.17491
 226.24740 228.34389 230.45337 232.57186 234.71335 236.89784 239.16633 241.54882
 244.18231 246.44580 248.46029 250.23778 251.66727 252.80276 253.63725 253.96573
 254.01522 253.80171 253.17420 252.13469 250.75318 248.92667 246.84816 244.69365
 242.49714 240.31363 238.14612 235.99761 233.87009 231.74958 229.78807 227.95756
 226.25305 224.73754 223.38003 222.16452 221.05901 220.03150 219.14799 218.30148
 217.55596 216.74845 215.85894 215.23543 214.69792 214.69197 214.67790 216.40337
 219.08580 220.54738 221.17668 220.78406 220.98322 222.83900 226.13339 228.73451
 230.92184 233.37260 236.60440 240.53625 244.47826 248.27795 251.88388 255.25409
 258.47049 261.59021 264.62750 267.47446 270.10477 272.46182 274.51465 276.32916
 277.98276 279.54074 281.06000 282.42465 283.61188 284.66785 285.63098 286.51172
 287.30795 288.02377 288.64688 289.45432
 366.78100 356.34675 345.79050 334.66826 323.08301 311.28876 299.17051 286.98527
 274.70902 262.61777 250.63852 239.95128 230.08503 221.20078 213.39453 206.40829
 200.25404 195.20379 191.79754 189.85130 188.90005 188.97580 189.82255 191.14230
 192.87906 194.98581 197.26056 199.63131 202.08807 204.57982 206.67957 208.53332
 210.17108 211.32783 211.56858 211.80833 211.75709 211.47384 211.11859 210.76034
 210.38909 210.11085 209.93060 209.80635 209.74610 210.08886 210.48661 210.88736
 211.69211 212.88187 214.14362 215.93837 217.87812 219.93288 222.03963 224.13438
 226.20613 228.30189 230.41064 232.52839 234.66914 236.85289 239.12065 241.50240
 244.13515 246.39790 248.41166 250.18841 251.61716 252.75191 253.58567 253.91342
 253.96217 253.74792 253.11968 252.07943 250.69718 248.86993 246.79068 244.63544
 242.43819 240.25394 238.08569 235.93645 233.80820 231.68695 229.72470 227.89346
 226.18821 224.67196 223.31371 222.09747 220.99122 219.96297 219.07872 218.23148
 217.48523 216.67698 215.78673 215.16248 214.62424 214.65273 214.72003 216.42116
 219.09883 220.59441 221.21960 220.80637 220.91760 222.72682 226.01941 228.61691
 230.81833 233.32394 236.63423 240.63632 244.60158 248.37854 251.93649 255.26378
 258.44769 261.55594 264.58350 267.39520 269.98572 272.30145 274.32193 276.16266
 277.87512 279.48785 281.01993 282.38510 283.57245 284.62723 285.59097 286.46817
 287.26239 287.97623 288.60059 289.40604
 366.78100 356.34577 345.78853 334.66530 323.07906 311.28383 299.16459 286.97836
 274.70112 262.60889 250.62865 239.94042 230.07318 221.18795 213.38071 206.39348
 200.23824 195.18701 191.77978 189.83254 188.88031 188.95507 189.80084 191.11960
 192.85537 194.96113 197.23490 199.60466 202.06043 204.55119 206.64996 208.50272
 210.13949 211.29525 211.53502 211.77378 211.72155 211.43732 211.08108 210.72185
 210.34961 210.07038 209.88914 209.76391 209.70267 210.04444 210.44120 210.84097
 211.64473 212.83350 214.09426 215.88803 217.82679 219.88056 221.98633 224.08009
 226.15086 228.24562 230.35339 232.47015 234.60992 236.79268 239.05945 241.44021
 244.07198 246.33374 248.34651 250.12227 251.55004 252.68380 253.51657 253.84333
 253.89110 253.67587 253.04663 252.00540 250.62216 248.79393 246.71369 244.55746
 242.35922 240.17399 238.00475 235.85452 233.72528 231.60305 229.63981 227.80758
 226.10134 224.58411 223.22488 222.00764 220.90041 219.87117 218.98594 218.13770
 217.39047 216.58123 215.69000 215.06476 214.52553 214.59763 214.76797 216.47128
 219.08911 220.61205 221.22145 220.80338 220.84195 222.62144 225.91876 228.51791
 230.73788 233.29936 236.68491 240.75359 244.74077 248.49434 252.00339 255.28569
 258.43149 261.52371 264.53644 267.30688 269.85190 272.11713 274.12790 275.99985
 277.77756 279.42990 280.96436 282.32861 283.51398 284.56842 285.52960 286.40637
 287.19894 287.91107 288.53326 289.33789
 366.78100 356.34498 345.78696 334.66294 323.07592 311.27990 299.15988 286.97286
 274.69484 262.60182 250.62080 239.93178 230.06376 221.17774 213.36972 206.38170
 200.22568 195.17366 191.76564 189.81762 188.86460 188.93858 189.78356 191.10154
 192.83653 194.94151 197.21449 199.58347 202.03845 204.52843 206.62641 208.47839
 210.11437 211.26935 211.50833 211.74631 211.69329 211.40827 211.05125 210.69123
 210.31821 210.03819 209.85617 209.73015 209.66813 210.00911 210.40509 210.80407
 211.60705 212.79503 214.05501 215.84799 217.78597 219.83895 221.94393 224.03691
 226.10689 228.20087 230.30785 232.42383 234.56281 236.74479 239.01077 241.39075
 244.02173 246.28271 248.29469 250.06967 251.49665 252.62963 253.46162 253.78760
 253.83458 253.61856 252.98854 251.94652 250.56250 248.73348 246.65246 244.49544
 242.29642 240.11040 237.94038 235.78936 233.65934 231.53632 229.57230 227.73928
 226.03226 224.51424 223.15422 221.93620 220.82818 219.79816 218.91214 218.06312
 217.31510 216.50508 215.61306 214.98704 214.44702 214.54967 214.79214 216.53409
 219.10236 220.63049 221.19736 220.77274 220.75099 222.51039 225.81207 228.41139
 230.65573 233.28389 236.75130 240.88741 244.89841 248.62973 252.09114 255.32497
 258.43069 261.50256 264.49472 267.22009 269.70163 271.91068 273.91818 275.85562
 277.67892 279.35294 280.87720 282.23969 283.42410 284.47351 285.43320 286.30655
 287.09738 287.80438 288.42493 289.22845
 366.78100 356.34489 345.78677 334.66266 323.07555 311.27943 299.15932 286.97221
 274.69409 262.60098 250.61987 239.93075 230.06264 221.17653 213.36841 206.38030
 200.22419 195.17207 191.76396 189.81585 188.86273 188.93662 189.78151 191.09939
 192.83428 194.93917 197.21205 199.58094 202.03583 204.52571 206.62360 208.47549
 210.11137 211.26626 211.50515 211.74303 211.68992 211.40481 211.04769 210.68758
 210.31447 210.03435 209.85224 209.72613 209.66401 210.00490 210.40079 210.79967
 211.60256 212.79045 214.05033 215.84322 217.78111 219.83399 221.93888 224.03177
 226.10165 228.19554 230.30243 232.41831 234.55720 236.73909 239.00497 241.38486
 244.01575 246.27663 248.28852 250.06341 251.49029 252.62318 253.45507 253.78095
 253.82784 253.61173 252.98161 251.93950 250.55539 248.72627 246.64516 244.48805
 242.28893 240.10282 237.93271 235.78159 233.65148 231.52837 229.56425 227.73114
 226.02403 224.50591 223.14580 221.92769 220.81957 219.78946 218.90335 218.05423
 217.30612 216.49601 215.60389 214.97778 214.43767 214.54161 214.78717 216.58661
 219.17224 220.68817 221.17497 220.71039 220.62823 222.37160 225.67601 228.26878
 230.54243 233.25073 236.81256 241.01959 245.06003 248.77698 252.19923 255.39391
 258.46274 261.50940 264.47769 267.13593 269.54657 271.76004 273.77368 275.70480
 277.56137 279.21500 280.71835 282.06973 283.25000 284.29663 285.25305 286.12180
 286.90915 287.61523 288.23380 289.03824
 366.78100 356.34513 345.78727 334.66340 323.07653 311.28067 299.16080 286.97393
 274.69606 262.60320 250.62233 239.93346 230.06560 221.17973 213.37186 206.38400
 200.22813 195.17626 191.76840 189.82053 188.86766 188.94180 189.78693 191.10506
 192.84019 194.94533 197.21846 199.58759 202.04273 204.53286 206.63099 208.48313
 210.11926 211.27439 211.51353 211.75166 211.69879 211.41392 211.05706 210.69719
 210.32432 210.04446 209.86259 209.73672 209.67486 210.01599 210.41212 210.81126
 211.61439 212.80252 214.06266 215.85579 217.79392 219.84705 221.95219 224.04532
 226.11545 228.20959 230.31672 232.43285 234.57199 236.75412 239.02025 241.40039
 244.03152 246.29265 248.30479 250.07992 251.50705 252.64018 253.47232 253.79845
 253.84558 253.62972 252.99985 251.95798 250.57412 248.74525 246.66438 244.50752
 242.30865 240.12278 237.95291 235.80205 233.67218 231.54931 229.58545 227.75258
 226.04571 224.52785 223.16798 221.95011 220.84225 219.81238 218.92651 218.07765
 217.32978 216.51991 215.62804 215.00218 214.46231 214.55037 214.75841 216.61188
 219.27438 220.80687 221.22653 220.69080 220.51987 222.21991 225.50122 228.06328
 230.36433 233.16788 236.84053 241.12201 245.18492 248.89432 252.29115 255.46060
 258.50238 261.54221 264.50021 267.15436 269.58298 271.46402 273.85699 275.72531
 277.47784 279.07651 280.51117 281.81381 282.98074 284.02283 284.97610 285.84470
 286.63220 287.34027 287.95911 288.76053
 366.78100 356.34497 345.78693 334.66290 323.07587 311.27983 299.15980 286.97276
 274.69473 262.60170 250.62066 239.93163 230.06360 221.17756 213.36953 206.38149
 200.22546 195.17343 191.76539 189.81736 188.86433 188.93829 189.78326 191.10123
 192.83619 194.94116 197.21412 199.58309 202.03806 204.52802 206.62599 208.47796
 210.11392 211.26889 211.50786 211.74582 211.69279 211.40775 211.05072 210.69069
 210.31765 210.03762 209.85559 209.72955 209.66752 210.00848 210.40445 210.80342
 211.60638 212.79435 214.05432 215.84728 217.78525 219.83822 221.94318 224.03615
 226.10611 228.20008 230.30705 232.42301 234.56198 236.74395 239.00991 241.38988
 244.02085 246.28181 248.29378 250.06874 251.49571 252.62868 253.46064 253.78661
 253.83358 253.61754 252.98751 251.94547 250.56144 248.73241 246.65137 244.49434
 242.29531 240.10927 237.93924 235.78821 233.65817 231.53514 229.57110 227.73807
 226.03104 224.51300 223.15297 221.93494 220.82690 219.79687 218.91083 218.06180
 217.31377 216.50373 215.61170 214.98567 214.44563 214.54732 214.78752 216.62807
 219.29756 220.86887 221.27562 220.69690 220.45021 222.10207 225.34735 227.87738
 230.20300 233.09390 236.86705 241.19878 245.27686 248.97638 252.35004 255.50311
 258.54343 261.57361 264.53757 267.17657 269.44452 271.60141 273.78183 275.75424
 277.42340 278.95996 280.33423 281.60016 282.75793 283.79883 284.75314 285.62115
 286.41229 287.12497 287.73895 288.54385
 366.78100 356.34399 345.78497 334.65996 323.07194 311.27493 299.15391 286.96590
 274.68688 262.59287 250.61085 239.92084 230.05182 221.16481 213.35579 206.36678
 200.20976 195.15675 191.74773 189.79872 188.84470 188.91769 189.76167 191.07866
 192.81264 194.91663 197.18861 199.55660 202.01059 204.49957 206.59656 208.44754
 210.08253 211.23651 211.47450 211.71148 211.65747 211.37145 211.01344 210.65242
 210.27841 209.99739 209.81438 209.68736 209.62435 209.96433 210.35932 210.75730
 211.55929 212.74627 214.00526 215.79724 217.73423 219.78622 221.89020 223.98219
 226.05117 228.14416 230.25014 232.36513 234.50311 236.68410 238.94908 241.32807
 243.95805 246.21804 248.22902 250.00301 251.42899 252.56098 253.39196 253.71695
 253.76293 253.54592 252.91490 251.87189 250.48687 248.65686 246.57484 244.41683
 242.21682 240.02980 237.85879 235.70677 233.57576 231.45174 229.48673 227.65271
 225.94470 224.42568 223.06467 221.84565 220.73664 219.70562 218.81861 217.96859
 217.21958 216.40856 215.51555 214.88853 214.34752 214.50629 214.88141 216.66785
 219.23572 220.86720 221.30522 220.69554 220.38573 221.99442 225.19922 227.69118
 230.03838 233.02286 236.89113 241.27454 245.36200 249.05634 252.42619 255.58292
 258.61090 261.64978 264.62299 267.27762 269.43585 271.67480 273.70120 275.66037
 277.34113 278.85953 280.17529 281.36734 282.46744 283.48337 284.42715 285.29626
 286.09665 286.81229 287.42551 288.23709
 366.78100 356.34355 345.78411 334.65866 323.07022 311.27277 299.15133 286.96288
 274.68344 262.58899 250.60655 239.91610 230.04666 221.15921 213.34977 206.36032
 200.20288 195.14943 191.73999 189.79054 188.83610 188.90865 189.75221 191.06876
 192.80232 194.90587 197.17743 199.54498 201.99854 204.48709 206.58365 208.43420
 210.06876 211.22231 211.45987 211.69642 211.64198 211.35553 210.99709 210.63564
 210.26120 209.97975 209.79631 209.66886 209.60542 209.94497 210.33953 210.73708
 211.53863 212.72519 213.98374 215.77530 217.71185 219.76341 221.86696 223.95852
 226.02707 228.11963 230.22518 232.33974 234.47729 236.65785 238.92240 241.30096
 243.93051 246.19007 248.20062 249.97418 251.39973 252.53129 253.36184 253.68640
 253.73195 253.51451 252.88306 251.83962 250.45417 248.62373 246.54128 244.38284
 242.18239 239.99495 237.82350 235.67106 233.53961 231.41517 229.44972 227.61528
 225.90683 224.38739 223.02594 221.80650 220.69705 219.66560 218.77816 217.92771
 217.17827 216.36682 215.47338 214.84593 214.30449 214.49107 214.93188 216.70906
 219.19521 220.87216 221.36470 220.72920 220.35228 221.90610 225.05959 227.52412
 229.90607 232.97884 236.92596 241.32436 245.39401 249.08733 252.45929 255.61821
 258.64877 261.69278 264.69183 267.23578 269.48953 271.66867 273.76828 275.66901
 277.34137 278.72964 279.97195 281.06723 282.08221 283.10519 284.06714 284.94238
 285.72845 286.42203 287.03210 287.84741
 366.78100 356.34388 345.78475 334.65963 323.07151 311.27439 299.15326 286.96514
 274.68602 262.59190 250.60977 239.91965 230.05053 221.16341 213.35428 206.36516
 200.20804 195.15492 191.74579 189.79667 188.84255 188.91543 189.75930 191.07618
 192.81006 194.91394 197.18581 199.55369 202.00757 204.49645 206.59332 208.44420
 210.07908 211.23296 211.47083 211.70771 211.65359 211.36747 211.00934 210.64822
 210.27410 209.99298 209.80985 209.68273 209.61961 209.95949 210.35436 210.75224
 211.55412 212.74100 213.99987 215.79175 217.72863 219.78051 221.88438 223.97626
 226.04514 228.13802 230.24389 232.35877 234.49665 236.67753 238.94240 241.32128
 243.95116 246.21104 248.22191 249.99579 251.42167 252.55354 253.38442 253.70930
 253.75518 253.53805 252.90693 251.86381 250.47869 248.64856 246.56644 244.40832
 242.20820 240.02107 237.84995 235.69783 233.56671 231.44258 229.47746 227.64334
 225.93522 224.41609 223.05497 221.83585 220.72673 219.69560 218.80848 217.95836
 217.20924 216.39811 215.50499 214.87787 214.33675 214.51932 214.95068 216.73053
 219.19180 220.88690 221.42720 220.77486 220.32880 221.81761 224.90746 227.31490
 229.70467 232.86079 236.89821 241.37907 245.52101 249.21243 252.55721 255.71162
 258.75992 261.77826 264.63879 267.18069 269.53433 271.72952 273.74686 275.58704
 277.20972 278.47351 279.68927 280.74677 281.71063 282.72684 283.68600 284.55835
 285.33676 286.03036 286.64694 287.45941
 366.78100 356.34329 345.78358 334.65787 323.06916 311.27145 299.14974 286.96103
 274.68132 262.58662 250.60391 239.91320 230.04349 221.15578 213.34607 206.35636
 200.19865 195.14494 191.73523 189.78552 188.83081 188.90310 189.74639 191.06268
 192.79597 194.89927 197.17056 199.53785 201.99114 204.47943 206.57572 208.42601
 210.06030 211.21359 211.45088 211.68717 211.63246 211.34575 210.98704 210.62533
 210.25062 209.96891 209.78521 209.65750 209.59379 209.93308 210.32737 210.72466
 211.52595 212.71224 213.97053 215.76182 217.69811 219.74940 221.85269 223.94398
 226.01227 228.10456 230.20986 232.32415 234.46144 236.64173 238.90602 241.28431
 243.91360 246.17289 248.18318 249.95647 251.38176 252.51305 253.34334 253.66763
 253.71292 253.49521 252.86351 251.81980 250.43409 248.60338 246.52067 244.36196
 242.16125 239.97354 237.80183 235.64912 233.51741 231.39270 229.42699 227.59228
 225.88357 224.36386 223.00215 221.78245 220.67274 219.64103 218.75332 217.90261
 217.15290 216.34119 215.44748 214.81977 214.27806 214.50481 215.04054 216.75102
 219.12782 220.92548 221.49821 220.81348 220.32741 221.77692 224.79718 227.16071
 229.56337 232.79308 236.90483 241.40559 245.53967 249.20563 252.52455 255.65875
 258.67279 261.70660 264.50989 267.14182 269.62537 271.87201 273.88089 275.69806
 277.28662 278.55411 279.73190 280.77835 281.67294 282.59293 283.54572 284.39410
 285.07397 285.76443 286.39334 287.25705
 366.78100 356.34487 345.78673 334.66260 323.07547 311.27933 299.15920 286.97206
 274.69393 262.60080 250.61966 239.93053 230.06240 221.17626 213.36813 206.38000
 200.22386 195.17173 191.76359 189.81546 188.86233 188.93619 189.78106 191.09893
 192.83379 194.93866 197.21153 199.58039 202.03526 204.52513 206.62299 208.47486
 210.11072 211.26559 211.50446 211.74232 211.68919 211.40406 211.04692 210.68679
 210.31366 210.03352 209.85139 209.72525 209.66312 210.00399 210.39985 210.79872
 211.60159 212.78945 214.04932 215.84219 217.78005 219.83292 221.93778 224.03065
 226.10052 228.19438 230.30125 232.41712 234.55598 236.73785 239.00372 241.38358
 244.01445 246.27531 248.28718 250.06205 251.48891 252.62178 253.45365 253.77951
 253.82638 253.61025 252.98011 251.93798 250.55385 248.72471 246.64358 244.48644
 242.28731 240.10118 237.93104 235.77991 233.64978 231.52664 229.56251 227.72938
 226.02224 224.50411 223.14397 221.92584 220.81771 219.78757 218.90144 218.05231
 217.30417 216.49404 215.60191 214.97577 214.43564 214.61623 215.04286 216.74893
 219.17357 220.99991 221.59122 220.79425 220.21780 221.61858 224.62436 226.96191
 229.41237 232.74239 236.92088 241.42964 245.53313 249.21495 252.57143 255.73326
 258.78619 261.89209 264.49432 267.04636 269.69336 272.05542 274.09494 275.90140
 277.45319 278.67709 279.78046 280.81467 281.66388 282.45132 283.37509 284.15872
 284.86823 285.56174 286.19495 287.06708
 366.78100 356.34686 345.79073 334.66859 323.08345 311.28931 299.17118 286.98604
 274.70990 262.61876 250.63963 239.95249 230.08635 221.20221 213.39608 206.40994
 200.25580 195.20566 191.79953 189.85339 188.90225 188.97811 189.82498 191.14484
 192.88170 194.98856 197.26343 199.63429 202.09115 204.58301 206.68288 208.53674
 210.17460 211.33146 211.57233 211.81219 211.76105 211.47791 211.12278 210.76464
 210.39350 210.11536 209.93523 209.81109 209.75095 210.09381 210.49168 210.89254
 211.69740 212.88726 214.14913 215.94399 217.88385 219.93871 222.04558 224.14044
 226.21230 228.30816 230.41703 232.53489 234.67575 236.85961 239.12748 241.50934
 244.14220 246.40507 248.41893 250.19579 251.62465 252.75952 253.59338 253.92124
 253.97010 253.75597 253.12783 252.08769 250.70555 248.87842 246.79928 244.64414
 242.44700 240.26287 238.09473 235.94559 233.81745 231.69632 229.73418 227.90304
 226.19790 224.68177 223.32363 222.10749 221.00135 219.97322 219.08908 218.24194
 217.49580 216.68767 215.79753 215.17339 214.63525 214.76675 215.07744 216.58504
 219.15663 221.09869 221.73021 220.75702 219.98157 221.34810 224.35657 226.71306
 229.22679 232.61810 236.88744 241.40628 245.53484 249.27336 252.68942 255.90752
 259.08075 262.22882 264.65549 267.06418 269.66531 271.99182 273.97635 275.73361
 277.21750 278.45343 279.61453 280.64615 281.48050 282.34790 283.28946 284.13177
 284.92471 285.69214 286.38361 287.26483
 366.78100 356.34324 345.78348 334.65772 323.06895 311.27119 299.14943 286.96067
 274.68091 262.58615 250.60338 239.91262 230.04286 221.15510 213.34534 206.35558
 200.19781 195.14405 191.73429 189.78453 188.82977 188.90201 189.74525 191.06148
 192.79472 194.89796 197.16920 199.53644 201.98968 204.47791 206.57415 208.42439
 210.05863 211.21187 211.44911 211.68534 211.63058 211.34382 210.98506 210.62330
 210.24854 209.96678 209.78301 209.65525 209.59149 209.93073 210.32497 210.72221
 211.52344 212.70968 213.96792 215.75916 217.69540 219.74664 221.84987 223.94111
 226.00935 228.10159 230.20683 232.32107 234.45831 236.63854 238.90278 241.28102
 243.91026 246.16950 248.17974 249.95297 251.37821 252.50945 253.33969 253.66393
 253.70917 253.49140 252.85964 251.81588 250.43012 248.59936 246.51660 244.35784
 242.15707 239.96931 237.79755 235.64479 233.51303 231.38827 229.42250 227.58774
 225.87898 224.35922 222.99746 221.77770 220.66794 219.63617 218.74841 217.89765
 217.14789 216.33613 215.44237 214.81460 214.27284 214.61948 215.44821 216.49026
 218.66803 220.87207 221.83455 220.94931 219.97452 221.19897 224.19705 226.69678
 229.12276 232.61571 236.92159 241.34235 245.47476 249.31276 252.80186 256.10751
 259.32806 262.24789 264.71091 267.15628 269.60049 271.74664 273.67419 275.44510
 276.84518 278.23007 279.45526 280.46603 281.44031 282.37463 283.27002 284.14600
 284.94714 285.66055 286.28378 287.07800
 366.78100 356.33981 345.77662 334.64743 323.05525 311.25406 299.12887 286.93668
 274.65349 262.55530 250.56912 239.87493 230.00174 221.11055 213.29736 206.30417
 200.14299 195.08580 191.67261 189.71942 188.76123 188.83004 189.66986 190.98267
 192.71248 194.81229 197.08010 199.44391 201.89372 204.37854 206.47135 208.31816
 209.94897 211.09878 211.33259 211.56541 211.50722 211.21703 210.85484 210.48965
 210.11146 209.82628 209.63909 209.50790 209.44071 209.77652 210.16733 210.56115
 211.35896 212.54177 213.79658 215.58439 217.51720 219.56502 221.66483 223.75264
 225.81745 227.90626 230.00807 232.11888 234.25270 236.42951 238.69032 241.06513
 243.69094 245.94675 247.95357 249.72338 251.14519 252.27300 253.09981 253.42062
 253.46244 253.24125 252.60606 251.55887 250.16968 248.33549 246.24931 244.08712
 241.88293 239.69174 237.51655 235.36036 233.22517 231.09699 229.12780 227.28961
 225.57742 224.05423 222.68904 221.46586 220.35267 219.31748 218.42629 217.57210
 216.81891 216.00373 215.10654 214.47535 213.93016 214.47670 215.75586 216.58551
 218.22638 220.42444 221.70482 221.24026 220.49519 221.43344 224.15636 226.83659
 229.18640 232.70114 236.96913 241.31665 245.41489 249.27023 252.83163 256.13272
 259.26599 262.12115 264.70700 267.16196 269.47342 271.50140 273.50034 275.24976
 276.80115 278.19296 279.37720 280.41000 281.42303 282.46078 283.41742 284.28409
 285.06354 285.75766 286.36404 287.13678
 366.78100 356.34076 345.77851 334.65027 323.05902 311.25878 299.13453 286.94329
 274.66105 262.56380 250.57856 239.88531 230.01307 221.12282 213.31058 206.31833
 200.15809 195.10185 191.68960 189.73736 188.78011 188.84987 189.69062 191.00438
 192.73514 194.83589 197.10465 199.46940 201.92016 204.40591 206.49967 208.34743
 209.97918 211.12994 211.36469 211.59845 211.54120 211.25196 210.89072 210.52647
 210.14923 209.86498 209.67874 209.54849 209.48225 209.81900 210.21076 210.60552
 211.40427 212.58803 213.84378 215.63254 217.56629 219.61505 221.71581 223.80456
 225.87032 227.96007 230.06283 232.17458 234.30934 236.48710 238.74885 241.12461
 243.75136 246.00812 248.01587 249.78663 251.20939 252.33814 253.16590 253.48765
 253.53041 253.31016 252.67592 251.62967 250.24143 248.40819 246.32294 244.16170
 241.95845 239.76821 237.59396 235.43872 233.30448 231.17723 229.20899 227.37174
 225.66050 224.13825 222.77401 221.55177 220.43952 219.40528 218.51503 217.66179
 216.90954 216.09530 215.19906 214.56881 214.02457 214.56656 215.82430 216.67828
 218.20474 220.28116 221.61719 221.30753 220.78021 221.62210 224.23692 226.79913
 229.21385 232.75710 237.02608 241.34854 245.37738 249.18321 252.74290 256.02484
 259.10831 262.05447 264.81125 267.30475 269.52472 271.56906 273.55310 275.26883
 276.80862 278.14285 279.28107 280.62204 281.83722 282.91235 283.89322 284.78183
 285.58105 286.29276 286.91449 287.70682
 366.78100 356.34225 345.78151 334.65476 323.06501 311.26627 299.14352 286.95378
 274.67303 262.57728 250.59354 239.90179 230.03104 221.14230 213.33155 206.34080
 200.18206 195.12731 191.71657 189.76582 188.81007 188.88133 189.72358 191.03883
 192.77109 194.87334 197.14359 199.50985 201.96210 204.44936 206.54461 208.39386
 210.02712 211.17937 211.41562 211.65088 211.59513 211.30738 210.94764 210.58489
 210.20914 209.92640 209.74165 209.61291 209.54816 209.88641 210.27967 210.67592
 211.47617 212.66143 213.91868 215.70893 217.64419 219.69444 221.79670 223.88695
 225.95420 228.04546 230.14971 232.26296 234.39922 236.57847 238.84172 241.21898
 243.84723 246.10549 248.11474 249.88699 251.31125 252.44150 253.27075 253.59401
 253.63826 253.41951 252.78677 251.74202 250.35528 248.52353 246.43978 244.28004
 242.07829 239.88954 237.71680 235.56305 233.43030 231.30456 229.33781 227.50207
 225.79232 224.27157 222.90883 221.68808 220.57733 219.54459 218.65584 217.80409
 217.05335 216.24060 215.34585 214.71711 214.17436 214.68002 215.85838 216.72784
 218.14122 220.17728 221.54221 221.25296 220.77525 221.63440 224.33676 226.75409
 229.15939 232.74544 237.11150 241.46236 245.39162 249.13924 252.68539 255.95923
 259.10333 262.15140 264.93188 267.46194 269.72977 271.71912 273.60233 275.33914
 276.86234 278.19315 279.77094 281.24191 282.51489 283.64117 284.66873 285.59961
 286.43686 287.18240 287.83374 288.66376
 366.78100 356.34297 345.78294 334.65692 323.06789 311.26986 299.14783 286.95880
 274.67877 262.58375 250.60072 239.90969 230.03966 221.15163 213.34161 206.35158
 200.19355 195.13952 191.72949 189.77947 188.82444 188.89641 189.73938 191.05535
 192.78832 194.89130 197.16227 199.52924 201.98221 204.47018 206.56616 208.41613
 210.05010 211.20307 211.44004 211.67601 211.62099 211.33396 210.97493 210.61290
 210.23787 209.95585 209.77182 209.64379 209.57976 209.91873 210.31271 210.70968
 211.51065 212.69662 213.95459 215.74556 217.68154 219.73251 221.83548 223.92645
 225.99442 228.08640 230.19137 232.30534 234.44231 236.62228 238.88625 241.26423
 243.89320 246.15217 248.16214 249.93511 251.36009 252.49106 253.32103 253.64500
 253.68997 253.47195 252.83992 251.79589 250.40986 248.57883 246.49580 244.33678
 242.13575 239.94772 237.77569 235.62266 233.49064 231.36561 229.39958 227.56455
 225.85552 224.33549 222.97347 221.75344 220.64341 219.61138 218.72335 217.87233
 217.12230 216.31027 215.41624 214.78821 214.24619 214.74083 215.90947 216.79428
 217.97641 219.99971 221.49602 221.22542 220.70998 221.60789 224.29265 226.71825
 229.13623 232.78844 237.20686 241.54645 245.41057 249.12709 252.68164 255.98615
 259.15973 262.17145 264.95233 267.54593 269.78146 271.73929 273.67377 275.47559
 276.99713 278.35562 279.89825 281.31116 282.53387 283.61569 284.60266 285.49680
 286.30096 287.01709 287.64267 288.43991
 366.78100 356.34288 345.78276 334.65664 323.06751 311.26939 299.14727 286.95815
 274.67803 262.58291 250.59979 239.90866 230.03854 221.15042 213.34030 206.35018
 200.19206 195.13794 191.72782 189.77769 188.82257 188.89445 189.73733 191.05321
 192.78609 194.88897 197.15984 199.52672 201.97960 204.46748 206.56336 208.41324
 210.04712 211.19999 211.43687 211.67275 211.61763 211.33051 210.97139 210.60927
 210.23414 209.95202 209.76790 209.63978 209.57566 209.91454 210.30842 210.70530
 211.50617 212.69205 213.94993 215.74081 217.67669 219.72757 221.83045 223.92132
 225.98920 228.08108 230.18596 232.29984 234.43672 236.61660 238.88047 241.25835
 243.88723 246.14611 248.15599 249.92887 251.35375 252.48462 253.31450 253.63838
 253.68326 253.46514 252.83302 251.78890 250.40278 248.57165 246.48853 244.32941
 242.12829 239.94017 237.76805 235.61493 233.48280 231.35768 229.39156 227.55644
 225.84732 224.32720 222.96508 221.74495 220.63483 219.60271 218.71459 217.86347
 217.11335 216.30123 215.40710 214.77898 214.23686 214.76250 215.99673 216.82899
 217.82436 219.86212 221.52332 221.29681 220.65672 221.50728 224.16150 226.58345
 229.04288 232.80264 237.27646 241.57880 245.39554 249.16156 252.77547 256.09430
 259.19519 262.14328 264.90137 267.45459 269.63257 271.63455 273.62833 275.47577
 276.99066 278.32416 279.84280 281.27069 282.50638 283.59967 284.59714 285.50076
 286.31345 287.03717 287.66940 288.47510
 366.78100 356.34164 345.78028 334.65292 323.06256 311.26319 299.13983 286.94947
 274.66811 262.57175 250.58739 239.89503 230.02367 221.13430 213.32294 206.33158
 200.17222 195.11686 191.70550 189.75414 188.79778 188.86842 189.71005 191.02469
 192.75633 194.85797 197.12761 199.49325 201.94489 204.43153 206.52617 208.37480
 210.00744 211.15908 211.39472 211.62936 211.57300 211.28464 210.92428 210.56091
 210.18455 209.90119 209.71583 209.58647 209.52111 209.85875 210.25139 210.64703
 211.44666 212.63130 213.88794 215.67758 217.61222 219.66186 221.76350 223.85314
 225.91978 228.01041 230.11405 232.22669 234.36233 236.54097 238.80361 241.18025
 243.80789 246.06552 248.07416 249.84580 251.26944 252.39908 253.22772 253.55036
 253.59400 253.37464 252.74127 251.69591 250.30855 248.47619 246.39183 244.23147
 242.02911 239.83975 237.66639 235.51202 233.37866 231.25230 229.28494 227.44858
 225.73822 224.21686 222.85350 221.63213 220.52077 219.48741 218.59805 217.74569
 216.99433 216.18097 215.28561 214.65625 214.11288 214.73773 216.15601 216.81374
 217.67395 219.74857 221.53542 221.35716 220.61549 221.42313 224.07762 226.43440
 228.93839 232.82478 237.35762 241.60376 245.43570 249.20029 252.83945 256.27686
 259.29535 262.16867 264.91467 267.41061 269.57745 271.64212 273.61417 275.39938
 276.88589 278.41852 280.03891 281.47079 282.70996 283.80630 284.80658 285.71274
 286.52774 287.25348 287.88748 288.69547
 366.78100 356.34148 345.77996 334.65243 323.06191 311.26239 299.13887 286.94835
 274.66683 262.57030 250.58578 239.89326 230.02174 221.13222 213.32070 206.32917
 200.16965 195.11413 191.70261 189.75109 188.79457 188.86504 189.70652 191.02100
 192.75248 194.85396 197.12344 199.48891 201.94039 204.42687 206.52135 208.36983
 210.00231 211.15378 211.38926 211.62374 211.56722 211.27870 210.91818 210.55465
 210.17813 209.89461 209.70909 209.57957 209.51405 209.85152 210.24400 210.63948
 211.43896 212.62344 213.87992 215.66939 217.60387 219.65335 221.75483 223.84431
 225.91079 228.00126 230.10474 232.21722 234.35270 236.53118 238.79366 241.17013
 243.79761 246.05509 248.06357 249.83505 251.25853 252.38800 253.21648 253.53896
 253.58244 253.36292 252.72940 251.68387 250.29635 248.46383 246.37931 244.21879
 242.01627 239.82674 237.65322 235.49870 233.36518 231.23866 229.27114 227.43461
 225.72409 224.20257 222.83905 221.61753 220.50601 219.47248 218.58296 217.73044
 216.97892 216.16540 215.26988 214.64035 214.09683 214.76408 216.25822 216.83961
 217.56857 219.52731 221.34256 221.26277 220.57550 221.41785 224.10181 226.49748
 229.04427 232.94670 237.47542 241.70105 245.51913 249.27377 252.98726 256.40900
 259.38800 262.19653 264.88651 267.35297 269.54922 271.67520 273.67453 275.46158
 276.91550 278.61429 280.27902 281.74075 283.00580 284.12500 285.14612 286.07117
 286.90317 287.64407 288.29129 289.11612
 366.78100 356.34211 345.78122 334.65432 323.06443 311.26554 299.14265 286.95276
 274.67186 262.57597 250.59208 239.90019 230.02930 221.14040 213.32951 206.33862
 200.17973 195.12484 191.71394 189.76305 188.80716 188.87827 189.72038 191.03549
 192.76759 194.86970 197.13981 199.50592 201.95803 204.44513 206.54024 208.38935
 210.02246 211.17457 211.41067 211.64578 211.58989 211.30200 210.94211 210.57921
 210.20332 209.92043 209.73554 209.60665 209.54175 209.87986 210.27297 210.66908
 211.46919 212.65429 213.91140 215.70151 217.63662 219.68673 221.78883 223.87894
 225.94605 228.03716 230.14127 232.25438 234.39048 236.56959 238.83270 241.20981
 243.83792 246.09602 248.10513 249.87724 251.30135 252.43146 253.26056 253.58367
 253.62778 253.40889 252.77600 251.73110 250.34421 248.51232 246.42843 244.26854
 242.06664 239.87775 237.70486 235.55097 233.41808 231.29218 229.32529 227.48940
 225.77951 224.25862 222.89572 221.67483 220.56394 219.53105 218.64216 217.79027
 217.03937 216.22648 215.33159 214.70270 214.15981 214.82869 216.31454 216.85808
 217.53389 219.42912 221.20750 221.06567 220.37032 221.31845 224.06232 226.50587
 229.15089 233.06021 237.56023 241.77052 245.59651 249.38034 253.11255 256.46985
 259.47037 262.21860 264.83350 267.29810 269.51678 271.59985 273.59622 275.37564
 277.04913 278.97351 280.70926 282.23340 283.55240 284.71936 285.78406 286.74860
 287.61609 288.38858 289.06345 289.92346
 366.78100 356.34180 345.78060 334.65339 323.06319 311.26399 299.14079 286.95058
 274.66938 262.57318 250.58898 239.89678 230.02557 221.13637 213.32517 206.33397
 200.17477 195.11956 191.70836 189.75716 188.80096 188.87175 189.71355 191.02835
 192.76015 194.86195 197.13174 199.49754 201.94934 204.43614 206.53094 208.37973
 210.01253 211.16433 211.40013 211.63492 211.57872 211.29052 210.93032 210.56712
 210.19091 209.90771 209.72251 209.59331 209.52811 209.86590 210.25870 210.65450
 211.45430 212.63909 213.89589 215.68569 217.62049 219.67029 221.77208 223.86188
 225.92868 228.01948 230.12327 232.23607 234.37187 236.55067 238.81347 241.19026
 243.81806 246.07586 248.08466 249.85646 251.28025 252.41005 253.23885 253.56165
 253.60544 253.38624 252.75304 251.70784 250.32064 248.48843 246.40423 244.24403
 242.04183 239.85263 237.67942 235.52522 233.39202 231.26582 229.29861 227.46241
 225.75221 224.23101 222.86781 221.64660 220.53540 219.50220 218.61300 217.76079
 217.00959 216.19639 215.30119 214.67199 214.12878 214.84558 216.39740 216.84973
 217.42072 219.28014 221.13901 220.93690 220.14076 221.12601 224.05583 226.48138
 229.20732 233.14171 237.63380 241.83612 245.68553 249.53226 253.20886 256.58899
 259.63248 262.39407 265.03217 267.51407 269.73883 271.75537 273.58621 275.33786
 277.58334 279.66025 281.45749 283.03558 284.40131 285.60959 286.71201 287.71069
 288.60892 289.40875 290.10751 290.99799
 366.78100 356.34276 345.78252 334.65629 323.06705 311.26881 299.14657 286.95734
 274.67710 262.58186 250.59862 239.90739 230.03715 221.14891 213.33867 206.34844
 200.19020 195.13596 191.72572 189.77548 188.82025 188.89201 189.73477 191.05053
 192.78330 194.88606 197.15682 199.52358 201.97635 204.46411 206.55987 208.40963
 210.04340 211.19616 211.43292 211.66868 211.61344 211.32621 210.96697 210.60473
 210.22949 209.94726 209.76302 209.63478 209.57054 209.90931 210.30307 210.69983
 211.50059 212.68636 213.94412 215.73488 217.67064 219.72140 221.82417 223.91493
 225.98269 228.07445 230.17922 232.29298 234.42974 236.60950 238.87327 241.25103
 243.87979 246.13855 248.14832 249.92108 251.34584 252.47660 253.30636 253.63013
 253.67489 253.45665 252.82441 251.78018 250.39394 248.56270 246.47946 244.32023
 242.11899 239.93075 237.75851 235.60528 233.47304 231.34780 229.38156 227.54632
 225.83709 224.31685 222.95461 221.73437 220.62414 219.59190 218.70366 217.85242
 217.10219 216.28995 215.39571 214.76747 214.22523 214.90959 216.41025 216.89267
 217.40881 219.00264 220.68336 220.61818 220.20432 221.37828 224.04587 226.54845
 229.26770 233.22092 237.73450 241.95651 245.84680 249.65985 253.33156 256.74869
 259.76062 262.52328 265.13986 267.61780 269.89899 271.92245 273.73572 275.56876
 277.57465 279.48276 281.14478 282.60416 283.86713 284.98453 286.00397 286.92752
 287.75818 288.49786 289.14404 289.96753
 366.78100 356.34360 345.78420 334.65880 323.07040 311.27300 299.15160 286.96320
 274.68380 262.58940 250.60701 239.91661 230.04721 221.15981 213.35041 206.36101
 200.20361 195.15021 191.74081 189.79141 188.83701 188.90961 189.75321 191.06981
 192.80341 194.90701 197.17861 199.54621 201.99981 204.48841 206.58502 208.43562
 210.07022 211.22382 211.46142 211.69802 211.64362 211.35722 210.99882 210.63742
 210.26302 209.98162 209.79822 209.67082 209.60742 209.94702 210.34162 210.73922
 211.54082 212.72743 213.98603 215.77763 217.71423 219.76583 221.86943 223.96103
 226.02963 228.12223 230.22783 232.34243 234.48003 236.66063 238.92523 241.30383
 243.93343 246.19303 248.20363 249.97723 251.40284 252.53444 253.36504 253.68964
 253.73524 253.51784 252.88644 251.84304 250.45764 248.62724 246.54484 244.38644
 242.18604 239.99864 237.82724 235.67484 233.54344 231.41904 229.45364 227.61924
 225.91085 224.39145 223.03005 221.81065 220.70125 219.66985 218.78245 217.93205
 217.18265 216.37125 215.47785 214.85045 214.30905 214.97256 216.43779 216.90814
 217.40688 218.99062 220.57436 220.46597 220.07353 221.30176 223.96979 226.46750
 229.19456 233.22594 237.80809 242.01288 245.87898 249.66245 253.34195 256.71222
 259.68005 262.45807 265.06393 267.53079 269.77750 271.79529 273.58755 275.45996
 277.44177 279.35712 281.09903 282.62854 283.95221 285.12332 286.19177 287.15973
 288.03030 288.80554 289.48276 290.34583
 366.78100 356.34227 345.78154 334.65481 323.06508 311.26634 299.14361 286.95388
 274.67315 262.57742 250.59369 239.90196 230.03123 221.14250 213.33176 206.34103
 200.18230 195.12757 191.71684 189.76611 188.81038 188.88165 189.72392 191.03918
 192.77145 194.87372 197.14399 199.51026 201.96253 204.44980 206.54507 208.39434
 210.02760 211.17987 211.41614 211.65141 211.59568 211.30795 210.94822 210.58549
 210.20976 209.92702 209.74229 209.61356 209.54883 209.88710 210.28037 210.67664
 211.47691 212.66218 213.91944 215.70971 217.64498 219.69525 221.79752 223.88779
 225.95506 228.04633 230.15060 232.26386 234.40013 236.57940 238.84267 241.21994
 243.84821 246.10648 248.11575 249.88802 251.31228 252.44255 253.27182 253.59509
 253.63936 253.42063 252.78790 251.74317 250.35643 248.52470 246.44097 244.28124
 242.07951 239.89078 237.71805 235.56432 233.43159 231.30585 229.33912 227.50339
 225.79366 224.27293 222.91020 221.68947 220.57874 219.54601 218.65727 217.80554
 217.05481 216.24208 215.34735 214.71862 214.17589 214.93890 216.56606 216.87190
 217.20781 218.99854 220.75348 220.49831 219.85820 220.93076 223.80418 226.37805
 229.29861 233.37434 237.86125 242.06741 245.97533 249.80473 253.50584 256.84729
 259.83353 262.58084 265.12869 267.50885 269.65955 271.63953 273.65933 275.64636
 278.00479 280.03107 281.78448 283.32410 284.65652 285.83536 286.91086 287.88522
 288.76154 289.54187 290.22360 291.09235
 366.78100 356.34282 345.78264 334.65646 323.06728 311.26910 299.14692 286.95774
 274.67756 262.58238 250.59920 239.90802 230.03784 221.14966 213.33948 206.34930
 200.19113 195.13695 191.72677 189.77659 188.82141 188.89323 189.73605 191.05187
 192.78469 194.88751 197.15833 199.52515 201.97797 204.46579 206.56161 208.41143
 210.04525 211.19807 211.43489 211.67071 211.61553 211.32835 210.96917 210.60699
 210.23181 209.94963 209.76545 209.63727 209.57309 209.91191 210.30574 210.70256
 211.50338 212.68920 213.94702 215.73784 217.67366 219.72448 221.82730 223.91812
 225.98594 228.07776 230.18258 232.29640 234.43322 236.61304 238.87686 241.25468
 243.88350 246.14232 248.15214 249.92496 251.34978 252.48060 253.31042 253.63424
 253.67906 253.46088 252.82870 251.78452 250.39835 248.56717 246.48399 244.32481
 242.12363 239.93545 237.76327 235.61009 233.47791 231.35273 229.38655 227.55137
 225.84219 224.32201 222.95983 221.73965 220.62947 219.59729 218.70911 217.85793
 217.10775 216.29557 215.40139 214.77321 214.23103 214.97885 216.59486 216.95140
 216.96989 218.59077 220.52603 220.40559 219.87965 220.89795 223.77309 226.37779
 229.31580 233.47894 238.04263 242.25362 246.19481 250.05270 253.79033 257.18500
 260.22110 262.99188 265.53378 267.87000 269.96381 271.83176 273.72845 276.41553
 278.98877 281.19440 283.10303 284.77893 286.22928 287.51248 288.68320 289.74377
 290.69766 291.54712 292.28915 293.23483
 366.78100 356.34495 345.78690 334.66285 323.07580 311.27975 299.15970 286.97265
 274.69460 262.60155 250.62050 239.93146 230.06341 221.17736 213.36931 206.38126
 200.22521 195.17316 191.76511 189.81706 188.86401 188.93796 189.78291 191.10086
 192.83581 194.94076 197.21371 199.58266 202.03761 204.52756 206.62551 208.47746
 210.11341 211.26837 211.50732 211.74527 211.69222 211.40717 211.05012 210.69007
 210.31702 210.03697 209.85492 209.72887 209.66682 210.00777 210.40372 210.80267
 211.60562 212.79357 214.05352 215.84647 217.78442 219.83737 221.94232 224.03528
 226.10523 228.19918 230.30613 232.42208 234.56103 236.74298 239.00893 241.38888
 244.01983 246.28078 248.29273 250.06768 251.49463 252.62758 253.45953 253.78548
 253.83243 253.61638 252.98633 251.94428 250.56023 248.73119 246.65014 244.49309
 242.29404 240.10799 237.93794 235.78689 233.65684 231.53379 229.56974 227.73669
 226.02964 224.51159 223.15154 221.93349 220.82544 219.79539 218.90934 218.06029
 217.31224 216.50219 215.61015 214.98410 214.44405 215.08389 216.50818 217.08078
 217.18642 218.30244 220.02899 220.09027 219.65515 220.91225 223.68396 226.41261
 229.42319 233.57213 238.08896 242.30632 246.27676 250.15520 253.89435 257.29550
 260.38550 263.26794 265.93198 268.31265 270.43063 272.32242 274.14038 276.42087
 278.79297 280.85779 282.64456 284.21347 285.57123 286.77249 287.86847 288.86136
 289.75433 290.54953 291.24423 292.12952
 366.78100 356.34480 345.78661 334.66241 323.07522 311.27902 299.15883 286.97163
 274.69344 262.60024 250.61905 239.92985 230.06166 221.17546 213.36727 206.37907
 200.22288 195.17068 191.76249 189.81429 188.86109 188.93490 189.77970 191.09751
 192.83231 194.93712 197.20992 199.57873 202.03353 204.52334 206.62114 208.47295
 210.10875 211.26356 211.50236 211.74017 211.68697 211.40178 211.04458 210.68438
 210.31119 210.03099 209.84880 209.72260 209.66041 210.00121 210.39702 210.79582
 211.59863 212.78643 214.04624 215.83904 217.77685 219.82965 221.93446 224.02726
 226.09707 228.19087 230.29767 232.41348 234.55228 236.73409 238.99989 241.37970
 244.01050 246.27131 248.28311 250.05792 251.48472 252.61753 253.44933 253.77514
 253.82194 253.60575 252.97555 251.93336 250.54916 248.71996 246.63877 244.48157
 242.28238 240.09618 237.92599 235.77479 233.64460 231.52140 229.55721 227.72401
 226.01682 224.49862 223.13843 221.92023 220.81204 219.78184 218.89565 218.04645
 217.29825 216.48806 215.59586 214.96967 214.42947 215.07068 216.50871 217.01393
 217.36104 218.27989 219.49348 219.72362 219.79167 221.15958 223.54874 226.40935
 229.40619 233.57748 238.15253 242.35170 246.30185 250.15732 253.81250 257.12305
 260.12927 262.98035 265.70654 268.20905 270.48569 272.58893 274.55466 276.41974
 278.21881 279.83563 281.23447 282.48337 283.56421 284.52045 285.39288 286.18323
 286.89407 287.52710 288.08008 288.78479
 366.78100 356.34372 345.78444 334.65916 323.07088 311.27360 299.15232 286.96404
 274.68476 262.59048 250.60820 239.91792 230.04865 221.16137 213.35209 206.36281
 200.20553 195.15225 191.74297 189.79369 188.83941 188.91213 189.75585 191.07257
 192.80629 194.91001 197.18173 199.54945 202.00317 204.49189 206.58861 208.43933
 210.07405 211.22777 211.46550 211.70222 211.64794 211.36166 211.00338 210.64210
 210.26782 209.98654 209.80326 209.67598 209.61270 209.95242 210.34714 210.74486
 211.54658 212.73330 213.99202 215.78374 217.72046 219.77218 221.87590 223.96762
 226.03635 228.12907 230.23479 232.34951 234.48723 236.66795 238.93267 241.31139
 243.94111 246.20083 248.21155 249.98527 251.41099 252.54271 253.37343 253.69815
 253.74387 253.52659 252.89531 251.85203 250.46675 248.63647 246.55420 244.39592
 242.19564 240.00836 237.83708 235.68480 233.55352 231.42924 229.46396 227.62968
 225.92140 224.40212 223.04084 221.82156 220.71228 219.68100 218.79372 217.94344
 217.19416 216.38288 215.48960 214.86232 214.32104 215.00394 216.56931 217.06804
 217.06952 218.11171 219.42757 219.65761 219.67252 220.96727 223.57178 226.34148
 229.53749 233.65982 238.19585 242.42189 246.37579 250.25752 253.96085 257.27115
 260.17685 262.88486 265.51276 267.99670 270.30588 272.46719 274.49738 276.36774
 278.05869 279.55032 280.80615 281.79938 282.81433 283.83850 284.77289 285.61942
 286.38074 287.05872 287.65100 288.40576
 366.78100 356.34420 345.78540 334.66060 323.07280 311.27600 299.15520 286.96740
 274.68860 262.59480 250.61300 239.92320 230.05440 221.16760 213.35880 206.37000
 200.21320 195.16040 191.75160 189.80280 188.84900 188.92220 189.76640 191.08360
 192.81780 194.92200 197.19420 199.56241 202.01661 204.50581 206.60301 208.45421
 210.08941 211.24361 211.48181 211.71901 211.66521 211.37941 211.02161 210.66081
 210.28701 210.00621 209.82341 209.69661 209.63381 209.97401 210.36921 210.76741
 211.56961 212.75681 214.01601 215.80821 217.74541 219.79761 221.90181 223.99401
 226.06321 228.15641 230.26261 232.37781 234.51601 236.69721 238.96241 241.34161
 243.97181 246.23201 248.24321 250.01741 251.44361 252.57581 253.40701 253.73221
 253.77841 253.56161 252.93081 251.88801 250.50321 248.67341 246.59161 244.43381
 242.23401 240.04722 237.87642 235.72462 233.59382 231.47002 229.50522 227.67142
 225.96362 224.44482 223.08402 221.86522 220.75642 219.72562 218.83882 217.98902
 217.24022 216.42942 215.53662 214.90982 214.36902 215.02448 216.54214 217.17099
 217.01369 217.90633 219.31291 219.61328 219.56639 220.80724 223.45816 226.31960
 229.55553 233.74893 238.30852 242.53456 246.49121 250.39523 254.15125 257.51199
 260.43173 263.08835 265.61987 267.99994 270.26465 272.44592 274.49963 276.38525
 278.01285 279.43759 280.67532 281.64172 282.71954 283.78040 284.74826 285.62506
 286.41367 287.11591 287.72937 288.51117
 366.78100 356.34506 345.78711 334.66317 323.07622 311.28028 299.16034 286.97339
 274.69545 262.60250 250.62156 239.93262 230.06467 221.17873 213.37078 206.38284
 200.22690 195.17495 191.76701 189.81906 188.86612 188.94018 189.78523 191.10329
 192.83835 194.94340 197.21646 199.58551 202.04057 204.53063 206.62868 208.48074
 210.11679 211.27185 211.51091 211.74896 211.69602 211.41107 211.05413 210.69419
 210.32124 210.04130 209.85935 209.73341 209.67147 210.01252 210.40858 210.80763
 211.61069 212.79875 214.05880 215.85186 217.78991 219.84297 221.94803 224.04108
 226.11114 228.20519 230.31225 232.42831 234.56736 236.74942 239.01548 241.39553
 244.02659 246.28764 248.29970 250.07476 251.50181 252.63487 253.46692 253.79298
 253.84004 253.62409 252.99415 251.95220 250.56826 248.73932 246.65837 244.50143
 242.30248 240.11654 237.94660 235.79565 233.66571 231.54276 229.57882 227.74588
 226.03893 224.52099 223.16104 221.94310 220.83516 219.80521 218.91927 218.07032
 217.32238 216.51244 215.62049 214.99455 214.45461 215.07245 216.50153 217.16023
 217.21365 217.88704 219.11656 219.42130 219.40936 220.67456 223.36731 226.36739
 229.60016 233.86674 238.45193 242.66841 246.62560 250.53767 254.33191 257.71826
 260.65649 263.30139 265.77768 268.06708 270.27744 272.46341 274.52496 276.39008
 277.96658 279.34476 280.45886 281.79346 283.03165 284.12714 285.12659 286.03201
 286.84637 287.57153 288.20505 289.01236
 366.78100 356.34558 345.78816 334.66474 323.07831 311.28289 299.16347 286.97705
 274.69963 262.60721 250.62678 239.93836 230.07094 221.18552 213.37810 206.39068
 200.23525 195.18383 191.77641 189.82899 188.87657 188.95115 189.79672 191.11530
 192.85088 194.95646 197.23004 199.59962 202.05519 204.54577 206.64435 208.49693
 210.13351 211.28909 211.52866 211.76724 211.71482 211.43040 211.07398 210.71456
 210.34213 210.06271 209.88129 209.75587 209.69445 210.03603 210.43260 210.83218
 211.63576 212.82434 214.08492 215.87850 217.81707 219.87065 221.97623 224.06981
 226.14039 228.23497 230.34254 232.45912 234.59870 236.78128 239.04786 241.42844
 244.06001 246.32159 248.33417 250.10975 251.53733 252.67091 253.50349 253.83006
 253.87764 253.66222 253.03280 251.99138 250.60796 248.77953 246.69911 244.54269
 242.34427 240.15885 237.98943 235.83900 233.70958 231.58716 229.62374 227.79132
 226.08490 224.56747 223.20805 221.99063 220.88321 219.85379 218.96837 218.11994
 217.37252 216.56310 215.67168 215.04626 214.50684 215.10965 216.48477 217.11757
 217.40341 218.05255 219.07387 219.19197 219.11354 220.45547 223.23251 226.28899
 229.56244 233.92416 238.54642 242.76248 246.74518 250.68297 254.49242 257.91479
 260.87613 263.52246 265.96100 268.19641 270.34778 272.52213 274.57935 276.39423
 277.84808 279.32089 281.05716 282.61200 283.95761 285.14810 286.23425 287.21823
 288.10321 288.89130 289.57974 290.45709
 366.78100 356.34653 345.79006 334.66759 323.08212 311.28765 299.16918 286.98371
 274.70724 262.61577 250.63631 239.94884 230.08237 221.19790 213.39143 206.40496
 200.25049 195.20002 191.79355 189.84708 188.89561 188.97114 189.81767 191.13720
 192.87373 194.98026 197.25479 199.62532 202.08185 204.57338 206.67292 208.52645
 210.16398 211.32051 211.56104 211.80057 211.74910 211.46563 211.11016 210.75169
 210.38022 210.10175 209.92128 209.79681 209.73634 210.07887 210.47640 210.87693
 211.68146 212.87099 214.13253 215.92706 217.86659 219.92112 222.02765 224.12218
 226.19371 228.28924 230.39777 232.51530 234.65583 236.83936 239.10689 241.48842
 244.12095 246.38348 248.39701 250.17354 251.60207 252.73661 253.57014 253.89767
 253.94620 253.73173 253.10326 252.06279 250.68032 248.85285 246.77338 244.61791
 242.42044 240.23597 238.06750 235.91803 233.78956 231.66809 229.70562 227.87415
 226.16868 224.65222 223.29375 222.07728 220.97081 219.94234 219.05787 218.21040
 217.46393 216.65546 215.76499 215.14052 214.60205 215.16405 216.44060 217.09430
 217.51901 218.16281 219.05702 219.01007 218.80789 220.18956 223.08319 226.27419
 229.61615 233.99748 238.61687 242.84926 246.85646 250.82083 254.66776 258.12653
 261.12405 263.81082 266.26816 268.47943 270.60443 272.73148 274.77673 276.53183
 277.95309 279.87549 281.63443 283.17889 284.51553 285.69809 286.77698 287.75439
 288.63348 289.41632 290.10016 290.97168
 366.78100 356.34677 345.79054 334.66831 323.08308 311.28885 299.17063 286.98540
 274.70917 262.61794 250.63871 239.95148 230.08525 221.20102 213.39479 206.40856
 200.25433 195.20410 191.79788 189.85165 188.90042 188.97619 189.82296 191.14273
 192.87950 194.98627 197.26104 199.63181 202.08858 204.58035 206.68013 208.53390
 210.17167 211.32844 211.56921 211.80898 211.75775 211.47452 211.11929 210.76106
 210.38983 210.11160 209.93138 209.80715 209.74692 210.08969 210.48746 210.88823
 211.69300 212.88277 214.14454 215.93931 217.87908 219.93385 222.04063 224.13540
 226.20717 228.30294 230.41171 232.52948 234.67025 236.85402 239.12179 241.50356
 244.13633 246.39910 248.41288 250.18965 251.61842 252.75319 253.58696 253.91473
 253.96350 253.74927 253.12104 252.08081 250.69858 248.87135 246.79213 244.63690
 242.43967 240.25544 238.08721 235.93798 233.80975 231.68852 229.72629 227.89506
 226.18983 224.67360 223.31538 222.09915 220.99292 219.96469 219.08046 218.23323
 217.48700 216.67877 215.78854 215.16431 214.62608 215.17421 216.41382 217.04112
 217.63493 218.27037 218.90936 218.73849 218.62749 220.06778 222.86525 226.18277
 229.58299 234.06444 238.72330 242.94330 246.95740 250.92198 254.75427 258.19031
 261.21765 263.97906 266.52704 268.78632 270.90506 273.05460 275.13995 276.94901
 278.29712 279.99127 281.70233 283.20477 284.50497 285.65533 286.70486 287.65567
 288.51080 289.27234 289.93756 290.78534
 366.78100 356.34631 345.78962 334.66693 323.08124 311.28655 299.16786 286.98217
 274.70548 262.61379 250.63410 239.94641 230.07972 221.19503 213.38834 206.40165
 200.24696 195.19627 191.78958 189.84289 188.89120 188.96651 189.81282 191.13213
 192.86844 194.97475 197.24906 199.61937 202.07568 204.56699 206.66630 208.51961
 210.15692 211.31323 211.55354 211.79285 211.74116 211.45747 211.10178 210.74309
 210.37140 210.09271 209.91202 209.78733 209.72664 210.06895 210.46626 210.86657
 211.67088 212.86019 214.12150 215.91581 217.85512 219.90943 222.01574 224.11005
 226.18136 228.27667 230.38498 232.50229 234.64260 236.82591 239.09322 241.47453
 244.10684 246.36915 248.38246 250.15877 251.58708 252.72139 253.55470 253.88201
 253.93032 253.71563 253.08694 252.04625 250.66356 248.83587 246.75618 244.60049
 242.40280 240.21811 238.04942 235.89973 233.77104 231.64935 229.68666 227.85497
 226.14928 224.63259 223.27390 222.05721 220.95052 219.92183 219.03714 218.18945
 217.44276 216.63407 215.74338 215.11869 214.58000 215.14188 216.41969 216.97446
 217.64339 218.39633 218.82198 218.53378 218.48047 219.89522 222.70337 226.10123
 229.63884 234.11809 238.76242 242.99228 247.01147 250.96912 254.77057 258.14471
 261.13980 263.91959 266.51981 268.87106 271.08984 273.29581 275.41650 277.32327
 278.88254 280.11835 281.40421 282.64462 283.73770 284.70477 285.58710 286.38644
 287.10535 287.74554 288.30478 289.01749
 366.78100 356.34627 345.78954 334.66681 323.08108 311.28634 299.16761 286.98188
 274.70515 262.61342 250.63369 239.94596 230.07923 221.19449 213.38776 206.40103
 200.24630 195.19557 191.78884 189.84211 188.89038 188.96565 189.81191 191.13118
 192.86745 194.97372 197.24799 199.61826 202.07453 204.56580 206.66506 208.51833
 210.15560 211.31187 211.55214 211.79141 211.73968 211.45595 211.10022 210.74148
 210.36975 210.09102 209.91029 209.78556 209.72483 210.06710 210.46437 210.86463
 211.66890 212.85817 214.11944 215.91371 217.85298 219.90725 222.01352 224.10779
 226.17905 228.27432 230.38259 232.49986 234.64013 236.82340 239.09067 241.47194
 244.10420 246.36647 248.37974 250.15601 251.58428 252.71855 253.55182 253.87909
 253.92736 253.71262 253.08389 252.04316 250.66043 248.83270 246.75297 244.59724
 242.39951 240.21477 238.04604 235.89631 233.76758 231.64585 229.68312 227.85139
 226.14566 224.62892 223.27019 222.05346 220.94673 219.91800 219.03327 218.18554
 217.43881 216.63008 215.73934 215.11461 214.57588 215.12663 216.40344 216.99602
 217.52769 218.37358 218.79724 218.42397 218.31013 219.66792 222.64189 225.99060
 229.69614 234.14223 238.77742 243.05328 247.08536 251.03746 254.80606 258.15012
 261.10556 263.84857 266.43692 268.83347 271.12598 273.39813 275.57233 277.52002
 279.17661 280.46710 281.45349 282.17062 282.78214 283.73169 284.59802 285.38284
 286.08868 286.71729 287.26639 287.96616
 366.78100 356.34599 345.78897 334.66596 323.07994 311.28493 299.16591 286.97990
 274.70288 262.61087 250.63085 239.94284 230.07582 221.19081 213.38379 206.39678
 200.24176 195.19075 191.78373 189.83672 188.88470 188.95969 189.80567 191.12466
 192.86064 194.96663 197.24061 199.61060 202.06658 204.55757 206.65655 208.50954
 210.14653 211.30251 211.54250 211.78148 211.72947 211.44545 211.08944 210.73042
 210.35841 210.07939 209.89838 209.77336 209.71235 210.05433 210.45132 210.85130
 211.65529 212.84427 214.10526 215.89924 217.83823 219.89221 221.99820 224.09218
 226.16317 228.25815 230.36614 232.48312 234.62311 236.80609 239.07308 241.45406
 244.08605 246.34804 248.36102 250.13701 251.56499 252.69898 253.53196 253.85895
 253.90693 253.69192 253.06290 252.02189 250.63887 248.81086 246.73084 244.57483
 242.37681 240.19180 238.02278 235.87277 233.74375 231.62174 229.65872 227.82671
 226.12069 224.60368 223.24466 222.02765 220.92063 219.89162 219.00660 218.15859
 217.41158 216.60256 215.71155 215.08653 214.54752 215.10466 216.40390 217.02151
 217.51926 218.31253 218.69748 218.22391 218.09296 219.47746 222.56734 225.90497
 229.72993 234.20558 238.86816 243.16905 247.21469 251.16519 254.89841 258.21948
 261.17685 263.91144 266.47864 268.84497 271.15927 273.49838 275.71039 277.66348
 279.31833 280.59323 281.46600 281.94510 282.13843 282.77148 283.72760 284.59375
 285.37274 286.06647 286.67249 287.44476
 366.78100 356.34560 345.78820 334.66481 323.07841 311.28301 299.16361 286.97721
 274.69981 262.60742 250.62702 239.93862 230.07122 221.18582 213.37842 206.39103
 200.23563 195.18423 191.77683 189.82943 188.87703 188.95164 189.79724 191.11584
 192.85144 194.95704 197.23064 199.60025 202.05585 204.54645 206.64505 208.49765
 210.13425 211.28986 211.52946 211.76806 211.71566 211.43126 211.07486 210.71547
 210.34307 210.06367 209.88227 209.75687 209.69548 210.03708 210.43368 210.83328
 211.63688 212.82548 214.08609 215.87969 217.81829 219.87189 221.97749 224.07109
 226.14170 228.23630 230.34390 232.46050 234.60010 236.78270 239.04931 241.42991
 244.06151 246.32311 248.33571 250.11131 251.53892 252.67252 253.50512 253.83172
 253.87932 253.66392 253.03453 251.99313 250.60973 248.78133 246.70093 244.54453
 242.34614 240.16074 237.99134 235.84094 233.71154 231.58914 229.62575 227.79335
 226.08695 224.56955 223.21015 221.99276 220.88536 219.85596 218.97056 218.12216
 217.37476 216.56537 215.67397 215.04857 214.50917 215.08336 216.41882 216.99777
 217.60492 218.34096 218.61481 218.05707 217.89140 219.23538 222.39812 225.86981
 229.76080 234.28050 238.95966 243.28246 247.35669 251.31664 255.02934 258.32748
 261.28598 264.03574 266.60840 268.95544 271.26898 273.64325 275.88391 277.83524
 279.46753 280.68250 281.41034 281.66888 281.72406 282.32162 283.31363 284.21231
 285.02060 285.74036 286.36914 287.17047
 366.78100 356.34685 345.79070 334.66856 323.08341 311.28926 299.17111 286.98596
 274.70981 262.61867 250.63952 239.95237 230.08622 221.20207 213.39593 206.40978
 200.25563 195.20548 191.79933 189.85319 188.90204 188.97789 189.82474 191.14459
 192.88144 194.98830 197.26315 199.63400 202.09085 204.58270 206.68256 208.53641
 210.17426 211.33111 211.57196 211.81182 211.76067 211.47752 211.12237 210.76422
 210.39307 210.11493 209.93478 209.81063 209.75048 210.09333 210.49119 210.89204
 211.69689 212.88674 214.14859 215.94344 217.88330 219.93815 222.04500 224.13985
 226.21170 228.30756 230.41641 232.53426 234.67511 236.85896 239.12682 241.50867
 244.14152 246.40437 248.41822 250.19507 251.62393 252.75878 253.59263 253.92048
 253.96933 253.75519 253.12704 252.08689 250.70474 248.87759 246.79844 244.64330
 242.44615 240.26200 238.09385 235.94470 233.81656 231.69541 229.73326 227.90211
 226.19696 224.68082 223.32267 222.10652 221.00037 219.97222 219.08807 218.24093
 217.49478 216.68663 215.79648 215.17233 214.63419 215.14029 216.33156 217.07945
 217.62636 218.26294 218.56825 217.94318 217.69243 218.97098 222.24883 225.79292
 229.78964 234.34399 239.04477 243.38405 247.47583 251.43307 255.12611 258.40091
 261.34314 264.09705 266.68658 269.05438 271.38052 273.80435 276.08084 278.03662
 279.68500 280.85898 281.55627 281.72803 281.73111 281.99567 282.92422 283.84637
 284.67572 285.41428 286.05948 286.88168
 366.78100 356.34644 345.78988 334.66732 323.08176 311.28721 299.16865 286.98309
 274.70653 262.61497 250.63541 239.94785 230.08129 221.19674 213.39018 206.40362
 200.24906 195.19850 191.79194 189.84538 188.89382 188.96927 189.81571 191.13515
 192.87159 194.97803 197.25247 199.62291 202.07935 204.57080 206.67024 208.52368
 210.16112 211.31756 211.55800 211.79744 211.74588 211.46233 211.10677 210.74821
 210.37665 210.09809 209.91753 209.79297 209.73241 210.07486 210.47230 210.87274
 211.67718 212.86662 214.12806 215.92250 217.86194 219.91639 222.02283 224.11727
 226.18871 228.28415 230.39259 232.51003 234.65047 236.83392 239.10136 241.48280
 244.11524 246.37768 248.39112 250.16756 251.59600 252.73045 253.56389 253.89133
 253.93977 253.72521 253.09665 252.05609 250.67353 248.84598 246.76642 244.61086
 242.41330 240.22874 238.06018 235.91062 233.78206 231.66051 229.69795 227.86639
 226.16083 224.64427 223.28571 222.06915 220.96259 219.93404 219.04948 218.20192
 217.45536 216.64680 215.75624 215.13168 214.59312 215.11804 216.35292 217.07010
 217.70511 218.36661 218.62735 217.83690 217.45258 218.67555 222.08656 225.70020
 229.81549 234.40402 239.12257 243.47276 247.57655 251.52550 255.20587 258.46756
 261.39035 264.11484 266.68857 269.09210 271.47751 273.94724 276.25391 278.21021
 279.82712 281.00085 281.60181 281.67984 281.64368 281.93198 282.73798 283.67645
 284.52054 285.27219 285.92880 286.76559
 366.78100 356.34471 345.78641 334.66212 323.07482 311.27853 299.15823 286.97094
 274.69264 262.59935 250.61806 239.92876 230.06047 221.17417 213.36588 206.37758
 200.22129 195.16899 191.76070 189.81241 188.85911 188.93282 189.77752 191.09523
 192.82993 194.93464 197.20734 199.57605 202.03076 204.52046 206.61817 208.46987
 210.10558 211.26028 211.49899 211.73669 211.68340 211.39811 211.04081 210.68052
 210.30722 210.02693 209.84463 209.71834 209.65604 209.99675 210.39246 210.79116
 211.59387 212.78157 214.04128 215.83398 217.77169 219.82439 221.92910 224.02181
 226.09151 228.18522 230.29192 232.40763 234.54633 236.72804 238.99374 241.37345
 244.00416 246.26486 248.27657 250.05127 251.47798 252.61068 253.44239 253.76809
 253.81480 253.59851 252.96821 251.92592 250.54162 248.71233 246.63103 244.47374
 242.27444 240.08815 237.91786 235.76656 233.63627 231.51297 229.54868 227.71538
 226.00809 224.48979 223.12950 221.91121 220.80291 219.77262 218.88632 218.03703
 217.28873 216.47844 215.58614 214.95985 214.41956 215.03439 216.46716 217.02097
 217.61162 218.36859 218.65686 217.79662 217.30342 218.47427 221.89340 225.67096
 229.82430 234.46576 239.17659 243.54260 247.66801 251.61880 255.28525 258.54886
 261.47980 264.18716 266.73666 269.13092 271.54691 274.07520 276.40576 278.36960
 279.96555 280.99039 281.37540 281.26880 281.27667 281.79697 282.70749 283.58829
 284.38046 285.08591 285.70218 286.48755
 366.78100 356.34630 345.78961 334.66691 323.08121 311.28652 299.16782 286.98212
 274.70543 262.61373 250.63403 239.94633 230.07964 221.19494 213.38824 206.40155
 200.24685 195.19615 191.78946 189.84276 188.89106 188.96637 189.81267 191.13197
 192.86828 194.97458 197.24888 199.61919 202.07549 204.56679 206.66609 208.51940
 210.15670 211.31300 211.55331 211.79261 211.74091 211.45722 211.10152 210.74282
 210.37113 210.09243 209.91173 209.78704 209.72634 210.06864 210.46594 210.86625
 211.67055 212.85985 214.12116 215.91546 217.85476 219.90907 222.01537 224.10967
 226.18098 228.27628 230.38458 232.50189 234.64219 236.82549 239.09280 241.47410
 244.10640 246.36870 248.38201 250.15831 251.58661 252.72092 253.55422 253.88152
 253.92983 253.71513 253.08643 252.04574 250.66304 248.83534 246.75565 244.59995
 242.40225 240.21756 238.04886 235.89916 233.77046 231.64877 229.68607 227.85437
 226.14868 224.63198 223.27328 222.05659 220.94989 219.92119 219.03650 218.18880
 217.44210 216.63341 215.74271 215.11801 214.57932 215.10869 216.35843 217.21452
 217.59140 218.16647 218.58842 217.77808 217.20795 218.32631 221.78584 225.62199
 229.86676 234.54749 239.26375 243.63582 247.76677 251.70422 255.35591 258.62292
 261.56781 264.27185 266.80185 269.20279 271.66083 274.23880 276.60236 278.57129
 280.15228 281.17514 281.40744 281.14645 281.03348 281.42148 282.29672 283.21967
 284.04971 284.78891 285.43463 286.25754
 366.78100 356.34737 345.79174 334.67010 323.08547 311.29184 299.17421 286.98957
 274.71394 262.62331 250.64468 239.95804 230.09241 221.20878 213.40315 206.41751
 200.26388 195.21425 191.80862 189.86298 188.91235 188.98872 189.83609 191.15645
 192.89382 195.00119 197.27656 199.64793 202.10529 204.59766 206.69803 208.55240
 210.19076 211.34813 211.58950 211.82987 211.77923 211.49660 211.14197 210.78434
 210.41370 210.13607 209.95644 209.83281 209.77317 210.11654 210.51491 210.91628
 211.72165 212.91201 214.17438 215.96975 217.91012 219.96548 222.07285 224.16822
 226.24059 228.33695 230.44632 232.56469 234.70606 236.89042 239.15879 241.54116
 244.17453 246.43789 248.45226 250.22963 251.65900 252.79436 253.62873 253.95710
 254.00647 253.79284 253.16520 252.12557 250.74394 248.91731 246.83867 244.68404
 242.48741 240.30378 238.13614 235.98751 233.85988 231.73925 229.77761 227.94698
 226.24235 224.72672 223.36908 222.15345 221.04782 220.02019 219.13655 218.28992
 217.54429 216.73666 215.84703 215.22339 214.68576 215.15424 216.26178 217.34082
 217.85831 218.18246 218.36671 217.49765 216.98921 218.16959 221.73712 225.47992
 229.90778 234.61801 239.35875 243.73315 247.87743 251.81805 255.47849 258.74368
 261.67487 264.35056 266.83807 269.24896 271.73676 274.33066 276.73712 278.71808
 280.27145 281.23212 281.45435 281.17700 281.00107 281.12314 281.67685 282.45184
 283.24738 283.98087 284.62164 285.43823
 354.97500 345.04800 334.58700 324.11500 313.32600 302.53700 291.65000 280.76700
 269.93100 259.19300 248.62200 238.61700 229.08700 220.35500 212.54000 205.53500
 199.46400 194.49300 191.14300 189.19000 188.08900 188.01400 188.72400 189.90600
 191.46900 193.38200 195.40300 197.55600 199.80700 202.06000 204.28800 206.47900
 208.55200 210.37800 212.02500 213.65900 214.99800 216.11800 217.17200 218.25900
 219.49400 220.64500 221.67900 222.61400 223.54500 224.98200 226.57100 228.19000
 229.79700 231.81100 233.86500 235.97200 238.24200 240.55300 242.89900 245.25300
 247.48800 249.53500 251.36600 252.84800 254.09800 255.16700 256.02700 256.25300
 256.09500 255.54300 253.93500 252.56600 251.38400 250.24500 249.05200 247.70100
 246.01600 243.99600 241.78400 239.39300 236.81300 234.22300 231.65800 229.14400
 226.74000 224.47300 222.33500 220.32500 218.44000 216.67700 214.96200 213.47200
 212.20000 211.10800 210.26000 209.63900 209.24400 209.03100 209.05800 209.33300
 209.78400 210.62600 211.33100 212.39100 213.62500 214.84668 217.72949 219.47640
 220.32566 220.86828 220.88710 220.27371 219.43733 218.84250 219.04934 220.86203
 222.60583 225.72206 229.03064 232.61777 236.12270 239.51333 242.70767 245.68587
 248.41061 250.90679 253.19353 254.91714 256.48655 257.94920 259.39966 260.69384
 261.81714 262.77997 263.71679 264.54570 265.26305 265.89772 266.47676 267.00133
 267.47312 267.89325 268.26027 268.72800
