|-------------------------------------------------------------------------|
|   File Name : in_temp.dat
|   Subject   : temperature profiles used for initial guess atmosphere
|   File Type : input of gmtr
|   Data Type : atmospherical data
|   Author/s  : WRF-Chem
|   Date      : Fri Jul 26 15:39:24 2024
|-------------------------------------------------------------------------|

 WRF-Chem temperature
#
 values of T (K)    (8f10.5)
#
 354.97500 345.04800 334.58700 324.11500 313.32600 302.53700 291.65000 280.76700
 269.93100 259.19300 248.62200 238.61700 229.08700 220.35500 212.54000 205.53500
 199.46400 194.49300 191.14300 189.19000 188.08900 188.01400 188.72400 189.90600
 191.46900 193.38200 195.40300 197.55600 199.80700 202.06000 204.28800 206.47900
 208.55200 210.37800 212.02500 213.65900 214.99800 216.11800 217.17200 218.25900
 219.49400 220.64500 221.67900 222.61400 223.54500 224.98200 226.57100 228.19000
 229.79700 231.81100 233.86500 235.97200 238.24200 240.55300 242.89900 245.25300
 247.48800 249.53500 251.36600 252.84800 254.09800 255.16700 256.02700 256.25300
 256.09500 255.54300 253.93500 252.56600 251.38400 250.24500 249.05200 247.70100
 246.01600 243.99600 241.78400 239.39300 236.81300 234.22300 231.65800 229.14400
 226.74000 224.47300 222.33500 220.32500 218.44000 216.67700 214.96200 213.47200
 212.20000 211.10800 210.26000 209.63900 209.24400 209.03100 209.05800 209.33300
 209.78400 210.62600 211.33100 212.39100 213.62500 214.84668 217.72949 219.47640
 220.32566 220.86828 220.88710 220.27371 219.43733 218.84250 219.04934 220.86203
 222.60583 225.72206 229.03064 232.61777 236.12270 239.51333 242.70767 245.68587
 248.41061 250.90679 253.19353 254.91714 256.48655 257.94920 259.39966 260.69384
 261.81714 262.77997 263.71679 264.54570 265.26305 265.89772 266.47676 267.00133
 267.47312 267.89325 268.26027 268.72800
 366.78100 356.33500 345.76700 334.63300 323.03600 311.23000 299.10000 286.90300
 274.61500 262.51200 250.52100 239.82200 229.94400 221.04800 213.23000 206.23200
 200.06600 195.00400 191.58600 189.62800 188.66500 188.72900 189.56400 190.87200
 192.59700 194.69200 196.95500 199.31400 201.75900 204.23900 206.32700 208.16900
 209.79500 210.94000 211.16900 211.39700 211.33400 211.03900 210.67200 210.30200
 209.91900 209.62900 209.43700 209.30100 209.22900 209.56000 209.94600 210.33500
 211.12800 212.30600 213.55600 215.33900 217.26700 219.31000 221.40500 223.48800
 225.54800 227.63200 229.72900 231.83500 233.96400 236.13600 238.39200 240.76200
 243.38300 245.63400 247.63600 249.40100 250.81800 251.94100 252.76300 253.07900
 253.11600 252.89000 252.25000 251.19800 249.80400 247.96500 245.87400 243.70700
 241.49800 239.30200 237.12200 234.96100 232.82100 230.68800 228.71400 226.87100
 225.15400 223.62600 222.25600 221.02800 219.91000 218.87000 217.97400 217.11500
 216.35700 215.53700 214.63500 213.99900 213.44900 212.85855 212.01316 212.61654
 214.26826 216.08686 218.14273 220.53346 223.40855 226.78828 231.49734 235.90155
 239.42278 243.28576 247.23140 251.11907 254.80144 258.23331 261.38913 264.27520
 266.89312 269.26852 271.44504 273.08845 274.58484 275.98591 277.39845 278.65879
 279.75272 280.69038 281.56708 282.34086 283.01050 283.60295 284.14348 284.63317
 285.07358 285.46577 285.80838 286.24500
 381.81900 372.39900 361.20600 349.77600 337.62200 324.85300 311.81000 298.35300
 284.86000 271.32400 258.56100 246.30400 236.08700 226.79600 218.44800 211.29000
 205.52200 200.89400 197.38100 194.84800 193.01500 192.31500 192.25000 192.43100
 192.91200 193.53700 194.13600 194.71200 195.26200 195.83100 196.39300 196.97600
 197.60400 198.14900 198.58400 199.05700 199.69500 200.37800 201.05400 201.70800
 202.31300 202.85700 203.35500 203.86200 204.56900 205.29700 206.02600 206.98700
 208.19300 209.44100 210.96900 212.57600 214.46200 216.51300 218.63000 220.85300
 223.34100 225.96200 228.73900 231.69700 234.70600 237.70600 240.69200 243.65700
 246.73700 249.69900 252.52100 255.06300 257.29000 259.23300 260.63300 261.68000
 262.46100 262.79800 262.69100 262.22400 261.06900 259.52500 257.70700 255.50700
 253.00100 250.30200 247.39800 244.45200 241.65400 239.05400 236.73300 234.59000
 232.59500 230.72500 228.83400 226.82600 224.66600 222.38700 220.10400 217.71500
 215.45900 213.06600 210.54600 208.09300 205.35400 202.08130 196.05959 200.71215
 209.01611 216.90438 223.84126 229.78593 235.00632 240.20838 245.98943 250.68668
 254.32982 257.93487 261.55666 264.96801 268.15192 271.06452 273.76717 276.25691
 278.57680 280.74479 282.77456 284.60533 286.27232 287.81705 289.31715 290.65561
 291.81734 292.81312 293.70701 294.49387 295.17482 295.77730 296.32696 296.82492
 297.27278 297.67160 298.02000 298.46400
 399.33000 389.90700 379.81300 368.66800 357.52200 345.30100 333.07400 320.22700
 307.21600 293.84800 280.37600 267.29600 254.61000 242.98700 232.15100 221.97700
 212.67200 204.28600 197.66900 192.82100 189.48600 187.45200 186.81400 187.08900
 187.78100 189.05400 190.64800 192.54200 194.63000 196.75200 198.67100 200.15800
 201.53500 202.48700 202.97500 203.34000 203.53900 203.49700 203.38500 203.24700
 203.00500 202.78600 202.60300 202.43700 202.42600 202.88800 203.42000 203.95100
 204.89500 205.99200 207.30100 208.95800 210.73800 213.10000 215.56400 218.18000
 220.96600 223.91800 226.96100 230.09200 233.29300 236.55700 239.95500 243.53700
 246.84500 249.39000 251.54200 253.47400 255.19500 256.48400 257.43100 258.05900
 258.21200 258.04000 257.58200 256.64300 255.23900 253.50700 251.40800 249.05600
 246.57600 243.99400 241.38900 238.83000 236.34400 233.98600 231.96900 230.11800
 228.42300 226.89900 225.54800 224.29700 223.10500 221.96500 220.95800 220.11300
 219.49000 218.92000 218.32500 217.88100 217.42300 216.96366 216.35568 216.80261
 217.73415 218.28582 218.64258 219.10077 220.44626 222.53987 226.38451 230.35736
 233.59734 237.39164 241.29814 245.22796 248.98002 252.51130 255.78595 258.80109
 261.54781 264.05210 266.34239 268.04198 269.58951 271.01303 272.35754 273.55718
 274.59842 275.49092 276.28989 276.99307 277.60161 278.14001 278.63122 279.07623
 279.47646 279.83287 280.14422 280.54100
 399.73800 389.78500 379.66200 368.15100 356.64100 344.35000 331.79200 318.88800
 305.72600 292.49300 279.20900 266.73800 254.69600 244.21100 234.45700 225.43300
 217.56900 210.45100 204.30000 199.30600 195.45800 192.57600 191.02700 190.38600
 190.23900 190.53400 191.16600 191.92500 192.79500 193.76600 194.73200 195.31200
 195.80000 196.05200 196.11500 196.11500 196.03900 195.72300 195.34000 194.98900
 194.75100 194.79200 195.13300 195.59800 196.50600 198.13600 199.85800 201.56600
 204.17900 206.82300 209.89300 213.28400 216.82800 220.60500 224.38700 228.20900
 232.03200 235.82500 239.56000 243.25800 246.84500 250.20100 253.70900 257.46800
 261.53000 264.22100 266.60100 268.68100 270.32900 271.74100 272.83600 273.47400
 273.89800 274.00200 273.75700 273.28800 272.37100 271.10000 269.58900 267.77900
 265.81600 263.72100 261.39300 258.91600 256.29800 253.42300 250.33100 247.11400
 243.83700 240.52900 237.24900 233.99900 230.72800 227.51500 224.25400 220.95200
 217.62700 213.65600 210.12100 206.78900 204.01000 201.99491 199.07309 198.76551
 199.40006 200.48994 201.46112 202.31912 203.45100 204.96110 207.47502 210.85391
 213.70530 217.29629 220.99574 224.72316 228.28753 231.64854 234.68024 237.40893
 239.70644 241.60899 243.46854 245.67368 247.68154 249.52395 251.24767 252.78566
 254.12057 255.26479 256.23740 257.09036 257.82852 258.48160 259.07744 259.61723
 260.10271 260.53504 260.91270 261.39400
 399.73800 389.78500 379.66200 368.15100 356.64100 344.35000 331.79200 318.88800
 305.72600 292.49300 279.20900 266.73800 254.69600 244.21100 234.45700 225.43300
 217.56900 210.45100 204.30000 199.30600 195.45800 192.57600 191.02700 190.38600
 190.23900 190.53400 191.16600 191.92500 192.79500 193.76600 194.73200 195.31200
 195.80000 196.05200 196.11500 196.11500 196.03900 195.72300 195.34000 194.98900
 194.75100 194.79200 195.13300 195.59800 196.50600 198.13600 199.85800 201.56600
 204.17900 206.82300 209.89300 213.28400 216.82800 220.60500 224.38700 228.20900
 232.03200 235.82500 239.56000 243.25800 246.84500 250.20100 253.70900 257.46800
 261.53000 264.22100 266.60100 268.68100 270.32900 271.74100 272.83600 273.47400
 273.89800 274.00200 273.75700 273.28800 272.37100 271.10000 269.58900 267.77900
 265.81600 263.72100 261.39300 258.91600 256.29800 253.42300 250.33100 247.11400
 243.83700 240.52900 237.24900 233.99900 230.72800 227.51500 224.25400 220.95200
 217.62700 213.65600 210.12100 206.78900 204.01000 201.99491 199.07309 198.76551
 199.40006 200.48994 201.46112 202.31912 203.45100 204.96110 207.47502 210.85391
 213.70530 217.29629 220.99574 224.72316 228.28753 231.64854 234.68024 237.40893
 239.70644 241.60899 243.46854 245.67368 247.68154 249.52395 251.24767 252.78566
 254.12057 255.26479 256.23740 257.09036 257.82852 258.48160 259.07744 259.61723
 260.10271 260.53504 260.91270 261.39400
 399.33000 389.90700 379.81300 368.66800 357.52200 345.30100 333.07400 320.22700
 307.21600 293.84800 280.37600 267.29600 254.61000 242.98700 232.15100 221.97700
 212.67200 204.28600 197.66900 192.82100 189.48600 187.45200 186.81400 187.08900
 187.78100 189.05400 190.64800 192.54200 194.63000 196.75200 198.67100 200.15800
 201.53500 202.48700 202.97500 203.34000 203.53900 203.49700 203.38500 203.24700
 203.00500 202.78600 202.60300 202.43700 202.42600 202.88800 203.42000 203.95100
 204.89500 205.99200 207.30100 208.95800 210.73800 213.10000 215.56400 218.18000
 220.96600 223.91800 226.96100 230.09200 233.29300 236.55700 239.95500 243.53700
 246.84500 249.39000 251.54200 253.47400 255.19500 256.48400 257.43100 258.05900
 258.21200 258.04000 257.58200 256.64300 255.23900 253.50700 251.40800 249.05600
 246.57600 243.99400 241.38900 238.83000 236.34400 233.98600 231.96900 230.11800
 228.42300 226.89900 225.54800 224.29700 223.10500 221.96500 220.95800 220.11300
 219.49000 218.92000 218.32500 217.88100 217.42300 216.96366 216.35568 216.80261
 217.73415 218.28582 218.64258 219.10077 220.44626 222.53987 226.38451 230.35736
 233.59734 237.39164 241.29814 245.22796 248.98002 252.51130 255.78595 258.80109
 261.54781 264.05210 266.34239 268.04198 269.58951 271.01303 272.35754 273.55718
 274.59842 275.49092 276.28989 276.99307 277.60161 278.14001 278.63122 279.07623
 279.47646 279.83287 280.14422 280.54100
 381.81900 372.39900 361.20600 349.77600 337.62200 324.85300 311.81000 298.35300
 284.86000 271.32400 258.56100 246.30400 236.08700 226.79600 218.44800 211.29000
 205.52200 200.89400 197.38100 194.84800 193.01500 192.31500 192.25000 192.43100
 192.91200 193.53700 194.13600 194.71200 195.26200 195.83100 196.39300 196.97600
 197.60400 198.14900 198.58400 199.05700 199.69500 200.37800 201.05400 201.70800
 202.31300 202.85700 203.35500 203.86200 204.56900 205.29700 206.02600 206.98700
 208.19300 209.44100 210.96900 212.57600 214.46200 216.51300 218.63000 220.85300
 223.34100 225.96200 228.73900 231.69700 234.70600 237.70600 240.69200 243.65700
 246.73700 249.69900 252.52100 255.06300 257.29000 259.23300 260.63300 261.68000
 262.46100 262.79800 262.69100 262.22400 261.06900 259.52500 257.70700 255.50700
 253.00100 250.30200 247.39800 244.45200 241.65400 239.05400 236.73300 234.59000
 232.59500 230.72500 228.83400 226.82600 224.66600 222.38700 220.10400 217.71500
 215.45900 213.06600 210.54600 208.09300 205.35400 202.08130 196.05959 200.71215
 209.01611 216.90438 223.84126 229.78593 235.00632 240.20838 245.98943 250.68668
 254.32982 257.93487 261.55666 264.96801 268.15192 271.06452 273.76717 276.25691
 278.57680 280.74479 282.77456 284.60533 286.27232 287.81705 289.31715 290.65561
 291.81734 292.81312 293.70701 294.49387 295.17482 295.77730 296.32696 296.82492
 297.27278 297.67160 298.02000 298.46400
 366.78100 356.33481 345.76662 334.63243 323.03524 311.22906 299.09887 286.90168
 274.61349 262.51030 250.51911 239.81992 229.94173 221.04554 213.22736 206.22917
 200.06298 195.00079 191.58260 189.62441 188.66122 188.72503 189.55985 190.86766
 192.59247 194.68728 196.95009 199.30890 201.75371 204.23352 206.32133 208.16315
 209.78896 210.93377 211.16258 211.39039 211.32720 211.03201 210.66482 210.29463
 209.91145 209.62126 209.42907 209.29288 209.22069 209.55150 209.93731 210.32612
 211.11894 212.29675 213.54656 215.32937 217.25718 219.29999 221.39480 223.47761
 225.53742 227.62124 229.71805 231.82386 233.95267 236.12448 238.38029 240.75010
 243.37091 245.62172 247.62354 249.38835 250.80516 251.92797 252.74978 253.06559
 253.10240 252.87621 252.23602 251.18384 249.78965 247.95046 245.85927 243.69208
 241.48289 239.28670 237.10651 234.94533 232.80514 230.67195 228.69776 226.85457
 225.13738 223.60919 222.23900 221.01081 219.89263 218.85244 217.95625 217.09706
 216.33887 215.51868 214.61649 213.98030 213.43011 212.94679 211.81023 212.12201
 213.37906 215.30620 216.80876 217.31882 218.62683 222.62697 228.64667 233.53752
 237.32468 241.07867 244.84569 248.58794 252.21021 255.33447 257.94110 260.38483
 263.03180 265.63470 268.04062 270.16968 272.19055 274.12570 275.77850 277.38153
 279.04340 280.68423 282.19510 283.55225 284.73273 285.78220 286.74405 287.61768
 288.40903 289.11865 289.74329 290.58066
 366.78100 356.33356 345.76412 334.62868 323.03023 311.22279 299.09135 286.89291
 274.60347 262.49903 250.50659 239.80615 229.92670 221.02926 213.20982 206.21038
 200.04294 194.97950 191.56006 189.60062 188.63617 188.69873 189.53229 190.83885
 192.56241 194.65597 196.91753 199.27509 201.71864 204.19720 206.28376 208.12432
 209.74888 210.89244 211.12000 211.34655 211.28211 210.98567 210.61723 210.24579
 209.86135 209.56991 209.37647 209.23902 209.16558 209.49514 209.87970 210.26726
 211.05882 212.23538 213.48394 215.26549 217.19205 219.23361 221.32717 223.40873
 225.46729 227.54985 229.64540 231.74996 233.87752 236.04808 238.30264 240.67120
 243.29076 245.54032 247.54087 249.30443 250.71999 251.84155 252.66211 252.97667
 253.01223 252.78479 252.14334 251.08990 249.69446 247.85402 245.76158 243.59314
 241.38270 239.18526 237.00381 234.84137 232.69993 230.56549 228.59005 226.74561
 225.02717 223.49772 222.12628 220.89684 219.77740 218.73596 217.83852 216.97808
 216.21864 215.39719 214.49375 213.85631 213.30487 212.88751 211.90569 212.24541
 213.48175 215.40413 216.83910 217.43034 218.59238 222.62395 228.58562 233.45329
 237.23578 241.00171 244.78763 248.51648 252.06332 255.16386 257.80325 260.27881
 262.86795 265.45596 267.90948 270.06149 272.07761 274.00314 275.64783 277.24844
 278.91144 280.56204 282.07803 283.43613 284.61844 285.66724 286.62894 287.50369
 288.29550 289.00607 289.63190 290.46625
 366.78100 356.33243 345.76187 334.62530 323.02573 311.21717 299.08460 286.88503
 274.59447 262.48890 250.49534 239.79377 229.91320 221.01464 213.19407 206.19350
 200.02494 194.96037 191.53980 189.57924 188.61367 188.67510 189.50754 190.81297
 192.53540 194.62784 196.88827 199.24471 201.68714 204.16457 206.25001 208.08944
 209.71287 210.85531 211.08174 211.30717 211.24161 210.94404 210.57447 210.20191
 209.81634 209.52377 209.32921 209.19064 209.11608 209.44451 209.82794 210.21438
 211.00481 212.18024 213.42768 215.20811 217.13354 219.17398 221.26641 223.34684
 225.40428 227.48571 229.58014 231.68358 233.81001 235.97944 238.23288 240.60031
 243.21875 245.46718 247.46661 249.22905 250.64348 251.76391 252.58335 252.89678
 252.93121 252.70265 252.06008 251.00551 249.60895 247.76738 245.67381 243.50425
 241.29268 239.09412 236.91155 234.74798 232.60542 230.46985 228.49328 226.64772
 224.92815 223.39758 222.02502 220.79445 219.67388 218.63132 217.73275 216.87118
 216.11062 215.28805 214.38349 213.74492 213.19235 212.83423 211.99139 212.37062
 213.59129 215.49504 216.86943 217.51164 218.59920 222.64990 228.52489 233.36813
 237.14433 240.91898 244.72099 248.43669 251.90788 254.98846 257.67004 260.18332
 262.71320 265.27737 267.77084 269.94598 271.96136 273.87787 275.51920 277.11954
 278.79132 280.44611 281.96838 283.32736 284.50967 285.55878 286.52011 287.39627
 288.18857 288.89951 289.52588 290.36249
 366.78100 356.33148 345.75996 334.62245 323.02193 311.21241 299.07889 286.87837
 274.58686 262.48034 250.48582 239.78330 229.90178 221.00227 213.18075 206.17923
 200.00971 194.94419 191.52268 189.56116 188.59464 188.65512 189.48660 190.79109
 192.51257 194.60405 196.86353 199.21901 201.66050 204.13698 206.22146 208.05994
 209.68242 210.82391 211.04939 211.27387 211.20735 210.90883 210.53832 210.16480
 209.77828 209.48476 209.28924 209.14973 209.07421 209.40169 209.78417 210.16965
 210.95914 212.13362 213.38010 215.15958 217.08406 219.12355 221.21503 223.29451
 225.35099 227.43147 229.52496 231.62744 233.75292 235.92140 238.17388 240.54037
 243.15785 245.40533 247.40381 249.16529 250.57877 251.69826 252.51674 252.82922
 252.86270 252.63318 251.98967 250.93415 249.53663 247.69411 245.59959 243.42908
 241.21656 239.01704 236.83352 234.66900 232.52549 230.38897 228.41145 226.56493
 224.84441 223.31290 221.93938 220.70786 219.58634 218.54282 217.64331 216.78079
 216.01927 215.19575 214.29023 213.65072 213.09720 212.78998 212.06662 212.49501
 213.70737 215.57687 216.91631 217.56242 218.64105 222.68065 228.47000 233.28310
 237.05093 240.83139 244.64786 248.35193 251.74887 254.81006 257.53824 260.09253
 262.56107 265.09549 267.62280 269.82141 271.84311 273.75500 275.39282 276.99432
 278.68085 280.33606 281.86426 283.22501 284.40878 285.45865 286.42029 287.29694
 288.08917 288.80038 289.42709 290.26300
 366.78100 356.33061 345.75821 334.61982 323.01843 311.20803 299.07364 286.87225
 274.57985 262.47246 250.47707 239.77367 229.89128 220.99089 213.16849 206.16610
 199.99571 194.92931 191.50692 189.54453 188.57713 188.63674 189.46735 190.77096
 192.49156 194.58217 196.84078 199.19538 201.63599 204.11160 206.19520 208.03281
 209.65442 210.79502 211.01963 211.24324 211.17584 210.87645 210.50506 210.13066
 209.74327 209.44888 209.25248 209.11209 209.03570 209.36230 209.74391 210.12852
 210.91712 212.09073 213.33634 215.11494 217.03855 219.07716 221.16776 223.24637
 225.30198 227.38158 229.47419 231.57580 233.70040 235.86801 238.11962 240.48522
 243.10183 245.34844 247.34604 249.10665 250.51926 251.63787 252.45547 252.76708
 252.79969 252.56929 251.92490 250.86851 249.47011 247.62672 245.53133 243.35993
 241.14654 238.94615 236.76175 234.59636 232.45197 230.31457 228.33618 226.48879
 224.76739 223.23500 221.86061 220.62821 219.50582 218.46143 217.56103 216.69764
 215.93525 215.11085 214.20446 213.56407 213.00967 212.74995 212.13814 212.62016
 213.81935 215.65244 216.97766 217.60315 218.71375 222.70384 228.42445 233.20366
 236.95767 240.74191 244.56822 248.25999 251.58356 254.62561 257.40350 260.00195
 262.41284 264.91296 267.46820 269.69214 271.72562 273.63928 275.27588 276.87695
 278.56888 280.23737 281.77057 283.13229 284.31573 285.36630 286.32803 287.20508
 287.99814 288.70688 289.33688 290.16907
 366.78100 356.32979 345.75657 334.61736 323.01514 311.20393 299.06871 286.86650
 274.57328 262.46507 250.46885 239.76464 229.88142 220.98021 213.15699 206.15378
 199.98256 194.91535 191.49213 189.52892 188.56070 188.61949 189.44927 190.75206
 192.47184 194.56163 196.81942 199.17320 201.61299 204.08777 206.17056 208.00734
 209.62813 210.76791 210.99170 211.21448 211.14627 210.84605 210.47384 210.09862
 209.71041 209.41519 209.21798 209.07676 208.99955 209.32533 209.70612 210.08990
 210.87769 212.05048 213.29526 215.07305 216.99583 219.03362 221.12340 223.20119
 225.25597 227.33476 229.42654 231.52733 233.65111 235.81790 238.06868 240.43347
 243.04925 245.29504 247.29182 249.05161 250.46339 251.58118 252.39796 252.70875
 252.74053 252.50932 251.86411 250.80689 249.40768 247.56346 245.46725 243.29503
 241.08082 238.87960 236.69439 234.52817 232.38296 230.24474 228.26553 226.41731
 224.69510 223.16188 221.78667 220.55345 219.43024 218.38502 217.48381 216.61959
 215.85638 215.03117 214.12395 213.48274 212.92752 212.71295 212.20714 212.74561
 213.92882 215.72169 217.03552 217.65045 218.80817 222.71877 228.38950 233.13310
 236.86774 240.65439 244.48512 248.16187 251.41301 254.43340 257.26053 259.90390
 262.26962 264.72934 267.30371 269.54916 271.59943 273.52521 275.17816 276.79584
 278.49100 280.14703 281.67856 283.04047 284.22363 285.27295 286.23590 287.11252
 287.90381 288.61615 289.24487 290.08353
 366.78100 356.32907 345.75515 334.61522 323.01229 311.20036 299.06444 286.86151
 274.56758 262.45865 250.46173 239.75680 229.87287 220.97095 213.14702 206.14309
 199.97116 194.90324 191.47931 189.51538 188.54646 188.60453 189.43360 190.73567
 192.45475 194.54382 196.80089 199.15396 201.59304 204.06711 206.14918 207.98526
 209.60533 210.74440 210.96747 211.18955 211.12062 210.81969 210.44677 210.07084
 209.68191 209.38598 209.18806 209.04613 208.96820 209.29327 209.67335 210.05642
 210.84349 212.01557 213.25964 215.03671 216.95878 218.99586 221.08493 223.16200
 225.21608 227.29415 229.38522 231.48529 233.60837 235.77444 238.02451 240.38858
 243.00366 245.24873 247.24480 249.00388 250.41495 251.53202 252.34809 252.65817
 252.68924 252.45731 251.81139 250.75346 249.35353 247.50860 245.41168 243.23875
 241.02382 238.82189 236.63597 234.46904 232.32311 230.18419 228.20426 226.35533
 224.63240 223.09848 221.72255 220.48862 219.36470 218.31877 217.41684 216.55191
 215.78799 214.96206 214.05413 213.41220 212.85628 212.68259 212.27278 212.86871
 214.04105 215.79285 217.08562 217.70407 218.90927 222.73653 228.36047 233.07033
 236.78481 240.57178 244.40482 248.06282 251.24268 254.23686 257.10794 259.79666
 262.13046 264.54926 267.12857 269.38727 271.45392 273.38861 275.05991 276.70465
 278.40689 280.09561 281.63693 283.00299 284.18665 285.24008 286.20657 287.08765
 287.89011 288.61139 289.24136 290.08344
 366.78100 356.32846 345.75391 334.61337 323.00983 311.19728 299.06074 286.85720
 274.56265 262.45311 250.45556 239.75002 229.86548 220.96293 213.13839 206.13385
 199.96130 194.89276 191.46822 189.50367 188.53413 188.59159 189.42004 190.72150
 192.43996 194.52841 196.78487 199.13732 201.57578 204.04924 206.13069 207.96615
 209.58561 210.72406 210.94652 211.16798 211.09843 210.79689 210.42335 210.04680
 209.65726 209.36072 209.16217 209.01963 208.94108 209.26554 209.64500 210.02745
 210.81391 211.98537 213.22882 215.00528 216.92674 218.96319 221.05165 223.12811
 225.18156 227.25902 229.34948 231.44893 233.57139 235.73684 237.98630 240.34976
 242.96421 245.20867 247.20413 248.96258 250.37304 251.48950 252.30495 252.61441
 252.64487 252.41232 251.76578 250.70724 249.30669 247.46115 245.36360 243.19006
 240.97452 238.77197 236.58543 234.41789 232.27134 230.13180 228.15126 226.30171
 224.57817 223.04363 221.66708 220.43254 219.30800 218.26145 217.35891 216.49336
 215.72882 214.90228 213.99373 213.35119 212.79465 212.65833 212.33626 212.98863
 214.15091 215.86755 217.14145 217.75334 219.01099 222.76155 228.33527 233.00775
 236.70375 240.49074 244.32652 247.96193 251.07249 254.03601 256.94458 259.67984
 261.99118 264.37805 266.95410 269.22421 271.31152 273.25842 274.94345 276.60635
 278.32800 280.05728 281.60373 282.97003 284.15567 285.20993 286.17654 287.05923
 287.86337 288.58438 289.21713 290.06152
 366.78100 356.32789 345.75279 334.61168 323.00758 311.19447 299.05737 286.85326
 274.55815 262.44805 250.44994 239.74384 229.85873 220.95563 213.13052 206.12542
 199.95231 194.88320 191.45810 189.49299 188.52289 188.57978 189.40768 190.70857
 192.42646 194.51436 196.77025 199.12215 201.56004 204.03294 206.11383 207.94872
 209.56762 210.70551 210.92741 211.14830 211.07820 210.77609 210.40198 210.02488
 209.63477 209.33767 209.13856 208.99546 208.91635 209.24025 209.61914 210.00103
 210.78693 211.95782 213.20072 214.97661 216.89751 218.93340 221.02129 223.09719
 225.15008 227.22698 229.31687 231.41577 233.53766 235.70255 237.95145 240.31434
 242.92824 245.17213 247.16703 248.92492 250.33482 251.45071 252.26560 252.57450
 252.60439 252.37129 251.72418 250.66508 249.26397 247.41786 245.31976 243.14565
 240.92955 238.72644 236.53934 234.37123 232.22412 230.08402 228.10291 226.25281
 224.52870 222.99360 221.61649 220.38138 219.25628 218.20917 217.30607 216.43996
 215.67486 214.84775 213.93865 213.29554 212.73843 212.63794 212.40053 213.11082
 214.25378 215.94403 217.20370 217.80153 219.10876 222.79344 228.31346 232.94528
 236.62506 240.41426 244.25053 247.85774 250.89949 253.82935 256.77048 259.55106
 261.85049 264.21378 266.78162 269.06512 271.17926 273.14502 274.84601 276.52286
 278.27203 280.01770 281.56702 282.93347 284.12073 285.17599 286.14294 287.02722
 287.83270 288.55627 289.18924 290.03528
 366.78100 356.32728 345.75156 334.60984 323.00512 311.19140 299.05368 286.84896
 274.55325 262.44253 250.44381 239.73709 229.85137 220.94765 213.12193 206.11621
 199.94249 194.87277 191.44705 189.48133 188.51061 188.56689 189.39417 190.69445
 192.41174 194.49902 196.75430 199.10558 201.54286 204.01514 206.09542 207.92970
 209.54798 210.68526 210.90654 211.12682 211.05610 210.75338 210.37866 210.00094
 209.61023 209.31251 209.11279 208.96907 208.88935 209.21263 209.59091 209.97219
 210.75747 211.92775 213.17003 214.94531 216.86559 218.90087 220.98815 223.06343
 225.11572 227.19200 229.28128 231.37956 233.50084 235.66512 237.91340 240.27568
 242.88896 245.13224 247.12652 248.88380 250.29308 251.40836 252.22264 252.53092
 252.56021 252.32649 251.67877 250.61905 249.21733 247.37061 245.27189 243.09717
 240.88045 238.67673 236.48901 234.32029 232.17257 230.03185 228.05013 226.19941
 224.47470 222.93898 221.56126 220.32554 219.19982 218.15210 217.24838 216.38166
 215.61594 214.78822 213.87850 213.23478 212.67706 212.61598 212.47165 213.23349
 214.36026 216.01526 217.26500 217.84099 219.21526 222.82419 228.28636 232.87952
 236.54599 240.34259 244.17735 247.75356 250.72758 253.62106 256.58917 259.41248
 261.71249 264.05710 266.61261 268.91168 271.05710 273.04355 274.75516 276.44205
 278.22937 279.98599 281.53711 282.90488 284.09296 285.14807 286.11676 287.00284
 287.80859 288.53281 289.16647 290.01508
 366.78100 356.32670 345.75040 334.60810 323.00279 311.18849 299.05019 286.84489
 274.54859 262.43729 250.43798 239.73068 229.84438 220.94008 213.11378 206.10748
 199.93317 194.86287 191.43657 189.47027 188.49897 188.55467 189.38136 190.68106
 192.39776 194.48446 196.73916 199.08986 201.52655 203.99825 206.07795 207.91165
 209.52935 210.66605 210.88674 211.10644 211.03514 210.73184 210.35654 209.97824
 209.58693 209.28863 209.08833 208.94403 208.86373 209.18643 209.56412 209.94482
 210.72952 211.89922 213.14092 214.91562 216.83531 218.87001 220.95671 223.03141
 225.08311 227.15881 229.24750 231.34520 233.46590 235.62960 237.87730 240.23900
 242.85169 245.09439 247.08809 248.84479 250.25349 251.36819 252.18188 252.48958
 252.51828 252.28398 251.63568 250.57538 249.17307 247.32577 245.22647 243.05117
 240.83387 238.62957 236.44127 234.27196 232.12366 229.98236 228.00006 226.14876
 224.42346 222.88715 221.50885 220.27255 219.14625 218.09795 217.19365 216.32634
 215.56004 214.73174 213.82144 213.17714 212.61884 212.59654 212.54385 213.36652
 214.46426 216.08694 217.32201 217.88019 219.32230 222.84908 228.26941 232.81786
 236.46622 240.27014 244.10124 247.64249 250.54796 253.40147 256.39197 259.25583
 261.57196 263.91010 266.45587 268.77652 270.95865 272.97629 274.70547 276.40204
 278.18280 279.94025 281.49173 282.85883 284.04684 285.10468 286.07275 286.95853
 287.76901 288.49298 289.12830 289.97842
 366.78100 356.32579 345.74857 334.60536 322.99914 311.18393 299.04472 286.83850
 274.54129 262.42907 250.42886 239.72065 229.83343 220.92822 213.10100 206.09379
 199.91858 194.84736 191.42015 189.45293 188.48072 188.53551 189.36129 190.66008
 192.37586 194.46165 196.71544 199.06522 201.50101 203.97179 206.05058 207.88337
 209.50015 210.63594 210.85573 211.07451 211.00230 210.69808 210.32187 209.94266
 209.55044 209.25123 209.05001 208.90480 208.82359 209.14537 209.52216 209.90194
 210.68573 211.85452 213.09530 214.86909 216.78787 218.82166 220.90745 222.98123
 225.03202 227.10680 229.19459 231.29138 233.41116 235.57395 237.82073 240.18152
 242.79331 245.03509 247.02788 248.78366 250.19145 251.30524 252.11802 252.42481
 252.45259 252.21738 251.56817 250.50695 249.10374 247.25552 245.15531 242.97910
 240.76088 238.55567 236.36645 234.19624 232.04703 229.90481 227.92160 226.06938
 224.34317 222.80596 221.42674 220.18953 219.06231 218.01310 217.10789 216.23967
 215.47246 214.64325 213.73203 213.08682 212.52760 212.56032 212.63763 213.51083
 214.53841 216.14008 217.41211 217.93640 219.45952 222.88358 228.23596 232.73872
 236.37448 240.18791 244.01363 247.51588 250.35416 253.17163 256.18561 259.09052
 261.44156 263.78387 266.31638 268.65994 270.87863 272.93201 274.68338 276.38593
 278.14404 279.88879 281.43930 282.80600 283.99335 285.04968 286.01678 286.90332
 287.71265 288.44019 289.07291 289.92285
 366.78100 356.32515 345.74730 334.60345 322.99660 311.18075 299.04089 286.83404
 274.53619 262.42334 250.42249 239.71364 229.82579 220.91994 213.09209 206.08424
 199.90839 194.83654 191.40868 189.44083 188.46798 188.52213 189.34728 190.64543
 192.36058 194.44573 196.69888 199.04803 201.48318 203.95332 206.03147 207.86362
 209.47977 210.61492 210.83407 211.05222 210.97937 210.67452 210.29767 209.91782
 209.52497 209.22511 209.02326 208.87741 208.79556 209.11671 209.49286 209.87201
 210.65516 211.82331 213.06346 214.83661 216.75475 218.78790 220.87305 222.94620
 224.99635 227.07050 229.15765 231.25380 233.37295 235.53510 237.78125 240.14140
 242.75254 244.99369 246.98584 248.74099 250.14814 251.26129 252.07344 252.37959
 252.40674 252.17089 251.52104 250.45918 249.05533 247.20648 245.10563 242.92878
 240.70993 238.50408 236.31423 234.14338 231.99353 229.85068 227.86683 226.01397
 224.28712 222.74927 221.36942 220.13157 219.00372 217.95387 217.04802 216.17917
 215.41132 214.58147 213.66961 213.02376 212.46391 212.53836 212.71423 213.68558
 214.62883 216.09029 217.55113 218.13391 219.57675 222.86632 228.17188 232.64194
 236.27328 240.09898 243.91791 247.37909 250.15562 252.94345 255.98007 258.92572
 261.32761 263.67880 266.19168 268.55319 270.80606 272.89453 274.66827 276.37524
 278.11969 279.84805 281.39581 282.76321 283.94785 285.00235 285.96863 286.85266
 287.65887 288.38095 289.00137 289.83807
 366.78100 356.32531 345.74761 334.60392 322.99723 311.18153 299.04184 286.83515
 274.53745 262.42476 250.42407 239.71537 229.82768 220.92199 213.09429 206.08660
 199.91091 194.83921 191.41152 189.44383 188.47113 188.52544 189.35075 190.64905
 192.36436 194.44967 196.70297 199.05228 201.48758 203.95789 206.03620 207.86850
 209.48481 210.62012 210.83942 211.05773 210.98504 210.68034 210.30365 209.92396
 209.53126 209.23157 209.02988 208.88418 208.80249 209.12380 209.50010 209.87941
 210.66272 211.83102 213.07133 214.84464 216.76294 218.79625 220.88156 222.95486
 225.00517 227.07948 229.16678 231.26309 233.38240 235.54470 237.79101 240.15132
 242.76262 245.00393 246.99624 248.75154 250.15885 251.27216 252.08446 252.39077
 252.41808 252.18238 251.53269 250.47100 249.06730 247.21861 245.11791 242.94122
 240.72253 238.51683 236.32714 234.15645 232.00675 229.86406 227.88037 226.02767
 224.30098 222.76329 221.38359 220.14590 219.01821 217.96851 217.06282 216.19413
 215.42643 214.59674 213.68505 213.03935 212.47966 212.56058 212.75177 213.83211
 214.81181 216.13606 217.56769 218.25377 219.69243 222.82875 228.13054 232.56529
 236.17702 240.01096 243.81636 247.23378 249.95546 252.71783 255.77351 258.75626
 261.21661 263.58368 266.07733 268.45731 270.74231 272.86618 274.66348 276.37634
 278.11499 279.81543 281.36014 282.72678 283.91315 284.96686 285.93213 286.81696
 287.62573 288.34943 288.96848 289.80905
 366.78100 356.32535 345.74769 334.60404 322.99739 311.18173 299.04208 286.83542
 274.53777 262.42512 250.42446 239.71581 229.82816 220.92250 213.09485 206.08720
 199.91154 194.83989 191.41224 189.44458 188.47193 188.52627 189.35162 190.64997
 192.36531 194.45066 196.70401 199.05335 201.48870 203.95905 206.03739 207.86974
 209.48609 210.62143 210.84078 211.05912 210.98647 210.68182 210.30516 209.92551
 209.53286 209.23320 209.03155 208.88590 208.80424 209.12559 209.50194 209.88128
 210.66463 211.83297 213.07332 214.84667 216.76501 218.79836 220.88371 222.95705
 225.00740 227.08175 229.16909 231.26544 233.38479 235.54713 237.79348 240.15382
 242.76517 245.00652 246.99886 248.75421 250.16156 251.27490 252.08725 252.39360
 252.42094 252.18529 251.53564 250.47398 249.07033 247.22167 245.12102 242.94437
 240.72571 238.52006 236.33041 234.15975 232.01010 229.86745 227.88379 226.03114
 224.30449 222.76683 221.38718 220.14952 219.02187 217.97222 217.06656 216.19791
 215.43026 214.60060 213.68895 213.04330 212.48364 212.58203 212.81450 213.92453
 214.99469 216.25824 217.55103 218.35507 219.85191 222.81953 228.10341 232.49040
 236.07710 239.91550 243.70415 247.07239 249.74284 252.48328 255.55202 258.56696
 261.09302 263.48651 265.96985 268.37271 270.69449 272.85724 274.67990 276.38266
 278.10223 279.78113 281.32657 282.69452 283.88089 284.93423 285.90097 286.78555
 287.59406 288.31479 288.93576 289.77594
 366.78100 356.32454 345.74609 334.60163 322.99417 311.17771 299.03726 286.82980
 274.53134 262.41788 250.41643 239.70697 229.81851 220.91205 213.08360 206.07514
 199.89868 194.82622 191.39777 189.42931 188.45585 188.50939 189.33394 190.63148
 192.34602 194.43056 196.68311 199.03165 201.46619 203.93574 206.01328 207.84482
 209.46036 210.59491 210.81345 211.03099 210.95753 210.65208 210.27462 209.89416
 209.50070 209.20025 208.99779 208.85133 208.76887 209.08942 209.46496 209.84350
 210.62604 211.79359 213.03313 214.80567 216.72321 218.75576 220.84030 222.91284
 224.96239 227.03593 229.12247 231.21801 233.33656 235.49810 237.74364 240.10318
 242.71373 244.95427 246.94581 248.70035 250.10690 251.21944 252.03098 252.33652
 252.36307 252.12661 251.47615 250.41369 249.00924 247.15978 245.05832 242.88086
 240.66141 238.45495 236.26449 234.09304 231.94258 229.79912 227.81466 225.96121
 224.23375 222.69529 221.31483 220.07638 218.94792 217.89746 216.99100 216.12155
 215.35309 214.52263 213.61017 212.96372 212.40326 212.55902 212.92702 214.03459
 215.13092 216.35733 217.52911 218.45798 220.01953 222.86725 228.06958 232.40601
 235.97388 239.81917 243.58980 246.90854 249.53125 252.25197 255.32848 258.36771
 260.95505 263.38672 265.86246 268.29025 270.64792 272.85782 274.73611 276.47006
 278.19833 279.79984 281.26196 282.61850 283.80334 284.85477 285.81952 286.70462
 287.51505 288.23270 288.85126 289.69614
 366.78100 356.32330 345.74359 334.59789 322.98919 311.17149 299.02978 286.82108
 274.52138 262.40668 250.40397 239.69327 229.80357 220.89587 213.06616 206.05646
 199.87876 194.80505 191.37535 189.40565 188.43095 188.48324 189.30654 190.60284
 192.31614 194.39943 196.65073 198.99803 201.43133 203.89962 205.97592 207.80622
 209.42051 210.55381 210.77111 210.98741 210.91270 210.60600 210.22730 209.84560
 209.45089 209.14919 208.94549 208.79778 208.71408 209.03338 209.40768 209.78497
 210.56627 211.73257 212.97087 214.74216 216.65846 218.68976 220.77306 222.84435
 224.89265 226.96495 229.05024 231.14454 233.26184 235.42214 237.66643 240.02473
 242.63403 244.87333 246.86362 248.61692 250.02222 251.13352 251.94381 252.24811
 252.27341 252.03570 251.38400 250.32030 248.91460 247.06389 244.96119 242.78249
 240.56179 238.35408 236.16238 233.98968 231.83798 229.69327 227.70757 225.85287
 224.12416 222.58446 221.20276 219.96306 218.83335 217.78165 216.87395 216.00325
 215.23354 214.40184 213.48814 212.84043 212.27873 212.50803 213.04977 214.19789
 215.27966 216.43010 217.52110 218.54521 220.13646 222.94556 228.01115 232.31146
 235.86148 239.71228 243.45436 246.71254 249.29738 252.00827 255.09819 258.16400
 260.82797 263.29926 265.77710 268.22406 270.60724 272.84622 274.76123 276.51544
 278.24945 279.82294 281.25644 282.60947 283.79428 284.84482 285.80844 286.69415
 287.50220 288.21683 288.83591 289.68018
 366.78100 356.32320 345.74340 334.59760 322.98879 311.17099 299.02919 286.82039
 274.52059 262.40579 250.40298 239.69218 229.80238 220.89458 213.06478 206.05498
 199.87718 194.80337 191.37357 189.40377 188.42897 188.48117 189.30437 190.60056
 192.31376 194.39696 196.64816 198.99536 201.42856 203.89675 205.97295 207.80315
 209.41735 210.55055 210.76775 210.98395 210.90914 210.60234 210.22354 209.84174
 209.44694 209.14514 208.94133 208.79353 208.70973 209.02893 209.40313 209.78033
 210.56153 211.72772 212.96592 214.73712 216.65332 218.68452 220.76772 222.83891
 224.88711 226.95931 229.04451 231.13871 233.25591 235.41611 237.66030 240.01850
 242.62770 244.86690 246.85710 248.61030 250.01549 251.12669 251.93689 252.24109
 252.26629 252.02849 251.37669 250.31288 248.90708 247.05628 244.95348 242.77468
 240.55388 238.34607 236.15427 233.98147 231.82967 229.68487 227.69907 225.84426
 224.11546 222.57566 221.19386 219.95406 218.82426 217.77246 216.86465 215.99385
 215.22405 214.39225 213.47845 212.83065 212.26884 212.51297 213.08975 214.40140
 215.46625 216.52678 217.61154 218.65709 220.22343 223.01942 227.93051 232.19341
 235.73134 239.57892 243.27405 246.44797 249.00926 251.71513 254.82222 257.91272
 260.65378 263.18069 265.67450 268.15500 270.56604 272.82016 274.77533 276.54996
 278.27066 279.82788 281.28357 282.63974 283.82291 284.87357 285.83560 286.72110
 287.53333 288.24200 288.86011 289.70059
 366.78100 356.32580 345.74861 334.60541 322.99921 311.18402 299.04482 286.83863
 274.54143 262.42923 250.42904 239.72084 229.83364 220.92845 213.10125 206.09406
 199.91886 194.84766 191.42047 189.45327 188.48107 188.53588 189.36168 190.66049
 192.37629 194.46209 196.71590 199.06570 201.50150 203.97231 206.05111 207.88392
 209.50072 210.63652 210.85633 211.07513 211.00293 210.69874 210.32254 209.94335
 209.55115 209.25195 209.05076 208.90556 208.82436 209.14617 209.52297 209.90278
 210.68658 211.85538 213.09619 214.86999 216.78879 218.82260 220.90840 222.98221
 225.03301 227.10781 229.19562 231.29242 233.41222 235.57503 237.82183 240.18264
 242.79444 245.03624 247.02905 248.78485 250.19265 251.30646 252.11926 252.42606
 252.45387 252.21867 251.56948 250.50828 249.10508 247.25689 245.15669 242.98049
 240.76230 238.55710 236.36791 234.19771 232.04851 229.90632 227.92312 226.07092
 224.34473 222.80753 221.42834 220.19114 219.06394 218.01475 217.10955 216.24135
 215.47416 214.64496 213.73377 213.08857 212.52937 212.66530 212.98640 214.57259
 215.64958 216.68388 217.84099 218.85190 220.36069 223.11356 227.85915 232.05959
 235.59979 239.42654 243.05841 246.14476 248.70123 251.40849 254.52448 257.62561
 260.43005 263.02142 265.55286 268.07712 270.51761 272.78635 274.79678 276.62201
 278.35379 279.91550 281.30896 282.65460 283.83347 284.87836 285.83646 286.71561
 287.52579 288.22934 288.84500 289.67856
 366.78100 356.32792 345.75283 334.61175 323.00767 311.19458 299.05750 286.85342
 274.55834 262.44825 250.45017 239.74409 229.85900 220.95592 213.13084 206.12575
 199.95267 194.88359 191.45850 189.49342 188.52334 188.58026 189.40817 190.70909
 192.42701 194.51492 196.77084 199.12276 201.56067 204.03359 206.11451 207.94942
 209.56834 210.70626 210.92818 211.14909 211.07901 210.77693 210.40284 210.02576
 209.63568 209.33859 209.13951 208.99643 208.91734 209.24126 209.62018 210.00210
 210.78801 211.95893 213.20185 214.97776 216.89868 218.93460 221.02251 223.09843
 225.15135 227.22826 229.31818 231.41710 233.53902 235.70393 237.95285 240.31577
 242.92968 245.17360 247.16852 248.92643 250.33635 251.45227 252.26718 252.57610
 252.60602 252.37294 251.72585 250.66677 249.26569 247.41960 245.32152 243.14744
 240.93135 238.72827 236.54119 234.37310 232.22602 230.08594 228.10486 226.25477
 224.53069 222.99561 221.61852 220.38344 219.25836 218.21127 217.30819 216.44211
 215.67702 214.84994 213.94086 213.29778 212.74069 212.81067 212.97598 214.59161
 215.70354 216.88660 218.10114 219.08246 220.56421 223.24908 227.83421 231.97134
 235.50461 239.29314 242.85901 245.88214 248.44130 251.14828 254.25958 257.37027
 260.22693 262.87732 265.44897 267.99878 270.46466 272.76300 274.82553 276.69598
 278.43716 279.98691 281.34552 282.68695 283.86340 284.90643 285.85974 286.74008
 287.54422 288.24200 288.86267 289.69312
 366.78100 356.32721 345.75142 334.60962 323.00483 311.19104 299.05325 286.84845
 274.55266 262.44187 250.44308 239.73628 229.85049 220.94670 213.12091 206.11511
 199.94132 194.87153 191.44574 189.47994 188.50915 188.56536 189.39257 190.69277
 192.40998 194.49719 196.75240 199.10360 201.54081 204.01302 206.09323 207.92743
 209.54564 210.68285 210.90406 211.12426 211.05347 210.75068 210.37589 209.99809
 209.60730 209.30951 209.10972 208.96592 208.88613 209.20934 209.58755 209.96875
 210.75396 211.92417 213.16638 214.94158 216.86179 218.89700 220.98421 223.05941
 225.11162 227.18783 229.27704 231.37524 233.49645 235.66066 237.90887 240.27108
 242.88428 245.12749 247.12170 248.87891 250.28811 251.40332 252.21753 252.52574
 252.55494 252.32115 251.67336 250.61357 249.21177 247.36498 245.26619 243.09140
 240.87460 238.67081 236.48302 234.31423 232.16643 230.02564 228.04385 226.19306
 224.46826 222.93247 221.55468 220.31889 219.19309 218.14530 217.24151 216.37472
 215.60892 214.78113 213.87134 213.22755 212.66975 212.81328 213.15240 214.57886
 215.63803 217.03160 218.27576 219.28394 220.80745 223.42665 227.86652 231.93568
 235.44682 239.17999 242.67358 245.63835 248.19252 250.90691 254.02048 257.15350
 260.05493 262.75241 265.36142 267.93201 270.42380 272.74841 274.83817 276.71924
 278.45013 279.98801 281.35910 282.70392 283.88510 284.93613 285.90283 286.77948
 287.55630 288.24704 288.85864 289.69577
 366.78100 356.32700 345.75101 334.60901 323.00401 311.19002 299.05202 286.84702
 274.55103 262.44003 250.44103 239.73404 229.84804 220.94404 213.11805 206.11205
 199.93805 194.86805 191.44206 189.47606 188.50506 188.56107 189.38807 190.68807
 192.40508 194.49208 196.74708 199.09809 201.53509 204.00709 206.08710 207.92110
 209.53910 210.67611 210.89711 211.11711 211.04612 210.74312 210.36812 209.99013
 209.59913 209.30113 209.10114 208.95714 208.87714 209.20015 209.57815 209.95915
 210.74415 211.91416 213.15616 214.93116 216.85117 218.88617 220.97317 223.04818
 225.10018 227.17618 229.26519 231.36319 233.48419 235.64820 237.89620 240.25820
 242.87121 245.11421 247.10821 248.86522 250.27422 251.38922 252.20323 252.51123
 252.54023 252.30624 251.65824 250.59824 249.19625 247.34925 245.25025 243.07525
 240.85826 238.65426 236.46626 234.29727 232.14927 230.00827 228.02628 226.17528
 224.45028 222.91429 221.53629 220.30029 219.17430 218.12630 217.22230 216.35531
 215.58931 214.76131 213.85132 213.20732 212.64932 212.83044 213.25838 214.68990
 215.68370 217.09494 218.37112 219.41316 220.98541 223.55803 227.88397 231.88243
 235.36452 239.03227 242.43611 245.33090 247.88715 250.63792 253.77971 256.95129
 259.91431 262.67206 265.32416 267.92261 270.42538 272.75497 274.84613 276.72055
 278.44711 279.98755 281.34024 282.63266 283.80792 284.85620 285.82709 286.70218
 287.48230 288.17450 288.78638 289.61765
 366.78100 356.32809 345.75317 334.61226 323.00835 311.19543 299.05852 286.85461
 274.55970 262.44978 250.45187 239.74596 229.86104 220.95813 213.13322 206.12830
 199.95539 194.88648 191.46156 189.49665 188.52674 188.58382 189.41191 190.71300
 192.43109 194.51917 196.77526 199.12735 201.56543 204.03852 206.11961 207.95469
 209.57378 210.71187 210.93395 211.15504 211.08513 210.78322 210.40930 210.03239
 209.64248 209.34556 209.14665 209.00374 208.92482 209.24891 209.62800 210.01008
 210.79617 211.96726 213.21035 214.98643 216.90752 218.94361 221.03169 223.10778
 225.16087 227.23795 229.32804 231.42713 233.54921 235.71430 237.96339 240.32647
 242.94056 245.18465 247.17974 248.93782 250.34791 251.46400 252.27908 252.58817
 252.61826 252.38534 251.73843 250.67952 249.27860 247.43269 245.33478 243.16087
 240.94495 238.74204 236.55513 234.38721 232.24030 230.10039 228.11947 226.26956
 224.54565 223.01073 221.63382 220.39891 219.27400 218.22708 217.32417 216.45826
 215.69334 214.86643 213.95752 213.31460 212.75769 212.91348 213.28156 214.79065
 215.84451 217.20346 218.47159 219.51631 221.12373 223.64819 227.88319 231.82591
 235.26755 238.86069 242.16328 244.99101 247.56535 250.37357 253.55754 256.78207
 259.82544 262.66168 265.36520 267.98505 270.47333 272.78229 274.86234 276.73297
 278.45895 280.01297 281.37430 282.54648 283.66583 284.70490 285.66385 286.52856
 287.29865 287.98914 288.60709 289.44662
 366.78100 356.32891 345.75482 334.61472 323.01163 311.19954 299.06345 286.86036
 274.56627 262.45717 250.46008 239.75499 229.87090 220.96881 213.14472 206.14062
 199.96853 194.90044 191.47635 189.51226 188.54317 188.60107 189.42998 190.73189
 192.45080 194.53971 196.79662 199.14952 201.58843 204.06234 206.14425 207.98016
 209.60007 210.73897 210.96188 211.18379 211.11470 210.81361 210.44051 210.06442
 209.67533 209.37924 209.18115 209.03906 208.96096 209.28587 209.66578 210.04869
 210.83560 212.00751 213.25141 215.02832 216.95023 218.98714 221.07605 223.15296
 225.20686 227.28477 229.37568 231.47559 233.59850 235.76441 238.01431 240.37822
 242.99313 245.23804 247.23395 248.99286 250.40376 251.52067 252.33658 252.64649
 252.67740 252.44530 251.79921 250.74112 249.34103 247.49594 245.39885 243.22575
 241.01066 238.80857 236.62248 234.45539 232.30930 230.17020 228.19011 226.34102
 224.61793 223.08384 221.70775 220.47365 219.34956 218.30347 217.40138 216.53629
 215.77220 214.94610 214.03801 213.39592 212.83983 212.98480 213.32733 214.85239
 216.00229 217.35974 218.57222 219.59143 221.25389 223.72279 227.88734 231.80318
 235.18565 238.69987 241.89487 244.65808 247.25316 250.12291 253.36049 256.64676
 259.77423 262.69052 265.43390 268.05411 270.50891 272.78516 274.84760 276.71786
 278.45987 280.02585 281.39847 282.59210 283.56711 284.58356 285.52982 286.33118
 287.09152 287.78745 288.41373 289.28104
 366.78100 356.32814 345.75329 334.61243 323.00857 311.19572 299.05886 286.85500
 274.56015 262.45029 250.45244 239.74658 229.86172 220.95887 213.13401 206.12915
 199.95630 194.88744 191.46258 189.49773 188.52787 188.58501 189.41316 190.71430
 192.43244 194.52059 196.77673 199.12887 201.56702 204.04016 206.12131 207.95645
 209.57559 210.71374 210.93588 211.15702 211.08717 210.78531 210.41145 210.03460
 209.64474 209.34788 209.14903 209.00617 208.92731 209.25146 209.63060 210.01275
 210.79889 211.97003 213.21318 214.98932 216.91046 218.94661 221.03475 223.11089
 225.16404 227.24118 229.33132 231.43047 233.55261 235.71775 237.96690 240.33004
 242.94418 245.18833 247.18347 248.94162 250.35176 251.46790 252.28305 252.59219
 252.62233 252.38948 251.74262 250.68376 249.28291 247.43705 245.33919 243.16534
 240.94948 238.74662 236.55977 234.39191 232.24506 230.10520 228.12434 226.27449
 224.55063 223.01577 221.63892 220.40406 219.27920 218.23235 217.32949 216.46363
 215.69878 214.87192 213.96306 213.32021 212.76335 212.96690 213.44783 214.93172
 216.13797 217.52855 218.61920 219.63420 221.36623 223.78236 227.88464 231.79367
 235.12065 238.54720 241.62155 244.31258 246.93465 249.87987 253.18309 256.53372
 259.73117 262.70770 265.47656 268.08566 270.50851 272.75656 274.81247 276.69958
 278.46011 280.03043 281.39301 282.56992 283.54773 284.54962 285.50092 286.17191
 286.93082 287.62485 288.25568 289.13254
 366.78100 356.32784 345.75268 334.61152 323.00735 311.19419 299.05703 286.85287
 274.55771 262.44755 250.44939 239.74323 229.85806 220.95490 213.12974 206.12458
 199.95142 194.88226 191.45710 189.49193 188.52177 188.57861 189.40645 190.70729
 192.42513 194.51297 196.76880 199.12064 201.55848 204.03132 206.11216 207.94700
 209.56584 210.70368 210.92551 211.14635 211.07619 210.77403 210.39987 210.02271
 209.63255 209.33538 209.13622 208.99306 208.91390 209.23774 209.61658 209.99842
 210.78425 211.95509 213.19793 214.97377 216.89461 218.93045 221.01829 223.09413
 225.14696 227.22380 229.31364 231.41248 233.53432 235.69916 237.94800 240.31083
 242.92467 245.16851 247.16335 248.92119 250.33103 251.44687 252.26171 252.57054
 252.60038 252.36722 251.72006 250.66090 249.25974 247.41358 245.31541 243.14125
 240.92509 238.72193 236.53477 234.36661 232.21945 230.07928 228.09812 226.24796
 224.52380 222.98864 221.61148 220.37632 219.25116 218.20399 217.30083 216.43467
 215.66951 214.84235 213.93319 213.29003 212.73286 212.96423 213.51086 215.09309
 216.23955 217.74701 218.75613 219.65778 221.46069 223.82092 227.89607 231.80585
 235.07179 238.38983 241.31219 243.90436 246.55582 249.58707 252.96623 256.37653
 259.63708 262.66833 265.47205 268.08960 270.50482 272.74365 274.81155 276.71805
 278.48688 280.05588 281.41339 282.57782 283.56271 284.53079 285.47107 286.06860
 286.82104 287.51553 288.14886 289.02902
 366.78100 356.33017 345.75734 334.61851 323.01668 311.20585 299.07101 286.86918
 274.57635 262.46852 250.47269 239.76886 229.88603 220.98520 213.16237 206.15954
 199.98871 194.92188 191.49904 189.53621 188.56838 188.62755 189.45772 190.76089
 192.48106 194.57123 196.82940 199.18357 201.62374 204.09890 206.18207 208.01924
 209.64041 210.78058 211.00475 211.22792 211.16009 210.86026 210.48843 210.11360
 209.72576 209.43093 209.23410 209.09327 209.01644 209.34261 209.72378 210.10795
 210.89612 212.06929 213.31446 215.09263 217.01579 219.05396 221.14413 223.22230
 225.27747 227.35664 229.44881 231.54998 233.67415 235.84132 238.09249 240.45765
 243.07382 245.31999 247.31716 249.07733 250.48950 251.60767 252.42484 252.73601
 252.76818 252.53735 251.89251 250.83568 249.43685 247.59302 245.49719 243.32536
 241.11153 238.91070 236.72587 234.56004 232.41521 230.27738 228.29854 226.45071
 224.72888 223.19605 221.82122 220.58839 219.46556 218.42073 217.51990 216.65607
 215.89324 215.06840 214.16157 213.52074 212.96591 213.10052 213.41856 215.21942
 216.60536 217.90169 218.84349 219.84706 221.59100 223.95686 227.92850 231.76578
 234.96324 238.13626 240.88466 243.37772 246.08568 249.22215 252.68307 256.15958
 259.47589 262.56552 265.42593 268.06924 270.48993 272.73163 274.82956 276.77759
 278.56540 280.13950 281.50281 282.67654 283.67776 284.56653 285.42056 286.06094
 286.79794 287.49255 288.12494 289.00760
 366.78100 356.33321 345.76342 334.62764 323.02885 311.22106 299.08927 286.89049
 274.60070 262.49591 250.50312 239.80233 229.92255 221.02476 213.20497 206.20518
 200.03739 194.97361 191.55382 189.59403 188.62924 188.69146 189.52467 190.83088
 192.55409 194.64730 196.90852 199.26573 201.70894 204.18715 206.27337 208.11358
 209.73779 210.88100 211.10821 211.33443 211.26964 210.97285 210.60406 210.23227
 209.84749 209.55570 209.36191 209.22412 209.15034 209.47955 209.86376 210.25097
 211.04218 212.21840 213.46661 215.24782 217.17403 219.21525 221.30846 223.38967
 225.44788 227.53009 229.62531 231.72952 233.85673 236.02694 238.28116 240.64937
 243.26858 245.51779 247.51800 249.28122 250.69643 251.81764 252.63785 252.95206
 252.98728 252.75949 252.11770 251.06391 249.66813 247.82734 245.73455 243.56576
 241.35497 239.15719 236.97540 234.81261 232.67082 230.53604 228.56025 226.71546
 224.99667 223.46688 222.09510 220.86531 219.74552 218.70373 217.80594 216.94516
 216.18537 215.36358 214.45979 213.82201 213.27022 213.27930 213.30074 215.32446
 216.85451 217.99203 219.11081 220.19907 221.79747 224.11714 227.97043 231.71303
 234.82172 237.87663 240.49048 242.91850 245.69131 248.93228 252.44655 255.95102
 259.28928 262.40598 265.30072 267.97107 270.42657 272.71490 274.87567 276.88004
 278.69409 280.27274 281.62436 282.78232 283.74939 284.63501 285.48352 286.17709
 286.92294 287.61478 288.24258 289.12112
 366.78100 356.33365 345.76430 334.62895 323.03059 311.22324 299.09189 286.89354
 274.60419 262.49984 250.50749 239.80714 229.92778 221.03043 213.21108 206.21173
 200.04438 194.98103 191.56168 189.60233 188.63797 188.70062 189.53427 190.84092
 192.56457 194.65822 196.91987 199.27752 201.72116 204.19981 206.28646 208.12711
 209.75176 210.89541 211.12306 211.34971 211.28535 210.98900 210.62065 210.24930
 209.86495 209.57360 209.38025 209.24290 209.16954 209.49919 209.88384 210.27149
 211.06314 212.23979 213.48844 215.27009 217.19673 219.23838 221.33203 223.41368
 225.47233 227.55498 229.65063 231.75528 233.88292 236.05357 238.30822 240.67687
 243.29652 245.54617 247.54682 249.31047 250.72611 251.84776 252.66841 252.98306
 253.01871 252.79136 252.15001 251.09665 249.70130 247.86095 245.76860 243.60025
 241.38990 239.19255 237.01120 234.84884 232.70749 230.57314 228.59779 226.75344
 225.03509 223.50574 222.13439 220.90503 219.78568 218.74433 217.84698 216.98663
 216.22728 215.40593 214.50258 213.86522 213.31387 213.32910 213.36505 215.38022
 216.88622 218.10886 219.29680 220.41240 221.93927 224.28575 228.09044 231.63116
 234.66628 237.60976 240.14758 242.57443 245.39595 248.69521 252.24171 255.77959
 259.15970 262.32007 265.24606 267.93256 270.40210 272.71082 274.89844 276.92294
 278.74417 280.32306 281.66809 282.82632 283.83960 284.70721 285.45883 286.08334
 286.70499 287.38669 288.01587 288.89059
 366.78100 356.33511 345.76723 334.63334 323.03645 311.23057 299.10068 286.90380
 274.61591 262.51302 250.52214 239.82325 229.94536 221.04948 213.23159 206.23370
 200.06782 195.00593 191.58804 189.63016 188.66727 188.73139 189.56650 190.87461
 192.59973 194.69484 196.95795 199.31707 201.76218 204.24229 206.33041 208.17252
 209.79863 210.94375 211.17286 211.40098 211.33809 211.04320 210.67632 210.30643
 209.92354 209.63366 209.44177 209.30588 209.23400 209.56511 209.95122 210.34034
 211.13345 212.31157 213.56168 215.34479 217.27291 219.31602 221.41113 223.49425
 225.55436 227.63847 229.73559 231.84170 233.97081 236.14293 238.39904 240.76916
 243.39027 245.64138 247.64350 249.40861 250.82572 251.94884 252.77095 253.08706
 253.12418 252.89829 252.25840 251.20652 249.81263 247.97375 245.88286 243.71597
 241.50709 239.31120 237.13131 234.97043 232.83054 230.69765 228.72377 226.88088
 225.16399 223.63611 222.26622 221.03834 219.92045 218.88056 217.98468 217.12579
 216.36790 215.54802 214.64613 214.01024 213.46036 213.43629 213.37944 215.38617
 217.07814 218.29665 219.31923 220.40384 221.94986 224.42281 228.22493 231.55351
 234.59482 237.42171 239.86710 242.25142 245.07352 248.40030 252.00449 255.60355
 259.04282 262.27094 265.25357 267.96259 270.41617 272.68695 274.84314 276.85330
 278.68182 280.27295 281.63138 282.79968 283.83966 284.72876 285.44223 286.02530
 286.50879 287.02979 287.63452 288.50421
 366.78100 356.33731 345.77162 334.63993 323.04524 311.24155 299.11386 286.91917
 274.63348 262.53279 250.54410 239.84741 229.97172 221.07803 213.26234 206.26665
 200.10296 195.04327 191.62758 189.67189 188.71120 188.77751 189.61482 190.92513
 192.65244 194.74975 197.01506 199.37637 201.82368 204.30599 206.39630 208.24061
 209.86892 211.01623 211.24754 211.47785 211.41716 211.12447 210.75978 210.39209
 210.01140 209.72371 209.53402 209.40033 209.33064 209.66395 210.05226 210.44357
 211.23888 212.41919 213.67150 215.45681 217.38712 219.43243 221.52974 223.61505
 225.67736 227.76367 229.86298 231.97129 234.10260 236.27691 238.53522 240.90753
 243.53085 245.78416 247.78847 249.55578 250.97509 252.10040 252.92471 253.24302
 253.28233 253.05864 252.42095 251.37126 249.97957 248.14288 246.05419 243.88950
 241.68281 239.48912 237.31143 235.15274 233.01505 230.88436 228.91267 227.07198
 225.35729 223.83160 222.46391 221.23822 220.12253 219.08484 218.19115 217.33446
 216.57877 215.76108 214.86139 214.22770 213.68001 213.59282 213.39188 215.35684
 217.12494 218.27504 219.35556 220.54349 222.13678 224.64287 228.42882 231.58986
 234.71103 237.35306 239.66133 241.89125 244.68434 248.12033 251.83304 255.49518
 258.99432 262.25751 265.24606 267.92230 270.32480 272.56512 274.73032 276.76901
 278.61002 280.21561 281.59302 282.77911 283.81458 284.70309 285.40927 285.89343
 286.51077 287.20438 287.86621 288.70963
 366.78100 356.33727 345.77153 334.63980 323.04507 311.24134 299.11360 286.91887
 274.63314 262.53241 250.54367 239.84694 229.97121 221.07748 213.26174 206.26601
 200.10228 195.04255 191.62681 189.67108 188.71035 188.77661 189.61388 190.92415
 192.65142 194.74868 197.01395 199.37522 201.82249 204.30475 206.39502 208.23929
 209.86756 211.01482 211.24609 211.47636 211.41562 211.12289 210.75816 210.39043
 210.00969 209.72196 209.53223 209.39850 209.32876 209.66203 210.05030 210.44157
 211.23683 212.41710 213.66937 215.45464 217.38490 219.43017 221.52744 223.61270
 225.67497 227.76124 229.86051 231.96877 234.10004 236.27431 238.53258 240.90484
 243.52811 245.78138 247.78565 249.55291 250.97218 252.09745 252.92171 253.23998
 253.27925 253.05552 252.41778 251.36805 249.97632 248.13959 246.05085 243.88612
 241.67939 239.48566 237.30792 235.14919 233.01146 230.88073 228.90899 227.06826
 225.35353 223.82779 222.46006 221.23433 220.11860 219.08086 218.18713 217.33040
 216.57467 215.75693 214.85720 214.22347 213.67574 213.63745 213.62277 215.30042
 216.80995 218.14037 219.53102 220.82185 222.46791 224.90831 228.50447 231.71103
 234.71222 237.23369 239.40211 241.53908 244.36604 247.91377 251.74829 255.45992
 258.94449 262.20422 265.19699 267.87766 270.25592 272.41983 274.47412 276.49908
 278.38626 280.03073 281.45428 282.76874 283.89859 284.82947 285.79575 286.73129
 287.58905 288.35287 289.02014 289.87051
 366.78100 356.33719 345.77138 334.63956 323.04475 311.24094 299.11313 286.91831
 274.63250 262.53169 250.54288 239.84606 229.97025 221.07644 213.26063 206.26482
 200.10100 195.04119 191.62538 189.66957 188.70875 188.77494 189.61213 190.92232
 192.64950 194.74669 197.01188 199.37307 201.82026 204.30244 206.39263 208.23682
 209.86501 211.01219 211.24338 211.47357 211.41276 211.11995 210.75513 210.38732
 210.00651 209.71870 209.52888 209.39507 209.32526 209.65845 210.04663 210.43782
 211.23301 212.41320 213.66539 215.45057 217.38076 219.42595 221.52314 223.60832
 225.67051 227.75670 229.85589 231.96407 234.09526 236.26945 238.52764 240.89983
 243.52301 245.77620 247.78039 249.54758 250.96676 252.09195 252.91614 253.23433
 253.27351 253.04970 252.41189 251.36208 249.97027 248.13345 246.04464 243.87983
 241.67302 239.47920 237.30139 235.14258 233.00477 230.87395 228.90214 227.06133
 225.34652 223.82071 222.45289 221.22708 220.11127 219.07346 218.17964 217.32283
 216.56702 215.74921 214.84939 214.21558 213.66777 213.67332 213.82693 215.26289
 216.75024 218.48125 219.85532 221.10793 222.74228 225.05283 228.37263 231.79640
 234.60922 237.07430 239.06264 241.11665 244.05383 247.78400 251.63797 255.31866
 258.83817 262.13260 265.15793 267.82910 270.14764 272.24442 274.32806 276.37222
 278.29565 280.06058 281.62393 283.02994 284.30734 285.45776 286.50735 287.45822
 288.31342 289.07498 289.74026 290.58807
 366.78100 356.34334 345.78368 334.65802 323.06936 311.27170 299.15004 286.96138
 274.68172 262.58706 250.60440 239.91374 230.04408 221.15642 213.34676 206.35710
 200.19944 195.14578 191.73612 189.78646 188.83180 188.90414 189.74748 191.06382
 192.79716 194.90050 197.17184 199.53918 201.99252 204.48086 206.57720 208.42754
 210.06188 211.21522 211.45256 211.68890 211.63424 211.34758 210.98892 210.62726
 210.25260 209.97094 209.78728 209.65962 209.59596 209.93530 210.32964 210.72698
 211.52831 212.71465 213.97299 215.76433 217.70067 219.75201 221.85535 223.94669
 226.01503 228.10737 230.21271 232.32705 234.46439 236.64473 238.90907 241.28741
 243.91675 246.17609 248.18643 249.95977 251.38511 252.51645 253.34679 253.67113
 253.71647 253.49881 252.86715 251.82349 250.43783 248.60717 246.52451 244.36585
 242.16519 239.97753 237.80587 235.65321 233.52155 231.39689 229.43123 227.59657
 225.88791 224.36825 223.00659 221.78693 220.67727 219.64561 218.75795 217.90729
 217.15763 216.34597 215.45231 214.82465 214.28299 214.01442 213.62547 215.33530
 217.04779 218.71820 220.19954 221.38966 222.82433 224.98412 228.23883 231.67941
 234.39722 236.75514 238.68767 240.74980 243.81154 247.64896 251.54189 255.25615
 258.78836 262.06512 265.03757 267.65082 269.96490 272.17572 274.34048 276.39221
 278.15442 279.78946 281.36438 282.82590 284.19873 285.41333 286.52148 287.52539
 288.42828 289.23233 289.93472 290.82983
 366.78100 356.34476 345.78653 334.66229 323.07505 311.27881 299.15858 286.97134
 274.69310 262.59987 250.61863 239.92939 230.06116 221.17492 213.36668 206.37844
 200.22221 195.16997 191.76173 189.81350 188.86026 188.93402 189.77878 191.09655
 192.83131 194.93607 197.20884 199.57760 202.03236 204.52212 206.61989 208.47165
 210.10741 211.26218 211.50094 211.73870 211.68547 211.40023 211.04299 210.68275
 210.30952 210.02928 209.84704 209.72081 209.65857 209.99933 210.39509 210.79386
 211.59662 212.78438 214.04415 215.83691 217.77467 219.82744 221.93220 224.02496
 226.09472 228.18849 230.29525 232.41101 234.54978 236.73154 238.99730 241.37706
 244.00783 246.26859 248.28035 250.05512 251.48188 252.61464 253.44641 253.77217
 253.81893 253.60269 252.97246 251.93022 250.54598 248.71675 246.63551 244.47827
 242.27903 240.09280 237.92256 235.77132 233.64109 231.51785 229.55361 227.72037
 226.01314 224.49490 223.13466 221.91643 220.80819 219.77795 218.89172 218.04248
 217.29424 216.48400 215.59177 214.96553 214.42529 214.10934 213.48688 215.34106
 217.38687 218.54955 220.21066 221.45692 222.82585 224.90814 228.30354 231.44936
 234.17828 236.41766 238.36646 240.58875 243.65144 247.47891 251.43942 255.20636
 258.73557 262.00162 264.95160 267.55356 269.87744 272.07996 274.24820 276.28659
 278.09399 279.63593 280.96777 282.06235 283.22430 284.29169 285.31558 286.29639
 287.17847 287.96399 288.65021 289.52472
 366.78100 356.34282 345.78263 334.65645 323.06726 311.26908 299.14690 286.95771
 274.67753 262.58234 250.59916 239.90797 230.03779 221.14961 213.33942 206.34924
 200.19105 195.13687 191.72669 189.77650 188.82132 188.89313 189.73595 191.05177
 192.78458 194.88740 197.15821 199.52503 201.97785 204.46566 206.56148 208.41129
 210.04511 211.19792 211.43474 211.67056 211.61537 211.32819 210.96900 210.60682
 210.23164 209.94945 209.76527 209.63708 209.57290 209.91172 210.30553 210.70235
 211.50316 212.68898 213.94680 215.73761 217.67343 219.72424 221.82706 223.91787
 225.98569 228.07751 230.18232 232.29614 234.43295 236.61277 238.87659 241.25440
 243.88322 246.14203 248.15185 249.92467 251.34948 252.48030 253.31011 253.63393
 253.67875 253.46056 252.82838 251.78419 250.39801 248.56682 246.48364 244.32446
 242.12327 239.93509 237.76290 235.60972 233.47754 231.35235 229.38617 227.55098
 225.84180 224.32162 222.95943 221.73925 220.62906 219.59688 218.70870 217.85751
 217.10733 216.29514 215.40096 214.77277 214.23059 214.01349 213.50056 215.43184
 217.86024 218.79291 220.31085 221.56787 222.92343 224.97333 228.42398 231.46553
 234.07845 236.21407 237.99432 240.16338 243.36766 247.30673 251.34482 255.16924
 258.72925 261.99817 264.94766 267.52316 269.79791 271.94937 274.08765 276.11575
 277.95477 279.52518 280.86700 282.07541 283.17676 284.05042 284.72086 285.35046
 286.08801 286.79755 287.45905 288.32599
 366.78100 356.34166 345.78031 334.65297 323.06262 311.26328 299.13994 286.94959
 274.66825 262.57190 250.58756 239.89522 230.02387 221.13453 213.32319 206.33184
 200.17250 195.11715 191.70581 189.75447 188.79812 188.86878 189.71043 191.02509
 192.75675 194.85840 197.12806 199.49371 201.94537 204.43203 206.52668 208.37534
 210.00799 211.15965 211.39531 211.62996 211.57362 211.28528 210.92493 210.56159
 210.18524 209.90190 209.71656 209.58721 209.52187 209.85952 210.25218 210.64784
 211.44749 212.63215 213.88880 215.67846 217.61312 219.66277 221.76443 223.85408
 225.92074 228.01140 230.11505 232.22771 234.36337 236.54202 238.80468 241.18133
 243.80899 246.06665 248.07530 249.84696 251.27061 252.40027 253.22893 253.55158
 253.59524 253.37589 252.74255 251.69721 250.30986 248.47752 246.39317 244.23283
 242.03049 239.84114 237.66780 235.51346 233.38011 231.25377 229.28642 227.45008
 225.73974 224.21839 222.85505 221.63370 220.52236 219.48902 218.59967 217.74733
 216.99598 216.18264 215.28730 214.65795 214.11461 213.96675 213.61740 215.52243
 217.98320 218.91705 220.38313 221.77002 223.13150 225.09956 228.41139 231.46338
 233.93187 235.94724 237.62297 239.78697 243.11790 247.16408 251.24498 255.10915
 258.68002 261.95334 264.89621 267.46481 269.72739 271.86743 273.99152 276.00644
 277.84689 279.43170 280.79477 281.97906 282.94724 283.88055 284.81912 285.38028
 286.12100 286.81616 287.44168 288.29761
 366.78100 356.34133 345.77967 334.65200 323.06134 311.26167 299.13801 286.94734
 274.66568 262.56901 250.58435 239.89168 230.02002 221.13035 213.31868 206.32702
 200.16735 195.11169 191.70002 189.74836 188.79169 188.86203 189.70336 191.01770
 192.74903 194.85036 197.11970 199.48503 201.93637 204.42270 206.51704 208.36537
 209.99771 211.14904 211.38438 211.61871 211.56205 211.27338 210.91271 210.54905
 210.17238 209.88872 209.70305 209.57339 209.50772 209.84506 210.23739 210.63273
 211.43206 212.61639 213.87273 215.66206 217.59640 219.64573 221.74707 223.83640
 225.90274 227.99307 230.09641 232.20874 234.34408 236.52241 238.78474 241.16108
 243.78841 246.04575 248.05408 249.82542 251.24875 252.37809 253.20642 253.52876
 253.57209 253.35242 252.71876 251.67309 250.28543 248.45276 246.36810 244.20743
 242.00477 239.81510 237.64144 235.48677 233.35311 231.22644 229.25877 227.42211
 225.71144 224.18978 222.82611 221.60445 220.49278 219.45912 218.56945 217.71679
 216.96512 216.15145 215.25579 214.62612 214.08246 213.96487 213.68706 215.65062
 217.99991 218.95082 220.50838 222.04086 223.37456 225.27112 228.43027 231.42519
 233.75792 235.61497 237.24631 239.49194 242.93253 247.01915 251.11961 255.01979
 258.61539 261.89948 264.84589 267.41666 269.67197 271.79315 273.88501 275.88284
 277.73013 279.33249 280.70898 281.87375 282.86853 283.90240 284.86871 285.45169
 286.19415 286.88940 287.51346 288.36075
 366.78100 356.34066 345.77831 334.64997 323.05862 311.25828 299.13394 286.94259
 274.66025 262.56291 250.57756 239.88422 230.01187 221.12153 213.30919 206.31684
 200.15650 195.10016 191.68781 189.73547 188.77812 188.84778 189.68844 191.00209
 192.73275 194.83340 197.10206 199.46672 201.91737 204.40303 206.49669 208.34434
 209.97600 211.12665 211.36131 211.59497 211.53762 211.24828 210.88693 210.52259
 210.14525 209.86090 209.67456 209.54422 209.47787 209.81453 210.20618 210.60084
 211.39950 212.58315 213.83881 215.62747 217.56112 219.60978 221.71043 223.79909
 225.86475 227.95440 230.05706 232.16871 234.30337 236.48103 238.74268 241.11834
 243.74500 246.00165 248.00931 249.77996 251.20262 252.33128 253.15893 253.48059
 253.52324 253.30290 252.66856 251.62221 250.23387 248.40053 246.31518 244.15384
 241.95049 239.76015 237.58581 235.43046 233.29612 231.16878 229.20043 227.36309
 225.65174 224.12940 222.76506 221.54271 220.43037 219.39602 218.50568 217.65234
 216.89999 216.08565 215.18931 214.55896 214.01462 213.94772 213.78966 215.71065
 218.04796 219.03780 220.64702 222.27722 223.60973 225.42105 228.44630 231.34894
 233.53340 235.24536 236.87097 239.23163 242.76723 246.87614 251.00053 254.93596
 258.55377 261.84354 264.79111 267.36810 269.62332 271.72455 273.77988 275.75726
 277.60776 279.22635 280.61932 281.79861 282.83704 283.87717 284.85678 285.55612
 286.26700 286.96066 287.58398 288.42953
 366.78100 356.33958 345.77616 334.64673 323.05431 311.25289 299.12747 286.93505
 274.65163 262.55320 250.56678 239.87236 229.99894 221.10752 213.29410 206.30067
 200.13925 195.08183 191.66841 189.71499 188.75657 188.82514 189.66472 190.97730
 192.70688 194.80646 197.07404 199.43761 201.88719 204.37177 206.46435 208.31093
 209.94151 211.09108 211.32466 211.55724 211.49882 211.20840 210.84598 210.48055
 210.10213 209.81671 209.62929 209.49787 209.43045 209.76602 210.15660 210.55018
 211.34776 212.53034 213.78491 215.57249 217.50507 219.55265 221.65223 223.73981
 225.80438 227.89296 229.99454 232.10512 234.23870 236.41528 238.67585 241.05043
 243.67601 245.93159 247.93817 249.70775 251.12932 252.25690 253.08348 253.40406
 253.44564 253.22422 252.58879 251.54137 250.15195 248.31753 246.23111 244.06869
 241.86426 239.67284 237.49742 235.34100 233.20558 231.07716 229.10773 227.26931
 225.55689 224.03347 222.66805 221.44463 220.33120 219.29578 218.40436 217.54994
 216.79652 215.98109 215.08367 214.45225 213.90683 213.91383 213.93039 215.70877
 218.05130 219.29404 220.86650 222.40688 223.71834 225.52098 228.47507 231.28273
 233.32028 234.89767 236.51561 238.98439 242.60938 246.75139 250.90372 254.86501
 258.49585 261.78348 264.72595 267.30435 269.55621 271.63943 273.66415 275.62570
 277.48242 279.11429 280.51947 281.71948 282.83841 283.88022 284.85291 285.72556
 286.49625 287.17996 287.78854 288.59668
 366.78100 356.33919 345.77537 334.64556 323.05274 311.25093 299.12512 286.93230
 274.64849 262.54968 250.56286 239.86805 229.99423 221.10242 213.28861 206.29479
 200.13298 195.07516 191.66135 189.70754 188.74872 188.81691 189.65610 190.96828
 192.69747 194.79665 197.06384 199.42703 201.87621 204.36040 206.45258 208.29877
 209.92896 211.07814 211.31133 211.54352 211.48470 211.19389 210.83107 210.46526
 210.08645 209.80063 209.61282 209.48100 209.41319 209.74838 210.13856 210.53175
 211.32894 212.51112 213.76531 215.55249 217.48468 219.53187 221.63105 223.71824
 225.78242 227.87061 229.97180 232.08198 234.21517 236.39135 238.65154 241.02573
 243.65091 245.90610 247.91229 249.68147 251.10266 252.22984 253.05603 253.37622
 253.41740 253.19559 252.55977 251.51196 250.12215 248.28733 246.20052 244.03771
 241.83289 239.64108 237.46526 235.30845 233.17264 231.04382 229.07401 227.23519
 225.52238 223.99857 222.63275 221.40894 220.29513 219.25931 218.36750 217.51268
 216.75887 215.94306 215.04524 214.41343 213.86761 213.91595 214.03017 215.73425
 218.07181 219.51945 221.07028 222.50996 223.79240 225.62370 228.53656 231.23145
 233.11423 234.54912 236.15678 238.74014 242.46072 246.64697 250.82516 254.80467
 258.44135 261.72192 264.65442 267.23019 269.47806 271.54019 273.52780 275.47046
 277.31839 278.93668 280.39404 281.74332 282.92065 283.97205 284.95053 285.83505
 286.61646 287.30542 287.91235 288.71829
 366.78100 356.33930 345.77559 334.64589 323.05318 311.25148 299.12578 286.93307
 274.64937 262.55066 250.56396 239.86926 229.99555 221.10385 213.29014 206.29644
 200.13474 195.07703 191.66333 189.70962 188.75092 188.81922 189.65851 190.97081
 192.70010 194.79940 197.06670 199.42999 201.87929 204.36358 206.45588 208.30218
 209.93247 211.08177 211.31506 211.54736 211.48866 211.19795 210.83525 210.46954
 210.09084 209.80514 209.61743 209.48573 209.41802 209.75332 210.14362 210.53691
 211.33421 212.51650 213.77080 215.55810 217.49039 219.53769 221.63698 223.72428
 225.78858 227.87687 229.97817 232.08846 234.22176 236.39806 238.65835 241.03265
 243.65794 245.91324 247.91954 249.68883 251.11013 252.23742 253.06372 253.38402
 253.42531 253.20361 252.56790 251.52020 250.13050 248.29579 246.20909 244.04638
 241.84168 239.64998 237.47427 235.31757 233.18186 231.05316 229.08346 227.24475
 225.53205 224.00834 222.64264 221.41894 220.30523 219.26953 218.37783 217.52312
 216.76942 215.95371 215.05601 214.42431 213.87860 213.94447 214.10007 215.76408
 218.11359 219.70837 221.24437 222.63434 223.89542 225.75038 228.61983 231.16515
 232.86909 234.16139 235.79082 238.51485 242.33281 246.55881 250.75665 254.75134
 258.39328 261.66641 264.59134 267.16580 269.39584 271.41077 273.35254 275.28589
 277.14749 278.84235 280.37473 281.73206 282.90723 283.94901 284.90018 285.78610
 286.61761 287.32242 287.93423 288.74942
 366.78100 356.33938 345.77576 334.64613 323.05351 311.25189 299.12627 286.93364
 274.65002 262.55140 250.56478 239.87015 229.99653 221.10491 213.29129 206.29766
 200.13604 195.07842 191.66480 189.71118 188.75255 188.82093 189.66031 190.97269
 192.70206 194.80144 197.06882 199.43220 201.88157 204.36595 206.45833 208.30471
 209.93508 211.08446 211.31784 211.55022 211.49160 211.20097 210.83835 210.47273
 210.09411 209.80848 209.62086 209.48924 209.42162 209.75699 210.14737 210.54075
 211.33813 212.52050 213.77488 215.56226 217.49464 219.54202 221.64139 223.72877
 225.79315 227.88153 229.98290 232.09328 234.22666 236.40304 238.66341 241.03779
 243.66317 245.91855 247.92492 249.69430 251.11568 252.24306 253.06944 253.38981
 253.43119 253.20957 252.57395 251.52632 250.13670 248.30208 246.21546 244.05283
 241.84821 239.65659 237.48097 235.32434 233.18872 231.06010 229.09048 227.25186
 225.53923 224.01561 222.64999 221.42637 220.31274 219.27712 218.38550 217.53088
 216.77725 215.96163 215.06401 214.43239 213.88676 213.97153 214.17178 215.78809
 218.13913 219.87845 221.40257 222.78314 224.04602 225.88702 228.69781 231.09824
 232.60678 233.75989 235.44037 238.32074 242.22243 246.47243 250.68233 254.68585
 258.33014 261.59641 264.51825 267.09799 269.32587 271.32388 273.24878 275.17819
 277.04880 278.75787 280.30405 281.66885 282.84879 283.89648 284.85342 285.73950
 286.55713 287.28674 287.90204 288.72394
 366.78100 356.33936 345.77573 334.64609 323.05346 311.25182 299.12618 286.93355
 274.64991 262.55128 250.56464 239.87000 229.99637 221.10473 213.29110 206.29746
 200.13583 195.07819 191.66455 189.71092 188.75228 188.82065 189.66001 190.97237
 192.70174 194.80110 197.06847 199.43183 201.88119 204.36556 206.45792 208.30429
 209.93465 211.08401 211.31738 211.54974 211.49111 211.20047 210.83783 210.47220
 210.09356 209.80793 209.62029 209.48865 209.42102 209.75638 210.14675 210.54011
 211.33748 212.51984 213.77420 215.56157 217.49393 219.54130 221.64066 223.72802
 225.79239 227.88075 229.98212 232.09248 234.22584 236.40221 238.66257 241.03694
 243.66230 245.91766 247.92403 249.69339 251.11476 252.24212 253.06848 253.38885
 253.43021 253.20858 252.57294 251.52530 250.13567 248.30103 246.21440 244.05176
 241.84713 239.65549 237.47985 235.32322 233.18758 231.05895 229.08931 227.25067
 225.53804 224.01440 222.64877 221.42513 220.31149 219.27586 218.38422 217.52959
 216.77595 215.96031 215.06268 214.43104 213.88541 213.99335 214.24835 215.81999
 218.14395 220.01993 221.55957 222.95201 224.22899 226.00916 228.74942 231.04478
 232.36623 233.38222 235.11955 238.15077 242.11705 246.38268 250.60085 254.60962
 258.25092 261.50827 264.42429 267.01318 269.26025 271.27219 273.18030 275.08798
 276.96341 278.68243 280.23221 281.59933 282.78424 283.83487 284.79767 285.68149
 286.49417 287.22644 287.84927 288.67725
 366.78100 356.33948 345.77596 334.64645 323.05393 311.25241 299.12689 286.93437
 274.65085 262.55234 250.56582 239.87130 229.99778 221.10626 213.29274 206.29923
 200.13771 195.08019 191.66667 189.71315 188.75463 188.82312 189.66260 190.97508
 192.70456 194.80404 197.07152 199.43501 201.88449 204.36897 206.46145 208.30793
 209.93841 211.08790 211.32138 211.55386 211.49534 211.20482 210.84230 210.47679
 210.09827 209.81275 209.62523 209.49371 209.42620 209.76168 210.15216 210.54564
 211.34312 212.52560 213.78009 215.56757 217.50005 219.54753 221.64701 223.73449
 225.79898 227.88746 229.98894 232.09942 234.23290 236.40938 238.66987 241.04435
 243.66983 245.92531 247.93179 249.70127 251.12276 252.25024 253.07672 253.39720
 253.43868 253.21716 252.58165 251.53413 250.14461 248.31009 246.22357 244.06106
 241.85654 239.66502 237.48950 235.33298 233.19746 231.06895 229.09943 227.26091
 225.54839 224.02487 222.65935 221.43584 220.32232 219.28680 218.39528 217.54076
 216.78724 215.97173 215.07421 214.44269 213.89717 214.02335 214.32141 215.85245
 218.16255 220.13654 221.72090 223.13524 224.41780 226.10081 228.76976 230.98601
 232.14537 233.03423 234.82838 237.99785 242.02089 246.30138 250.52614 254.53572
 258.16946 261.41312 264.32422 266.92380 269.18207 271.17639 273.02115 274.88629
 276.90927 278.67184 280.21896 281.58551 282.77164 283.82465 284.79190 285.67651
 286.48633 287.21530 287.85519 288.70703
 366.78100 356.33967 345.77634 334.64701 323.05468 311.25335 299.12802 286.93570
 274.65237 262.55404 250.56771 239.87338 230.00005 221.10872 213.29539 206.30206
 200.14073 195.08340 191.67007 189.71674 188.75842 188.82709 189.66676 190.97943
 192.70910 194.80877 197.07644 199.44011 201.88978 204.37445 206.46712 208.31379
 209.94446 211.09414 211.32781 211.56048 211.50215 211.21182 210.84949 210.48416
 210.10583 209.82050 209.63317 209.50184 209.43451 209.77018 210.16086 210.55453
 211.35220 212.53487 213.78954 215.57721 217.50988 219.55755 221.65722 223.74489
 225.80956 227.89823 229.99990 232.11058 234.24425 236.42092 238.68159 241.05626
 243.68193 245.93760 247.94427 249.71394 251.13561 252.26328 253.08995 253.41062
 253.45230 253.23097 252.59564 251.54831 250.15898 248.32465 246.23832 244.07599
 241.87166 239.68033 237.50500 235.34867 233.21334 231.08502 229.11569 227.27736
 225.56503 224.04170 222.67637 221.45304 220.33971 219.30438 218.41305 217.55872
 216.80539 215.99006 215.09274 214.46141 213.91608 214.05861 214.39536 215.87743
 218.18916 220.23053 221.88292 223.32582 224.60408 226.17986 228.77397 230.91585
 231.93349 232.71115 234.55786 237.85075 241.93420 246.22862 250.45442 254.45856
 258.08392 261.32199 264.24066 266.85196 269.08902 271.00882 272.91183 274.88300
 276.82077 278.60190 280.15967 281.52866 282.71692 283.76938 284.73413 285.61694
 286.41965 287.14145 287.77499 288.62595
 366.78100 356.33974 345.77647 334.64721 323.05495 311.25368 299.12842 286.93616
 274.65289 262.55463 250.56837 239.87410 230.00084 221.10958 213.29631 206.30305
 200.14179 195.08452 191.67126 189.71800 188.75973 188.82847 189.66821 190.98094
 192.71068 194.81042 197.07815 199.44189 201.89163 204.37636 206.46910 208.31584
 209.94657 211.09631 211.33005 211.56278 211.50452 211.21426 210.85199 210.48673
 210.10847 209.82320 209.63594 209.50468 209.43741 209.77315 210.16389 210.55762
 211.35536 212.53810 213.79283 215.58057 217.51331 219.56104 221.66078 223.74852
 225.81325 227.90199 230.00373 232.11446 234.24820 236.42494 238.68567 241.06041
 243.68615 245.94188 247.94862 249.71836 251.14009 252.26783 253.09457 253.41530
 253.45704 253.23578 252.60051 251.55325 250.16399 248.32972 246.24346 244.08120
 241.87693 239.68567 237.51041 235.35414 233.21888 231.09062 229.12135 227.28309
 225.57083 224.04756 222.68230 221.45904 220.34577 219.31051 218.41925 217.56499
 216.81172 215.99646 215.09920 214.46793 213.92267 214.08801 214.47868 215.90323
 218.20195 220.30208 222.03749 223.51117 224.78767 226.26819 228.77901 230.83624
 231.73236 232.42178 234.31631 237.71516 241.85442 246.15894 250.37892 254.37189
 257.98709 261.22220 264.14938 266.77100 268.99402 270.88193 272.84732 274.84103
 276.76050 278.52460 280.08047 281.45187 282.64102 283.69592 284.66208 285.54553
 286.34854 287.07288 287.70831 288.56308
 366.78100 356.33952 345.77603 334.64655 323.05407 311.25259 299.12710 286.93462
 274.65114 262.55266 250.56617 239.87169 229.99821 221.10673 213.29324 206.29976
 200.13828 195.08080 191.66731 189.71383 188.75535 188.82387 189.66338 190.97590
 192.70542 194.80494 197.07245 199.43597 201.88549 204.37001 206.46252 208.30904
 209.93956 211.08907 211.32259 211.55511 211.49663 211.20614 210.84366 210.47818
 210.09970 209.81421 209.62673 209.49525 209.42777 209.76328 210.15380 210.54732
 211.34484 212.52735 213.78187 215.56939 217.50191 219.54942 221.64894 223.73646
 225.80098 227.88949 229.99101 232.10153 234.23504 236.41156 238.67208 241.04660
 243.67211 245.92763 247.93415 249.70367 251.12518 252.25270 253.07922 253.39974
 253.44125 253.21977 252.58429 251.53681 250.14732 248.31284 246.22636 244.06388
 241.85939 239.66791 237.49243 235.33595 233.20046 231.07198 229.10250 227.26402
 225.55153 224.02805 222.66257 221.43908 220.32560 219.29012 218.39864 217.54415
 216.79067 215.97519 215.07771 214.44622 213.90074 214.10268 214.57976 215.94539
 218.19528 220.35847 222.17989 223.67584 224.95676 226.36549 228.78220 230.74504
 231.54185 232.16896 234.10928 237.60025 241.78642 246.09665 250.30530 254.28122
 257.87833 261.10202 264.02957 266.65903 268.88605 270.79523 272.93881 274.75961
 276.76141 278.49683 280.04288 281.41217 282.59714 283.65097 284.61707 285.50140
 286.30841 287.03534 287.67273 288.53302
 366.78100 356.33921 345.77542 334.64563 323.05284 311.25106 299.12527 286.93248
 274.64869 262.54990 250.56311 239.86832 229.99453 221.10274 213.28895 206.29517
 200.13338 195.07559 191.66180 189.70801 188.74922 188.81743 189.65664 190.96885
 192.69806 194.79728 197.06449 199.42770 201.87691 204.36112 206.45333 208.29954
 209.92975 211.07896 211.31217 211.54439 211.48560 211.19481 210.83202 210.46623
 210.08744 209.80165 209.61386 209.48207 209.41428 209.74950 210.13971 210.53292
 211.33013 212.51234 213.76655 215.55376 217.48597 219.53318 221.63240 223.71961
 225.78382 227.87203 229.97324 232.08345 234.21666 236.39287 238.65308 241.02729
 243.65251 245.90772 247.91393 249.68314 251.10435 252.23156 253.05777 253.37798
 253.41919 253.19740 252.56162 251.51383 250.12404 248.28925 246.20246 244.03967
 241.83488 239.64309 237.46730 235.31051 233.17473 231.04594 229.07615 227.23736
 225.52457 224.00078 222.63499 221.41120 220.29741 219.26162 218.36984 217.51505
 216.76126 215.94547 215.04768 214.41589 213.87010 214.11313 214.68732 215.98962
 218.18149 220.40494 222.29927 223.81941 225.11714 226.47406 228.78572 230.63431
 231.34459 231.93690 233.93092 237.50963 241.73517 246.04590 250.23962 254.19623
 257.77899 261.00012 263.93726 266.57513 268.76929 270.59293 272.90494 274.68008
 276.67569 278.44818 279.99652 281.36206 282.54623 283.59854 284.56192 285.44778
 286.25531 286.98166 287.61942 288.45050
 366.78100 356.33858 345.77416 334.64374 323.05032 311.24790 299.12148 286.92806
 274.64364 262.54422 250.55680 239.86138 229.98696 221.09454 213.28012 206.28570
 200.12328 195.06486 191.65044 189.69602 188.73660 188.80418 189.64276 190.95435
 192.68293 194.78151 197.04809 199.41067 201.85925 204.34283 206.43441 208.27999
 209.90957 211.05815 211.29073 211.52231 211.46289 211.17147 210.80805 210.44163
 210.06221 209.77579 209.58737 209.45495 209.38653 209.72111 210.11069 210.50327
 211.29985 212.48143 213.73501 215.52159 217.45317 219.49975 221.59833 223.68491
 225.74849 227.83607 229.93665 232.04623 234.17881 236.35439 238.61397 240.98755
 243.61213 245.86671 247.87229 249.64087 251.06146 252.18804 253.01362 253.33320
 253.37378 253.15136 252.51494 251.46652 250.07610 248.24068 246.15326 243.98984
 241.78442 239.59200 237.41558 235.25816 233.12174 230.99232 229.02190 227.18248
 225.46906 223.94464 222.57822 221.35380 220.23938 219.20296 218.31054 217.45512
 216.70070 215.88428 214.98586 214.35344 213.80702 214.10387 214.80518 216.04456
 218.13138 220.43692 222.44806 223.97264 225.25055 226.56314 228.77983 230.50951
 231.14482 231.72484 233.77795 237.43958 241.69777 246.00513 250.18260 254.11775
 257.68036 260.88632 263.82205 266.47781 268.72211 270.64847 272.79456 274.64481
 276.61823 278.37195 279.91455 281.27985 282.46454 283.51761 284.48026 285.36713
 286.17706 286.90851 287.53583 288.36499
 366.78100 356.33757 345.77214 334.64071 323.04627 311.24284 299.11541 286.92098
 274.63555 262.53512 250.54669 239.85025 229.97482 221.08139 213.26596 206.27053
 200.10710 195.04767 191.63223 189.67680 188.71637 188.78294 189.62051 190.93108
 192.65865 194.75621 197.02178 199.38335 201.83092 204.31349 206.40406 208.24863
 209.87719 211.02476 211.25633 211.48690 211.42647 211.13404 210.76961 210.40217
 210.02174 209.73431 209.54488 209.41145 209.34202 209.67559 210.06415 210.45572
 211.25129 212.43186 213.68443 215.47000 217.40057 219.44613 221.54370 223.62927
 225.69184 227.77841 229.87798 231.98655 234.11811 236.29268 238.55125 240.92382
 243.54739 245.80096 247.80553 249.57309 250.99266 252.11823 252.94280 253.26137
 253.30094 253.07751 252.44007 251.39064 249.99921 248.16278 246.07435 243.90992
 241.70349 239.51005 237.33262 235.17419 233.03676 230.90633 228.93490 227.09447
 225.38003 223.85460 222.48717 221.26174 220.14631 219.10888 218.21544 217.35901
 216.60358 215.78615 214.88672 214.25329 213.70586 214.07190 214.93672 216.12451
 218.08383 220.44194 222.56082 224.10367 225.36140 226.63651 228.77507 230.37735
 230.93753 231.53206 233.65912 237.39636 241.68138 245.97971 250.13641 254.04936
 257.59595 260.79602 263.73645 266.39383 268.59796 270.49060 272.78531 274.58212
 276.58975 278.30545 279.84848 281.21579 282.40109 283.45139 284.41336 285.29907
 286.11081 286.84467 287.46762 288.29529
 366.78100 356.33648 345.76996 334.63744 323.04192 311.23741 299.10889 286.91337
 274.62685 262.52533 250.53581 239.83829 229.96177 221.06726 213.25074 206.25422
 200.08970 195.02918 191.61266 189.65614 188.69462 188.76011 189.59659 190.90607
 192.63255 194.72903 196.99351 199.35399 201.80047 204.28196 206.37144 208.21492
 209.84240 210.98888 211.21936 211.44884 211.38732 211.09381 210.72829 210.35977
 209.97825 209.68973 209.49921 209.36469 209.29417 209.62665 210.01414 210.40462
 211.19910 212.37858 213.63006 215.41454 217.34402 219.38850 221.48499 223.56947
 225.63095 227.71643 229.81491 231.92239 234.05287 236.22635 238.48384 240.85532
 243.47780 245.73028 247.73376 249.50024 250.91872 252.04320 252.86669 253.18417
 253.22265 252.99813 252.35961 251.30909 249.91657 248.07905 245.98954 243.82402
 241.61650 239.42198 237.24346 235.08394 232.94542 230.81390 228.84139 226.99987
 225.28435 223.75783 222.38931 221.16279 220.04627 219.00775 218.11323 217.25572
 216.49920 215.68068 214.78016 214.14564 213.59712 214.03416 215.06674 216.22551
 218.06798 220.43120 222.61243 224.18921 225.45262 226.70511 228.75450 230.22244
 230.72377 231.36839 233.58154 237.38518 241.69113 245.97679 250.10687 253.98807
 257.50754 260.69177 263.63605 266.32324 268.58279 270.50665 272.55716 274.64011
 276.49954 278.24216 279.78976 281.15527 282.33908 283.38947 284.34940 285.23331
 286.04755 286.78238 287.40079 288.22717
 366.78100 356.33546 345.76793 334.63439 323.03786 311.23232 299.10278 286.90625
 274.61871 262.51618 250.52564 239.82710 229.94957 221.05403 213.23649 206.23896
 200.07342 195.01189 191.59435 189.63681 188.67428 188.73874 189.57421 190.88267
 192.60813 194.70360 196.96706 199.32653 201.77199 204.25245 206.34092 208.18338
 209.80985 210.95531 211.18477 211.41324 211.35070 211.05616 210.68963 210.32009
 209.93756 209.64802 209.45648 209.32095 209.24941 209.58088 209.96734 210.35680
 211.15027 212.32873 213.57920 215.36266 217.29112 219.33459 221.43005 223.51352
 225.57398 227.65844 229.75591 231.86237 233.99184 236.16430 238.42076 240.79123
 243.41269 245.66415 247.66662 249.43208 250.84955 251.97301 252.79547 253.11194
 253.14940 252.92387 252.28433 251.23279 249.83926 248.00072 245.91019 243.74365
 241.53511 239.33958 237.16004 234.99951 232.85997 230.72743 228.75390 226.91136
 225.19482 223.66729 222.29775 221.07022 219.95268 218.91314 218.01761 217.15907
 216.40154 215.58200 214.68046 214.04493 213.49539 213.99634 215.17987 216.34203
 218.08096 220.42073 222.64696 224.25192 225.50581 226.72861 228.72736 230.08302
 230.51842 231.21695 233.52498 237.39200 241.71762 245.99240 250.09627 253.94469
 257.43637 260.60208 263.54565 266.24194 268.48862 270.41708 272.55167 274.53796
 276.47723 278.19327 279.73468 281.09839 282.27969 283.32605 284.28293 285.16437
 285.98074 286.70917 287.32523 288.14828
 366.78100 356.33447 345.76594 334.63141 323.03388 311.22735 299.09682 286.89928
 274.61075 262.50722 250.51569 239.81616 229.93763 221.04110 213.22257 206.22404
 200.05751 194.99498 191.57645 189.61791 188.65438 188.71785 189.55232 190.85979
 192.58426 194.67873 196.94120 199.29967 201.74414 204.22361 206.31108 208.15255
 209.77801 210.92248 211.15095 211.37842 211.31489 211.01936 210.65183 210.28130
 209.89777 209.60724 209.41471 209.27818 209.20564 209.53611 209.92158 210.31005
 211.10252 212.27999 213.52946 215.31193 217.23940 219.28187 221.37634 223.45881
 225.51828 227.60174 229.69821 231.80368 233.93215 236.10362 238.35909 240.72856
 243.34903 245.59950 247.60097 249.36544 250.78191 251.90437 252.72584 253.04131
 253.07778 252.85125 252.21072 251.15819 249.76366 247.92413 245.83260 243.66507
 241.45554 239.25901 237.07847 234.91694 232.77641 230.64288 228.66835 226.82482
 225.10729 223.57876 222.20823 220.97970 219.86117 218.82064 217.92410 217.06457
 216.30604 215.48551 214.58298 213.94645 213.39592 213.95644 215.28073 216.46977
 218.12375 220.42213 222.65639 224.26930 225.53249 226.80739 228.71291 229.89098
 230.26176 231.05502 233.48099 237.41000 241.75252 246.01678 250.09683 253.91872
 257.39059 260.54349 263.48218 266.18317 268.41467 270.32388 272.48022 274.47751
 276.42010 278.12634 279.65445 281.00778 282.18060 283.22174 284.17258 285.05344
 285.87650 286.59863 287.21353 288.03659
 366.78100 356.33341 345.76382 334.62823 323.02963 311.22204 299.09045 286.89186
 274.60227 262.49768 250.50509 239.80450 229.92490 221.02731 213.20772 206.20813
 200.04054 194.97695 191.55736 189.59777 188.63317 188.69558 189.52899 190.83540
 192.55881 194.65222 196.91363 199.27104 201.71444 204.19285 206.27926 208.11967
 209.74408 210.88749 211.11490 211.34130 211.27671 210.98012 210.61153 210.23994
 209.85535 209.56376 209.37017 209.23257 209.15898 209.48839 209.87280 210.26021
 211.05162 212.22803 213.47644 215.25784 217.18425 219.22566 221.31907 223.40048
 225.45889 227.54130 229.63671 231.74111 233.86852 236.03893 238.29334 240.66175
 243.28116 245.53057 247.53098 249.29438 250.70979 251.83120 252.65161 252.96602
 253.00143 252.77384 252.13224 251.07865 249.68306 247.84247 245.74988 243.58129
 241.37070 239.17311 236.99151 234.82892 232.68733 230.55274 228.57715 226.73256
 225.01397 223.48438 222.11278 220.88319 219.76360 218.72201 217.82442 216.96383
 216.20424 215.38265 214.47905 213.84146 213.28987 213.91177 215.38109 216.59920
 218.18407 220.43576 222.65843 224.27255 225.55061 226.87633 228.67500 229.67871
 230.00433 230.91019 233.45361 237.43597 241.79189 246.04491 250.10065 253.89499
 257.34329 260.47867 263.41190 266.12363 268.36395 270.27942 272.40329 274.43619
 276.34448 278.04251 279.57031 280.92892 282.10849 283.15768 284.13062 285.01712
 285.81775 286.51544 287.12625 287.94061
 366.78100 356.33224 345.76148 334.62472 323.02497 311.21621 299.08345 286.88369
 274.59293 262.48717 250.49341 239.79165 229.91090 221.01214 213.19138 206.19062
 200.02186 194.95710 191.53634 189.57558 188.60983 188.67107 189.50331 190.80855
 192.53079 194.62303 196.88327 199.23951 201.68176 204.15900 206.24424 208.08348
 209.70672 210.84896 211.07520 211.30044 211.23469 210.93693 210.56717 210.19441
 209.80865 209.51589 209.32113 209.18237 209.10762 209.43586 209.81910 210.20534
 210.99558 212.17082 213.41806 215.19830 217.12355 219.16379 221.25603 223.33627
 225.39351 227.47475 229.56899 231.67223 233.79848 235.96772 238.22096 240.58820
 243.20644 245.45468 247.45392 249.21616 250.63041 251.75065 252.56989 252.88313
 252.91737 252.68861 252.04585 250.99109 249.59434 247.75258 245.65882 243.48906
 241.27730 239.07854 236.89578 234.73202 232.58927 230.45351 228.47675 226.63099
 224.91123 223.38047 222.00771 220.77695 219.65620 218.61344 217.71468 216.85292
 216.09216 215.26940 214.36464 213.72588 213.17313 213.85994 215.48262 216.73015
 218.25023 220.46071 222.67319 224.27428 225.54530 226.90414 228.61079 229.47154
 229.77081 230.78696 233.43550 237.46423 241.83337 246.07655 250.10756 253.87137
 257.29477 260.41656 263.35239 266.09174 268.37302 270.32669 272.28717 274.39474
 276.26620 277.95309 279.46878 280.81894 281.99359 283.04086 284.01147 284.89667
 285.68936 286.38480 286.99542 287.80823
 366.78100 356.33123 345.75945 334.62168 323.02090 311.21113 299.07735 286.87658
 274.58481 262.47803 250.48326 239.78048 229.89871 220.99894 213.17716 206.17539
 200.00561 194.93984 191.51806 189.55629 188.58952 188.64974 189.48097 190.78519
 192.50642 194.59764 196.85687 199.21210 201.65332 204.12955 206.21377 208.05200
 209.67423 210.81545 211.04068 211.26490 211.19813 210.89935 210.52858 210.15481
 209.76803 209.47426 209.27848 209.13871 209.06293 209.39016 209.77239 210.15761
 210.94684 212.12106 213.36729 215.14652 217.07074 219.10997 221.20119 223.28042
 225.33664 227.41687 229.51010 231.61232 233.73755 235.90577 238.15800 240.52422
 243.14145 245.38868 247.38690 249.14813 250.56135 251.68058 252.49881 252.81103
 252.84426 252.61448 251.97071 250.91493 249.51716 247.67439 245.57961 243.40884
 241.19606 238.99629 236.81251 234.64774 232.50397 230.36719 228.38942 226.54264
 224.82187 223.29010 221.91632 220.68455 219.56277 218.51900 217.61922 216.75645
 215.99468 215.17090 214.26513 213.62535 213.07158 213.81386 215.56757 216.87903
 218.32764 220.48682 222.68912 224.26991 225.50368 226.88623 228.54308 229.28876
 229.55617 230.67142 233.42252 237.49564 241.87833 246.11279 250.12032 253.85263
 257.25082 260.35751 263.28857 266.04510 268.36325 270.35898 272.30939 274.35999
 276.19775 277.87302 279.37381 280.70206 281.86533 282.90814 283.87750 284.76013
 285.54858 286.24387 286.85336 287.66412
 366.78100 356.33029 345.75758 334.61887 323.01716 311.20645 299.07174 286.87003
 274.57732 262.46961 250.47390 239.77019 229.88748 220.98677 213.16406 206.16135
 199.99064 194.92393 191.50122 189.53852 188.57081 188.63010 189.46039 190.76368
 192.48397 194.57426 196.83255 199.18684 201.62713 204.10242 206.18571 208.02300
 209.64429 210.78458 211.00887 211.23216 211.16445 210.86474 210.49303 210.11832
 209.73061 209.43590 209.23919 209.09848 209.02177 209.34806 209.72935 210.11364
 210.90193 212.07522 213.32051 215.09880 217.02209 219.06038 221.15067 223.22897
 225.28426 227.36355 229.45584 231.55713 233.68142 235.84871 238.10000 240.46529
 243.08158 245.32787 247.32516 249.08545 250.49774 251.61603 252.43332 252.74461
 252.77690 252.54619 251.90148 250.84477 249.44606 247.60235 245.50664 243.33493
 241.12122 238.92051 236.73580 234.57009 232.42538 230.28767 228.30896 226.46125
 224.73954 223.20683 221.83212 220.59941 219.47671 218.43200 217.53129 216.66758
 215.90487 215.08016 214.17345 213.53274 212.97803 213.76678 215.63028 217.05762
 218.43071 220.51503 222.68774 224.24791 225.43030 226.82822 228.47458 229.12549
 229.35284 230.56281 233.42010 237.53496 241.93034 246.15871 250.14603 253.85173
 257.22470 260.31058 263.22345 265.98416 268.32889 270.36334 272.33221 274.30594
 276.12381 277.78729 279.28348 280.61603 281.78488 282.83072 283.80219 284.68646
 285.46616 286.15781 286.76706 287.57245
 366.78100 356.33003 345.75706 334.61809 323.01612 311.20515 299.07018 286.86821
 274.57524 262.46727 250.47130 239.76733 229.88436 220.98339 213.16042 206.15745
 199.98648 194.91951 191.49654 189.53358 188.56561 188.62464 189.45467 190.75770
 192.47773 194.56776 196.82579 199.17982 201.61985 204.09488 206.17791 208.01494
 209.63597 210.77600 211.00003 211.22306 211.15509 210.85512 210.48315 210.10818
 209.72021 209.42524 209.22827 209.08730 209.01033 209.33636 209.71739 210.10142
 210.88945 212.06248 213.30751 215.08554 217.00857 219.04660 221.13663 223.21466
 225.26969 227.34873 229.44076 231.54179 233.66582 235.83285 238.08388 240.44891
 243.06494 245.31097 247.30800 249.06803 250.48006 251.59809 252.41512 252.72615
 252.75818 252.52721 251.88224 250.82527 249.42630 247.58233 245.48636 243.31439
 241.10042 238.89945 236.71448 234.54851 232.40354 230.26557 228.28660 226.43863
 224.71666 223.18369 221.80872 220.57575 219.45278 218.40781 217.50684 216.64288
 215.87991 215.05494 214.14797 213.50700 212.95203 213.75090 215.63831 217.25084
 218.59503 220.57425 222.67639 224.19928 225.32727 226.72792 228.36148 228.93448
 229.13380 230.45773 233.43040 237.58357 241.99524 246.22263 250.19479 253.87695
 257.22720 260.29059 263.17795 265.93945 268.30246 270.37317 272.34274 274.26227
 276.06647 277.70810 279.19495 280.51645 281.68112 282.72736 283.70493 284.57629
 285.28049 285.97614 286.59067 287.40958
 366.78100 356.33058 345.75817 334.61975 323.01833 311.20792 299.07350 286.87208
 274.57967 262.47225 250.47683 239.77342 229.89100 220.99058 213.16817 206.16575
 199.99533 194.92892 191.50650 189.54408 188.57667 188.63625 189.46683 190.77042
 192.49100 194.58158 196.84017 199.19475 201.63534 204.11092 206.19450 208.03209
 209.65367 210.79425 211.01884 211.24242 211.17500 210.87559 210.50417 210.12975
 209.74234 209.44792 209.25150 209.11109 209.03467 209.36125 209.74284 210.12742
 210.91600 212.08959 213.33517 215.11375 217.03734 219.07592 221.16650 223.24509
 225.30067 227.38025 229.47284 231.57442 233.69900 235.86659 238.11817 240.48375
 243.10034 245.34692 247.34450 249.10509 250.51767 251.63625 252.45384 252.76542
 252.79800 252.56759 251.92317 250.86675 249.46834 247.62492 245.52950 243.35809
 241.14467 238.94425 236.75984 234.59442 232.45001 230.31259 228.33417 226.48676
 224.76534 223.23292 221.85851 220.62609 219.50367 218.45926 217.55884 216.69542
 215.93301 215.10859 214.20217 213.56176 213.00734 213.78346 215.61743 217.35371
 218.78329 220.66191 222.65193 224.09917 225.15477 226.56720 228.13634 228.71696
 228.82692 230.31137 233.41910 237.64117 242.08777 246.34984 250.33383 254.00562
 257.33960 260.36209 263.19797 265.92218 268.28815 270.35934 272.30756 274.20102
 275.98749 277.60492 279.07428 280.39386 281.52130 282.56958 283.53696 284.35013
 285.07346 285.77731 286.39670 287.18604
 366.78100 356.33125 345.75950 334.62176 323.02101 311.21126 299.07751 286.87676
 274.58501 262.47827 250.48352 239.78077 229.89902 220.99927 213.17752 206.17578
 200.00603 194.94028 191.51853 189.55678 188.59003 188.65029 189.48154 190.78579
 192.50704 194.59829 196.85754 199.21280 201.65405 204.13030 206.21455 208.05280
 209.67506 210.81631 211.04156 211.26581 211.19906 210.90031 210.52957 210.15582
 209.76907 209.47532 209.27957 209.13982 209.06408 209.39133 209.77358 210.15883
 210.94808 212.12233 213.36859 215.14784 217.07209 219.11134 221.20259 223.28185
 225.33810 227.41835 229.51160 231.61385 233.73910 235.90736 238.15961 240.52586
 243.14311 245.39036 247.38861 249.14987 250.56312 251.68237 252.50062 252.81287
 252.84612 252.61638 251.97263 250.91688 249.51913 247.67638 245.58163 243.41089
 241.19814 238.99839 236.81464 234.64989 232.50615 230.36940 228.39165 226.54490
 224.82415 223.29240 221.91866 220.68691 219.56516 218.52141 217.62166 216.75891
 215.99717 215.17342 214.26767 213.62792 213.07417 213.82692 215.62277 217.39333
 218.93153 220.71007 222.62029 224.06374 225.08826 226.46393 227.90977 228.67836
 228.39528 230.07793 233.34624 237.66606 242.17059 246.52733 250.50629 254.15436
 257.45630 260.44315 263.24408 265.90042 268.23904 270.27756 272.16986 274.04581
 275.79181 277.40491 278.84427 280.11761 281.24866 282.29623 283.27444 284.20929
 285.05283 285.80402 286.46024 287.29651
 366.78100 356.33177 345.76054 334.62332 323.02309 311.21386 299.08063 286.88041
 274.58918 262.48295 250.48872 239.78650 229.90527 221.00604 213.18481 206.18359
 200.01436 194.94913 191.52790 189.56667 188.60045 188.66122 189.49299 190.79776
 192.51954 194.61131 196.87108 199.22685 201.66863 204.14540 206.23017 208.06894
 209.69172 210.83349 211.05926 211.28403 211.21780 210.91958 210.54935 210.17612
 209.78989 209.49667 209.30144 209.16221 209.08698 209.41476 209.79753 210.18330
 210.97307 212.14785 213.39462 215.17439 217.09916 219.13894 221.23071 223.31048
 225.36725 227.44802 229.54180 231.64457 233.77034 235.93911 238.19189 240.55866
 243.17643 245.42420 247.42298 249.18475 250.59852 251.71829 252.53707 252.84984
 252.88361 252.65438 252.01115 250.95593 249.55870 247.71647 245.62224 243.45202
 241.23979 239.04056 236.85733 234.69311 232.54988 230.41365 228.43642 226.59020
 224.86997 223.33874 221.96551 220.73428 219.61306 218.56983 217.67060 216.80837
 216.04715 215.22392 214.31869 213.67946 213.12624 213.86745 215.65819 217.45349
 219.12758 220.91730 222.73988 224.15666 225.25937 226.47031 227.73938 228.46925
 228.35039 230.00089 233.33620 237.64867 242.20332 246.58578 250.62483 254.28746
 257.56308 260.49765 263.25247 265.83411 268.10242 270.09021 272.18378 273.90057
 275.56647 277.14993 278.64267 280.00671 281.22348 282.37759 283.43689 284.39655
 285.25961 286.02820 286.69965 287.55530
 366.78100 356.33181 345.76062 334.62344 323.02325 311.21406 299.08087 286.88069
 274.58950 262.48331 250.48912 239.78694 229.90575 221.00656 213.18537 206.18419
 200.01500 194.94981 191.52862 189.56744 188.60125 188.66206 189.49387 190.79869
 192.52050 194.61231 196.87212 199.22794 201.66975 204.14656 206.23137 208.07019
 209.69300 210.83481 211.06062 211.28544 211.21925 210.92106 210.55087 210.17769
 209.79150 209.49831 209.30312 209.16394 209.08875 209.41656 209.79937 210.18519
 210.97500 212.14981 213.39662 215.17644 217.10125 219.14106 221.23287 223.31269
 225.36950 227.45031 229.54412 231.64694 233.77275 235.94156 238.19437 240.56119
 243.17900 245.42681 247.42562 249.18744 250.60125 251.72106 252.53987 252.85269
 252.88650 252.65731 252.01412 250.95894 249.56175 247.71956 245.62537 243.45519
 241.24300 239.04381 236.86062 234.69644 232.55325 230.41706 228.43987 226.59369
 224.87350 223.34231 221.96912 220.73794 219.61675 218.57356 217.67437 216.81219
 216.05100 215.22781 214.32262 213.68344 213.13025 213.88773 215.73735 217.53438
 219.37096 221.18472 222.91670 224.31032 225.44019 226.42149 227.79645 228.06337
 228.22040 229.91158 233.26115 237.59135 242.18463 246.55347 250.59598 254.25969
 257.52863 260.48270 263.22333 265.73596 267.98297 269.89670 272.13696 273.91977
 275.37347 277.07394 278.74033 280.30322 281.65579 282.85248 283.94424 284.93332
 285.82291 286.61505 287.30707 288.18896
 366.78100 356.33217 345.76134 334.62452 323.02469 311.21586 299.08303 286.88320
 274.59237 262.48655 250.49272 239.79089 229.91006 221.01123 213.19040 206.18958
 200.02075 194.95592 191.53509 189.57426 188.60843 188.66961 189.50178 190.80695
 192.52912 194.62129 196.88146 199.23764 201.67981 204.15698 206.24215 208.08132
 209.70449 210.84667 211.07284 211.29801 211.23218 210.93435 210.56452 210.19170
 209.80587 209.51304 209.31821 209.17938 209.10455 209.43273 209.81590 210.20207
 210.99224 212.16741 213.41458 215.19476 217.11993 219.16010 221.25227 223.33244
 225.38961 227.47079 229.56496 231.66813 233.79430 235.96347 238.21664 240.58382
 243.20199 245.45016 247.44933 249.21150 250.62567 251.74585 252.56502 252.87819
 252.91236 252.68353 252.04070 250.98588 249.58905 247.74722 245.65339 243.48356
 241.27173 239.07291 236.89008 234.72625 232.58342 230.44759 228.47076 226.62494
 224.90511 223.37428 222.00145 220.77062 219.64979 218.60697 217.70814 216.84631
 216.08548 215.26265 214.35782 213.71900 213.16617 213.91315 215.75883 217.62662
 219.52287 221.29420 222.95949 224.36023 225.47983 226.35225 227.84486 227.87091
 228.04237 229.75418 233.24701 237.63028 242.18660 246.55243 250.60004 254.27615
 257.57996 260.50397 263.20898 265.71616 267.88928 269.85959 272.06061 273.92636
 275.47736 277.37244 279.23438 280.86932 282.28421 283.53604 284.67813 285.71280
 286.64337 287.47202 288.19592 289.11847
 366.78100 356.33444 345.76589 334.63133 323.03377 311.22722 299.09666 286.89911
 274.61055 262.50699 250.51544 239.81588 229.93732 221.04077 213.22221 206.22366
 200.05710 194.99454 191.57599 189.61743 188.65387 188.71732 189.55176 190.85921
 192.58365 194.67809 196.94054 199.29898 201.74342 204.22287 206.31031 208.15176
 209.77720 210.92164 211.15009 211.37753 211.31397 211.01842 210.65086 210.28030
 209.89675 209.60619 209.41364 209.27708 209.20452 209.53497 209.92041 210.30885
 211.10130 212.27874 213.52819 215.31063 217.23807 219.28052 221.37496 223.45740
 225.51685 227.60029 229.69674 231.80218 233.93062 236.10207 238.35751 240.72695
 243.34740 245.59784 247.59929 249.36373 250.78017 251.90262 252.72406 253.03950
 253.07595 252.84939 252.20883 251.15628 249.76172 247.92217 245.83061 243.66305
 241.45350 239.25694 237.07638 234.91483 232.77427 230.64072 228.66616 226.82260
 225.10505 223.57649 222.20593 220.97738 219.85882 218.81827 217.92171 217.06215
 216.30360 215.48304 214.58048 213.94393 213.39337 214.01534 215.62769 217.77927
 219.74409 221.32474 222.89670 224.24564 225.35167 226.30219 227.51180 227.76601
 228.03986 229.88155 233.34088 237.68408 242.23294 246.61409 250.65996 254.33939
 257.64771 260.60898 263.33704 265.83649 268.04709 269.99619 271.93127 273.79980
 275.44141 277.09946 278.79858 280.48746 281.94904 283.24216 284.42191 285.49069
 286.45197 287.30795 288.05576 289.00873
 366.78100 356.33772 345.77244 334.64116 323.04687 311.24359 299.11631 286.92203
 274.63675 262.53647 250.54818 239.85190 229.97662 221.08334 213.26806 206.27278
 200.10949 195.05021 191.63493 189.67965 188.71937 188.78609 189.62380 190.93452
 192.66224 194.75996 197.02568 199.38740 201.83512 204.31783 206.40855 208.25327
 209.88199 211.02971 211.26143 211.49214 211.43186 211.13958 210.77530 210.40802
 210.02774 209.74045 209.55117 209.41789 209.34861 209.68233 210.07105 210.46277
 211.25848 212.43920 213.69192 215.47764 217.40836 219.45408 221.55179 223.63751
 225.70023 227.78695 229.88667 231.99539 234.12710 236.30182 238.56054 240.93326
 243.55698 245.81070 247.81541 249.58313 251.00285 252.12857 252.95329 253.27201
 253.31173 253.08844 252.45116 251.40188 250.01060 248.17432 246.08604 243.92175
 241.71547 239.52219 237.34491 235.18663 233.04935 230.91906 228.94778 227.10750
 225.39322 223.86794 222.50066 221.27537 220.16009 219.12281 218.22953 217.37325
 216.61797 215.80069 214.90140 214.26812 213.72084 214.18678 215.47664 217.79204
 220.05307 221.60042 223.04668 224.29227 225.31122 226.16801 227.21091 227.37764
 227.71413 229.74271 233.34630 237.72565 242.30153 246.67908 250.76628 254.48080
 257.80627 260.75107 263.46503 265.95554 268.16980 270.04297 272.02484 273.80984
 275.32120 276.90488 278.58353 280.36826 281.91278 283.27927 284.52600 285.65546
 286.67126 287.57587 288.36609 289.37314
 366.78100 356.33749 345.77199 334.64048 323.04598 311.24247 299.11497 286.92046
 274.63495 262.53445 250.54594 239.84944 229.97393 221.08043 213.26492 206.26941
 200.10591 195.04640 191.63090 189.67539 188.71489 188.78138 189.61887 190.92937
 192.65686 194.75436 197.01985 199.38134 201.82884 204.31133 206.40183 208.24632
 209.87482 211.02231 211.25380 211.48430 211.42379 211.13129 210.76678 210.39928
 210.01877 209.73126 209.54176 209.40825 209.33875 209.67224 210.06074 210.45223
 211.24772 212.42822 213.68071 215.46621 217.39670 219.44220 221.53969 223.62518
 225.68768 227.77417 229.87367 231.98216 234.11366 236.28815 238.54664 240.91914
 243.54263 245.79613 247.80062 249.56811 250.98761 252.11310 252.93760 253.25609
 253.29559 253.07208 252.43457 251.38507 249.99356 248.15706 246.06855 243.90405
 241.69754 239.50403 237.32653 235.16802 233.03052 230.90001 228.92851 227.08800
 225.37349 223.84799 222.48048 221.25498 220.13947 219.10197 218.20846 217.35195
 216.59645 215.77894 214.87944 214.24593 213.69843 214.19437 215.50798 217.67873
 220.14288 221.97513 223.32057 224.35963 225.30009 226.15533 226.95680 226.98236
 227.32945 229.50296 233.29431 237.78430 242.37968 246.77261 250.86160 254.59161
 257.95612 260.96121 263.66559 266.19360 268.41846 270.26468 272.08310 273.99219
 275.48642 277.01877 278.62021 280.28470 281.80170 283.14383 284.36832 285.47763
 286.47534 287.36377 288.13992 289.12903
 366.78100 356.33524 345.76748 334.63372 323.03695 311.23119 299.10143 286.90467
 274.61691 262.51415 250.52339 239.82463 229.94686 221.05110 213.23334 206.23558
 200.06982 195.00806 191.59030 189.63254 188.66977 188.73401 189.56925 190.87749
 192.60273 194.69797 196.96121 199.32044 201.76568 204.24592 206.33416 208.17640
 209.80264 210.94788 211.17712 211.40535 211.34259 211.04783 210.68107 210.31131
 209.92855 209.63879 209.44703 209.31126 209.23950 209.57074 209.95698 210.34622
 211.13946 212.31770 213.56793 215.35117 217.27941 219.32265 221.41789 223.50113
 225.56137 227.64561 229.74284 231.84908 233.97832 236.15056 238.40680 240.77704
 243.39828 245.64952 247.65175 249.41699 250.83423 251.95747 252.77971 253.09595
 253.13319 252.90743 252.26766 251.21590 249.82214 247.98338 245.89262 243.72586
 241.51710 239.32133 237.14157 234.98081 232.84105 230.70829 228.73453 226.89177
 225.17501 223.64724 222.27748 221.04972 219.93196 218.89220 217.99644 217.13768
 216.37992 215.56015 214.65839 214.02263 213.47287 214.07950 215.59004 217.73372
 220.14757 221.84773 223.20123 224.33069 225.40692 226.30714 226.96005 226.72385
 227.05257 229.27075 233.18846 237.71849 242.30197 246.69238 250.77991 254.52899
 257.91040 260.90115 263.59174 266.10278 268.29343 270.28687 272.16074 273.95898
 275.64417 277.13382 278.55582 279.92404 281.14798 282.33862 283.43918 284.43622
 285.33295 286.13147 286.82907 287.71808
 366.78100 356.33586 345.76872 334.63558 323.03943 311.23429 299.10515 286.90901
 274.62187 262.51973 250.52959 239.83144 229.95430 221.05916 213.24202 206.24488
 200.07974 195.01859 191.60145 189.64431 188.68217 188.74703 189.58289 190.89175
 192.61760 194.71346 196.97732 199.33718 201.78304 204.26390 206.35276 208.19561
 209.82247 210.96833 211.19819 211.42705 211.36491 211.07076 210.70462 210.33548
 209.95334 209.66420 209.47306 209.33792 209.26677 209.59863 209.98549 210.37535
 211.16921 212.34807 213.59893 215.38278 217.31164 219.35550 221.45136 223.53522
 225.59608 227.68094 229.77879 231.88565 234.01551 236.18837 238.44523 240.81609
 243.43794 245.68980 247.69266 249.45852 250.87638 252.00024 252.82310 253.13995
 253.17781 252.95267 252.31353 251.26239 249.86925 248.03111 245.94096 243.77482
 241.56668 239.37154 237.19240 235.03226 232.89311 230.76097 228.78783 226.94569
 225.22955 223.70241 222.33327 221.10612 219.98898 218.94984 218.05470 217.19656
 216.43942 215.62028 214.71913 214.08399 213.53485 214.11613 215.60675 217.87177
 220.30856 221.84094 223.10353 224.38646 225.56616 226.39500 226.90367 226.81277
 227.03439 229.27457 233.16002 237.69281 242.27679 246.67625 250.77692 254.50439
 257.89044 260.87296 263.52408 265.99197 268.10709 269.88336 271.81210 273.68640
 275.27399 276.65179 278.12521 279.54202 280.90057 282.10934 283.21216 284.21124
 285.10977 285.90994 286.60895 287.49976
 366.78100 356.33489 345.76679 334.63268 323.03557 311.22947 299.09936 286.90225
 274.61415 262.51104 250.51993 239.82083 229.94272 221.04661 213.22851 206.23040
 200.06429 195.00219 191.58408 189.62597 188.66287 188.72676 189.56165 190.86955
 192.59444 194.68933 196.95223 199.31112 201.75601 204.23591 206.32380 208.16570
 209.79159 210.93648 211.16538 211.39327 211.33016 211.03506 210.66795 210.29784
 209.91474 209.62463 209.43252 209.29642 209.22431 209.55520 209.94110 210.32999
 211.12288 212.30078 213.55067 215.33356 217.26146 219.30435 221.39924 223.48214
 225.54203 227.62592 229.72282 231.82871 233.95760 236.12950 238.38539 240.75528
 243.37618 245.62707 247.62896 249.39386 250.81075 251.93364 252.75554 253.07143
 253.10832 252.88222 252.24211 251.19000 249.79590 247.95679 245.86568 243.69858
 241.48947 239.29336 237.11326 234.95215 232.81204 230.67894 228.70483 226.86173
 225.14462 223.61651 222.24641 221.01830 219.90019 218.86009 217.96398 217.10487
 216.34677 215.52666 214.62455 213.98845 213.43834 214.09105 215.74811 217.86908
 220.33479 222.07719 223.40083 224.59883 225.66486 226.24001 226.86603 226.42552
 226.78760 229.18759 233.17212 237.74863 242.36566 246.76987 250.86893 254.57402
 257.93210 260.99908 263.69666 266.12094 268.06824 269.83728 271.83832 273.65085
 275.14487 276.69287 278.47131 280.08105 281.47415 282.70670 283.83121 284.84995
 285.76617 286.58206 287.29483 288.20316
 366.78100 356.33403 345.76506 334.63009 323.03212 311.22515 299.09418 286.89621
 274.60724 262.50327 250.51130 239.81133 229.93236 221.03539 213.21642 206.21745
 200.05048 194.98751 191.56854 189.60957 188.64560 188.70863 189.54266 190.84969
 192.57372 194.66775 196.92978 199.28781 201.73184 204.21087 206.29790 208.13893
 209.76396 210.90799 211.13602 211.36305 211.29908 211.00311 210.63514 210.26417
 209.88020 209.58923 209.39626 209.25929 209.18632 209.51635 209.90138 210.28941
 211.08144 212.25847 213.50750 215.28953 217.21656 219.25859 221.35262 223.43465
 225.49368 227.57671 229.67274 231.77777 233.90580 236.07683 238.33186 240.70089
 243.32092 245.57095 247.57198 249.33601 250.75204 251.87407 252.69510 253.01013
 253.04616 252.81919 252.17822 251.12525 249.73028 247.89031 245.79834 243.63037
 241.42040 239.22343 237.04246 234.88049 232.73952 230.60555 228.63058 226.78661
 225.06864 223.53967 222.16870 220.93973 219.82076 218.77979 217.88282 217.02285
 216.26388 215.44291 214.53994 213.90297 213.35201 214.05113 215.80286 217.89449
 220.29152 222.26764 223.55856 224.58202 225.62366 226.30949 226.62184 226.20912
 226.58778 229.08215 233.15468 237.74915 242.35971 246.75752 250.86130 254.61102
 258.01169 261.12515 263.91168 266.40689 268.43930 270.12329 271.94443 273.83890
 275.43256 277.00641 278.73221 280.57822 282.17575 283.58917 284.87872 286.04694
 287.09763 288.03329 288.85065 289.89227
 366.78100 356.33628 345.76955 334.63683 323.04110 311.23638 299.10765 286.91193
 274.62520 262.52348 250.53375 239.83603 229.95930 221.06458 213.24785 206.25113
 200.08640 195.02568 191.60895 189.65223 188.69050 188.75578 189.59205 190.90133
 192.62760 194.72388 196.98815 199.34843 201.79470 204.27598 206.36525 208.20853
 209.83580 210.98208 211.21235 211.44163 211.37990 211.08618 210.72045 210.35173
 209.97000 209.68128 209.49055 209.35583 209.28510 209.61738 210.00465 210.39493
 211.18920 212.36848 213.61975 215.40403 217.33330 219.37758 221.47385 223.55813
 225.61940 227.70468 229.80295 231.91023 234.04050 236.21378 238.47105 240.84233
 243.46460 245.71688 247.72015 249.48643 250.90471 252.02898 252.85226 253.16953
 253.20781 252.98308 252.34436 251.29363 249.90091 248.06318 245.97346 243.80773
 241.60001 239.40528 237.22656 235.06683 232.92811 230.79638 228.82366 226.98193
 225.26621 223.73948 222.37076 221.14403 220.02731 218.98858 218.09386 217.23613
 216.47941 215.66068 214.75996 214.12523 213.57651 214.16223 215.66930 217.98953
 220.38841 222.31662 223.53314 224.43332 225.46440 226.37366 226.61684 226.15741
 226.50943 228.97624 233.10526 237.71727 242.28897 246.67921 250.78242 254.55257
 257.95996 261.05786 263.84799 266.39288 268.57657 270.29526 271.96887 273.90997
 275.67255 277.11792 278.58762 279.99948 281.36771 282.60275 283.72949 284.75027
 285.66837 286.48590 287.20010 288.11026
 366.78100 356.33962 345.77623 334.64685 323.05447 311.25308 299.12770 286.93532
 274.65193 262.55355 250.56716 239.87278 229.99940 221.10801 213.29463 206.30125
 200.13986 195.08248 191.66910 189.71571 188.75733 188.82595 189.66556 190.97818
 192.70779 194.80741 197.07503 199.43864 201.88826 204.37288 206.46549 208.31211
 209.94273 211.09234 211.32596 211.55858 211.50019 211.20981 210.84742 210.48204
 210.10366 209.81827 209.63089 209.49951 209.43212 209.76774 210.15836 210.55197
 211.34959 212.53221 213.78682 215.57444 217.50706 219.55467 221.65429 223.74190
 225.80652 227.89514 229.99675 232.10737 234.24099 236.41760 238.67822 241.05284
 243.67845 245.93407 247.94069 249.71030 251.13192 252.25953 253.08615 253.40677
 253.44838 253.22700 252.59162 251.54423 250.15485 248.32047 246.23408 244.07170
 241.86732 239.67593 237.50055 235.34416 233.20878 231.08040 229.11101 227.27263
 225.56025 224.03686 222.67148 221.44810 220.33471 219.29933 218.40795 217.55356
 216.80018 215.98480 215.08741 214.45603 213.91064 214.35277 215.56752 218.00299
 220.57657 222.52180 223.62257 224.36519 225.32654 226.26984 226.55475 226.06841
 226.41017 228.92007 233.09590 237.73126 242.28297 246.69676 250.82184 254.58521
 258.01718 261.07834 263.83942 266.38309 268.60159 270.34790 271.96924 273.85471
 275.60544 277.10468 278.66229 280.13635 281.56912 282.83676 283.99329 285.04102
 285.98334 286.82248 287.55554 288.48972
 366.78100 356.34091 345.77882 334.65073 323.05963 311.25954 299.13545 286.94436
 274.66227 262.56518 250.58009 239.88700 230.01490 221.12481 213.31272 206.32063
 200.16054 195.10445 191.69236 189.74027 188.78317 188.85308 189.69399 191.00790
 192.73881 194.83972 197.10863 199.47354 201.92444 204.41035 206.50426 208.35217
 209.98408 211.13499 211.36990 211.60380 211.54671 211.25762 210.89653 210.53244
 210.15535 209.87126 209.68517 209.55507 209.48898 209.82589 210.21780 210.61271
 211.41162 212.59553 213.85144 215.64034 217.57425 219.62316 221.72407 223.81298
 225.87889 227.96880 230.07171 232.18361 234.31852 236.49643 238.75834 241.13425
 243.76116 246.01807 248.02598 249.79688 251.21979 252.34870 253.17661 253.49852
 253.54143 253.32134 252.68724 251.64115 250.25306 248.41997 246.33488 244.17379
 241.97070 239.78061 237.60651 235.45142 233.31733 231.19024 229.22215 227.38506
 225.67397 224.15188 222.78778 221.56569 220.45360 219.41951 218.52942 217.67633
 216.92424 216.11015 215.21405 214.58396 214.03987 214.44615 215.57013 217.94037
 220.62813 222.69438 223.78735 224.39713 225.24864 226.17838 226.47482 225.89804
 226.26631 228.81523 233.06143 237.72023 242.28250 246.71754 250.86603 254.65239
 258.09979 261.19910 263.95389 266.48978 268.75174 270.58563 272.18536 273.95673
 275.66199 277.22098 278.78992 280.25479 281.70377 282.98572 284.15533 285.21490
 286.16785 287.01648 287.75781 288.70258
 366.78100 356.34017 345.77735 334.64852 323.05669 311.25587 299.13104 286.93921
 274.65639 262.55856 250.57273 239.87891 230.00608 221.11525 213.30243 206.30960
 200.14877 195.09195 191.67912 189.72629 188.76846 188.83764 189.67781 190.99098
 192.72116 194.82133 197.08950 199.45368 201.90385 204.38902 206.48220 208.32937
 209.96054 211.11072 211.34489 211.57806 211.52024 211.23041 210.86858 210.50376
 210.12593 209.84110 209.65428 209.52345 209.45662 209.79280 210.18397 210.57814
 211.37632 212.55949 213.81466 215.60284 217.53601 219.58418 221.68435 223.77253
 225.83770 227.92687 230.02905 232.14022 234.27439 236.45157 238.71274 241.08791
 243.71409 245.97026 247.97743 249.74761 251.16978 252.29795 253.12513 253.44630
 253.48847 253.26765 252.63282 251.58599 250.19717 248.36334 246.27751 244.11569
 241.91186 239.72103 237.54621 235.39038 233.25555 231.12773 229.15890 227.32107
 225.60924 224.08642 222.72159 221.49876 220.38594 219.35111 218.46028 217.60646
 216.85363 216.03880 215.14198 214.51115 213.96632 214.43059 215.63918 217.88803
 220.54877 222.70683 223.92076 224.50758 225.26395 226.17986 226.47990 225.62166
 226.06595 228.62517 232.95976 237.63882 242.22896 246.66998 250.84688 254.66388
 258.14581 261.27682 264.02606 266.54904 268.83215 270.77426 272.42941 274.10983
 275.78207 277.33347 278.86111 280.25272 281.53183 282.78946 283.93689 284.97638
 285.91125 286.74380 287.47107 288.39792
 366.78100 356.33787 345.77274 334.64161 323.04748 311.24435 299.11722 286.92309
 274.63795 262.53782 250.54969 239.85356 229.97843 221.08530 213.27017 206.27504
 200.11191 195.05278 191.63765 189.68252 188.72239 188.78926 189.62712 190.93799
 192.66586 194.76373 197.02960 199.39147 201.83934 204.32221 206.41308 208.25795
 209.88682 211.03469 211.26656 211.49743 211.43730 211.14516 210.78103 210.41390
 210.03377 209.74664 209.55751 209.42438 209.35525 209.68912 210.07799 210.46986
 211.26573 212.44660 213.69947 215.48534 217.41620 219.46207 221.55994 223.64581
 225.70868 227.79555 229.89542 232.00429 234.13616 236.31103 238.56990 240.94277
 243.56664 245.82051 247.82537 249.59324 251.01311 252.13898 252.96385 253.28272
 253.32259 253.09946 252.46233 251.41320 250.02207 248.18594 246.09781 243.93368
 241.72755 239.53441 237.35728 235.19915 233.06202 230.93189 228.96076 227.12063
 225.40650 223.88137 222.51424 221.28911 220.17398 219.13685 218.24372 217.38758
 216.63245 215.81532 214.91619 214.28306 213.73593 214.32864 215.79922 217.91412
 220.34666 222.59265 223.99953 224.66574 225.38048 226.29483 226.62790 225.41911
 225.80389 228.38535 232.81339 237.50824 242.11739 246.57272 250.77194 254.62560
 258.13266 261.28320 264.08670 266.61688 268.91437 270.89413 272.60800 274.23642
 275.86572 277.38641 278.88046 280.25699 281.47763 282.65588 283.78000 284.79840
 285.71429 286.52994 287.24246 288.15048
 366.78100 356.33491 345.76682 334.63273 323.03564 311.22956 299.09947 286.90238
 274.61429 262.51120 250.52011 239.82102 229.94293 221.04684 213.22876 206.23067
 200.06458 195.00249 191.58440 189.62631 188.66322 188.72713 189.56204 190.86996
 192.59487 194.68978 196.95269 199.31160 201.75651 204.23642 206.32433 208.16624
 209.79215 210.93707 211.16598 211.39389 211.33080 211.03571 210.66862 210.29853
 209.91544 209.62535 209.43327 209.29718 209.22509 209.55600 209.94191 210.33082
 211.12373 212.30164 213.55155 215.33447 217.26238 219.30529 221.40020 223.48311
 225.54302 227.62693 229.72384 231.82975 233.95867 236.13058 238.38649 240.75640
 243.37731 245.62822 247.63013 249.39504 250.81195 251.93487 252.75678 253.07269
 253.10960 252.88351 252.24342 251.19133 249.79724 247.95815 245.86707 243.69998
 241.49089 239.29480 237.11471 234.95362 232.81353 230.68044 228.70635 226.86327
 225.14618 223.61809 222.24800 221.01991 219.90182 218.86173 217.96564 217.10655
 216.34846 215.52838 214.62629 213.99020 213.44011 214.18140 215.96675 218.03720
 220.13246 222.34889 223.95558 224.78041 225.52248 226.43704 226.91246 225.23561
 225.56285 228.18103 232.68150 237.33549 241.94330 246.39967 250.61366 254.49821
 258.03735 261.22913 264.08685 266.66629 268.99722 271.04364 272.81485 274.44351
 276.00470 277.48407 278.91666 280.26898 281.47064 282.55164 283.60431 284.61276
 285.51974 286.32739 287.03296 287.93213
 366.78100 356.33476 345.76651 334.63227 323.03502 311.22878 299.09853 286.90129
 274.61304 262.50980 250.51855 239.81931 229.94106 221.04482 213.22657 206.22833
 200.06208 194.99984 191.58159 189.62335 188.66010 188.72386 189.55861 190.86637
 192.59112 194.68588 196.94863 199.30739 201.75214 204.23190 206.31965 208.16141
 209.78716 210.93192 211.16068 211.38843 211.32519 211.02994 210.66270 210.29245
 209.90921 209.61896 209.42672 209.29047 209.21823 209.54898 209.93474 210.32349
 211.11625 212.29400 213.54376 215.32651 217.25427 219.29702 221.39178 223.47453
 225.53429 227.61804 229.71480 231.82055 233.94931 236.12106 238.37682 240.74657
 243.36733 245.61808 247.61984 249.38459 250.80135 251.92411 252.74586 253.06162
 253.09837 252.87213 252.23188 251.17964 249.78539 247.94615 245.85490 243.68766
 241.47841 239.28217 237.10192 234.94068 232.80043 230.66719 228.69294 226.84970
 225.13245 223.60421 222.23396 221.00572 219.88747 218.84723 217.95098 217.09174
 216.33349 215.51325 214.61100 213.97476 213.42451 214.17638 215.97218 218.18623
 220.20499 222.27255 223.92157 224.83789 225.56432 226.46388 226.97789 225.40288
 225.60280 228.15701 232.60788 237.18633 241.77623 246.21597 250.42920 254.33083
 257.89841 261.12741 264.02750 266.64822 269.01407 271.10855 272.94058 274.57837
 276.10437 277.56140 278.93530 280.24997 281.42963 282.48907 283.47952 284.39517
 285.27829 286.06470 286.75168 287.62717
 366.78100 356.33698 345.77097 334.63895 323.04394 311.23992 299.11191 286.91689
 274.63088 262.52986 250.54085 239.84383 229.96782 221.07380 213.25779 206.26177
 200.09776 195.03774 191.62173 189.66571 188.70470 188.77068 189.60767 190.91765
 192.64464 194.74162 197.00661 199.36759 201.81458 204.29656 206.38655 208.23053
 209.85852 211.00550 211.23649 211.46647 211.40546 211.11244 210.74743 210.37941
 209.99840 209.71038 209.52037 209.38635 209.31634 209.64932 210.03731 210.42829
 211.22328 212.40326 213.65525 215.44023 217.37022 219.41520 221.51219 223.59717
 225.65916 227.74514 229.84413 231.95211 234.08309 236.25708 238.51506 240.88705
 243.51003 245.76302 247.76700 249.53399 250.95297 252.07796 252.90194 253.21993
 253.25891 253.03490 252.39688 251.34687 249.95485 248.11784 246.02882 243.86381
 241.65679 239.46278 237.28476 235.12575 232.98773 230.85672 228.88470 227.04369
 225.32867 223.80266 222.43464 221.20863 220.09261 219.05460 218.16058 217.30357
 216.54755 215.72954 214.82952 214.19551 213.64749 214.30530 215.86887 218.23938
 220.37801 222.30952 223.81369 224.77382 225.61145 226.54230 227.05240 225.52568
 225.61827 228.20290 232.57478 237.10367 241.66647 246.08331 250.29124 254.20844
 257.80750 261.07526 264.00729 266.65579 269.05777 271.19678 273.06943 274.71649
 276.22104 277.62503 278.94229 280.23108 281.39951 282.44809 283.42548 284.31882
 285.14017 285.90860 286.57990 287.43536
 366.78100 356.33898 345.77496 334.64494 323.05193 311.24991 299.12389 286.93087
 274.64685 262.54783 250.56081 239.86580 229.99178 221.09976 213.28574 206.29172
 200.12970 195.07168 191.65766 189.70365 188.74463 188.81261 189.65159 190.96357
 192.69255 194.79153 197.05852 199.42150 201.87048 204.35446 206.44644 208.29242
 209.92240 211.07139 211.30437 211.53635 211.47733 211.18631 210.82329 210.45727
 210.07825 209.79224 209.60422 209.47220 209.40418 209.73916 210.12914 210.52212
 211.31911 212.50109 213.75507 215.54205 217.47403 219.52101 221.61999 223.70698
 225.77096 227.85894 229.95992 232.06990 234.20288 236.37886 238.63885 241.01283
 243.63781 245.89279 247.89877 249.66775 251.08873 252.21571 253.04170 253.36168
 253.40266 253.18064 252.54462 251.49660 250.10658 248.27157 246.18455 244.02153
 241.81651 239.62449 237.44847 235.29145 233.15544 231.02642 229.05640 227.21738
 225.50436 223.98034 222.61432 221.39031 220.27629 219.24027 218.34825 217.49323
 216.73921 215.92319 215.02517 214.39316 213.84714 214.42787 215.79993 218.26430
 220.52306 222.35179 223.69154 224.69031 225.76419 226.68147 227.02936 225.57129
 225.61258 228.22452 232.53836 237.05075 241.57983 245.97923 250.18619 254.12181
 257.75476 261.05988 264.01776 266.67786 269.09692 271.27274 273.17819 274.83981
 276.33890 277.72330 279.00858 280.24054 281.38763 282.43393 283.40649 284.29050
 285.07431 285.81012 286.47464 287.32150
 366.78100 356.33974 345.77648 334.64722 323.05497 311.25371 299.12845 286.93619
 274.65293 262.55467 250.56842 239.87416 230.00090 221.10964 213.29638 206.30312
 200.14187 195.08461 191.67135 189.71809 188.75983 188.82857 189.66831 190.98106
 192.71080 194.81054 197.07828 199.44202 201.89176 204.37651 206.46925 208.31599
 209.94673 211.09647 211.33021 211.56295 211.50470 211.21444 210.85218 210.48692
 210.10866 209.82340 209.63615 209.50489 209.43763 209.77337 210.16411 210.55785
 211.35560 212.53834 213.79308 215.58082 217.51356 219.56130 221.66104 223.74879
 225.81353 227.90227 230.00401 232.11475 234.24849 236.42524 238.68598 241.06072
 243.68646 245.94220 247.94894 249.71869 251.14043 252.26817 253.09491 253.41565
 253.45739 253.23613 252.60088 251.55362 250.16436 248.33010 246.24384 244.08158
 241.87733 239.68607 237.51081 235.35455 233.21929 231.09103 229.12177 227.28352
 225.57126 224.04800 222.68274 221.45948 220.34622 219.31097 218.41971 217.56545
 216.81219 215.99693 215.09967 214.46842 213.92316 214.48450 215.81075 218.29068
 220.56865 222.36078 223.69768 224.69536 225.75410 226.68344 227.03197 225.68394
 225.64116 228.22882 232.49789 237.00044 241.49944 245.88289 250.09091 254.04155
 257.69965 261.03265 264.01102 266.67435 269.10080 271.29700 273.21021 274.87399
 276.38126 277.76923 279.05124 280.26245 281.40457 282.45023 283.42725 284.30667
 285.06451 285.76141 286.41925 287.25757
 366.78100 356.33967 345.77634 334.64701 323.05468 311.25335 299.12802 286.93568
 274.65235 262.55402 250.56769 239.87336 230.00003 221.10870 213.29537 206.30204
 200.14071 195.08338 191.67005 189.71672 188.75838 188.82705 189.66672 190.97939
 192.70906 194.80873 197.07640 199.44007 201.88974 204.37441 206.46708 208.31375
 209.94442 211.09408 211.32775 211.56042 211.50209 211.21176 210.84943 210.48410
 210.10577 209.82044 209.63311 209.50178 209.43445 209.77012 210.16079 210.55445
 211.35212 212.53479 213.78946 215.57713 217.50980 219.55747 221.65714 223.74481
 225.80948 227.89815 229.99982 232.11049 234.24415 236.42082 238.68149 241.05616
 243.68183 245.93750 247.94417 249.71384 251.13551 252.26318 253.08985 253.41052
 253.45219 253.23085 252.59552 251.54819 250.15886 248.32453 246.23820 244.07587
 241.87154 239.68021 237.50488 235.34855 233.21322 231.08489 229.11555 227.27722
 225.56489 224.04156 222.67623 221.45290 220.33957 219.30424 218.41291 217.55858
 216.80525 215.98992 215.09259 214.46125 213.91592 214.49373 215.85886 218.34294
 220.55307 222.32448 223.71909 224.70430 225.65535 226.63257 227.12083 225.84813
 225.69781 228.22572 232.45428 236.94980 241.42055 245.79697 250.01552 253.98776
 257.66992 261.02136 264.00983 266.66824 269.09454 271.30634 273.22653 274.88306
 276.39099 277.78738 279.07404 280.28214 281.44028 282.48923 283.46396 284.35760
 285.14783 285.84595 286.47787 287.29651
 366.78100 356.33993 345.77686 334.64779 323.05572 311.25466 299.12959 286.93752
 274.65445 262.55638 250.57031 239.87624 230.00317 221.11211 213.29904 206.30597
 200.14490 195.08783 191.67476 189.72169 188.76362 188.83256 189.67249 190.98542
 192.71535 194.81528 197.08321 199.44714 201.89707 204.38201 206.47494 208.32187
 209.95280 211.10273 211.33666 211.56959 211.51152 211.22146 210.85939 210.49432
 210.11625 209.83118 209.64411 209.51304 209.44597 209.78191 210.17284 210.56677
 211.36470 212.54763 213.80256 215.59049 217.52342 219.57136 221.67129 223.75922
 225.82415 227.91308 230.01501 232.12594 234.25987 236.43681 238.69774 241.07267
 243.69860 245.95453 247.96146 249.73139 251.15332 252.28126 253.10819 253.42912
 253.47105 253.24998 252.61491 251.56784 250.17877 248.34471 246.25864 244.09657
 241.89250 239.70143 237.52636 235.37029 233.23522 231.10715 229.13809 227.30002
 225.58795 224.06488 222.69981 221.47674 220.36367 219.32860 218.43754 217.58347
 216.83040 216.01533 215.11826 214.48719 213.94212 214.52127 215.88962 218.37247
 220.58893 222.29129 223.65149 224.62341 225.52069 226.54846 227.20598 226.04372
 225.81398 228.23074 232.43126 236.91650 241.36296 245.73743 249.97418 253.97722
 257.69800 261.08554 264.08792 266.72650 269.13251 271.34421 273.24115 274.87860
 276.38449 277.78040 279.07339 280.32294 281.49823 282.55396 283.53638 284.43979
 285.24326 285.95016 286.58514 287.40076
 366.78100 356.34110 345.77919 334.65129 323.06038 311.26048 299.13658 286.94567
 274.66377 262.56687 250.58196 239.88906 230.01715 221.12725 213.31535 206.32344
 200.16354 195.10764 191.69573 189.74383 188.78692 188.85702 189.69812 191.01221
 192.74331 194.84441 197.11350 199.47860 201.92969 204.41579 206.50989 208.35798
 209.99008 211.14118 211.37627 211.61037 211.55346 211.26456 210.90366 210.53975
 210.16285 209.87895 209.69304 209.56314 209.49723 209.83433 210.22643 210.62152
 211.42062 212.60472 213.86081 215.64991 217.58400 219.63310 221.73420 223.82329
 225.88939 227.97949 230.08258 232.19468 234.32977 236.50787 238.76997 241.14606
 243.77316 246.03026 248.03835 249.80945 251.23254 252.36164 253.18974 253.51183
 253.55493 253.33503 252.70112 251.65522 250.26731 248.43441 246.34951 244.18860
 241.98570 239.79580 237.62189 235.46699 233.33308 231.20618 229.23828 227.40137
 225.69047 224.16857 222.80466 221.58276 220.47085 219.43695 218.54705 217.69414
 216.94224 216.12834 215.23243 214.60253 214.05862 214.60034 215.88020 218.35268
 220.67027 222.32864 223.57895 224.49309 225.34781 226.40561 227.22610 226.19919
 225.94006 228.26692 232.43321 236.91095 241.33916 245.70927 249.96016 253.99313
 257.75964 261.20306 264.25314 266.89563 269.28027 271.48953 273.37308 274.97195
 276.43851 277.81436 279.09836 280.35803 281.52985 282.57800 283.53763 284.43085
 285.23947 285.98178 286.64297 287.48557
 366.78100 356.34252 345.78205 334.65557 323.06610 311.26762 299.14514 286.95567
 274.67519 262.57972 250.59624 239.90477 230.03429 221.14581 213.33534 206.34486
 200.18639 195.13191 191.72143 189.77096 188.81548 188.88701 189.72953 191.04506
 192.77758 194.88010 197.15063 199.51715 201.96968 204.45720 206.55272 208.40225
 210.03577 211.18830 211.42482 211.66035 211.60487 211.31739 210.95792 210.59544
 210.21997 209.93749 209.75301 209.62454 209.56006 209.89859 210.29211 210.68864
 211.48916 212.67468 213.93221 215.72273 217.65826 219.70878 221.81130 223.90183
 225.96935 228.06088 230.16540 232.27893 234.41545 236.59497 238.85850 241.23602
 243.86455 246.12307 248.13259 249.90512 251.32964 252.46017 253.28969 253.61322
 253.65774 253.43926 252.80679 251.76231 250.37584 248.54436 246.46088 244.30141
 242.09993 239.91146 237.73898 235.58551 233.45303 231.32755 229.36108 227.52560
 225.81613 224.29565 222.93317 221.71270 220.60222 219.56975 218.68127 217.82980
 217.07932 216.26684 215.37237 214.74389 214.20142 214.69490 215.86081 218.33470
 220.71759 222.41922 223.63411 224.45773 225.22997 226.25150 227.14085 226.26611
 226.01866 228.30673 232.41812 236.89967 241.31830 245.68033 249.93857 253.98915
 257.78561 261.27127 264.37231 267.04886 269.44974 271.69019 273.59418 275.15900
 276.56784 277.91214 279.16028 280.37671 281.53894 282.58182 283.53943 284.42029
 285.23825 285.97556 286.62366 287.46039
 366.78100 356.34270 345.78239 334.65609 323.06678 311.26848 299.14617 286.95687
 274.67657 262.58126 250.59796 239.90665 230.03635 221.14804 213.33774 206.34744
 200.18913 195.13483 191.72452 189.77422 188.81891 188.89061 189.73330 191.04900
 192.78170 194.88439 197.15509 199.52178 201.97448 204.46217 206.55787 208.40757
 210.04126 211.19396 211.43065 211.66635 211.61104 211.32374 210.96444 210.60213
 210.22683 209.94452 209.76022 209.63191 209.56761 209.90631 210.30000 210.69670
 211.49739 212.68309 213.94078 215.73148 217.66717 219.71787 221.82057 223.91126
 225.97896 228.07065 230.17535 232.28904 234.42574 236.60544 238.86913 241.24683
 243.87552 246.13422 248.14391 249.91661 251.34131 252.47200 253.30170 253.62539
 253.67009 253.45178 252.81948 251.77518 250.38887 248.55757 246.47426 244.31496
 242.11365 239.92535 237.75304 235.59974 233.46744 231.34213 229.37583 227.54052
 225.83122 224.31091 222.94861 221.72831 220.61800 219.58570 218.69739 217.84609
 217.09578 216.28348 215.38918 214.76087 214.21857 214.72179 215.91071 218.33679
 220.65782 222.43300 223.72758 224.51822 225.22420 226.20512 227.08418 226.27281
 226.01697 228.30089 232.37361 236.85417 241.26205 245.62347 249.88983 253.95372
 257.76913 261.27292 264.39020 267.07172 269.49332 271.75690 273.67703 275.25531
 276.66245 277.98801 279.22235 280.41974 281.57455 282.62198 283.58142 284.46094
 285.27460 286.02896 286.66931 287.51083
 366.78100 356.34172 345.78044 334.65317 323.06289 311.26361 299.14033 286.95006
 274.66878 262.57250 250.58822 239.89595 230.02467 221.13539 213.32411 206.33284
 200.17356 195.11828 191.70700 189.75573 188.79945 188.87017 189.71189 191.02662
 192.75834 194.86006 197.12978 199.49551 201.94723 204.43395 206.52867 208.37740
 210.01012 211.16184 211.39756 211.63229 211.57601 211.28773 210.92745 210.56418
 210.18790 209.90462 209.71934 209.59007 209.52479 209.86251 210.25523 210.65096
 211.45068 212.63540 213.89212 215.68185 217.61657 219.66629 221.76801 223.85774
 225.92446 228.01518 230.11890 232.23163 234.36735 236.54607 238.80879 241.18552
 243.81324 246.07096 248.07968 249.85141 251.27513 252.40485 253.23357 253.55629
 253.60002 253.38074 252.74746 251.70218 250.31491 248.48263 246.39835 244.23807
 242.03580 239.84652 237.67324 235.51896 233.38569 231.25941 229.29213 227.45585
 225.74558 224.22430 222.86102 221.63974 220.52847 219.49519 218.60591 217.75363
 217.00236 216.18908 215.29380 214.66452 214.12125 214.68343 216.01163 218.35419
 220.57565 222.34760 223.70702 224.52690 225.24129 226.23602 227.12866 226.34578
 226.06935 228.29457 232.32906 236.79965 241.19901 245.56000 249.83936 253.91853
 257.75153 261.26791 264.38605 267.04907 269.47031 271.74222 273.64935 275.23325
 276.66516 278.00095 279.23984 280.46143 281.62640 282.67834 283.64172 284.52878
 285.34415 286.09647 286.74179 287.58371
 366.78100 356.34133 345.77965 334.65198 323.06131 311.26164 299.13796 286.94729
 274.66562 262.56894 250.58427 239.89160 230.01993 221.13025 213.31858 206.32691
 200.16723 195.11156 191.69989 189.74822 188.79154 188.86187 189.70320 191.01752
 192.74885 194.85018 197.11950 199.48483 201.93616 204.42249 206.51681 208.36514
 209.99747 211.14879 211.38412 211.61845 211.56178 211.27310 210.91243 210.54876
 210.17208 209.88841 209.70274 209.57307 209.50739 209.84472 210.23705 210.63237
 211.43170 212.61603 213.87236 215.66168 217.59601 219.64534 221.74666 223.83599
 225.90232 227.99265 230.09597 232.20830 234.34363 236.52195 238.78428 241.16061
 243.78793 246.04526 248.05359 249.82492 251.24824 252.37757 253.20590 253.52822
 253.57155 253.35188 252.71821 251.67253 250.28486 248.45219 246.36751 244.20684
 242.00417 239.81450 237.64082 235.48615 233.35248 231.22580 229.25813 227.42146
 225.71079 224.18911 222.82544 221.60377 220.49209 219.45842 218.56875 217.71608
 216.96440 216.15073 215.25506 214.62538 214.08171 214.67285 216.06950 218.37393
 220.57159 222.29527 223.61961 224.43721 225.16855 226.21284 227.17747 226.48318
 226.18997 228.32054 232.30588 236.76555 241.15387 245.52483 249.81223 253.90173
 257.74649 261.27048 264.39215 267.04639 269.46957 271.74518 273.63052 275.20755
 276.66190 278.01526 279.25873 280.50732 281.67999 282.73209 283.69876 284.58795
 285.40558 286.15497 286.80359 287.64548
 366.78100 356.34195 345.78091 334.65386 323.06382 311.26477 299.14173 286.95168
 274.67064 262.57459 250.59055 239.89850 230.02745 221.13841 213.32736 206.33632
 200.17727 195.12223 191.71118 189.76014 188.80409 188.87505 189.71700 191.03195
 192.76391 194.86586 197.13582 199.50177 201.95373 204.44068 206.53564 208.38459
 210.01755 211.16950 211.40545 211.64041 211.58436 211.29632 210.93627 210.57323
 210.19718 209.91414 209.72909 209.60005 209.53500 209.87295 210.26591 210.66186
 211.46182 212.64677 213.90373 215.69368 217.62864 219.67859 221.78055 223.87050
 225.93745 228.02841 230.13236 232.24532 234.38127 236.56023 238.82318 241.20014
 243.82809 246.08605 248.09500 249.86695 251.29091 252.42086 253.24982 253.57277
 253.61673 253.39768 252.76464 251.71959 250.33255 248.50050 246.41645 244.25641
 242.05436 239.86532 237.69227 235.53823 233.40518 231.27914 229.31209 227.47605
 225.76600 224.24495 222.88191 221.66086 220.54982 219.51677 218.62773 217.77568
 217.02464 216.21159 215.31655 214.68750 214.14445 214.71790 216.07274 218.36766
 220.61937 222.32491 223.57071 224.31827 225.01320 226.08733 227.15962 226.61554
 226.33907 228.37114 232.30106 236.75552 241.15028 245.51947 249.80995 253.90247
 257.74628 261.26611 264.38376 267.03378 269.46939 271.75952 273.62842 275.18478
 276.64880 278.01971 279.27356 280.55026 281.72617 282.78033 283.74860 284.63745
 285.45651 286.20520 286.85501 287.69955
 366.78100 356.34272 345.78244 334.65617 323.06689 311.26861 299.14633 286.95706
 274.67678 262.58150 250.59822 239.90695 230.03667 221.14839 213.33811 206.34784
 200.18956 195.13528 191.72500 189.77473 188.81945 188.89117 189.73389 191.04961
 192.78234 194.88506 197.15578 199.52250 201.97523 204.46295 206.55867 208.40839
 210.04212 211.19484 211.43156 211.66728 211.61201 211.32473 210.96545 210.60317
 210.22789 209.94562 209.76134 209.63306 209.56878 209.90751 210.30123 210.69795
 211.49867 212.68440 213.94212 215.73284 217.66856 219.71929 221.82201 223.91273
 225.98045 228.07218 230.17690 232.29062 234.42734 236.60706 238.87079 241.24851
 243.87723 246.13595 248.14568 249.91840 251.34312 252.47384 253.30357 253.62729
 253.67201 253.45373 252.82146 251.77718 250.39090 248.55962 246.47635 244.31707
 242.11579 239.92751 237.75523 235.60196 233.46968 231.34440 229.37812 227.54285
 225.83357 224.31329 222.95101 221.73074 220.62046 219.58818 218.69990 217.84863
 217.09835 216.28607 215.39179 214.76351 214.22124 214.77161 216.07188 218.34676
 220.64629 222.37697 223.57616 224.23102 224.84633 225.90808 227.07503 226.71173
 226.49426 228.44319 232.31628 236.77423 241.17215 245.54132 249.83502 253.92238
 257.75400 261.25610 264.35687 267.00122 269.45309 271.75949 273.62100 275.16309
 276.62631 278.01001 279.27945 280.58673 281.76801 282.82300 283.79208 284.68158
 285.50064 286.24750 286.89951 287.74835
 366.78100 356.34302 345.78303 334.65705 323.06807 311.27008 299.14810 286.95912
 274.67913 262.58415 250.60117 239.91018 230.04020 221.15222 213.34223 206.35225
 200.19426 195.14028 191.73030 189.78031 188.82533 188.89735 189.74036 191.05638
 192.78940 194.89241 197.16343 199.53045 201.98346 204.47148 206.56750 208.41751
 210.05153 211.20455 211.44156 211.67758 211.62260 211.33561 210.97663 210.61465
 210.23966 209.95768 209.77370 209.64571 209.58173 209.92075 210.31476 210.71178
 211.51279 212.69881 213.95683 215.74784 217.68386 219.73488 221.83789 223.92891
 225.99693 228.08894 230.19396 232.30798 234.44499 236.62501 238.88903 241.26704
 243.89606 246.15508 248.16509 249.93811 251.36313 252.49414 253.32416 253.64818
 253.69319 253.47521 252.84323 251.79924 250.41326 248.58228 246.49929 244.34031
 242.13932 239.95134 237.77936 235.62637 233.49439 231.36941 229.40342 227.56844
 225.85946 224.33947 222.97749 221.75751 220.64752 219.61554 218.72756 217.87657
 217.12659 216.31461 215.42062 214.79264 214.25066 214.79965 216.09673 218.33481
 220.62761 222.40851 223.61082 224.18544 224.70198 225.71893 226.95477 226.75934
 226.62248 228.51740 232.33818 236.81195 241.22142 245.58986 249.88434 253.96068
 257.77121 261.24695 264.32294 266.96002 269.42630 271.74109 273.59988 275.14081
 276.60214 277.99200 279.28503 280.61365 281.79956 282.85568 283.82724 284.71756
 285.53595 286.28156 286.93277 287.78610
 366.78100 356.34299 345.78297 334.65696 323.06794 311.26993 299.14792 286.95890
 274.67889 262.58387 250.60086 239.90984 230.03983 221.15182 213.34180 206.35179
 200.19377 195.13976 191.72975 189.77973 188.82472 188.89670 189.73969 191.05568
 192.78866 194.89165 197.16263 199.52962 201.98260 204.47059 206.56658 208.41656
 210.05055 211.20353 211.44052 211.67651 211.62149 211.33448 210.97546 210.61345
 210.23844 209.95642 209.77241 209.64439 209.58038 209.91937 210.31335 210.71034
 211.51132 212.69731 213.95529 215.74628 217.68227 219.73325 221.83624 223.92722
 225.99521 228.08720 230.19218 232.30617 234.44315 236.62314 238.88713 241.26511
 243.89410 246.15308 248.16307 249.93605 251.36104 252.49203 253.32201 253.64600
 253.69098 253.47297 252.84096 251.79694 250.41093 248.57991 246.49690 244.33789
 242.13687 239.94886 237.77684 235.62383 233.49181 231.36680 229.40079 227.56577
 225.85676 224.33674 222.97473 221.75472 220.64470 219.61269 218.72467 217.87366
 217.12365 216.31163 215.41762 214.78960 214.24759 214.80943 216.13689 218.33209
 220.59256 222.41800 223.64363 224.16583 224.58951 225.53145 226.79637 226.77936
 226.75073 228.59618 232.36133 236.85471 241.28937 245.65721 249.94737 254.00865
 257.79315 261.23956 264.29001 266.92285 269.39886 271.71576 273.57303 275.11862
 276.58185 277.97412 279.29462 280.63361 281.82144 282.88080 283.85324 284.74655
 285.56281 286.30823 286.95767 287.81906
 366.78100 356.34294 345.78289 334.65683 323.06778 311.26972 299.14767 286.95861
 274.67856 262.58350 250.60044 239.90939 230.03933 221.15128 213.34122 206.35117
 200.19311 195.13905 191.72900 189.77894 188.82389 188.89583 189.73878 191.05472
 192.78767 194.89061 197.16155 199.52850 201.98144 204.46939 206.56533 208.41528
 210.04922 211.20216 211.43911 211.67505 211.62000 211.33294 210.97389 210.61183
 210.23678 209.95472 209.77066 209.64261 209.57855 209.91750 210.31144 210.70839
 211.50933 212.69527 213.95322 215.74416 217.68011 219.73105 221.83400 223.92494
 225.99289 228.08483 230.18977 232.30372 234.44066 236.62061 238.88455 241.26250
 243.89144 246.15039 248.16033 249.93327 251.35822 252.48916 253.31911 253.64305
 253.68800 253.46994 252.83788 251.79383 250.40777 248.57672 246.49366 244.33461
 242.13355 239.94550 237.77344 235.62038 233.48833 231.36327 229.39722 227.56216
 225.85311 224.33305 222.97099 221.75094 220.64088 219.60883 218.72077 217.86972
 217.11966 216.30761 215.41355 214.78549 214.24344 214.81810 216.17578 218.32414
 220.56915 222.43304 223.66322 224.12779 224.46800 225.35098 226.64452 226.77817
 226.85855 228.67737 232.38788 236.90617 241.35727 245.73239 250.02194 254.06752
 257.82214 261.23605 264.26208 266.89322 269.37793 271.69348 273.54758 275.09949
 276.56451 277.95761 279.30264 280.64835 281.83826 282.89648 283.87097 284.76416
 285.57983 286.32370 286.97479 287.83319
 366.78100 356.34288 345.78277 334.65665 323.06753 311.26942 299.14730 286.95818
 274.67806 262.58295 250.59983 239.90871 230.03860 221.15048 213.34036 206.35025
 200.19213 195.13801 191.72789 189.77778 188.82266 188.89454 189.73743 191.05331
 192.78619 194.88908 197.15996 199.52684 201.97973 204.46761 206.56349 208.41337
 210.04726 211.20014 211.43702 211.67291 211.61779 211.33067 210.97156 210.60944
 210.23432 209.95220 209.76809 209.63997 209.57585 209.91474 210.30862 210.70550
 211.50639 212.69227 213.95015 215.74104 217.67692 219.72780 221.83068 223.92157
 225.98945 228.08133 230.18622 232.30010 234.43698 236.61687 238.88075 241.25863
 243.88752 246.14640 248.15628 249.92916 251.35405 252.48493 253.31481 253.63870
 253.68358 253.46546 252.83335 251.78923 250.40311 248.57199 246.48888 244.32976
 242.12864 239.94053 237.76841 235.61529 233.48318 231.35806 229.39194 227.55683
 225.84771 224.32759 222.96547 221.74536 220.63524 219.60312 218.71501 217.86389
 217.11377 216.30166 215.40754 214.77942 214.23730 214.82599 216.21686 218.30771
 220.54468 222.46266 223.70419 224.09311 224.32864 225.12512 226.44139 226.80988
 227.01761 228.75687 232.41833 236.96413 241.43762 245.82480 250.11218 254.13779
 257.85654 261.23422 264.23309 266.86465 269.35840 271.67117 273.52136 275.07709
 276.54614 277.94580 279.30823 280.65738 281.84763 282.90952 283.88330 284.77588
 285.59372 286.33673 286.98691 287.86218
 366.78100 356.34281 345.78261 334.65642 323.06722 311.26903 299.14683 286.95764
 274.67744 262.58225 250.59906 239.90786 230.03767 221.14947 213.33928 206.34908
 200.19089 195.13669 191.72650 189.77631 188.82111 188.89292 189.73572 191.05153
 192.78433 194.88714 197.15794 199.52475 201.97755 204.46536 206.56117 208.41097
 210.04478 211.19758 211.43439 211.67019 211.61500 211.32780 210.96861 210.60642
 210.23122 209.94903 209.76483 209.63664 209.57244 209.91125 210.30505 210.70186
 211.50267 212.68847 213.94628 215.73708 217.67289 219.72369 221.82650 223.91730
 225.98511 228.07692 230.18172 232.29553 234.43233 236.61214 238.87594 241.25375
 243.88255 246.14136 248.15117 249.92397 251.34878 252.47958 253.30939 253.63319
 253.67800 253.45980 252.82761 251.78341 250.39722 248.56603 246.48283 244.32364
 242.12244 239.93425 237.76205 235.60886 233.47666 231.35147 229.38528 227.55008
 225.84089 224.32069 222.95850 221.73830 220.62811 219.59591 218.70772 217.85653
 217.10633 216.29414 215.39994 214.77175 214.22955 214.83302 216.25879 218.29533
 220.50699 222.47971 223.75925 224.08908 224.21541 224.90178 226.21449 226.80267
 227.14551 228.83340 232.45393 237.03793 241.53371 245.93030 250.21188 254.21442
 257.89389 261.23053 264.20129 266.83609 269.33850 271.64725 273.49274 275.05228
 276.52676 277.93820 279.31015 280.66190 281.85364 282.91605 283.89093 284.78256
 285.59888 286.34177 286.99112 287.86459
 366.78100 356.34283 345.78266 334.65649 323.06732 311.26915 299.14698 286.95781
 274.67764 262.58247 250.59930 239.90813 230.03796 221.14979 213.33962 206.34945
 200.19128 195.13711 191.72694 189.77677 188.82160 188.89343 189.73626 191.05209
 192.78492 194.88775 197.15858 199.52541 201.97824 204.46607 206.56190 208.41173
 210.04556 211.19839 211.43522 211.67105 211.61588 211.32871 210.96954 210.60737
 210.23220 209.95003 209.76586 209.63769 209.57352 209.91235 210.30618 210.70301
 211.50384 212.68967 213.94750 215.73833 217.67416 219.72499 221.82782 223.91865
 225.98648 228.07831 230.18314 232.29697 234.43380 236.61363 238.87746 241.25529
 243.88412 246.14295 248.15278 249.92561 251.35044 252.48127 253.31110 253.63493
 253.67976 253.46159 252.82942 251.78525 250.39908 248.56791 246.48474 244.32557
 242.12440 239.93623 237.76406 235.61089 233.47872 231.35355 229.38738 227.55221
 225.84304 224.32287 222.96070 221.74053 220.63036 219.59819 218.71001 217.85884
 217.10867 216.29650 215.40233 214.77416 214.23199 214.84541 216.29471 218.28987
 220.46873 222.47780 223.79791 224.09029 224.12312 224.70461 226.00546 226.75632
 227.21727 228.89922 232.50360 237.11084 241.63535 246.04617 250.32027 254.29678
 257.93600 261.23126 264.17520 266.81238 269.32196 271.62527 273.46841 275.02899
 276.51022 277.92953 279.30783 280.66119 281.85266 282.91556 283.88940 284.78168
 285.59625 286.33298 286.98315 287.85400
 366.78100 356.34294 345.78289 334.65683 323.06777 311.26972 299.14766 286.95860
 274.67855 262.58349 250.60043 239.90938 230.03932 221.15127 213.34121 206.35115
 200.19310 195.13904 191.72898 189.77893 188.82387 188.89581 189.73876 191.05470
 192.78764 194.89059 197.16153 199.52847 201.98142 204.46936 206.56530 208.41525
 210.04919 211.20213 211.43908 211.67502 211.61996 211.33291 210.97385 210.61180
 210.23674 209.95468 209.77063 209.64257 209.57851 209.91746 210.31140 210.70834
 211.50929 212.69523 213.95317 215.74412 217.68006 219.73100 221.83395 223.92489
 225.99283 228.08478 230.18972 232.30366 234.44061 236.62055 238.88450 241.26244
 243.89138 246.15033 248.16027 249.93321 251.35816 252.48910 253.31904 253.64299
 253.68793 253.46987 252.83782 251.79376 250.40770 248.57665 246.49359 244.33453
 242.13348 239.94542 237.77336 235.62031 233.48825 231.36320 229.39714 227.56208
 225.85303 224.33297 222.97091 221.75086 220.64080 219.60874 218.72069 217.86963
 217.11957 216.30752 215.41346 214.78540 214.24335 214.86336 216.32820 218.28345
 220.43669 222.47188 223.81946 224.08105 224.03059 224.51918 225.81673 226.68021
 227.24631 228.96869 232.56122 237.18552 241.74727 246.17104 250.43442 254.38435
 257.98413 261.23874 264.15710 266.79639 269.31076 271.60791 273.44739 275.00970
 276.49780 277.91934 279.30350 280.65680 281.84839 282.91010 283.88422 284.77512
 285.58652 286.32321 286.97104 287.83719
 366.78100 356.34305 345.78309 334.65714 323.06818 311.27023 299.14827 286.95932
 274.67936 262.58441 250.60145 239.91050 230.04054 221.15259 213.34263 206.35268
 200.19472 195.14077 191.73081 189.78086 188.82590 188.89795 189.74100 191.05704
 192.79009 194.89313 197.16418 199.53122 201.98427 204.47231 206.56836 208.41840
 210.05245 211.20549 211.44254 211.67858 211.62363 211.33667 210.97772 210.61576
 210.24081 209.95886 209.77490 209.64695 209.58299 209.92204 210.31608 210.71313
 211.51417 212.70022 213.95826 215.74931 217.68535 219.73640 221.83944 223.93049
 225.99853 228.09058 230.19562 232.30967 234.44671 236.62676 238.89081 241.26885
 243.89790 246.15694 248.16699 249.94003 251.36508 252.49612 253.32617 253.65021
 253.69526 253.47730 252.84535 251.80139 250.41544 248.58448 246.50153 244.34257
 242.14162 239.95367 237.78171 235.62876 233.49680 231.37185 229.40589 227.57094
 225.86198 224.34203 222.98007 221.76012 220.65016 219.61821 218.73025 217.87930
 217.12934 216.31739 215.42343 214.79548 214.25352 214.88155 216.36533 218.27376
 220.40236 222.46461 223.83578 224.06837 223.93564 224.33376 225.63075 226.56612
 227.24054 229.05519 232.64719 237.26537 241.86482 246.30110 250.55197 254.47577
 258.03729 261.25323 264.14850 266.78934 269.30493 271.59576 273.43118 274.99454
 276.48630 277.90829 279.29630 280.64920 281.84097 282.90259 283.87469 284.76453
 285.57391 286.30624 286.95218 287.81766
 366.78100 356.34310 345.78319 334.65729 323.06839 311.27049 299.14858 286.95968
 274.67978 262.58488 250.60197 239.91107 230.04117 221.15326 213.34336 206.35346
 200.19556 195.14165 191.73175 189.78185 188.82695 188.89904 189.74214 191.05824
 192.79133 194.89443 197.16553 199.53263 201.98572 204.47382 206.56992 208.42002
 210.05411 211.20721 211.44431 211.68040 211.62550 211.33860 210.97970 210.61779
 210.24289 209.96099 209.77709 209.64918 209.58528 209.92438 210.31847 210.71557
 211.51667 212.70277 213.96086 215.75196 217.68806 219.73916 221.84225 223.93335
 226.00145 228.09354 230.19864 232.31274 234.44984 236.62993 238.89403 241.27213
 243.90123 246.16032 248.17042 249.94352 251.36862 252.49971 253.32981 253.65391
 253.69900 253.48110 252.84920 251.80530 250.41939 248.58849 246.50559 244.34669
 242.14578 239.95788 237.78598 235.63307 233.50117 231.37627 229.41037 227.57546
 225.86656 224.34666 222.98476 221.76485 220.65495 219.62305 218.73514 217.88424
 217.13434 216.32244 215.42853 214.80063 214.25873 214.89740 216.40631 218.26572
 220.36082 222.44678 223.84639 224.05824 223.84755 224.15289 225.43719 226.41739
 227.21133 229.15585 232.75217 237.35727 241.98941 246.43440 250.67017 254.56726
 258.09253 261.27374 264.14819 266.79099 269.30591 271.58969 273.42157 274.98486
 276.47794 277.89737 279.29196 280.64667 281.83719 282.89682 283.86865 284.75647
 285.56369 286.29391 286.93842 287.79907
 366.78100 356.34318 345.78336 334.65754 323.06872 311.27089 299.14907 286.96025
 274.68043 262.58561 250.60279 239.91197 230.04215 221.15433 213.34450 206.35468
 200.19686 195.14304 191.73322 189.78340 188.82858 188.90076 189.74394 191.06012
 192.79329 194.89647 197.16765 199.53483 201.98801 204.47619 206.57237 208.42255
 210.05673 211.20990 211.44708 211.68326 211.62844 211.34162 210.98280 210.62098
 210.24616 209.96434 209.78051 209.65269 209.58887 209.92805 210.32223 210.71941
 211.52059 212.70677 213.96495 215.75612 217.69230 219.74348 221.84666 223.93784
 226.00602 228.09820 230.20338 232.31756 234.45473 236.63491 238.89909 241.27727
 243.90645 246.16563 248.17581 249.94899 251.37417 252.50535 253.33552 253.65970
 253.70488 253.48706 252.85524 251.81142 250.42560 248.59478 246.51196 244.35313
 242.15231 239.96449 237.79267 235.63985 233.50803 231.38321 229.41739 227.58257
 225.87374 224.35392 222.99210 221.77228 220.66246 219.63064 218.74282 217.89200
 217.14218 216.33035 215.43653 214.80871 214.26689 214.91472 216.44528 218.26390
 220.31653 222.41376 223.84431 224.04756 223.77254 223.98718 225.23526 226.25346
 227.17986 229.26549 232.86581 237.45868 242.11232 246.56230 250.78384 254.65665
 258.14990 261.30072 264.15863 266.80267 269.31461 271.58945 273.41721 274.97998
 276.47150 277.88843 279.29156 280.64517 281.83682 282.89471 283.86459 284.75220
 285.55664 286.28387 286.92386 287.78473
 366.78100 356.34337 345.78374 334.65811 323.06948 311.27185 299.15022 286.96159
 274.68196 262.58734 250.60471 239.91408 230.04445 221.15682 213.34719 206.35756
 200.19993 195.14630 191.73667 189.78704 188.83241 188.90478 189.74815 191.06452
 192.79789 194.90126 197.17263 199.54001 201.99338 204.48175 206.57812 208.42849
 210.06286 211.21623 211.45360 211.68997 211.63534 211.34871 210.99008 210.62845
 210.25382 209.97219 209.78856 209.66093 209.59730 209.93668 210.33105 210.72842
 211.52979 212.71616 213.97453 215.76590 217.70227 219.75364 221.85701 223.94838
 226.01675 228.10912 230.21449 232.32886 234.46623 236.64660 238.91098 241.28935
 243.91872 246.17809 248.18846 249.96183 251.38720 252.51857 253.34894 253.67331
 253.71868 253.50105 252.86942 251.82579 250.44016 248.60953 246.52690 244.36827
 242.16765 239.98002 237.80839 235.65576 233.52413 231.39950 229.43387 227.59924
 225.89061 224.37098 223.00935 221.78972 220.68009 219.64846 218.76083 217.91020
 217.16057 216.34894 215.45532 214.82769 214.28606 214.93777 216.47754 218.26675
 220.27460 222.36678 223.82274 224.03073 223.71294 223.84526 225.03001 226.09142
 227.15897 229.37323 232.97978 237.56128 242.22882 246.68330 250.89256 254.74350
 258.20892 261.33533 264.17960 266.82397 269.33008 271.59546 273.41699 274.97809
 276.46890 277.88174 279.29602 280.65179 281.84085 282.90030 283.86850 284.75385
 285.55865 286.28488 286.92740 287.78345
 366.78100 356.34370 345.78440 334.65910 323.07080 311.27350 299.15220 286.96390
 274.68460 262.59029 250.60799 239.91769 230.04839 221.16109 213.35179 206.36249
 200.20519 195.15189 191.74259 189.79329 188.83899 188.91169 189.75539 191.07209
 192.80579 194.90948 197.18118 199.54888 202.00258 204.49128 206.58798 208.43868
 210.07338 211.22708 211.46478 211.70148 211.64718 211.36088 211.00258 210.64128
 210.26698 209.98568 209.80237 209.67507 209.61177 209.95147 210.34617 210.74387
 211.54557 212.73227 213.99097 215.78267 217.71937 219.77107 221.87477 223.96647
 226.03517 228.12787 230.23356 232.34826 234.48596 236.66666 238.93136 241.31006
 243.93976 246.19946 248.21016 249.98386 251.40956 252.54126 253.37196 253.69666
 253.74236 253.52506 252.89376 251.85045 250.46515 248.63485 246.55255 244.39425
 242.19395 240.00665 237.83535 235.68305 233.55175 231.42745 229.46215 227.62785
 225.91955 224.40025 223.03895 221.81964 220.71034 219.67904 218.79174 217.94144
 217.19214 216.38084 215.48754 214.86024 214.31894 214.96857 216.50336 218.27129
 220.23636 222.31042 223.78185 224.00134 223.66457 223.72906 224.82710 225.93695
 227.15053 229.47240 233.08386 237.66129 242.34076 246.79926 250.99698 254.82812
 258.26938 261.37640 264.21118 266.85440 269.35144 271.60336 273.41733 274.97672
 276.46725 277.87964 279.31219 280.66833 281.85800 282.91583 283.88489 284.76901
 285.57455 286.30338 286.94354 287.80499
 366.78100 356.34413 345.78525 334.66038 323.07250 311.27563 299.15475 286.96688
 274.68800 262.59413 250.61225 239.92238 230.05350 221.16663 213.35775 206.36888
 200.21200 195.15913 191.75025 189.80138 188.84750 188.92063 189.76475 191.08188
 192.81600 194.92013 197.19225 199.56038 202.01450 204.50363 206.60075 208.45188
 210.08700 211.24113 211.47925 211.71638 211.66250 211.37663 211.01875 210.65788
 210.28400 210.00313 209.82025 209.69338 209.63050 209.97063 210.36576 210.76388
 211.56601 212.75313 214.01226 215.80438 217.74151 219.79363 221.89776 223.98988
 226.05901 228.15213 230.25826 232.37338 234.51151 236.69263 238.95776 241.33688
 243.96701 246.22713 248.23826 250.01238 251.43851 252.57063 253.40176 253.72688
 253.77301 253.55613 252.92526 251.88238 250.49751 248.66763 246.58576 244.42788
 242.22801 240.04113 237.87026 235.71838 233.58751 231.46363 229.49876 227.66488
 225.95701 224.43813 223.07726 221.85839 220.74951 219.71864 218.83176 217.98189
 217.23301 216.42214 215.52926 214.90239 214.36151 215.00517 216.52591 218.27591
 220.20215 222.24870 223.72208 223.95636 223.61787 223.63210 224.63692 225.78938
 227.14407 229.55876 233.17989 237.76192 242.45157 246.91096 251.09775 254.91093
 258.33154 261.42230 264.25003 266.89252 269.37595 271.61115 273.41559 274.97421
 276.46759 277.85892 279.34677 280.70987 281.89828 282.95355 283.92142 284.80487
 285.60779 286.33835 286.97928 287.84052
 366.78100 356.34459 345.78618 334.66178 323.07437 311.27796 299.15755 286.97015
 274.69174 262.59833 250.61692 239.92752 230.05911 221.17270 213.36429 206.37589
 200.21948 195.16707 191.75866 189.81025 188.85685 188.93044 189.77503 191.09262
 192.82722 194.93181 197.20440 199.57299 202.02759 204.51718 206.61477 208.46636
 210.10195 211.25655 211.49514 211.73273 211.67932 211.39392 211.03651 210.67610
 210.30269 210.02229 209.83988 209.71347 209.65106 209.99166 210.38725 210.78584
 211.58843 212.77602 214.03562 215.82821 217.76580 219.81839 221.92299 224.01558
 226.08517 228.17876 230.28536 232.40095 234.53954 236.72113 238.98672 241.36632
 243.99691 246.25750 248.26909 250.04369 251.47028 252.60287 253.43446 253.76006
 253.80665 253.59024 252.95983 251.91743 250.53302 248.70361 246.62220 244.46479
 242.26539 240.07898 237.90857 235.75716 233.62676 231.50335 229.53894 227.70553
 225.99813 224.47972 223.11931 221.90090 220.79249 219.76209 218.87568 218.02627
 217.27786 216.46746 215.57505 214.94864 214.40823 215.04408 216.54634 218.27995
 220.16867 222.18719 223.65031 223.89331 223.56604 223.54488 224.45865 225.64822
 227.13399 229.63402 233.27394 237.86697 242.56232 247.01921 251.19498 254.99295
 258.39603 261.47180 264.29517 266.93408 269.40103 271.61438 273.40805 274.96854
 276.47070 277.87653 279.38446 280.75470 281.94516 283.00232 283.97079 284.85489
 285.65884 286.39069 287.03131 287.89072
 366.78100 356.34505 345.78709 334.66314 323.07618 311.28023 299.16027 286.97332
 274.69536 262.60241 250.62145 239.93250 230.06454 221.17859 213.37064 206.38268
 200.22673 195.17477 191.76682 189.81886 188.86591 188.93995 189.78500 191.10304
 192.83809 194.94313 197.21618 199.58522 202.04027 204.53032 206.62836 208.48041
 210.11645 211.27150 211.51054 211.74859 211.69563 211.41068 211.05372 210.69377
 210.32081 210.04086 209.85891 209.73295 209.67100 210.01204 210.40809 210.80713
 211.61018 212.79822 214.05827 215.85131 217.78936 219.84240 221.94745 224.04050
 226.11054 228.20459 230.31163 232.42768 234.56672 236.74877 239.01481 241.39486
 244.02590 246.28695 248.29899 250.07404 251.50109 252.63413 253.46618 253.79222
 253.83927 253.62331 252.99336 251.95140 250.56745 248.73849 246.65754 244.50058
 242.30163 240.11567 237.94572 235.79477 233.66481 231.54186 229.57790 227.74495
 226.03799 224.52004 223.16008 221.94213 220.83417 219.80422 218.91826 218.06931
 217.32136 216.51140 215.61945 214.99349 214.45354 215.08199 216.56677 218.28008
 220.13718 222.12955 223.57689 223.81787 223.49847 223.45309 224.30116 225.51175
 227.10304 229.69531 233.37248 237.97879 242.67325 247.12415 251.29021 255.07437
 258.46136 261.52530 264.34491 266.98013 269.42712 271.61398 273.39468 274.95639
 276.47302 277.91641 279.43298 280.80673 282.00110 283.05981 284.02872 284.91269
 285.71695 286.44659 287.08759 287.93695
 366.78100 356.34540 345.78780 334.66419 323.07759 311.28199 299.16239 286.97579
 274.69819 262.60558 250.62498 239.93638 230.06878 221.18318 213.37557 206.38797
 200.23237 195.18077 191.77317 189.82556 188.87296 188.94736 189.79276 191.11116
 192.84656 194.95195 197.22535 199.59475 202.05015 204.54055 206.63894 208.49134
 210.12774 211.28314 211.52254 211.76094 211.70833 211.42373 211.06713 210.70753
 210.33493 210.05532 209.87372 209.74812 209.68652 210.02792 210.42432 210.82371
 211.62711 212.81551 214.07591 215.86931 217.80770 219.86110 221.96650 224.05990
 226.13030 228.22469 230.33209 232.44849 234.58789 236.77029 239.03669 241.41708
 244.04848 246.30988 248.32228 250.09768 251.52507 252.65847 253.49087 253.81727
 253.86467 253.64907 253.01946 251.97786 250.59426 248.76566 246.68506 244.52845
 242.32985 240.14425 237.97465 235.82405 233.69444 231.57184 229.60824 227.77564
 226.06904 224.55144 223.19183 221.97423 220.86663 219.83703 218.95143 218.10282
 217.35522 216.54562 215.65402 215.02842 214.48882 215.11372 216.59015 218.27588
 220.10019 222.08105 223.50929 223.73903 223.42848 223.35519 224.13217 225.37256
 227.06859 229.75180 233.47646 238.09702 242.78282 247.22487 251.38258 255.15578
 258.52902 261.58313 264.40042 267.03027 269.45300 271.60797 273.37433 274.94370
 276.48029 277.96616 279.48969 280.86694 282.06189 283.12253 284.09113 284.97571
 285.78076 286.51172 287.14911 287.99500
 366.78100 356.34575 345.78850 334.66525 323.07900 311.28374 299.16449 286.97824
 274.70099 262.60874 250.62849 239.94024 230.07299 221.18773 213.38048 206.39323
 200.23798 195.18673 191.77948 189.83223 188.87998 188.95472 189.80047 191.11922
 192.85497 194.96072 197.23447 199.60422 202.05997 204.55072 206.64946 208.50221
 210.13896 211.29471 211.53446 211.77321 211.72096 211.43671 211.08045 210.72120
 210.34895 210.06970 209.88845 209.76320 209.70195 210.04370 210.44044 210.84019
 211.64394 212.83269 214.09344 215.88719 217.82594 219.87969 221.98544 224.07918
 226.14993 228.24468 230.35243 232.46918 234.60893 236.79168 239.05843 241.43917
 244.07092 246.33267 248.34542 250.12117 251.54892 252.68267 253.51542 253.84216
 253.88991 253.67466 253.04541 252.00416 250.62091 248.79266 246.71241 244.55616
 242.35790 240.17265 238.00340 235.85315 233.72390 231.60165 229.63840 227.80615
 226.09989 224.58264 223.22339 222.00614 220.89889 219.86964 218.98439 218.13614
 217.38888 216.57963 215.68838 215.06313 214.52388 215.14391 216.60878 218.28015
 220.06059 222.02243 223.44461 223.66338 223.35387 223.25690 223.99197 225.19270
 226.97546 229.81081 233.59688 238.22290 242.89474 247.32516 251.47469 255.23695
 258.59781 261.64474 264.45975 267.08167 269.47702 271.59497 273.34329 274.92087
 276.48026 278.02368 279.55710 280.93533 282.13132 283.19308 284.16104 285.04401
 285.84921 286.58008 287.22113 288.05728
 366.78100 356.34626 345.78952 334.66678 323.08103 311.28629 299.16755 286.98181
 274.70507 262.61333 250.63359 239.94584 230.07910 221.19436 213.38762 206.40088
 200.24614 195.19540 191.78865 189.84191 188.89017 188.96543 189.81169 191.13095
 192.86721 194.97346 197.24772 199.61798 202.07424 204.56550 206.66476 208.51802
 210.15528 211.31153 211.55179 211.79105 211.73931 211.45557 211.09983 210.74109
 210.36934 210.09060 209.90986 209.78512 209.72438 210.06664 210.46390 210.86415
 211.66841 212.85767 214.11893 215.91319 217.85245 219.90671 222.01296 224.10722
 226.17848 228.27374 230.38200 232.49926 234.63952 236.82277 239.09003 241.47129
 244.10355 246.36581 248.37907 250.15533 251.58358 252.71784 253.55110 253.87836
 253.92662 253.71188 253.08314 252.04239 250.65965 248.83191 246.75217 244.59643
 242.39869 240.21395 238.04520 235.89546 233.76672 231.64498 229.68224 227.85050
 226.14476 224.62802 223.26927 222.05253 220.94579 219.91705 219.03231 218.18457
 217.43783 216.62908 215.73834 215.11360 214.57486 215.18124 216.61388 218.28914
 220.03775 221.95453 223.35841 223.57338 223.27811 223.15088 223.86415 225.03691
 226.87030 229.85176 233.72375 238.35701 243.00916 247.42645 251.56883 255.32161
 258.67090 261.70972 264.51956 267.12976 269.49368 271.57056 273.30222 274.89828
 276.49649 278.07837 279.61740 280.99826 282.19632 283.25833 284.22647 285.10895
 285.91428 286.64597 287.28476 288.11694
 366.78100 356.34676 345.79052 334.66828 323.08304 311.28879 299.17055 286.98531
 274.70907 262.61783 250.63859 239.95135 230.08511 221.20087 213.39463 206.40838
 200.25414 195.20390 191.79766 189.85142 188.90018 188.97594 189.82270 191.14246
 192.87921 194.98597 197.26073 199.63149 202.08825 204.58001 206.67977 208.53353
 210.17129 211.32804 211.56880 211.80856 211.75732 211.47408 211.11884 210.76060
 210.38936 210.11112 209.93088 209.80663 209.74639 210.08915 210.48691 210.88767
 211.69243 212.88219 214.14395 215.93871 217.87846 219.93322 222.03998 224.13474
 226.20650 228.30226 230.41102 232.52878 234.66954 236.85329 239.12105 241.50281
 244.13557 246.39833 248.41209 250.18885 251.61761 252.75237 253.58613 253.91388
 253.96264 253.74840 253.12016 252.07992 250.69768 248.87044 246.79120 244.63596
 242.43871 240.25447 238.08623 235.93699 233.80875 231.68751 229.72527 227.89403
 226.18879 224.67254 223.31430 222.09806 220.99182 219.96358 219.07934 218.23210
 217.48586 216.67762 215.78738 215.16313 214.62489 215.21693 216.61569 218.28348
 220.02466 221.90729 223.27165 223.46632 223.18510 223.02849 223.74132 224.91624
 226.77609 229.87706 233.84743 238.49159 243.11945 247.52231 251.66028 255.40686
 258.74713 261.77917 264.58258 267.17725 269.50467 271.53488 273.25085 274.86874
 276.43179 278.15259 279.70584 281.08002 282.27322 283.33209 284.29834 285.17822
 285.97821 286.71002 287.34241 288.17093
 366.78100 356.34707 345.79115 334.66922 323.08429 311.29037 299.17244 286.98751
 274.71159 262.62066 250.64173 239.95481 230.08888 221.20495 213.39903 206.41310
 200.25917 195.20925 191.80332 189.85739 188.90647 188.98254 189.82961 191.14969
 192.88676 194.99383 197.26890 199.63998 202.09705 204.58912 206.68920 208.54327
 210.18134 211.33842 211.57949 211.81956 211.76864 211.48571 211.13078 210.77286
 210.40193 210.12400 209.94408 209.82015 209.76022 210.10330 210.50137 210.90244
 211.70752 212.89759 214.15966 215.95474 217.89481 219.94988 222.05696 224.15203
 226.22410 228.32018 230.42925 232.54732 234.68840 236.87247 239.14054 241.52262
 244.15569 246.41876 248.43284 250.20991 251.63898 252.77406 253.60813 253.93620
 253.98527 253.77135 253.14342 252.10349 250.72157 248.89464 246.81571 244.66079
 242.46386 240.27993 238.11201 235.96308 233.83515 231.71423 229.75230 227.92137
 226.21645 224.70052 223.34259 222.12667 221.02074 219.99281 219.10889 218.26196
 217.51603 216.70811 215.81818 215.19425 214.65633 215.24223 216.62651 218.26476
 220.00099 221.87915 223.20439 223.35777 223.07005 222.88564 223.61443 224.80826
 226.69366 229.89400 233.96675 238.62460 243.22699 247.61821 251.75414 255.49342
 258.82785 261.85080 264.64551 267.22565 269.51663 271.49780 273.19293 274.81400
 276.44168 278.19244 279.75720 281.13531 282.33011 283.38867 284.35162 285.23117
 286.03189 286.76071 287.38745 288.21494
 366.78100 356.34737 345.79174 334.67010 323.08547 311.29184 299.17421 286.98958
 274.71395 262.62331 250.64468 239.95805 230.09242 221.20879 213.40316 206.41752
 200.26389 195.21426 191.80863 189.86300 188.91236 188.98873 189.83610 191.15647
 192.89384 195.00121 197.27657 199.64794 202.10531 204.59768 206.69805 208.55241
 210.19078 211.34815 211.58952 211.82989 211.77926 211.49662 211.14199 210.78436
 210.41373 210.13610 209.95647 209.83283 209.77320 210.11657 210.51494 210.91631
 211.72167 212.91204 214.17441 215.96978 217.91015 219.96552 222.07288 224.16825
 226.24062 228.33699 230.44636 232.56472 234.70609 236.89046 239.15883 241.54120
 244.17457 246.43793 248.45230 250.22967 251.65904 252.79441 253.62878 253.95714
 254.00651 253.79288 253.16525 252.12562 250.74398 248.91735 246.83872 244.68409
 242.48746 240.30383 238.13619 235.98756 233.85993 231.73930 229.77767 227.94703
 226.24240 224.72677 223.36914 222.15351 221.04788 220.02024 219.13661 218.28998
 217.54435 216.73672 215.84709 215.22345 214.68582 215.26424 216.63080 218.24640
 219.97119 221.85698 223.15150 223.25479 222.93697 222.73088 223.47958 224.69534
 226.61185 229.91014 234.07970 238.75862 243.34177 247.72572 251.86166 255.59627
 258.90747 261.92789 264.70819 267.26263 269.50967 271.44336 273.14304 274.83786
 276.44293 278.19055 279.76059 281.14395 282.34143 283.39914 284.36115 285.23761
 286.03775 286.76880 287.39316 288.21115
 366.78100 356.34785 345.79271 334.67156 323.08742 311.29427 299.17713 286.99298
 274.71784 262.62769 250.64955 239.96340 230.09826 221.21511 213.40997 206.42482
 200.27168 195.22253 191.81739 189.87224 188.92210 188.99895 189.84681 191.16766
 192.90552 195.01337 197.28923 199.66108 202.11894 204.61179 206.71265 208.56750
 210.20636 211.36421 211.60607 211.84692 211.79678 211.51463 211.16049 210.80334
 210.43320 210.15605 209.97691 209.85376 209.79462 210.13847 210.53733 210.93918
 211.74504 212.93589 214.19875 215.99460 217.93546 219.99131 222.09917 224.19502
 226.26788 228.36473 230.47459 232.59344 234.73530 236.92015 239.18901 241.57186
 244.20572 246.46957 248.48443 250.26228 251.69214 252.82799 253.66285 253.99170
 254.04156 253.82841 253.20127 252.16212 250.78098 248.95483 246.87669 244.72254
 242.52640 240.34325 238.17611 236.02796 233.90082 231.78067 229.81953 227.98938
 226.28524 224.77009 223.41295 222.19780 221.09266 220.06551 219.18237 218.33622
 217.59108 216.78393 215.89479 215.27164 214.73450 215.29724 216.62675 218.23576
 219.94485 221.82396 223.09531 223.14795 222.79628 222.56966 223.33046 224.56740
 226.53386 229.92294 234.19669 238.88821 243.45195 247.83566 251.99112 255.73364
 259.07303 262.03656 264.78214 267.30374 269.49683 271.36475 273.03149 274.60248
 276.52530 278.29117 279.84064 281.21234 282.40399 283.45886 284.41898 285.29102
 286.09201 286.82358 287.44751 288.27582
 366.78100 356.34825 345.79350 334.67275 323.08900 311.29625 299.17950 286.99575
 274.72100 262.63125 250.65350 239.96775 230.10300 221.22025 213.41550 206.43075
 200.27800 195.22925 191.82449 189.87974 188.92999 189.00724 189.85549 191.17674
 192.91499 195.02324 197.29949 199.67174 202.12999 204.62324 206.72449 208.57974
 210.21899 211.37724 211.61949 211.86074 211.81099 211.52924 211.17549 210.81874
 210.44899 210.17224 209.99349 209.87074 209.81199 210.15624 210.55549 210.95774
 211.76399 212.95524 214.21849 216.01474 217.95599 220.01223 222.12048 224.21673
 226.28998 228.38723 230.49748 232.61673 234.75898 236.94423 239.21348 241.59673
 244.23098 246.49523 248.51048 250.28873 251.71898 252.85523 253.69048 254.01973
 254.06998 253.85723 253.23048 252.19173 250.81098 248.98523 246.90748 244.75373
 242.55798 240.37523 238.20848 236.06073 233.93398 231.81423 229.85348 228.02373
 226.31997 224.80522 223.44847 222.23372 221.12897 220.10222 219.21947 218.37372
 217.62897 216.82222 215.93347 215.31072 214.77397 215.32280 216.61946 218.20868
 219.91629 221.77007 223.02884 223.06039 222.67778 222.41640 223.19328 224.43446
 226.46497 229.94971 234.27496 238.99054 243.54182 247.93675 252.10010 255.84331
 259.06061 262.19077 264.95374 267.44589 269.58630 271.38528 272.98557 274.54071
 276.48999 278.23984 279.77298 281.10641 282.24222 283.26501 284.19925 285.06305
 285.85516 286.54364 287.06888 287.66797
 366.78100 356.34834 345.79369 334.67303 323.08938 311.29672 299.18007 286.99641
 274.72175 262.63210 250.65444 239.96879 230.10413 221.22147 213.41682 206.43216
 200.27951 195.23085 191.82620 189.88154 188.93188 189.00923 189.85757 191.17892
 192.91726 195.02560 197.30195 199.67429 202.13264 204.62598 206.72733 208.58267
 210.22201 211.38036 211.62270 211.86405 211.81439 211.53273 211.17908 210.82242
 210.45277 210.17611 209.99746 209.87480 209.81614 210.16049 210.55983 210.96218
 211.76852 212.95986 214.22321 216.01955 217.96090 220.01724 222.12559 224.22193
 226.29527 228.39262 230.50296 232.62231 234.76465 236.94999 239.21934 241.60268
 244.23703 246.50137 248.51672 250.29506 251.72540 252.86175 253.69709 254.02644
 254.07678 253.86412 253.23747 252.19881 250.81816 248.99250 246.91485 244.76119
 242.56553 240.38288 238.21622 236.06857 233.94191 231.82225 229.86160 228.03194
 226.32829 224.81363 223.45698 222.24232 221.13766 220.11101 219.22835 218.38270
 217.63804 216.83138 215.94273 215.32007 214.78342 215.33327 216.63234 218.17038
 219.87819 221.69333 222.90611 222.95035 222.61064 222.29507 223.03529 224.27475
 226.39621 229.99477 234.38210 239.11182 243.64067 248.04120 252.20232 255.93863
 259.18375 262.27216 265.02301 267.50690 269.62289 271.39130 272.99173 274.62708
 276.44000 278.14688 279.64563 280.91452 282.01892 283.02933 283.94864 284.80826
 285.58661 286.27597 286.81976 287.51279
 366.78100 356.34880 345.79459 334.67439 323.09118 311.29898 299.18278 286.99957
 274.72537 262.63617 250.65896 239.97376 230.10955 221.22735 213.42315 206.43894
 200.28674 195.23853 191.83433 189.89013 188.94092 189.01872 189.86751 191.18931
 192.92811 195.03690 197.31370 199.68650 202.14529 204.63909 206.74088 208.59668
 210.23648 211.39527 211.63807 211.87986 211.83066 211.54946 211.19625 210.84005
 210.47085 210.19464 210.01644 209.89423 209.83603 210.18083 210.58062 210.98342
 211.79021 212.98201 214.24581 216.04260 217.98440 220.04120 222.14999 224.24679
 226.32058 228.41838 230.52918 232.64897 234.79177 236.97756 239.24736 241.63116
 244.26595 246.53075 248.54654 250.32534 251.75614 252.89293 253.72873 254.05853
 254.10932 253.89712 253.27091 252.23271 250.85251 249.02730 246.95010 244.79689
 242.60169 240.41949 238.25328 236.10608 233.97988 231.86067 229.90047 228.07126
 226.36806 224.85386 223.49765 222.28345 221.17924 220.15304 219.27084 218.42563
 217.68143 216.87522 215.98702 215.36482 214.82861 215.35933 216.61320 218.15804
 219.86865 221.60007 222.76012 222.83119 222.48802 222.14053 222.93536 224.18878
 226.35487 230.06374 234.53854 239.20946 243.73187 248.11098 252.26517 255.95807
 259.22983 262.26608 265.04520 267.53268 269.65753 271.44345 273.06863 274.71420
 276.43341 278.09186 279.56409 280.83975 281.98068 283.01157 283.96735 284.84155
 285.62390 286.29364 286.86948 287.60333
 366.78100 356.34946 345.79593 334.67639 323.09386 311.30232 299.18678 287.00425
 274.73071 262.64217 250.66564 239.98110 230.11757 221.23603 213.43249 206.44896
 200.29742 195.24989 191.84635 189.90281 188.95428 189.03274 189.88220 191.20467
 192.94413 195.05360 197.33106 199.70452 202.16399 204.65845 206.76092 208.61738
 210.25784 211.41731 211.66077 211.90324 211.85470 211.57416 211.22163 210.86609
 210.49755 210.22202 210.04448 209.92295 209.86541 210.21087 210.61134 211.01480
 211.82227 213.01473 214.27919 216.07666 218.01912 220.07658 222.18605 224.28351
 226.35798 228.45644 230.56790 232.68837 234.83183 237.01830 239.28876 241.67322
 244.30869 246.57415 248.59061 250.37008 251.80154 252.93901 253.77547 254.10593
 254.15740 253.94586 253.32033 252.28279 250.90325 249.07872 247.00218 244.84964
 242.65511 240.47357 238.30804 236.16150 234.03596 231.91743 229.95789 228.12936
 226.42682 224.91328 223.55775 222.34421 221.24067 220.21514 219.33360 218.48907
 217.74553 216.93999 216.05246 215.43092 214.89539 215.39282 216.56808 218.16663
 219.88573 221.66039 222.70949 222.62463 222.20825 221.98334 222.79485 224.07848
 226.39629 230.22827 234.73064 239.33586 243.83537 248.19775 252.32008 255.98715
 259.26715 262.28406 265.00201 267.56607 269.69049 271.47626 273.14383 274.81546
 276.48669 278.08197 279.50787 280.76212 281.86145 282.85580 283.78641 284.63641
 285.39374 286.04471 286.59888 287.30453
 366.78100 356.34790 345.79279 334.67169 323.08758 311.29448 299.17738 286.99327
 274.71817 262.62807 250.64996 239.96386 230.09875 221.21565 213.41055 206.42544
 200.27234 195.22323 191.81813 189.87303 188.92292 188.99982 189.84772 191.16861
 192.90651 195.01440 197.29030 199.66220 202.12009 204.61299 206.71389 208.56878
 210.20768 211.36557 211.60747 211.84837 211.79826 211.51616 211.16205 210.80495
 210.43485 210.15774 209.97864 209.85554 209.79643 210.14033 210.53922 210.94112
 211.74702 212.93791 214.20081 215.99670 217.93760 219.99350 222.10139 224.19729
 226.27019 228.36708 230.47698 232.59587 234.73777 236.92267 239.19156 241.57446
 244.20835 246.47225 248.48715 250.26504 251.69494 252.83084 253.66573 253.99463
 254.04452 253.83142 253.20432 252.16521 250.78411 248.95801 246.87990 244.72580
 242.52969 240.34659 238.17949 236.03138 233.90428 231.78417 229.82307 227.99297
 226.28886 224.77376 223.41666 222.20155 221.09645 220.06934 219.18624 218.34014
 217.59503 216.78793 215.89882 215.27572 214.73862 215.31673 216.68259 218.04529
 219.86353 221.61548 222.58688 222.52673 222.08928 221.69896 222.53111 223.91299
 226.28479 230.26755 234.92587 239.54681 244.01025 248.35182 252.49152 256.16092
 259.38718 262.32053 264.97940 267.51514 269.65323 271.44849 273.10757 274.75076
 276.36627 277.88708 279.27264 280.50705 281.58081 282.56528 283.50226 284.37329
 285.17163 285.91409 286.56268 287.38925
 366.78100 356.34706 345.79112 334.66918 323.08425 311.29031 299.17237 286.98743
 274.71149 262.62055 250.64162 239.95468 230.08874 221.20480 213.39886 206.41292
 200.25899 195.20905 191.80311 189.85717 188.90623 188.98229 189.82936 191.14942
 192.88648 194.99354 197.26860 199.63966 202.09673 204.58879 206.68885 208.54291
 210.18097 211.33803 211.57910 211.81916 211.76822 211.48528 211.13034 210.77240
 210.40147 210.12353 209.94359 209.81965 209.75971 210.10277 210.50084 210.90190
 211.70696 212.89702 214.15908 215.95414 217.89421 219.94927 222.05633 224.15139
 226.22345 228.31951 230.42858 232.54664 234.68770 236.87176 239.13982 241.52188
 244.15495 246.41801 248.43207 250.20913 251.63819 252.77325 253.60732 253.93538
 253.98444 253.77050 253.14256 252.10262 250.72069 248.89375 246.81481 244.65987
 242.46293 240.27899 238.11106 235.96212 233.83418 231.71324 229.75130 227.92036
 226.21543 224.69949 223.34155 222.12561 221.01967 219.99173 219.10780 218.26086
 217.51492 216.70698 215.81704 215.19310 214.65517 215.29602 216.80879 218.01793
 219.79224 221.37843 222.65039 222.79152 222.12872 221.40329 222.11183 223.85756
 226.41844 230.43948 235.07057 239.72752 244.22073 248.57678 252.67970 256.32303
 259.51517 262.32687 264.95081 267.41443 269.49185 271.31711 273.04401 274.74689
 276.37094 277.77606 279.07339 280.45822 281.82016 283.02512 284.12445 285.12039
 286.01611 286.81378 287.51059 288.39859
 366.78100 356.34649 345.78997 334.66746 323.08195 311.28744 299.16892 286.98341
 274.70690 262.61538 250.63587 239.94836 230.08184 221.19733 213.39082 206.40431
 200.24979 195.19928 191.79277 189.84625 188.89474 188.97023 189.81671 191.13620
 192.87269 194.97918 197.25366 199.62415 202.08064 204.57212 206.67161 208.52510
 210.16258 211.31907 211.55956 211.79905 211.74753 211.46402 211.10851 210.74999
 210.37848 210.09997 209.91945 209.79494 209.73443 210.07692 210.47440 210.87489
 211.67938 212.86886 214.13035 215.92484 217.86433 219.91881 222.02530 224.11979
 226.19127 228.28676 230.39525 232.51273 234.65322 236.83671 239.10420 241.48568
 244.11817 246.38066 248.39414 250.17063 251.59912 252.73360 253.56709 253.89458
 253.94307 253.72855 253.10004 252.05953 250.67701 248.84950 246.76999 244.61447
 242.41696 240.23245 238.06394 235.91442 233.78591 231.66440 229.70188 227.87037
 226.16486 224.64834 223.28983 222.07332 220.96681 219.93829 219.05378 218.20627
 217.45975 216.65124 215.76073 215.13622 214.59770 215.28305 216.85892 217.99149
 219.77209 221.57059 222.79886 222.76613 221.84195 221.21213 222.01369 223.37653
 226.21930 230.47346 235.23932 239.93512 244.40666 248.72322 252.80988 256.47070
 259.68561 262.49759 265.15372 267.55844 269.57013 271.26929 272.90866 274.51456
 276.19733 278.00348 279.86771 281.50684 282.92532 284.18036 285.32535 286.36267
 287.29559 288.12640 288.85214 289.77704
 366.78100 356.34691 345.79082 334.66873 323.08364 311.28955 299.17146 286.98637
 274.71028 262.61919 250.64010 239.95301 230.08692 221.20283 213.39674 206.41065
 200.25656 195.20647 191.80038 189.85429 188.90320 188.97911 189.82602 191.14593
 192.88284 194.98975 197.26466 199.63557 202.09248 204.58439 206.68430 208.53821
 210.17612 211.33303 211.57394 211.81386 211.76277 211.47968 211.12459 210.76650
 210.39541 210.11732 209.93723 209.81314 209.75305 210.09596 210.49387 210.89478
 211.69969 212.88960 214.15151 215.94642 217.88633 219.94124 222.04815 224.14306
 226.21497 228.31088 230.41979 232.53770 234.67861 236.86252 239.13043 241.51234
 244.14525 246.40816 248.42207 250.19898 251.62789 252.76280 253.59671 253.92462
 253.97353 253.75944 253.13135 252.09126 250.70917 248.88208 246.80299 244.64790
 242.45081 240.26672 238.09863 235.94954 233.82145 231.70036 229.73827 227.90718
 226.20209 224.68600 223.32791 222.11182 221.00573 219.97764 219.09355 218.24646
 217.50037 216.69228 215.80219 215.17810 214.64001 215.28819 216.81541 217.98262
 219.61061 221.59142 222.73129 222.40096 221.53363 221.12469 221.76686 223.42746
 226.37114 230.61958 235.38000 240.09561 244.55067 248.81429 252.86905 256.49780
 259.70410 262.57861 265.21579 267.65735 269.75381 271.52167 273.15298 274.73169
 276.15366 277.62436 279.11536 280.54150 281.81015 282.93256 283.95660 284.88434
 285.71872 286.46173 287.11081 287.93799
 366.78100 356.34754 345.79207 334.67061 323.08614 311.29268 299.17522 286.99075
 274.71529 262.62482 250.64636 239.95990 230.09443 221.21097 213.40550 206.42004
 200.26657 195.21711 191.81165 189.86618 188.91572 188.99225 189.83979 191.16033
 192.89786 195.00540 197.28093 199.65247 202.11001 204.60254 206.70308 208.55761
 210.19615 211.35369 211.59522 211.83576 211.78529 211.50283 211.14836 210.79090
 210.42044 210.14297 209.96351 209.84004 209.78058 210.12412 210.52265 210.92419
 211.72972 212.92026 214.18280 215.97833 217.91887 219.97440 222.08194 224.17748
 226.25001 228.34655 230.45608 232.57462 234.71615 236.90069 239.16923 241.55176
 244.18530 246.44883 248.46337 250.24091 251.67044 252.80598 253.64051 253.96905
 254.01859 253.80512 253.17766 252.13819 250.75673 248.93027 246.85180 244.69734
 242.50087 240.31741 238.14994 236.00148 233.87402 231.75355 229.79209 227.96162
 226.25716 224.74170 223.38423 222.16877 221.06330 220.03584 219.15238 218.30591
 217.56045 216.75298 215.86352 215.24006 214.70259 215.30659 216.75359 218.05270
 219.49998 221.40997 222.74956 222.52550 221.43065 220.72699 221.44719 223.26331
 226.36841 230.70065 235.51186 240.26395 244.74393 248.99193 253.00172 256.60727
 259.76648 262.57123 265.15134 267.52249 269.61499 271.40924 273.10440 274.72601
 276.13483 277.41650 278.77542 280.10712 281.35822 282.47552 283.49487 284.41833
 285.24890 285.98853 286.63464 287.45804
 366.78100 356.34790 345.79280 334.67170 323.08760 311.29449 299.17739 286.99329
 274.71819 262.62809 250.64999 239.96389 230.09879 221.21568 213.41058 206.42548
 200.27238 195.22328 191.81818 189.87308 188.92298 188.99987 189.84777 191.16867
 192.90657 195.01447 197.29037 199.66227 202.12017 204.61306 206.71396 208.56886
 210.20776 211.36566 211.60756 211.84846 211.79836 211.51625 211.16215 210.80505
 210.43495 210.15785 209.97875 209.85565 209.79655 210.14044 210.53934 210.94124
 211.74714 212.93804 214.20094 215.99684 217.93774 219.99363 222.10153 224.19743
 226.27033 228.36723 230.47713 232.59603 234.73793 236.92282 239.19172 241.57462
 244.20852 246.47242 248.48732 250.26522 251.69512 252.83101 253.66591 253.99481
 254.04471 253.83161 253.20451 252.16541 250.78431 248.95820 246.88010 244.72600
 242.52990 240.34680 238.17970 236.03160 233.90450 231.78439 229.82329 227.99319
 226.28909 224.77399 223.41689 222.20179 221.09669 220.06958 219.18648 218.34038
 217.59528 216.78818 215.89908 215.27598 214.73888 215.32384 216.73518 218.05933
 219.55702 221.34201 222.67998 222.55797 221.38942 220.50620 221.11110 223.21674
 226.40874 230.80585 235.66699 240.46126 244.97525 249.20549 253.14079 256.70093
 259.85132 262.64359 265.18457 267.51047 269.53381 271.31561 273.02927 274.67157
 276.03113 277.30377 278.74878 280.20093 281.48495 282.62100 283.65747 284.59644
 285.44095 286.19299 286.84995 287.68716
 366.78100 356.34750 345.79200 334.67050 323.08600 311.29250 299.17499 286.99049
 274.71499 262.62449 250.64599 239.95949 230.09399 221.21049 213.40499 206.41949
 200.26599 195.21649 191.81098 189.86548 188.91498 188.99148 189.83898 191.15948
 192.89698 195.00448 197.27998 199.65148 202.10898 204.60147 206.70197 208.55647
 210.19497 211.35247 211.59397 211.83447 211.78397 211.50147 211.14697 210.78947
 210.41897 210.14146 209.96196 209.83846 209.77896 210.12246 210.52096 210.92246
 211.72796 212.91846 214.18096 215.97646 217.91696 219.97245 222.07995 224.17545
 226.24795 228.34445 230.45395 232.57245 234.71395 236.89845 239.16695 241.54945
 244.18294 246.44644 248.46094 250.23844 251.66794 252.80344 253.63794 253.96644
 254.01594 253.80244 253.17494 252.13544 250.75393 248.92743 246.84893 244.69443
 242.49793 240.31443 238.14693 235.99843 233.87093 231.75043 229.78893 227.95842
 226.25392 224.73842 223.38092 222.16542 221.05992 220.03242 219.14892 218.30242
 217.55692 216.74942 215.85992 215.23641 214.69891 215.30324 216.75012 218.03030
 219.58617 221.33607 222.58517 222.42514 221.22560 220.27994 220.87625 223.17047
 226.45572 230.90923 235.81113 240.64500 245.18279 249.40688 253.29779 256.80383
 259.93918 262.73227 265.26028 267.55685 269.55255 271.31775 273.03687 274.60565
 275.88147 277.21045 278.70728 280.17688 281.44870 282.57394 283.60056 284.53061
 285.36707 286.11194 286.76266 287.59192
 366.78100 356.34692 345.79084 334.66876 323.08368 311.28960 299.17152 286.98644
 274.71035 262.61927 250.64019 239.95311 230.08703 221.20295 213.39687 206.41079
 200.25671 195.20663 191.80055 189.85447 188.90339 188.97931 189.82622 191.14614
 192.88306 194.98998 197.26490 199.63582 202.09274 204.58466 206.68458 208.53850
 210.17642 211.33334 211.57426 211.81418 211.76309 211.48001 211.12493 210.76685
 210.39577 210.11769 209.93761 209.81353 209.75345 210.09637 210.49429 210.89521
 211.70013 212.89005 214.15197 215.94688 217.88680 219.94172 222.04864 224.14356
 226.21548 228.31140 230.42032 232.53824 234.67916 236.86308 239.13100 241.51292
 244.14584 246.40875 248.42267 250.19959 251.62851 252.76343 253.59735 253.92527
 253.97419 253.76011 253.13203 252.09195 250.70987 248.88279 246.80371 244.64862
 242.45154 240.26746 238.09938 235.95030 233.82222 231.70114 229.73906 227.90798
 226.20290 224.68682 223.32874 222.11266 221.00658 219.97850 219.09441 218.24733
 217.50125 216.69317 215.80309 215.17901 214.64093 215.27182 216.76883 218.00815
 219.58243 221.34210 222.52133 222.27065 221.02205 220.03542 220.63649 223.12462
 226.51491 231.01559 235.94112 240.79271 245.35056 249.59239 253.47299 256.93182
 260.01956 262.79373 265.30728 267.58447 269.58252 271.35443 273.05869 274.57718
 275.63480 276.79669 278.34589 279.80280 281.06363 282.17914 283.19687 284.11887
 284.94809 285.68655 286.33163 287.15372
 366.78100 356.34643 345.78985 334.66728 323.08170 311.28713 299.16855 286.98298
 274.70640 262.61483 250.63525 239.94768 230.08110 221.19653 213.38995 206.40338
 200.24880 195.19823 191.79165 189.84508 188.89350 188.96893 189.81535 191.13478
 192.87121 194.97763 197.25206 199.62248 202.07891 204.57033 206.66976 208.52318
 210.16061 211.31703 211.55746 211.79688 211.74531 211.46173 211.10616 210.74758
 210.37601 210.09743 209.91686 209.79228 209.73171 210.07413 210.47156 210.87199
 211.67641 212.86584 214.12726 215.92169 217.86111 219.91554 222.02196 224.11639
 226.18781 228.28324 230.39166 232.50909 234.64951 236.83294 239.10036 241.48179
 244.11421 246.37664 248.39006 250.16649 251.59492 252.72934 253.56277 253.89019
 253.93862 253.72404 253.09547 252.05489 250.67232 248.84474 246.76517 244.60959
 242.41202 240.22744 238.05887 235.90929 233.78072 231.65914 229.69657 227.86499
 226.15942 224.64284 223.28427 222.06770 220.96112 219.93255 219.04797 218.20040
 217.45382 216.64525 215.75467 215.13010 214.59152 215.24263 216.77823 217.99101
 219.56920 221.34465 222.45398 222.11063 220.79645 219.79544 220.39726 223.07404
 226.58067 231.12726 236.06770 240.93939 245.51494 249.76981 253.65701 257.09842
 260.12823 262.86658 265.36948 267.62930 269.62711 271.41202 273.10391 274.59283
 275.16452 276.17572 276.95090 277.58926 278.14169 278.63043 279.07635 279.48035
 279.84366 280.16721 280.44986 280.81006
 366.78100 356.34596 345.78892 334.66588 323.07984 311.28480 299.16576 286.97972
 274.70268 262.61064 250.63060 239.94256 230.07552 221.19048 213.38344 206.39640
 200.24136 195.19032 191.78328 189.83624 188.88420 188.95916 189.80512 191.12408
 192.86004 194.96600 197.23996 199.60992 202.06588 204.55684 206.65580 208.50876
 210.14572 211.30168 211.54164 211.78060 211.72856 211.44452 211.08849 210.72945
 210.35741 210.07837 209.89733 209.77229 209.71125 210.05321 210.45017 210.85013
 211.65409 212.84305 214.10401 215.89797 217.83693 219.89089 221.99685 224.09081
 226.16177 228.25673 230.36469 232.48165 234.62161 236.80457 239.07153 241.45249
 244.08445 246.34641 248.35937 250.13533 251.56329 252.69725 253.53021 253.85717
 253.90513 253.69009 253.06105 252.02001 250.63697 248.80893 246.72889 244.57285
 242.37481 240.18977 238.02073 235.87069 233.74165 231.61961 229.65657 227.82453
 226.11849 224.60145 223.24241 222.02537 220.91833 219.88929 219.00425 218.15621
 217.40917 216.60013 215.70909 215.08405 214.54501 215.21121 216.77924 217.97702
 219.53177 221.33424 222.36401 221.89697 220.54619 219.58488 220.17955 223.06059
 226.69135 231.25307 236.20064 241.09790 245.67751 249.93672 253.83444 257.29382
 260.30685 262.96652 265.39749 267.63934 269.64835 271.46579 273.17517 274.35641
 274.97028 275.79626 276.54263 277.12430 277.62766 278.07300 278.47931 278.84738
 279.17844 279.47324 279.73077 280.05899
 354.97500 345.04800 334.58700 324.11500 313.32600 302.53700 291.65000 280.76700
 269.93100 259.19300 248.62200 238.61700 229.08700 220.35500 212.54000 205.53500
 199.46400 194.49300 191.14300 189.19000 188.08900 188.01400 188.72400 189.90600
 191.46900 193.38200 195.40300 197.55600 199.80700 202.06000 204.28800 206.47900
 208.55200 210.37800 212.02500 213.65900 214.99800 216.11800 217.17200 218.25900
 219.49400 220.64500 221.67900 222.61400 223.54500 224.98200 226.57100 228.19000
 229.79700 231.81100 233.86500 235.97200 238.24200 240.55300 242.89900 245.25300
 247.48800 249.53500 251.36600 252.84800 254.09800 255.16700 256.02700 256.25300
 256.09500 255.54300 253.93500 252.56600 251.38400 250.24500 249.05200 247.70100
 246.01600 243.99600 241.78400 239.39300 236.81300 234.22300 231.65800 229.14400
 226.74000 224.47300 222.33500 220.32500 218.44000 216.67700 214.96200 213.47200
 212.20000 211.10800 210.26000 209.63900 209.24400 209.03100 209.05800 209.33300
 209.78400 210.62600 211.33100 212.39100 213.62500 214.84668 217.72949 219.47640
 220.32566 220.86828 220.88710 220.27371 219.43733 218.84250 219.04934 220.86203
 222.60583 225.72206 229.03064 232.61777 236.12270 239.51333 242.70767 245.68587
 248.41061 250.90679 253.19353 254.91714 256.48655 257.94920 259.39966 260.69384
 261.81714 262.77997 263.71679 264.54570 265.26305 265.89772 266.47676 267.00133
 267.47312 267.89325 268.26027 268.72800
