|-------------------------------------------------------------------------|
|   File Name : in_temp.dat
|   Subject   : temperature profiles used for initial guess atmosphere
|   File Type : input of gmtr
|   Data Type : atmospherical data
|   Author/s  : WRF-Chem
|   Date      : Fri Jul 26 15:39:24 2024
|-------------------------------------------------------------------------|

 WRF-Chem temperature
#
 values of T (K)    (8f10.5)
#
 354.97500 345.04800 334.58700 324.11500 313.32600 302.53700 291.65000 280.76700
 269.93100 259.19300 248.62200 238.61700 229.08700 220.35500 212.54000 205.53500
 199.46400 194.49300 191.14300 189.19000 188.08900 188.01400 188.72400 189.90600
 191.46900 193.38200 195.40300 197.55600 199.80700 202.06000 204.28800 206.47900
 208.55200 210.37800 212.02500 213.65900 214.99800 216.11800 217.17200 218.25900
 219.49400 220.64500 221.67900 222.61400 223.54500 224.98200 226.57100 228.19000
 229.79700 231.81100 233.86500 235.97200 238.24200 240.55300 242.89900 245.25300
 247.48800 249.53500 251.36600 252.84800 254.09800 255.16700 256.02700 256.25300
 256.09500 255.54300 253.93500 252.56600 251.38400 250.24500 249.05200 247.70100
 246.01600 243.99600 241.78400 239.39300 236.81300 234.22300 231.65800 229.14400
 226.74000 224.47300 222.33500 220.32500 218.44000 216.67700 214.96200 213.47200
 212.20000 211.10800 210.26000 209.63900 209.24400 209.03100 209.05800 209.33300
 209.78400 210.62600 211.33100 212.39100 213.62500 214.84668 217.72949 219.47640
 220.32566 220.86828 220.88710 220.27371 219.43733 218.84250 219.04934 220.86203
 222.60583 225.72206 229.03064 232.61777 236.12270 239.51333 242.70767 245.68587
 248.41061 250.90679 253.19353 254.91714 256.48655 257.94920 259.39966 260.69384
 261.81714 262.77997 263.71679 264.54570 265.26305 265.89772 266.47676 267.00133
 267.47312 267.89325 268.26027 268.72800
 366.78100 356.33500 345.76700 334.63300 323.03600 311.23000 299.10000 286.90300
 274.61500 262.51200 250.52100 239.82200 229.94400 221.04800 213.23000 206.23200
 200.06600 195.00400 191.58600 189.62800 188.66500 188.72900 189.56400 190.87200
 192.59700 194.69200 196.95500 199.31400 201.75900 204.23900 206.32700 208.16900
 209.79500 210.94000 211.16900 211.39700 211.33400 211.03900 210.67200 210.30200
 209.91900 209.62900 209.43700 209.30100 209.22900 209.56000 209.94600 210.33500
 211.12800 212.30600 213.55600 215.33900 217.26700 219.31000 221.40500 223.48800
 225.54800 227.63200 229.72900 231.83500 233.96400 236.13600 238.39200 240.76200
 243.38300 245.63400 247.63600 249.40100 250.81800 251.94100 252.76300 253.07900
 253.11600 252.89000 252.25000 251.19800 249.80400 247.96500 245.87400 243.70700
 241.49800 239.30200 237.12200 234.96100 232.82100 230.68800 228.71400 226.87100
 225.15400 223.62600 222.25600 221.02800 219.91000 218.87000 217.97400 217.11500
 216.35700 215.53700 214.63500 213.99900 213.44900 212.85855 212.01316 212.61654
 214.26826 216.08686 218.14273 220.53346 223.40855 226.78828 231.49734 235.90155
 239.42278 243.28576 247.23140 251.11907 254.80144 258.23331 261.38913 264.27520
 266.89312 269.26852 271.44504 273.08845 274.58484 275.98591 277.39845 278.65879
 279.75272 280.69038 281.56708 282.34086 283.01050 283.60295 284.14348 284.63317
 285.07358 285.46577 285.80838 286.24500
 381.81900 372.39900 361.20600 349.77600 337.62200 324.85300 311.81000 298.35300
 284.86000 271.32400 258.56100 246.30400 236.08700 226.79600 218.44800 211.29000
 205.52200 200.89400 197.38100 194.84800 193.01500 192.31500 192.25000 192.43100
 192.91200 193.53700 194.13600 194.71200 195.26200 195.83100 196.39300 196.97600
 197.60400 198.14900 198.58400 199.05700 199.69500 200.37800 201.05400 201.70800
 202.31300 202.85700 203.35500 203.86200 204.56900 205.29700 206.02600 206.98700
 208.19300 209.44100 210.96900 212.57600 214.46200 216.51300 218.63000 220.85300
 223.34100 225.96200 228.73900 231.69700 234.70600 237.70600 240.69200 243.65700
 246.73700 249.69900 252.52100 255.06300 257.29000 259.23300 260.63300 261.68000
 262.46100 262.79800 262.69100 262.22400 261.06900 259.52500 257.70700 255.50700
 253.00100 250.30200 247.39800 244.45200 241.65400 239.05400 236.73300 234.59000
 232.59500 230.72500 228.83400 226.82600 224.66600 222.38700 220.10400 217.71500
 215.45900 213.06600 210.54600 208.09300 205.35400 202.08130 196.05959 200.71215
 209.01611 216.90438 223.84126 229.78593 235.00632 240.20838 245.98943 250.68668
 254.32982 257.93487 261.55666 264.96801 268.15192 271.06452 273.76717 276.25691
 278.57680 280.74479 282.77456 284.60533 286.27232 287.81705 289.31715 290.65561
 291.81734 292.81312 293.70701 294.49387 295.17482 295.77730 296.32696 296.82492
 297.27278 297.67160 298.02000 298.46400
 399.33000 389.90700 379.81300 368.66800 357.52200 345.30100 333.07400 320.22700
 307.21600 293.84800 280.37600 267.29600 254.61000 242.98700 232.15100 221.97700
 212.67200 204.28600 197.66900 192.82100 189.48600 187.45200 186.81400 187.08900
 187.78100 189.05400 190.64800 192.54200 194.63000 196.75200 198.67100 200.15800
 201.53500 202.48700 202.97500 203.34000 203.53900 203.49700 203.38500 203.24700
 203.00500 202.78600 202.60300 202.43700 202.42600 202.88800 203.42000 203.95100
 204.89500 205.99200 207.30100 208.95800 210.73800 213.10000 215.56400 218.18000
 220.96600 223.91800 226.96100 230.09200 233.29300 236.55700 239.95500 243.53700
 246.84500 249.39000 251.54200 253.47400 255.19500 256.48400 257.43100 258.05900
 258.21200 258.04000 257.58200 256.64300 255.23900 253.50700 251.40800 249.05600
 246.57600 243.99400 241.38900 238.83000 236.34400 233.98600 231.96900 230.11800
 228.42300 226.89900 225.54800 224.29700 223.10500 221.96500 220.95800 220.11300
 219.49000 218.92000 218.32500 217.88100 217.42300 216.96366 216.35568 216.80261
 217.73415 218.28582 218.64258 219.10077 220.44626 222.53987 226.38451 230.35736
 233.59734 237.39164 241.29814 245.22796 248.98002 252.51130 255.78595 258.80109
 261.54781 264.05210 266.34239 268.04198 269.58951 271.01303 272.35754 273.55718
 274.59842 275.49092 276.28989 276.99307 277.60161 278.14001 278.63122 279.07623
 279.47646 279.83287 280.14422 280.54100
 399.73800 389.78500 379.66200 368.15100 356.64100 344.35000 331.79200 318.88800
 305.72600 292.49300 279.20900 266.73800 254.69600 244.21100 234.45700 225.43300
 217.56900 210.45100 204.30000 199.30600 195.45800 192.57600 191.02700 190.38600
 190.23900 190.53400 191.16600 191.92500 192.79500 193.76600 194.73200 195.31200
 195.80000 196.05200 196.11500 196.11500 196.03900 195.72300 195.34000 194.98900
 194.75100 194.79200 195.13300 195.59800 196.50600 198.13600 199.85800 201.56600
 204.17900 206.82300 209.89300 213.28400 216.82800 220.60500 224.38700 228.20900
 232.03200 235.82500 239.56000 243.25800 246.84500 250.20100 253.70900 257.46800
 261.53000 264.22100 266.60100 268.68100 270.32900 271.74100 272.83600 273.47400
 273.89800 274.00200 273.75700 273.28800 272.37100 271.10000 269.58900 267.77900
 265.81600 263.72100 261.39300 258.91600 256.29800 253.42300 250.33100 247.11400
 243.83700 240.52900 237.24900 233.99900 230.72800 227.51500 224.25400 220.95200
 217.62700 213.65600 210.12100 206.78900 204.01000 201.99491 199.07309 198.76551
 199.40006 200.48994 201.46112 202.31912 203.45100 204.96110 207.47502 210.85391
 213.70530 217.29629 220.99574 224.72316 228.28753 231.64854 234.68024 237.40893
 239.70644 241.60899 243.46854 245.67368 247.68154 249.52395 251.24767 252.78566
 254.12057 255.26479 256.23740 257.09036 257.82852 258.48160 259.07744 259.61723
 260.10271 260.53504 260.91270 261.39400
 399.73800 389.78500 379.66200 368.15100 356.64100 344.35000 331.79200 318.88800
 305.72600 292.49300 279.20900 266.73800 254.69600 244.21100 234.45700 225.43300
 217.56900 210.45100 204.30000 199.30600 195.45800 192.57600 191.02700 190.38600
 190.23900 190.53400 191.16600 191.92500 192.79500 193.76600 194.73200 195.31200
 195.80000 196.05200 196.11500 196.11500 196.03900 195.72300 195.34000 194.98900
 194.75100 194.79200 195.13300 195.59800 196.50600 198.13600 199.85800 201.56600
 204.17900 206.82300 209.89300 213.28400 216.82800 220.60500 224.38700 228.20900
 232.03200 235.82500 239.56000 243.25800 246.84500 250.20100 253.70900 257.46800
 261.53000 264.22100 266.60100 268.68100 270.32900 271.74100 272.83600 273.47400
 273.89800 274.00200 273.75700 273.28800 272.37100 271.10000 269.58900 267.77900
 265.81600 263.72100 261.39300 258.91600 256.29800 253.42300 250.33100 247.11400
 243.83700 240.52900 237.24900 233.99900 230.72800 227.51500 224.25400 220.95200
 217.62700 213.65600 210.12100 206.78900 204.01000 201.99491 199.07309 198.76551
 199.40006 200.48994 201.46112 202.31912 203.45100 204.96110 207.47502 210.85391
 213.70530 217.29629 220.99574 224.72316 228.28753 231.64854 234.68024 237.40893
 239.70644 241.60899 243.46854 245.67368 247.68154 249.52395 251.24767 252.78566
 254.12057 255.26479 256.23740 257.09036 257.82852 258.48160 259.07744 259.61723
 260.10271 260.53504 260.91270 261.39400
 399.33000 389.90700 379.81300 368.66800 357.52200 345.30100 333.07400 320.22700
 307.21600 293.84800 280.37600 267.29600 254.61000 242.98700 232.15100 221.97700
 212.67200 204.28600 197.66900 192.82100 189.48600 187.45200 186.81400 187.08900
 187.78100 189.05400 190.64800 192.54200 194.63000 196.75200 198.67100 200.15800
 201.53500 202.48700 202.97500 203.34000 203.53900 203.49700 203.38500 203.24700
 203.00500 202.78600 202.60300 202.43700 202.42600 202.88800 203.42000 203.95100
 204.89500 205.99200 207.30100 208.95800 210.73800 213.10000 215.56400 218.18000
 220.96600 223.91800 226.96100 230.09200 233.29300 236.55700 239.95500 243.53700
 246.84500 249.39000 251.54200 253.47400 255.19500 256.48400 257.43100 258.05900
 258.21200 258.04000 257.58200 256.64300 255.23900 253.50700 251.40800 249.05600
 246.57600 243.99400 241.38900 238.83000 236.34400 233.98600 231.96900 230.11800
 228.42300 226.89900 225.54800 224.29700 223.10500 221.96500 220.95800 220.11300
 219.49000 218.92000 218.32500 217.88100 217.42300 216.96366 216.35568 216.80261
 217.73415 218.28582 218.64258 219.10077 220.44626 222.53987 226.38451 230.35736
 233.59734 237.39164 241.29814 245.22796 248.98002 252.51130 255.78595 258.80109
 261.54781 264.05210 266.34239 268.04198 269.58951 271.01303 272.35754 273.55718
 274.59842 275.49092 276.28989 276.99307 277.60161 278.14001 278.63122 279.07623
 279.47646 279.83287 280.14422 280.54100
 381.81900 372.39900 361.20600 349.77600 337.62200 324.85300 311.81000 298.35300
 284.86000 271.32400 258.56100 246.30400 236.08700 226.79600 218.44800 211.29000
 205.52200 200.89400 197.38100 194.84800 193.01500 192.31500 192.25000 192.43100
 192.91200 193.53700 194.13600 194.71200 195.26200 195.83100 196.39300 196.97600
 197.60400 198.14900 198.58400 199.05700 199.69500 200.37800 201.05400 201.70800
 202.31300 202.85700 203.35500 203.86200 204.56900 205.29700 206.02600 206.98700
 208.19300 209.44100 210.96900 212.57600 214.46200 216.51300 218.63000 220.85300
 223.34100 225.96200 228.73900 231.69700 234.70600 237.70600 240.69200 243.65700
 246.73700 249.69900 252.52100 255.06300 257.29000 259.23300 260.63300 261.68000
 262.46100 262.79800 262.69100 262.22400 261.06900 259.52500 257.70700 255.50700
 253.00100 250.30200 247.39800 244.45200 241.65400 239.05400 236.73300 234.59000
 232.59500 230.72500 228.83400 226.82600 224.66600 222.38700 220.10400 217.71500
 215.45900 213.06600 210.54600 208.09300 205.35400 202.08130 196.05959 200.71215
 209.01611 216.90438 223.84126 229.78593 235.00632 240.20838 245.98943 250.68668
 254.32982 257.93487 261.55666 264.96801 268.15192 271.06452 273.76717 276.25691
 278.57680 280.74479 282.77456 284.60533 286.27232 287.81705 289.31715 290.65561
 291.81734 292.81312 293.70701 294.49387 295.17482 295.77730 296.32696 296.82492
 297.27278 297.67160 298.02000 298.46400
 366.78100 356.33685 345.77070 334.63855 323.04340 311.23925 299.11110 286.91595
 274.62980 262.52865 250.53950 239.84235 229.96619 221.07204 213.25589 206.25974
 200.09559 195.03544 191.61929 189.66314 188.70199 188.76784 189.60469 190.91454
 192.64139 194.73824 197.00309 199.36394 201.81079 204.29264 206.38249 208.22634
 209.85419 211.00104 211.23189 211.46173 211.40058 211.10743 210.74228 210.37413
 209.99298 209.70483 209.51468 209.38053 209.31038 209.64323 210.03108 210.42193
 211.21678 212.39663 213.64848 215.43333 217.36318 219.40803 221.50488 223.58973
 225.65158 227.73743 229.83628 231.94412 234.07497 236.24882 238.50667 240.87852
 243.50137 245.75422 247.75807 249.52492 250.94377 252.06862 252.89247 253.21032
 253.24917 253.02502 252.38687 251.33672 249.94457 248.10742 246.01827 243.85312
 241.64597 239.45182 237.27366 235.11451 232.97636 230.84521 228.87306 227.03191
 225.31676 223.79061 222.42246 221.19631 220.08016 219.04201 218.14786 217.29071
 216.53456 215.71641 214.81626 214.18211 213.63396 213.11775 211.91165 212.94873
 214.80295 216.61668 217.63359 217.90852 218.91321 222.84061 228.41371 233.18170
 236.94685 240.70863 244.43520 248.06432 251.51387 254.40057 256.94766 259.58691
 262.39160 264.92789 267.18317 269.21698 271.21240 273.17053 274.82410 276.39911
 278.00894 279.66116 281.19537 282.55981 283.74210 284.79443 285.75458 286.63187
 287.42252 288.13385 288.76111 289.59711
 366.78100 356.33676 345.77052 334.63828 323.04304 311.23880 299.11056 286.91532
 274.62908 262.52784 250.53860 239.84136 229.96512 221.07088 213.25464 206.25840
 200.09416 195.03392 191.61768 189.66144 188.70020 188.76596 189.60272 190.91248
 192.63924 194.73600 197.00076 199.36152 201.80828 204.29004 206.37980 208.22356
 209.85132 210.99807 211.22883 211.45859 211.39735 211.10411 210.73887 210.37063
 209.98939 209.70115 209.51091 209.37667 209.30643 209.63919 210.02695 210.41771
 211.21247 212.39223 213.64399 215.42875 217.35851 219.40327 221.50003 223.58479
 225.64655 227.73231 229.83107 231.93883 234.06959 236.24335 238.50111 240.87287
 243.49563 245.74839 247.75215 249.51891 250.93767 252.06243 252.88619 253.20395
 253.24271 253.01847 252.38023 251.32999 249.93775 248.10051 246.01127 243.84603
 241.63879 239.44455 237.26631 235.10707 232.96883 230.83759 228.86535 227.02411
 225.30887 223.78263 222.41439 221.18815 220.07191 219.03367 218.13943 217.28219
 216.52595 215.70771 214.80747 214.17322 213.62498 213.12941 211.97075 213.08342
 214.92035 216.70299 217.70068 218.03944 219.05135 222.84616 228.35274 233.08455
 236.83363 240.59520 244.32620 247.93718 251.31393 254.15579 256.75323 259.48514
 262.24451 264.72403 266.99503 269.07605 271.09470 273.04846 274.69537 276.27509
 277.88803 279.56519 281.10242 282.46631 283.65109 284.70181 285.66357 286.53906
 287.33133 288.04330 288.66983 289.50787
 366.78100 356.33647 345.76995 334.63742 323.04189 311.23736 299.10884 286.91331
 274.62678 262.52526 250.53573 239.83820 229.96168 221.06715 213.25062 206.25409
 200.08957 195.02904 191.61251 189.65599 188.69446 188.75993 189.59641 190.90588
 192.63235 194.72882 196.99330 199.35377 201.80024 204.28172 206.37119 208.21466
 209.84214 210.98861 211.21908 211.44855 211.38703 211.09350 210.72797 210.35945
 209.97792 209.68939 209.49887 209.36434 209.29381 209.62628 210.01376 210.40423
 211.19870 212.37818 213.62965 215.41412 217.34360 219.38807 221.48454 223.56901
 225.63049 227.71596 229.81443 231.92191 234.05238 236.22585 238.48332 240.85480
 243.47727 245.72974 247.73322 249.49969 250.91816 252.04264 252.86611 253.18358
 253.22205 252.99753 252.35900 251.30847 249.91595 248.07842 245.98889 243.82337
 241.61584 239.42131 237.24278 235.08326 232.94473 230.81320 228.84068 226.99915
 225.28362 223.75710 222.38857 221.16204 220.04551 219.00699 218.11246 217.25493
 216.49841 215.67988 214.77935 214.14483 213.59630 213.13278 212.04822 213.20529
 215.02644 216.77933 217.79869 218.16281 219.19424 222.85533 228.30347 232.98935
 236.71582 240.47383 244.20859 247.80478 251.11198 253.91267 256.56293 259.38370
 262.09601 264.51599 266.79828 268.92511 270.97040 272.92188 274.56418 276.14948
 277.77509 279.47278 281.01151 282.37570 283.56067 284.61209 285.57410 286.44992
 287.24210 287.95471 288.58255 289.42014
 366.78100 356.33625 345.76950 334.63676 323.04101 311.23626 299.10751 286.91177
 274.62502 262.52327 250.53352 239.83577 229.95903 221.06428 213.24753 206.25078
 200.08604 195.02529 191.60854 189.65179 188.69004 188.75530 189.59155 190.90080
 192.62705 194.72330 196.98756 199.34781 201.79406 204.27531 206.36457 208.20782
 209.83507 210.98132 211.21157 211.44083 211.37908 211.08533 210.71958 210.35084
 209.96909 209.68034 209.48959 209.35484 209.28410 209.61635 210.00360 210.39385
 211.18810 212.36736 213.61861 215.40286 217.33211 219.37637 221.47262 223.55687
 225.61812 227.70337 229.80163 231.90888 234.03913 236.21238 238.46964 240.84089
 243.46314 245.71539 247.71864 249.48490 250.90315 252.02740 252.85065 253.16791
 253.20616 252.98141 252.34266 251.29191 249.89917 248.06142 245.97167 243.80592
 241.59817 239.40343 237.22468 235.06493 232.92618 230.79444 228.82169 226.97994
 225.26419 223.73744 222.36870 221.14195 220.02520 218.98645 218.09171 217.23396
 216.47721 215.65846 214.75771 214.12297 213.57422 213.14157 212.12820 213.32385
 215.11708 216.84802 217.90898 218.29144 219.33725 222.87383 228.26733 232.89830
 236.59724 240.34998 244.08882 247.66731 250.90504 253.66846 256.37277 259.27832
 261.94589 264.30615 266.59412 268.76572 270.83936 272.79166 274.43170 276.02304
 277.66846 279.37820 280.91898 282.28384 283.46964 284.52234 285.48431 286.35971
 287.15381 287.86557 288.49554 289.33249
 366.78100 356.33614 345.76927 334.63641 323.04055 311.23568 299.10682 286.91096
 274.62409 262.52223 250.53237 239.83451 229.95764 221.06278 213.24592 206.24905
 200.08419 195.02333 191.60646 189.64960 188.68774 188.75287 189.58901 190.89815
 192.62428 194.72042 196.98456 199.34469 201.79083 204.27197 206.36110 208.20424
 209.83138 210.97752 211.20765 211.43679 211.37493 211.08106 210.71520 210.34634
 209.96447 209.67561 209.48475 209.34988 209.27902 209.61116 209.99829 210.38843
 211.18257 212.36170 213.61284 215.39698 217.32612 219.37025 221.46639 223.55053
 225.61166 227.69680 229.79494 231.90207 234.03221 236.20535 238.46248 240.83362
 243.45576 245.70789 247.71103 249.47717 250.89530 252.01944 252.84258 253.15972
 253.19785 252.97299 252.33413 251.28326 249.89040 248.05254 245.96267 243.79681
 241.58895 239.39408 237.21522 235.05536 232.91649 230.78463 228.81177 226.96990
 225.25404 223.72718 222.35831 221.13145 220.01459 218.97573 218.08086 217.22300
 216.46614 215.64727 214.74641 214.11155 213.56268 213.15749 212.20726 213.44296
 215.19469 216.90453 218.01724 218.42908 219.49083 222.90215 228.23914 232.81339
 236.48117 240.22957 243.97018 247.52367 250.69231 253.42386 256.18265 259.16632
 261.79361 264.09613 266.38480 268.59589 270.70099 272.65683 274.29794 275.89810
 277.56512 279.28162 280.82330 282.18930 283.37659 284.42813 285.39124 286.26727
 287.06110 287.77396 288.40335 289.24246
 366.78100 356.33603 345.76906 334.63608 323.04011 311.23514 299.10617 286.91020
 274.62322 262.52125 250.53128 239.83331 229.95633 221.06136 213.24439 206.24742
 200.08245 195.02147 191.60450 189.64753 188.68556 188.75059 189.58661 190.89564
 192.62167 194.71770 196.98172 199.34175 201.78778 204.26881 206.35784 208.20086
 209.82789 210.97392 211.20395 211.43298 211.37100 211.07703 210.71106 210.34209
 209.96012 209.67114 209.48017 209.34520 209.27423 209.60625 209.99328 210.38331
 211.17734 212.35637 213.60739 215.39142 217.32045 219.36448 221.46051 223.54453
 225.60556 227.69059 229.78862 231.89565 234.02567 236.19870 238.45573 240.82676
 243.44878 245.70081 247.70384 249.46987 250.88790 252.01192 252.83495 253.15198
 253.19001 252.96504 252.32606 251.27509 249.88212 248.04415 245.95417 243.78820
 241.58023 239.38526 237.20629 235.04631 232.90734 230.77537 228.80240 226.96043
 225.24445 223.71748 222.34851 221.12154 220.00457 218.96559 218.07062 217.21265
 216.45568 215.63670 214.73573 214.10076 213.55179 213.17529 212.29103 213.55896
 215.26285 216.95357 218.11870 218.56877 219.65669 222.93513 228.21437 232.73639
 236.37109 240.11557 243.85175 247.37242 250.47491 253.17844 255.98845 259.04343
 261.63602 263.88715 266.17160 268.41870 270.55493 272.51804 274.16458 275.77249
 277.45953 279.18604 280.72931 282.09555 283.28226 284.33496 285.29828 286.17508
 286.96860 287.68179 288.31171 289.15054
 366.78100 356.33588 345.76876 334.63564 323.03952 311.23440 299.10529 286.90917
 274.62205 262.51993 250.52981 239.83169 229.95457 221.05945 213.24233 206.24521
 200.08010 195.01898 191.60186 189.64474 188.68262 188.74750 189.58338 190.89226
 192.61814 194.71402 196.97790 199.33779 201.78367 204.26455 206.35343 208.19631
 209.82319 210.96907 211.19895 211.42783 211.36571 211.07159 210.70548 210.33636
 209.95424 209.66512 209.47400 209.33888 209.26776 209.59964 209.98652 210.37640
 211.17029 212.34917 213.60005 215.38393 217.31281 219.35669 221.45257 223.53645
 225.59733 227.68221 229.78009 231.88698 234.01686 236.18974 238.44662 240.81750
 243.43938 245.69126 247.69414 249.46002 250.87790 252.00178 252.82467 253.14155
 253.17943 252.95431 252.31519 251.26407 249.87095 248.03283 245.94271 243.77659
 241.56848 239.37336 237.19424 235.03412 232.89500 230.76288 228.78976 226.94764
 225.23152 223.70440 222.33528 221.10817 219.99105 218.95193 218.05681 217.19869
 216.44157 215.62245 214.72133 214.08621 213.53709 213.19237 212.38130 213.66982
 215.32188 217.00201 218.22163 218.70857 219.83452 222.96957 228.19106 232.66675
 236.27049 240.01038 243.73413 247.21710 250.25787 252.93791 255.79150 258.90668
 261.47134 263.67911 265.95831 268.23672 270.40582 272.37997 274.03555 275.65234
 277.35699 279.08716 280.63065 281.99738 283.18417 284.23843 285.20081 286.07709
 286.87253 287.58524 288.21542 289.05536
 366.78100 356.33569 345.76839 334.63508 323.03878 311.23347 299.10417 286.90786
 274.62055 262.51825 250.52794 239.82964 229.95233 221.05702 213.23972 206.24241
 200.07711 195.01580 191.59850 189.64119 188.67888 188.74358 189.57927 190.88797
 192.61366 194.70935 196.97305 199.33274 201.77844 204.25913 206.34783 208.19052
 209.81721 210.96291 211.19260 211.42130 211.35899 211.06468 210.69838 210.32907
 209.94677 209.65746 209.46616 209.33085 209.25954 209.59124 209.97793 210.36763
 211.16132 212.34001 213.59071 215.37440 217.30310 219.34679 221.44249 223.52618
 225.58687 227.67157 229.76926 231.87596 234.00565 236.17834 238.43504 240.80573
 243.42743 245.67912 247.68182 249.44751 250.86520 251.98890 252.81159 253.12829
 253.16598 252.94067 252.30137 251.25006 249.85676 248.01845 245.92815 243.76184
 241.55353 239.35823 237.17892 235.01862 232.87931 230.74700 228.77370 226.93139
 225.21509 223.68778 222.31848 221.09117 219.97386 218.93456 218.03925 217.18095
 216.42364 215.60433 214.70303 214.06772 213.51842 213.20857 212.47816 213.77580
 215.36853 217.04828 218.32994 218.84332 220.02264 223.00262 228.16968 232.59990
 236.17883 239.91446 243.62099 247.06099 250.04166 252.70154 255.59192 258.75598
 261.29932 263.47336 265.74872 268.05530 270.25690 272.24597 273.91446 275.54105
 277.25369 278.98215 280.52545 281.89233 283.07913 284.13266 285.09628 285.97256
 286.76819 287.48224 288.11346 288.95288
 366.78100 356.33547 345.76794 334.63441 323.03788 311.23235 299.10282 286.90629
 274.61876 262.51623 250.52570 239.82717 229.94964 221.05411 213.23658 206.23905
 200.07352 195.01199 191.59446 189.63693 188.67440 188.73887 189.57434 190.88281
 192.60828 194.70375 196.96722 199.32669 201.77216 204.25263 206.34110 208.18357
 209.81004 210.95551 211.18498 211.41345 211.35092 211.05639 210.68986 210.32032
 209.93779 209.64826 209.45673 209.32120 209.24967 209.58114 209.96761 210.35708
 211.15055 212.32902 213.57949 215.36296 217.29143 219.33490 221.43037 223.51384
 225.57431 227.65878 229.75625 231.86272 233.99219 236.16466 238.42113 240.79160
 243.41307 245.66454 247.66701 249.43248 250.84995 251.97342 252.79589 253.11236
 253.14983 252.92430 252.28477 251.23324 249.83971 248.00118 245.91065 243.74412
 241.53559 239.34006 237.16053 235.00000 232.86047 230.72794 228.75441 226.91188
 225.19535 223.66782 222.29829 221.07076 219.95323 218.91370 218.01817 217.15964
 216.40211 215.58258 214.68105 214.04552 213.49599 213.22385 212.58090 213.87962
 215.40337 217.09299 218.44231 218.97215 220.21288 223.03984 228.14543 232.53651
 236.09279 239.82690 243.51117 246.90199 249.82458 252.46956 255.39189 258.59268
 261.12039 263.26883 265.54288 267.87738 270.11096 272.12024 273.80475 275.44089
 277.14978 278.87262 280.41592 281.78226 282.96896 284.02252 284.98813 285.86493
 286.66052 287.37518 288.00659 288.84799
 366.78100 356.33526 345.76751 334.63377 323.03703 311.23129 299.10154 286.90480
 274.61706 262.51432 250.52357 239.82483 229.94709 221.05135 213.23360 206.23586
 200.07012 195.00838 191.59063 189.63289 188.67015 188.73441 189.56966 190.87792
 192.60318 194.69844 196.96169 199.32095 201.76621 204.24647 206.33472 208.17698
 209.80324 210.94850 211.17775 211.40601 211.34327 211.04853 210.68178 210.31204
 209.92930 209.63956 209.44781 209.31207 209.24033 209.57159 209.95784 210.34710
 211.14036 212.31862 213.56887 215.35213 217.28039 219.32365 221.41890 223.50216
 225.56242 227.64668 229.74393 231.85019 233.97945 236.15171 238.40796 240.77822
 243.39948 245.65074 247.65299 249.41825 250.83551 251.95877 252.78102 253.09728
 253.13454 252.90880 252.26905 251.21731 249.82357 247.98482 245.89408 243.72734
 241.51860 239.32285 237.14311 234.98237 232.84263 230.70988 228.73614 226.89340
 225.17666 223.64891 222.27917 221.05143 219.93369 218.89394 217.99820 217.13946
 216.38172 215.56197 214.66023 214.02449 213.47475 213.24049 212.68704 213.98431
 215.43234 217.12976 218.55881 219.09656 220.41750 223.07054 228.12326 232.47719
 236.00636 239.74345 243.40651 246.74371 249.60771 252.24013 255.18829 258.41345
 260.93027 263.06552 265.34479 267.70728 269.97379 272.00720 273.71002 275.35046
 277.04630 278.76129 280.30432 281.67014 282.85773 283.91187 284.87631 285.75519
 286.55170 287.26724 287.89807 288.74283
 366.78100 356.33500 345.76701 334.63301 323.03601 311.23002 299.10002 286.90302
 274.61503 262.51203 250.52103 239.82204 229.94404 221.04804 213.23005 206.23205
 200.06605 195.00406 191.58606 189.62806 188.66507 188.72907 189.56407 190.87208
 192.59708 194.69209 196.95509 199.31409 201.75910 204.23910 206.32710 208.16911
 209.79511 210.94011 211.16912 211.39712 211.33412 211.03913 210.67213 210.30213
 209.91914 209.62914 209.43714 209.30115 209.22915 209.56015 209.94616 210.33516
 211.12816 212.30617 213.55617 215.33917 217.26718 219.31018 221.40518 223.48819
 225.54819 227.63219 229.72920 231.83520 233.96420 236.13621 238.39221 240.76221
 243.38322 245.63422 247.63622 249.40123 250.81823 251.94124 252.76324 253.07924
 253.11625 252.89025 252.25025 251.19826 249.80426 247.96526 245.87427 243.70727
 241.49827 239.30228 237.12228 234.96128 232.82129 230.68829 228.71429 226.87130
 225.15430 223.62630 222.25631 221.02831 219.91031 218.87032 217.97432 217.11532
 216.35733 215.53733 214.63533 213.99934 213.44934 213.25531 212.79692 214.09525
 215.44901 217.16397 218.67059 219.22823 220.60597 223.12718 228.09622 232.41591
 235.92390 239.66895 243.31061 246.58720 249.38910 252.00935 254.97902 258.21991
 260.73364 262.87170 265.15970 267.54529 269.84277 271.90088 273.62277 275.26273
 276.94083 278.65643 280.19937 281.56418 282.75186 283.80646 284.77258 285.65002
 286.44867 287.16534 287.79755 288.64240
 366.78100 356.33492 345.76685 334.63277 323.03569 311.22962 299.09954 286.90246
 274.61439 262.51131 250.52023 239.82115 229.94308 221.04700 213.22892 206.23085
 200.06477 195.00269 191.58462 189.62654 188.66346 188.72739 189.56231 190.87023
 192.59516 194.69008 196.95300 199.31192 201.75685 204.23677 206.32469 208.16662
 209.79254 210.93746 211.16639 211.39431 211.33123 211.03616 210.66908 210.29900
 209.91593 209.62585 209.43377 209.29770 209.22562 209.55654 209.94246 210.33139
 211.12431 212.30223 213.55216 215.33508 217.26300 219.30593 221.40085 223.48377
 225.54370 227.62762 229.72454 231.83047 233.95939 236.13131 238.38724 240.75716
 243.37808 245.62900 247.63093 249.39585 250.81277 251.93570 252.75762 253.07354
 253.11047 252.88439 252.24431 251.19224 249.79816 247.95908 245.86801 243.70093
 241.49185 239.29577 237.11570 234.95462 232.81454 230.68147 228.70739 226.86431
 225.14724 223.61916 222.24908 221.02101 219.90293 218.86285 217.96678 217.10770
 216.34962 215.52955 214.62747 213.99139 213.44131 213.27829 212.89311 214.22737
 215.47064 217.15726 218.78433 219.35007 220.85896 223.14026 228.08118 232.38422
 235.85817 239.59837 243.20659 246.41318 249.15256 251.76808 254.76247 258.01553
 260.54050 262.69568 264.99380 267.39749 269.72186 271.80652 273.54773 275.18555
 276.84424 278.54916 280.09024 281.45602 282.64313 283.69757 284.66235 285.54361
 286.34119 287.05682 287.69128 288.53726
 366.78100 356.33475 345.76650 334.63225 323.03500 311.22875 299.09849 286.90124
 274.61299 262.50974 250.51849 239.81924 229.94099 221.04474 213.22649 206.22824
 200.06198 194.99973 191.58148 189.62323 188.65998 188.72373 189.55848 190.86623
 192.59098 194.68573 196.94848 199.30722 201.75197 204.23172 206.31947 208.16122
 209.78697 210.93172 211.16047 211.38822 211.32497 211.02971 210.66246 210.29221
 209.90896 209.61871 209.42646 209.29021 209.21796 209.54871 209.93446 210.32321
 211.11595 212.29370 213.54345 215.32620 217.25395 219.29670 221.39145 223.47420
 225.53395 227.61770 229.71444 231.82019 233.94894 236.12069 238.37644 240.74619
 243.36694 245.61769 247.61944 249.38419 250.80094 251.92368 252.74543 253.06118
 253.09793 252.87168 252.23143 251.17918 249.78493 247.94568 245.85443 243.68717
 241.47792 239.28167 237.10142 234.94017 232.79992 230.66667 228.69242 226.84917
 225.13192 223.60366 222.23341 221.00516 219.88691 218.84666 217.95041 217.09116
 216.33291 215.51266 214.61041 213.97416 213.42390 213.29773 212.99966 214.32024
 215.58513 217.12965 218.76744 219.55370 221.01462 223.35355 228.06053 232.29764
 235.76044 239.50024 243.07730 246.21971 248.90720 251.52518 254.54431 257.80829
 260.35477 262.53369 264.84235 267.26038 269.61090 271.72296 273.48361 275.11649
 276.75040 278.45374 279.99484 281.36115 282.54901 283.60535 284.57468 285.45749
 286.26758 286.99237 287.62939 288.47626
 366.78100 356.33421 345.76542 334.63063 323.03284 311.22605 299.09526 286.89747
 274.60868 262.50489 250.51310 239.81331 229.93452 221.03774 213.21895 206.22016
 200.05337 194.99058 191.57179 189.61300 188.64921 188.71242 189.54663 190.85384
 192.57805 194.67226 196.93447 199.29268 201.73689 204.21610 206.30331 208.14452
 209.76973 210.91394 211.14215 211.36936 211.30557 211.00979 210.64200 210.27121
 209.88742 209.59663 209.40384 209.26705 209.19426 209.52447 209.90968 210.29789
 211.09010 212.26731 213.51652 215.29873 217.22594 219.26815 221.36236 223.44457
 225.50378 227.58699 229.68320 231.78841 233.91662 236.08783 238.34305 240.71226
 243.33247 245.58268 247.58389 249.34810 250.76431 251.88652 252.70773 253.02294
 253.05915 252.83236 252.19157 251.13878 249.74399 247.90420 245.81241 243.64462
 241.43483 239.23804 237.05725 234.89546 232.75467 230.62088 228.64610 226.80231
 225.08452 223.55573 222.18494 220.95615 219.83736 218.79657 217.89978 217.03999
 216.28120 215.46041 214.55762 213.92083 213.37004 213.29921 213.13185 214.41695
 215.62631 217.13753 218.81070 219.76015 221.14944 223.55835 228.02867 232.18906
 235.65382 239.40193 242.94820 246.02405 248.65987 251.28262 254.32713 257.59863
 260.17279 262.38071 264.70212 267.13452 269.50766 271.64865 273.43146 275.06277
 276.66125 278.36890 279.91074 281.27612 282.46451 283.52206 284.49188 285.37939
 286.18875 286.91742 287.55743 288.40387
 366.78100 356.33369 345.76437 334.62906 323.03074 311.22343 299.09211 286.89380
 274.60448 262.50017 250.50785 239.80754 229.92822 221.03091 213.21159 206.21228
 200.04496 194.98165 191.56233 189.60302 188.63870 188.70139 189.53507 190.84176
 192.56544 194.65913 196.92081 199.27850 201.72218 204.20087 206.28755 208.12824
 209.75292 210.89661 211.12429 211.35098 211.28666 210.99035 210.62203 210.25072
 209.86640 209.57509 209.38177 209.24446 209.17114 209.50083 209.88551 210.27320
 211.06488 212.24157 213.49025 215.27194 217.19862 219.24031 221.33399 223.41568
 225.47436 227.55705 229.65273 231.75742 233.88510 236.05579 238.31047 240.67916
 243.29884 245.54853 247.54921 249.31290 250.72858 251.85027 252.67095 252.98564
 253.02132 252.79401 252.15269 251.09938 249.70406 247.86375 245.77143 243.60312
 241.39280 239.19549 237.01417 234.85186 232.71054 230.57623 228.60091 226.75660
 225.03828 223.50897 222.13765 220.90834 219.78902 218.74771 217.85039 216.99008
 216.23076 215.40945 214.50613 213.86882 213.31750 213.30054 213.26044 214.52768
 215.65501 217.14996 218.87479 219.95546 221.30469 223.72226 227.99908 232.09378
 235.56105 239.31177 242.81419 245.81302 248.39792 251.03372 254.10892 257.38730
 259.99609 262.24017 264.57803 267.02161 269.41470 271.58340 273.38840 275.01553
 276.58170 278.29285 279.83524 281.20087 282.38965 283.44604 284.41714 285.30627
 286.11539 286.84625 287.48322 288.33261
 366.78100 356.33316 345.76331 334.62747 323.02863 311.22078 299.08894 286.89010
 274.60025 262.49541 250.50257 239.80172 229.92188 221.02404 213.20419 206.20435
 200.03651 194.97266 191.55282 189.59298 188.62813 188.69029 189.52345 190.82960
 192.55276 194.64592 196.90707 199.26423 201.70739 204.18554 206.27170 208.11186
 209.73601 210.87917 211.10633 211.33248 211.26764 210.97080 210.60195 210.23011
 209.84527 209.55342 209.35958 209.22174 209.14789 209.47705 209.86121 210.24836
 211.03952 212.21568 213.46383 215.24499 217.17115 219.21230 221.30546 223.38662
 225.44477 227.52693 229.62208 231.72624 233.85340 236.02355 238.27771 240.64587
 243.26502 245.51418 247.51434 249.27749 250.69265 251.81381 252.63396 252.94812
 252.98328 252.75543 252.11359 251.05975 249.66390 247.82306 245.73022 243.56137
 241.35053 239.15269 236.97084 234.80800 232.66616 230.53131 228.55547 226.71063
 224.99178 223.46194 222.09010 220.86025 219.74041 218.69857 217.80072 216.93988
 216.18004 215.35819 214.45435 213.81651 213.26466 213.30063 213.38562 214.64478
 215.69969 217.16444 218.94016 220.13800 221.46558 223.85760 227.96985 232.01598
 235.47917 239.21754 242.66025 245.57941 248.12494 250.78351 253.89352 257.17847
 259.82913 262.11768 264.47394 266.92657 269.33533 271.52936 273.35590 274.98355
 276.51627 278.22012 279.76248 281.12811 282.31696 283.37393 284.34482 285.23172
 286.04590 286.77237 287.41516 288.26154
 366.78100 356.33259 345.76218 334.62577 323.02636 311.21795 299.08554 286.88613
 274.59572 262.49031 250.49691 239.79550 229.91509 221.01668 213.19627 206.19586
 200.02745 194.96304 191.54263 189.58222 188.61681 188.67840 189.51099 190.81658
 192.53917 194.63176 196.89235 199.24894 201.69154 204.16913 206.25472 208.09431
 209.71790 210.86049 211.08708 211.31267 211.24726 210.94985 210.58044 210.20803
 209.82262 209.53021 209.33580 209.19739 209.12298 209.45157 209.83516 210.22176
 211.01235 212.18794 213.43553 215.21612 217.14171 219.18230 221.27489 223.35548
 225.41307 227.49466 229.58925 231.69284 233.81943 235.98902 238.24261 240.61020
 243.22879 245.47738 247.47698 249.23957 250.65416 251.77475 252.59434 252.90793
 252.94252 252.71411 252.07170 251.01729 249.62088 247.77947 245.68606 243.51665
 241.30524 239.10683 236.92442 234.76101 232.61861 230.48320 228.50679 226.66138
 224.94197 223.41156 222.03915 220.80874 219.68833 218.64592 217.74751 216.88610
 216.12569 215.30328 214.39887 213.76046 213.20805 213.29700 213.50714 214.77089
 215.75577 217.18901 219.01097 220.30922 221.63058 223.97218 227.94067 231.94464
 235.39337 239.10442 242.48105 245.32974 247.84790 250.53438 253.68030 256.97211
 259.66971 262.00879 264.38754 266.84900 269.27014 271.48538 273.33423 274.96829
 276.46555 278.15472 279.69495 281.06146 282.24963 283.30670 284.27707 285.16702
 285.97830 286.70679 287.34775 288.19733
 366.78100 356.33199 345.76097 334.62396 323.02395 311.21493 299.08192 286.88191
 274.59089 262.48488 250.49086 239.78885 229.90784 221.00882 213.18781 206.18680
 200.01778 194.95277 191.53176 189.57074 188.60473 188.66572 189.49770 190.80269
 192.52467 194.61666 196.87665 199.23263 201.67462 204.15161 206.23659 208.07558
 209.69857 210.84055 211.06654 211.29153 211.22551 210.92750 210.55748 210.18447
 209.79846 209.50544 209.31043 209.17142 209.09640 209.42439 209.80738 210.19336
 210.98335 212.15834 213.40532 215.18531 217.11029 219.15028 221.24227 223.32225
 225.37924 227.46023 229.55421 231.65720 233.78319 235.95217 238.20516 240.57215
 243.19013 245.43812 247.43711 249.19909 250.61308 251.73306 252.55205 252.86504
 252.89902 252.67001 252.02700 250.97198 249.57497 247.73296 245.63894 243.46893
 241.25692 239.05790 236.87489 234.71087 232.56786 230.43185 228.45483 226.60882
 224.88881 223.35779 221.98478 220.75377 219.63275 218.58974 217.69073 216.82871
 216.06770 215.24468 214.33967 213.70066 213.14764 213.28934 213.62410 214.90746
 215.82462 217.22646 219.08754 220.46722 221.79831 224.07350 227.91693 231.86789
 235.29378 238.96667 242.27757 245.06653 247.56659 250.28517 253.47005 256.77213
 259.51837 261.91019 264.31390 266.78461 269.21552 271.45197 273.32410 274.97562
 276.45779 278.09531 279.62964 280.99475 282.18277 283.23755 284.20773 285.09705
 285.90936 286.63821 287.27875 288.12817
 366.78100 356.33127 345.75954 334.62181 323.02108 311.21135 299.07762 286.87689
 274.58516 262.47843 250.48370 239.78097 229.89924 220.99951 213.17778 206.17605
 200.00632 194.94059 191.51886 189.55713 188.59040 188.65067 189.48194 190.78621
 192.50748 194.59875 196.85803 199.21330 201.65457 204.13084 206.21511 208.05338
 209.67565 210.81692 211.04219 211.26646 211.19973 210.90100 210.53027 210.15654
 209.76981 209.47608 209.28035 209.14062 209.06489 209.39216 209.77443 210.15970
 210.94897 212.12324 213.36951 215.14878 217.07305 219.11232 221.20359 223.28286
 225.33913 227.41940 229.51267 231.61494 233.74021 235.90848 238.16075 240.52702
 243.14429 245.39156 247.38983 249.15110 250.56437 251.68364 252.50191 252.81418
 252.84745 252.61772 251.97399 250.91826 249.52053 247.67780 245.58308 243.41235
 241.19962 238.99989 236.81616 234.65143 232.50770 230.37097 228.39324 226.54651
 224.82578 223.29405 221.92032 220.68859 219.56686 218.52313 217.62340 216.76067
 215.99894 215.17521 214.26948 213.62975 213.07602 213.27473 213.74422 215.04485
 215.90149 217.27634 219.17609 220.62079 221.97261 224.17221 227.90155 231.78386
 235.18166 238.80659 242.04584 244.77879 247.27089 250.03162 253.26254 256.58072
 259.37753 261.82449 264.25476 266.73450 269.16949 271.41830 273.31259 274.98859
 276.52173 278.04086 279.56281 280.93158 282.12112 283.17856 284.15210 285.03961
 285.85226 286.58554 287.22653 288.07513
 366.78100 356.33094 345.75888 334.62082 323.01976 311.20969 299.07563 286.87457
 274.58251 262.47545 250.48039 239.77733 229.89527 220.99521 213.17314 206.17108
 200.00102 194.93496 191.51290 189.55084 188.58378 188.64372 189.47466 190.77860
 192.49953 194.59047 196.84941 199.20435 201.64529 204.12123 206.20517 208.04311
 209.66505 210.80598 211.03092 211.25486 211.18780 210.88874 210.51768 210.14362
 209.75656 209.46250 209.26643 209.12637 209.05031 209.37725 209.75919 210.14413
 210.93307 212.10701 213.35295 215.13189 217.05582 219.09476 221.18570 223.26464
 225.32058 227.40052 229.49346 231.59540 233.72034 235.88827 238.14021 240.50615
 243.12309 245.37003 247.36797 249.12891 250.54185 251.66079 252.47872 252.79066
 252.82360 252.59354 251.94948 250.89342 249.49536 247.65230 245.55724 243.38618
 241.17311 238.97305 236.78899 234.62393 232.47987 230.34281 228.36475 226.51769
 224.79663 223.26456 221.89050 220.65844 219.53638 218.49232 217.59226 216.72920
 215.96714 215.14308 214.23701 213.59695 213.04289 213.28053 213.84198 215.17714
 216.01361 217.35069 219.27287 220.76262 222.14096 224.26802 227.89114 231.69957
 235.06473 238.62546 241.78011 244.45985 246.96088 249.77930 253.06253 256.40588
 259.25150 261.74896 264.21170 266.70029 269.13464 271.38583 273.29227 274.97626
 276.52567 278.02560 279.54858 280.91721 282.10718 283.16565 284.13840 285.02902
 285.84613 286.57788 287.22150 288.07175
 366.78100 356.33226 345.76153 334.62479 323.02506 311.21632 299.08359 286.88385
 274.59311 262.48738 250.49364 239.79191 229.91117 221.01244 213.19170 206.19096
 200.02223 194.95749 191.53676 189.57602 188.61029 188.67155 189.50381 190.80908
 192.53134 194.62361 196.88387 199.24014 201.68240 204.15966 206.24493 208.08419
 209.70746 210.84972 211.07599 211.30125 211.23551 210.93778 210.56804 210.19531
 209.80957 209.51684 209.32210 209.18337 209.10863 209.43689 209.82016 210.20642
 210.99669 212.17195 213.41922 215.19948 217.12474 219.16501 221.25727 223.33754
 225.39480 227.47607 229.57033 231.67359 233.79986 235.96912 238.22239 240.58965
 243.20792 245.45618 247.45544 249.21771 250.63197 251.75224 252.57150 252.88477
 252.91903 252.69029 252.04756 250.99282 249.59609 247.75435 245.66062 243.49088
 241.27914 239.08041 236.89767 234.73394 232.59120 230.45547 228.47873 226.63299
 224.91326 223.38252 222.00979 220.77905 219.65832 218.61558 217.71684 216.85511
 216.09437 215.27164 214.36690 213.72817 213.17543 213.37907 213.86470 215.24292
 216.19623 217.46625 219.38361 220.88747 222.27734 224.31218 227.83025 231.61264
 234.92805 238.40909 241.45375 244.06940 246.58363 249.48100 252.84769 256.24182
 259.13040 261.76120 264.22458 266.70810 269.12396 271.36087 273.26605 274.93378
 276.45178 277.99860 279.54572 280.91287 282.10095 283.15552 284.12408 285.00949
 285.81909 286.54565 287.21164 288.06033
 366.78100 356.33287 345.76273 334.62660 323.02746 311.21933 299.08719 286.88806
 274.59792 262.49279 250.49965 239.79852 229.91839 221.02025 213.20012 206.19998
 200.03185 194.96771 191.54758 189.58744 188.62231 188.68418 189.51704 190.82291
 192.54577 194.63864 196.89950 199.25637 201.69923 204.17710 206.26296 208.10283
 209.72670 210.86956 211.09643 211.32229 211.25716 210.96002 210.59089 210.21875
 209.83362 209.54149 209.34735 209.20922 209.13508 209.46395 209.84781 210.23468
 211.02554 212.20141 213.44927 215.23014 217.15601 219.19687 221.28974 223.37060
 225.42847 227.51033 229.60520 231.70906 233.83593 236.00580 238.25966 240.62753
 243.24639 245.49526 247.49512 249.25799 250.67285 251.79372 252.61358 252.92745
 252.96232 252.73418 252.09205 251.03791 249.64178 247.80064 245.70751 243.53837
 241.32724 239.12911 236.94697 234.78384 232.64170 230.50657 228.53043 226.68530
 224.96616 223.43603 222.06389 220.83376 219.71363 218.67149 217.77336 216.91222
 216.15209 215.32995 214.42582 213.78768 213.23555 213.44402 213.96356 215.28056
 216.27429 217.52513 219.46074 221.02678 222.46309 224.39014 227.76944 231.58286
 234.81279 238.21443 241.14806 243.70892 246.26488 249.24904 252.66974 256.07590
 259.02240 261.69693 264.27744 266.75424 269.13379 271.31332 273.22729 274.85999
 276.40317 277.96378 279.51306 280.88092 282.07053 283.12787 284.10538 285.00452
 285.85986 286.64078 287.32300 288.19238
 366.78100 356.33146 345.75992 334.62238 323.02183 311.21229 299.07875 286.87821
 274.58667 262.48013 250.48558 239.78304 229.90150 221.00196 213.18042 206.17888
 200.00934 194.94379 191.52225 189.56071 188.59417 188.65463 189.48609 190.79055
 192.51200 194.60346 196.86292 199.21838 201.65984 204.13630 206.22075 208.05921
 209.68167 210.82313 211.04859 211.27305 211.20651 210.90796 210.53742 210.16388
 209.77734 209.48380 209.28826 209.14871 209.07317 209.40063 209.78309 210.16855
 210.95801 212.13247 213.37892 215.15838 217.08284 219.12230 221.21376 223.29322
 225.34968 227.43013 229.52359 231.62605 233.75151 235.91997 238.17243 240.53888
 243.15634 245.40380 247.40226 249.16372 250.57718 251.69664 252.51509 252.82755
 252.86101 252.63147 251.98793 250.93239 249.53484 247.69230 245.59776 243.42722
 241.21468 239.01514 236.83160 234.66705 232.52351 230.38697 228.40943 226.56289
 224.84235 223.31081 221.93726 220.70572 219.58418 218.54064 217.64110 216.77856
 216.01701 215.19347 214.28793 213.64839 213.09485 213.39963 214.15620 215.37354
 216.23303 217.49950 219.48430 221.19051 222.72990 224.63226 227.87328 231.62389
 234.71159 237.95526 240.78613 243.33635 245.97549 249.04549 252.49835 255.86313
 258.87180 261.66315 264.26843 266.74854 269.11618 271.28537 273.20071 274.84790
 276.42590 277.98215 279.51959 280.89606 282.09854 283.18289 284.19675 285.18781
 286.07938 286.87335 287.56693 288.45084
 366.78100 356.33058 345.75817 334.61975 323.01834 311.20792 299.07351 286.87209
 274.57968 262.47226 250.47685 239.77343 229.89102 220.99060 213.16819 206.16577
 199.99536 194.92894 191.50653 189.54411 188.57670 188.63628 189.46687 190.77045
 192.49104 194.58162 196.84021 199.19479 201.63538 204.11096 206.19455 208.03213
 209.65372 210.79430 211.01889 211.24247 211.17506 210.87564 210.50423 210.12981
 209.74240 209.44798 209.25157 209.11115 209.03474 209.36132 209.74291 210.12749
 210.91608 212.08966 213.33525 215.11383 217.03742 219.07600 221.16659 223.24517
 225.30076 227.38034 229.47293 231.57451 233.69910 235.86668 238.11827 240.48385
 243.10043 245.34702 247.34460 249.10519 250.51777 251.63636 252.45394 252.76553
 252.79811 252.56770 251.92328 250.86687 249.46845 247.62504 245.52962 243.35821
 241.14479 238.94438 236.75996 234.59455 232.45013 230.31272 228.33430 226.48689
 224.76547 223.23306 221.85864 220.62623 219.50381 218.45940 217.55898 216.69557
 215.93315 215.10874 214.20232 213.56191 213.00749 213.38333 214.30746 215.45326
 216.27528 217.61079 219.59227 221.34541 222.94022 224.82993 227.96582 231.63026
 234.61005 237.69183 240.40555 242.92747 245.62906 248.79401 252.29060 255.57700
 258.75085 261.62497 264.20462 266.69363 269.07190 271.24109 273.16629 274.85898
 276.45309 278.01410 279.56522 280.94717 282.16422 283.26862 284.35794 285.35126
 286.24463 287.04019 287.73517 288.62085
 366.78100 356.33073 345.75845 334.62018 323.01890 311.20863 299.07436 286.87308
 274.58081 262.47354 250.47826 239.77499 229.89271 220.99244 213.17017 206.16789
 199.99762 194.93135 191.50907 189.54680 188.57952 188.63925 189.46998 190.77370
 192.49443 194.58516 196.84388 199.19861 201.63933 204.11506 206.19879 208.03651
 209.65824 210.79897 211.02369 211.24742 211.18014 210.88087 210.50960 210.13532
 209.74805 209.45377 209.25750 209.11723 209.04095 209.36768 209.74941 210.13413
 210.92286 212.09658 213.34231 215.12104 217.04476 219.08349 221.17422 223.25294
 225.30867 227.38839 229.48112 231.58285 233.70757 235.87530 238.12703 240.49275
 243.10948 245.35620 247.35393 249.11466 250.52738 251.64611 252.46384 252.77556
 252.80829 252.57801 251.93374 250.87747 249.47919 247.63592 245.54064 243.36937
 241.15610 238.95582 236.77155 234.60628 232.46200 230.32473 228.34645 226.49918
 224.77791 223.24563 221.87136 220.63909 219.51681 218.47254 217.57226 216.70899
 215.94672 215.12244 214.21617 213.57590 213.02162 213.40590 214.36295 215.61961
 216.43384 217.74974 219.72746 221.46083 223.07167 224.97122 228.03264 231.62617
 234.50645 237.42014 239.97948 242.45990 245.23074 248.49596 252.09720 255.43675
 258.68793 261.54971 264.16254 266.69165 269.07822 271.22015 273.13208 274.83197
 276.45578 278.09207 279.65729 281.04932 282.27911 283.41946 284.51648 285.51035
 286.40417 287.20016 287.89551 288.78168
 366.78100 356.33026 345.75753 334.61879 323.01705 311.20631 299.07158 286.86984
 274.57710 262.46936 250.47363 239.76989 229.88715 220.98641 213.16368 206.16094
 199.99020 194.92347 191.50073 189.53799 188.57025 188.62952 189.45978 190.76304
 192.48330 194.57357 196.83183 199.18609 201.62635 204.10162 206.18488 208.02214
 209.64340 210.78367 211.00793 211.23119 211.16346 210.86372 210.49198 210.11724
 209.72951 209.43477 209.23803 209.09729 209.02056 209.34682 209.72808 210.11234
 210.90061 212.07387 213.31913 215.09740 217.02066 219.05892 221.14918 223.22745
 225.28271 227.36197 229.45423 231.55550 233.67976 235.84702 238.09828 240.46355
 243.07981 245.32607 247.32334 249.08360 250.49586 251.61412 252.43139 252.74265
 252.77491 252.54417 251.89944 250.84270 249.44396 247.60022 245.50449 243.33275
 241.11901 238.91828 236.73354 234.56780 232.42306 230.28533 228.30659 226.45885
 224.73711 223.20438 221.82964 220.59690 219.47416 218.42943 217.52869 216.66495
 215.90221 215.07748 214.17074 213.53000 212.97527 213.39665 214.43997 215.75089
 216.67793 217.77740 219.73117 221.60358 223.29083 225.16328 228.12277 231.62415
 234.37875 237.09746 239.49573 241.95168 244.80089 248.18971 251.92035 255.38191
 258.54843 261.48276 264.16602 266.73135 269.10266 271.21716 273.11133 274.83612
 276.46576 278.12408 279.69006 281.08237 282.31094 283.45602 284.54639 285.53415
 286.42258 287.21368 287.90479 288.78555
 366.78100 356.32830 345.75360 334.61289 323.00919 311.19649 299.05979 286.85608
 274.56138 262.45168 250.45398 239.74828 229.86357 220.96087 213.13617 206.13147
 199.95876 194.89006 191.46536 189.50066 188.53096 188.58825 189.41655 190.71785
 192.43615 194.52444 196.78074 199.13304 201.57134 204.04464 206.12593 207.96123
 209.58053 210.71883 210.94112 211.16242 211.09272 210.79102 210.41732 210.04061
 209.65091 209.35421 209.15551 209.01280 208.93410 209.25840 209.63770 210.02000
 210.80629 211.97759 213.22089 214.99719 216.91848 218.95478 221.04308 223.11938
 225.17268 227.24997 229.34027 231.43957 233.56187 235.72716 237.97646 240.33976
 242.95406 245.19836 247.19365 248.95195 250.36225 251.47855 252.29384 252.60314
 252.63344 252.40074 251.75404 250.69533 249.29463 247.44893 245.35123 243.17752
 240.96182 238.75912 236.57242 234.40472 232.25801 230.11831 228.13761 226.28791
 224.56420 223.02950 221.65280 220.41810 219.29340 218.24669 217.34399 216.47829
 215.71359 214.88688 213.97818 213.33548 212.77878 213.31096 214.60143 215.86781
 216.73167 217.93703 219.85725 221.73959 223.48808 225.35286 228.20334 231.64014
 234.27094 236.80774 239.07797 241.52501 244.44920 247.94148 251.75858 255.31900
 258.46909 261.38718 264.13104 266.75702 269.14157 271.24152 273.13364 274.88641
 276.52151 278.23489 279.80457 281.20840 282.45352 283.62943 284.72601 285.71945
 286.61295 287.40860 288.10367 288.98944
 366.78100 356.32831 345.75362 334.61293 323.00924 311.19656 299.05987 286.85618
 274.56149 262.45180 250.45411 239.74842 229.86373 220.96104 213.13635 206.13167
 199.95898 194.89029 191.46560 189.50091 188.53122 188.58853 189.41684 190.71815
 192.43647 194.52478 196.78109 199.13340 201.57171 204.04502 206.12633 207.96164
 209.58095 210.71926 210.94158 211.16289 211.09320 210.79151 210.41782 210.04113
 209.65144 209.35475 209.15606 209.01338 208.93469 209.25900 209.63831 210.02062
 210.80693 211.97824 213.22155 214.99786 216.91917 218.95549 221.04380 223.12011
 225.17342 227.25073 229.34104 231.44035 233.56266 235.72797 237.97729 240.34060
 242.95491 245.19922 247.19453 248.95284 250.36315 251.47946 252.29477 252.60408
 252.63440 252.40171 251.75502 250.69633 249.29564 247.44995 245.35226 243.17857
 240.96288 238.76020 236.57351 234.40582 232.25913 230.11944 228.13875 226.28906
 224.56537 223.03068 221.65400 220.41931 219.29462 218.24793 217.34524 216.47955
 215.71486 214.88817 213.97948 213.33679 212.78011 213.32549 214.66595 216.02557
 216.84668 218.16837 220.06145 221.83136 223.52379 225.41821 228.32338 231.63324
 234.15227 236.54704 238.71550 241.12752 244.12077 247.73015 251.62164 255.26192
 258.41837 261.34323 264.14368 266.79062 269.16757 271.24536 273.11844 274.87454
 276.60403 278.40576 279.98917 281.41360 282.73083 283.94543 285.05356 286.05743
 286.96033 287.76434 288.46674 289.36182
 366.78100 356.32910 345.75520 334.61530 323.01240 311.20050 299.06460 286.86169
 274.56779 262.45889 250.46199 239.75709 229.87319 220.97129 213.14739 206.14349
 199.97159 194.90369 191.47979 189.51588 188.54698 188.60508 189.43418 190.73628
 192.45538 194.54448 196.80158 199.15468 201.59378 204.06788 206.14998 207.98607
 209.60617 210.74527 210.96837 211.19047 211.12157 210.82067 210.44777 210.07187
 209.68297 209.38707 209.18917 209.04726 208.96936 209.29446 209.67456 210.05766
 210.84476 212.01686 213.26096 215.03806 216.96016 218.99726 221.08636 223.16345
 225.21755 227.29565 229.38675 231.48685 233.60995 235.77605 238.02615 240.39025
 243.00535 245.25045 247.24655 249.00564 250.41674 251.53384 252.34994 252.66004
 252.69114 252.45924 251.81334 250.75544 249.35554 247.51064 245.41374 243.24083
 241.02593 238.82403 236.63813 234.47123 232.32533 230.18643 228.20653 226.35763
 224.63473 223.10083 221.72493 220.49102 219.36712 218.32122 217.41932 216.55442
 215.79052 214.96462 214.05672 213.41482 212.85892 213.38423 214.70937 216.14807
 216.97943 218.47417 220.30540 221.94374 223.55170 225.47910 228.43950 231.57233
 234.03036 236.29681 238.33051 240.67110 243.74930 247.44188 251.47270 255.16136
 258.33997 261.35696 264.16147 266.79639 269.14435 271.19434 273.05368 274.78906
 276.69379 278.50195 280.10175 281.57925 282.92761 284.12054 285.20892 286.19492
 287.08173 287.87143 288.56128 289.44043
 366.78100 356.32514 345.74728 334.60342 322.99656 311.18070 299.04084 286.83398
 274.53612 262.42326 250.42240 239.71354 229.82569 220.91983 213.09197 206.08411
 199.90825 194.83639 191.40853 189.44067 188.46781 188.52195 189.34709 190.64523
 192.36037 194.44551 196.69865 199.04779 201.48293 203.95307 206.03121 207.86335
 209.47949 210.61463 210.83377 211.05192 210.97906 210.67420 210.29734 209.91748
 209.52462 209.22476 209.02290 208.87704 208.79518 209.11632 209.49246 209.87160
 210.65474 211.82288 213.06302 214.83616 216.75430 218.78744 220.87258 222.94572
 224.99586 227.07000 229.15715 231.25329 233.37243 235.53457 237.78071 240.14085
 242.75199 244.99313 246.98527 248.74041 250.14755 251.26069 252.07283 252.37897
 252.40611 252.17025 251.52039 250.45853 249.05467 247.20581 245.10495 242.92809
 240.70923 238.50338 236.31352 234.14266 231.99280 229.84994 227.86608 226.01322
 224.28636 222.74850 221.36864 220.13078 219.00292 217.95306 217.04720 216.17834
 215.41048 214.58062 213.66876 213.02290 212.46304 213.20416 214.98604 216.28172
 217.00180 218.61044 220.46185 222.09987 223.66194 225.57953 228.52193 231.51282
 233.91708 236.01555 237.88754 240.17558 243.35547 247.24841 251.39886 255.09032
 258.34131 261.38660 264.15985 266.77722 269.09390 271.10553 272.91620 274.71683
 276.77347 278.59525 280.22375 281.79410 283.15308 284.35544 285.45242 286.44623
 287.34003 288.13596 288.83127 289.71735
 366.78100 356.32095 345.73890 334.59086 322.97981 311.15976 299.01571 286.80467
 274.50262 262.38557 250.38052 239.66747 229.77543 220.86538 213.03333 206.02128
 199.84124 194.76519 191.33314 189.36109 188.38404 188.43400 189.25495 190.54890
 192.25985 194.34080 196.58976 198.93471 201.36566 203.83161 205.90557 207.73352
 209.34547 210.47642 210.69137 210.90533 210.82828 210.51923 210.13818 209.75414
 209.35709 209.05304 208.84699 208.69694 208.61090 208.92785 209.29980 209.67475
 210.45371 211.61766 212.85361 214.62256 216.53651 218.56547 220.64642 222.71537
 224.76132 226.83128 228.91423 231.00618 233.12113 235.27908 237.52104 239.87699
 242.48394 244.72089 246.70885 248.45980 249.86275 250.97170 251.77965 252.08161
 252.10456 251.86451 251.21046 250.14441 248.73637 246.88332 244.77827 242.59722
 240.37418 238.16413 235.97008 233.79503 231.64098 229.49394 227.50589 225.64884
 223.91779 222.37575 220.99170 219.74965 218.61760 217.56355 216.65351 215.78046
 215.00841 214.17436 213.25832 212.60827 212.04422 212.99562 215.22081 216.48343
 217.01758 218.47765 220.48325 222.26445 223.82269 225.70062 228.59761 231.48552
 233.73865 235.67047 237.45041 239.77005 243.03340 247.18040 251.29916 255.03096
 258.32312 261.35306 264.17169 266.79471 269.09271 271.08865 272.87543 274.66830
 276.69836 278.52673 280.15381 281.74481 283.12451 284.34515 285.45883 286.46774
 287.37515 288.18320 288.88910 289.78867
 366.78100 356.32146 345.73991 334.59237 322.98182 311.16228 299.01874 286.80819
 274.50665 262.39011 250.38556 239.67302 229.78147 220.87193 213.04039 206.02884
 199.84930 194.77376 191.34221 189.37067 188.39412 188.44458 189.26604 190.56049
 192.27195 194.35340 196.60286 198.94832 201.37977 203.84623 205.92069 207.74914
 209.36160 210.49305 210.70851 210.92297 210.84642 210.53788 210.15734 209.77379
 209.37725 209.07370 208.86816 208.71862 208.63307 208.95053 209.32299 209.69844
 210.47790 211.64235 212.87881 214.64827 216.56272 218.59218 220.67363 222.74309
 224.78955 226.86000 228.94346 231.03592 233.15137 235.30983 237.55228 239.90874
 242.51620 244.75365 246.74211 248.49357 249.89702 251.00648 251.81493 252.11739
 252.14085 251.90130 251.24776 250.18221 248.77467 246.92213 244.81758 242.63704
 240.41450 238.20495 236.01141 233.83686 231.68332 229.53678 227.54923 225.69269
 223.96215 222.42060 221.03706 219.79551 218.66397 217.61043 216.70088 215.82834
 215.05679 214.22325 213.30771 212.65816 212.09462 213.00671 215.17198 216.71231
 217.10930 218.26877 220.29002 222.21379 223.87544 225.78346 228.63518 231.50572
 233.62468 235.44916 237.15868 239.56689 242.97993 247.03131 251.12129 254.90106
 258.26706 261.33322 264.21329 266.89703 269.25858 271.29999 273.14847 274.92368
 276.75113 278.52802 280.10263 281.50427 282.74002 283.92615 285.03918 286.04752
 286.95441 287.76199 288.46750 289.36655
 366.78100 356.32244 345.74188 334.59531 322.98575 311.16719 299.02463 286.81507
 274.51450 262.39894 250.39538 239.68382 229.79326 220.88470 213.05413 206.04357
 199.86501 194.79045 191.35989 189.38932 188.41376 188.46520 189.28764 190.58308
 192.29551 194.37795 196.62839 198.97483 201.40727 203.87470 205.95014 207.77958
 209.39302 210.52546 210.74190 210.95733 210.88177 210.57421 210.19465 209.81209
 209.41652 209.11396 208.90940 208.76084 208.67628 208.99471 209.36815 209.74459
 210.52503 211.69047 212.92791 214.69834 216.61378 218.64422 220.72666 222.79710
 224.84453 226.91597 229.00041 231.09385 233.21029 235.36972 237.61316 239.97060
 242.57904 244.81748 246.80691 248.55935 249.96379 251.07423 251.88367 252.18711
 252.21154 251.97298 251.32042 250.25586 248.84930 246.99773 244.89417 242.71461
 240.49305 238.28449 236.09192 233.91836 231.76580 229.62024 227.63368 225.77811
 224.04855 222.50799 221.12543 219.88487 218.75431 217.70174 216.79318 215.92162
 215.15106 214.31850 213.40393 212.75537 212.19281 213.05377 215.09286 216.92867
 217.41486 218.47968 220.39018 222.22977 223.82722 225.76222 228.73828 231.39458
 233.55135 235.17947 236.72266 239.12048 242.69463 246.93065 251.06696 254.87227
 258.26352 261.33441 264.22556 266.91199 269.29721 271.36191 273.24680 275.06494
 276.81088 278.49908 280.05457 281.42743 282.61972 283.68295 284.65543 285.50854
 286.27264 286.99753 287.63586 288.44937
 366.78100 356.32107 345.73915 334.59122 322.98029 311.16037 299.01644 286.80551
 274.50359 262.38666 250.38173 239.66881 229.77688 220.86695 213.03502 206.02310
 199.84317 194.76724 191.33532 189.36339 188.38646 188.43654 189.25761 190.55168
 192.26276 194.34383 196.59290 198.93798 201.36905 203.83512 205.90920 207.73727
 209.34934 210.48042 210.69549 210.90956 210.83264 210.52371 210.14278 209.75885
 209.36193 209.05800 208.85207 208.70215 208.61622 208.93329 209.30537 209.68044
 210.45951 211.62359 212.85966 214.62873 216.54281 218.57188 220.65295 222.72203
 224.76810 226.83817 228.92125 231.01332 233.12839 235.28647 237.52854 239.88461
 242.49168 244.72876 246.71683 248.46790 249.87098 250.98005 251.78812 252.09020
 252.11327 251.87334 251.21942 250.15349 248.74556 246.89264 244.78771 242.60678
 240.38386 238.17393 235.98000 233.80508 231.65115 229.50422 227.51630 225.65937
 223.92844 222.38651 221.00259 219.76066 218.62873 217.57481 216.66488 215.79195
 215.02003 214.18610 213.27017 212.62025 212.05632 212.98860 215.19121 217.04376
 217.61609 218.69250 220.59686 222.39473 223.95274 225.87340 228.80695 231.32692
 233.27876 234.82201 236.35632 238.83594 242.53647 246.81038 250.97646 254.82210
 258.23825 261.32349 264.21213 266.89670 269.25372 271.27704 273.13589 274.96237
 276.77835 278.48868 280.04129 281.41507 282.60730 283.66724 284.64221 285.49527
 286.24387 286.93710 287.55283 288.38663
 366.78100 356.31962 345.73624 334.58686 322.97448 311.15310 299.00772 286.79533
 274.49195 262.37357 250.36719 239.65281 229.75943 220.84805 213.01467 206.00129
 199.81991 194.74253 191.30915 189.33576 188.35738 188.40600 189.22562 190.51824
 192.22786 194.30748 196.55510 198.89872 201.32834 203.79296 205.86558 207.69219
 209.30281 210.43243 210.64605 210.85867 210.78029 210.46991 210.08753 209.70215
 209.30377 208.99839 208.79101 208.63963 208.55224 208.86786 209.23848 209.61210
 210.38972 211.55234 212.78696 214.55458 216.46720 218.49482 220.57444 222.64206
 224.68667 226.75529 228.83691 230.92753 233.04115 235.19777 237.43839 239.79301
 242.39863 244.63425 246.62087 248.37049 249.77211 250.87972 251.68634 251.98696
 252.00858 251.76720 251.11182 250.04444 248.63506 246.78068 244.67430 242.49192
 240.26754 238.05615 235.86077 233.68439 231.52901 229.38063 227.39125 225.53287
 223.80049 222.25711 220.87173 219.62835 218.49497 217.43958 216.52820 215.65382
 214.88044 214.04506 213.12768 212.47630 211.91092 212.91949 215.30238 217.16277
 217.73155 218.75984 220.71356 222.54491 224.09215 225.98317 228.84645 231.26279
 233.05725 234.45140 235.96907 238.54404 242.38109 246.67010 250.85831 254.75179
 258.20093 261.30875 264.20483 266.88873 269.24097 271.26672 273.11349 274.92661
 276.75735 278.45334 279.99951 281.36963 282.55923 283.61841 284.58878 285.46436
 286.23944 286.93375 287.54483 288.36844
 366.78100 356.31893 345.73485 334.58478 322.97171 311.14964 299.00356 286.79049
 274.48642 262.36734 250.36027 239.64520 229.75113 220.83905 213.00498 205.99091
 199.80884 194.73076 191.29669 189.32262 188.34354 188.39147 189.21040 190.50233
 192.21125 194.29018 196.53711 198.88003 201.30896 203.77289 205.84482 207.67074
 209.28067 210.40960 210.62252 210.83445 210.75538 210.44431 210.06123 209.67516
 209.27609 208.97002 208.76194 208.60987 208.52180 208.83672 209.20665 209.57958
 210.35651 211.51843 212.75236 214.51929 216.43121 218.45814 220.53707 222.60400
 224.64792 226.71585 228.79678 230.88671 232.99963 235.15556 237.39549 239.74941
 242.35434 244.58927 246.57520 248.32412 249.72505 250.83198 251.63790 251.93783
 251.95876 251.71669 251.06061 249.99254 248.58247 246.72739 244.62032 242.43725
 240.21218 238.00010 235.80403 233.62696 231.47089 229.32181 227.33174 225.47267
 223.73959 222.19552 220.80945 219.56538 218.43130 217.37523 216.46316 215.58808
 214.81401 213.97794 213.05987 212.40779 211.84172 212.89215 215.37392 217.27452
 217.88467 218.85732 220.80916 222.66313 224.21597 226.07687 228.86383 231.18510
 232.82671 234.08800 235.59526 238.28549 242.24873 246.55150 250.75908 254.69133
 258.16867 261.29977 264.20557 266.89120 269.25778 271.30130 273.12564 274.89261
 276.66733 278.40302 279.95001 281.31525 282.50232 283.56061 284.53116 285.40869
 286.18893 286.88461 287.49854 288.32663
 366.78100 356.31884 345.73467 334.58451 322.97134 311.14918 299.00301 286.78985
 274.48568 262.36652 250.35935 239.64419 229.75002 220.83786 213.00369 205.98953
 199.80736 194.72920 191.29503 189.32087 188.34170 188.38954 189.20837 190.50021
 192.20904 194.28788 196.53471 198.87755 201.30638 203.77022 205.84205 207.66789
 209.27772 210.40656 210.61939 210.83123 210.75206 210.44090 210.05773 209.67157
 209.27240 208.96624 208.75807 208.60591 208.51774 208.83258 209.20241 209.57525
 210.35208 211.51392 212.74775 214.51459 216.42642 218.45326 220.53209 222.59893
 224.64276 226.71060 228.79143 230.88127 232.99410 235.14994 237.38977 239.74361
 242.34844 244.58328 246.56911 248.31795 249.71878 250.82562 251.63145 251.93129
 251.95212 251.70996 251.05379 249.98563 248.57546 246.72030 244.61313 242.42997
 240.20480 237.99264 235.79647 233.61931 231.46314 229.31398 227.32381 225.46465
 223.73148 222.18732 220.80115 219.55699 218.42282 217.36666 216.45449 215.57933
 214.80516 213.96900 213.05083 212.39867 211.83250 212.89873 215.41782 217.37584
 218.07047 218.98918 220.90593 222.76808 224.32019 226.14690 228.85699 231.09975
 232.56020 233.67874 235.21419 238.06564 242.12752 246.46049 250.70097 254.65619
 258.15717 261.30396 264.20679 266.87964 269.24557 271.29800 273.09860 274.82895
 276.58350 278.34479 279.90125 281.27063 282.46152 283.52158 284.49548 285.37595
 286.16223 286.85580 287.47403 288.30453
 366.78100 356.31950 345.73599 334.58649 322.97399 311.15248 299.00698 286.79448
 274.49097 262.37247 250.36597 239.65146 229.75796 220.84646 213.01295 205.99945
 199.81795 194.74044 191.30694 189.33344 188.35493 188.40343 189.22293 190.51542
 192.22492 194.30442 196.55191 198.89541 201.32491 203.78940 205.86190 207.68840
 209.29889 210.42839 210.64189 210.85438 210.77588 210.46538 210.08287 209.69737
 209.29887 208.99336 208.78586 208.63436 208.54685 208.86235 209.23285 209.60634
 210.38384 211.54634 212.78083 214.54833 216.46083 218.48832 220.56782 222.63532
 224.67981 226.74831 228.82981 230.92030 233.03380 235.19030 237.43079 239.78529
 242.39079 244.62628 246.61278 248.36228 249.76377 250.87127 251.67777 251.97826
 251.99976 251.75826 251.10275 250.03525 248.62575 246.77124 244.66474 242.48224
 240.25773 238.04623 235.85073 233.67422 231.51872 229.37022 227.38071 225.52221
 223.78971 222.24620 220.86070 219.61720 218.48369 217.42819 216.51669 215.64218
 214.86868 214.03318 213.11567 212.46417 211.89867 212.94339 215.41165 217.49406
 218.27267 219.11810 220.98582 222.88890 224.47751 226.23132 228.82935 230.99011
 232.24599 233.21738 234.85242 237.88441 242.01573 246.38635 250.65903 254.64288
 258.16879 261.32413 264.21179 266.85779 269.21707 271.28491 273.08090 274.78928
 276.54672 278.25024 279.79691 281.16385 282.34988 283.40121 284.35562 285.23431
 286.05215 286.75949 287.38116 288.21906
 366.78100 356.31947 345.73594 334.58642 322.97389 311.15236 299.00683 286.79430
 274.49078 262.37225 250.36572 239.65119 229.75767 220.84614 213.01261 205.99908
 199.81755 194.74003 191.30650 189.33297 188.35444 188.40291 189.22239 190.51486
 192.22433 194.30380 196.55127 198.89475 201.32422 203.78869 205.86116 207.68764
 209.29811 210.42758 210.64105 210.85352 210.77500 210.46447 210.08194 209.69641
 209.29788 208.99236 208.78483 208.63330 208.54577 208.86124 209.23172 209.60519
 210.38266 211.54513 212.77960 214.54708 216.45955 218.48702 220.56649 222.63397
 224.67844 226.74691 228.82838 230.91885 233.03233 235.18880 237.42927 239.78374
 242.38921 244.62469 246.61116 248.36063 249.76210 250.86957 251.67605 251.97652
 251.99799 251.75646 251.10094 250.03341 248.62388 246.76935 244.66282 242.48030
 240.25577 238.04424 235.84871 233.67218 231.51666 229.36813 227.37860 225.52007
 223.78754 222.24402 220.85849 219.61496 218.48143 217.42591 216.51438 215.63985
 214.86632 214.03079 213.11327 212.46174 211.89621 212.95332 215.45090 217.54726
 218.50377 219.28215 221.10507 222.98569 224.52702 226.30005 228.86168 230.83655
 231.89166 232.75803 234.47784 237.71407 241.92030 246.34476 250.64403 254.64291
 258.18451 261.34100 264.20755 266.82675 269.18298 271.27219 273.06271 274.74445
 276.50278 278.15695 279.69595 281.06363 282.25195 283.30316 284.25854 285.13873
 285.95657 286.67764 287.29938 288.14767
 366.78100 356.31904 345.73508 334.58512 322.97216 311.15021 299.00425 286.79129
 274.48733 262.36837 250.36141 239.64645 229.75249 220.84053 213.00657 205.99262
 199.81066 194.73270 191.29874 189.32478 188.34582 188.39386 189.21290 190.50494
 192.21398 194.29303 196.54007 198.88311 201.31215 203.77619 205.84823 207.67427
 209.28431 210.41335 210.62640 210.83844 210.75948 210.44852 210.06556 209.67960
 209.28064 208.97468 208.76672 208.61476 208.52681 208.84185 209.21189 209.58493
 210.36197 211.52401 212.75805 214.52509 216.43713 218.46417 220.54322 222.61026
 224.65430 226.72234 228.80338 230.89342 233.00646 235.16250 237.40254 239.75659
 242.36163 244.59667 246.58271 248.33175 249.73279 250.83983 251.64587 251.94591
 251.96695 251.72500 251.06904 250.00108 248.59112 246.73616 244.62920 242.44624
 240.22128 238.00932 235.81336 233.63641 231.48045 229.33149 227.34153 225.48257
 223.74961 222.20565 220.81969 219.57573 218.44178 217.38582 216.47386 215.59890
 214.82494 213.98898 213.07102 212.41906 211.85310 212.94258 215.51659 217.61580
 218.56464 219.63809 221.30966 222.96519 224.55811 226.33675 228.88867 230.74306
 231.48280 232.15364 234.17880 237.63223 241.86780 246.32416 250.63155 254.63499
 258.18964 261.34882 264.20135 266.79758 269.15271 271.25916 273.03088 274.67542
 276.36572 278.10178 279.65146 281.01825 282.20660 283.25903 284.21698 285.09753
 285.91202 286.64520 287.26791 288.12360
 366.78100 356.31904 345.73508 334.58511 322.97215 311.15019 299.00423 286.79127
 274.48730 262.36834 250.36138 239.64642 229.75246 220.84049 213.00653 205.99257
 199.81061 194.73265 191.29868 189.32472 188.34576 188.39380 189.21284 190.50487
 192.21391 194.29295 196.53999 198.88303 201.31206 203.77610 205.84814 207.67418
 209.28422 210.41325 210.62629 210.83833 210.75937 210.44841 210.06544 209.67948
 209.28052 208.97456 208.76660 208.61463 208.52667 208.84171 209.21175 209.58479
 210.36182 211.52386 212.75790 214.52494 216.43698 218.46401 220.54305 222.61009
 224.65413 226.72217 228.80320 230.89324 233.00628 235.16232 237.40236 239.75639
 242.36143 244.59647 246.58251 248.33154 249.73258 250.83962 251.64566 251.94570
 251.96673 251.72477 251.06881 250.00085 248.59089 246.73592 244.62896 242.44600
 240.22104 238.00908 235.81311 233.63615 231.48019 229.33123 227.34127 225.48230
 223.74934 222.20538 220.81942 219.57546 218.44149 217.38553 216.47357 215.59861
 214.82465 213.98868 213.07072 212.41876 211.85280 212.95337 215.55359 217.73460
 218.60251 219.89622 221.52823 223.02792 224.57593 226.30663 228.87498 230.66106
 231.13397 231.63831 233.93370 237.55753 241.82603 246.29234 250.60056 254.61230
 258.18552 261.35571 264.20126 266.77164 269.11993 271.23956 272.99194 274.60193
 276.29486 278.04871 279.60678 280.97626 282.16818 283.22363 284.18710 285.06830
 285.88184 286.61917 287.24789 288.10648
 366.78100 356.31918 345.73535 334.58553 322.97270 311.15088 299.00505 286.79223
 274.48840 262.36958 250.36275 239.64793 229.75411 220.84228 213.00846 205.99463
 199.81281 194.73498 191.30116 189.32733 188.34851 188.39668 189.21586 190.50804
 192.21721 194.29639 196.54356 198.88674 201.31591 203.78009 205.85226 207.67844
 209.28861 210.41779 210.63097 210.84314 210.76432 210.45349 210.07067 209.68484
 209.28602 208.98019 208.77237 208.62055 208.53272 208.84790 209.21807 209.59125
 210.36842 211.53060 212.76477 214.53195 216.44412 218.47130 220.55048 222.61765
 224.66183 226.73000 228.81118 230.90135 233.01453 235.17070 237.41088 239.76505
 242.37023 244.60541 246.59158 248.34076 249.74193 250.84911 251.65528 251.95546
 251.97663 251.73481 251.07898 250.01116 248.60134 246.74651 244.63969 242.45686
 240.23204 238.02021 235.82439 233.64756 231.49174 229.34291 227.35309 225.49427
 223.76144 222.21762 220.83179 219.58797 218.45414 217.39832 216.48649 215.61167
 214.83784 214.00202 213.08420 212.43237 211.86655 212.97377 215.58971 217.83258
 218.68646 220.07826 221.74825 223.19514 224.60057 226.23413 228.80402 230.52460
 230.82013 231.22594 233.71147 237.46663 241.78001 246.25528 250.56758 254.58884
 258.17813 261.36008 264.20114 266.74304 269.08255 271.21927 272.95923 274.55124
 276.24695 278.00107 279.55951 280.92920 282.12036 283.18002 284.14386 285.02805
 285.84149 286.57709 287.21414 288.08377
 366.78100 356.31939 345.73577 334.58616 322.97355 311.15193 299.00632 286.79371
 274.49009 262.37148 250.36487 239.65025 229.75664 220.84503 213.01142 205.99780
 199.81619 194.73858 191.30496 189.33135 188.35274 188.40112 189.22051 190.51290
 192.22228 194.30167 196.54906 198.89244 201.32183 203.78622 205.85860 207.68499
 209.29538 210.42476 210.63815 210.85054 210.77192 210.46131 210.07870 209.69309
 209.29447 208.98886 208.78125 208.62963 208.54202 208.85741 209.22779 209.60118
 210.37857 211.54095 212.77534 214.54273 216.45511 218.48250 220.56189 222.62927
 224.67366 226.74205 228.82343 230.91382 233.02721 235.18359 237.42398 239.77837
 242.38376 244.61914 246.60553 248.35492 249.75630 250.86369 251.67008 251.97046
 251.99185 251.75024 251.09462 250.02701 248.61740 246.76278 244.65617 242.47356
 240.24894 238.03733 235.84172 233.66510 231.50949 229.36088 227.37126 225.51265
 223.78004 222.23643 220.85081 219.60720 218.47359 217.41797 216.50636 215.63175
 214.85813 214.02252 213.10491 212.45329 211.88768 213.00020 215.62865 217.89783
 218.81465 220.23300 221.92024 223.38089 224.68671 226.19287 228.68890 230.30550
 230.51398 230.89575 233.50647 237.37666 241.73676 246.22421 250.53807 254.56648
 258.16873 261.35776 264.18991 266.70056 269.03342 271.19299 272.93591 274.52145
 276.20239 277.95767 279.51813 280.89096 282.08682 283.14832 284.11716 285.00485
 285.82312 286.56320 287.21948 288.11133
 366.78100 356.31971 345.73641 334.58712 322.97482 311.15353 299.00823 286.79594
 274.49264 262.37435 250.36805 239.65376 229.76046 220.84917 213.01587 206.00258
 199.82128 194.74399 191.31069 189.33740 188.35910 188.40781 189.22751 190.52022
 192.22992 194.30963 196.55733 198.90104 201.33074 203.79545 205.86815 207.69486
 209.30556 210.43527 210.64897 210.86168 210.78338 210.47309 210.09079 209.70550
 209.30720 209.00191 208.79461 208.64332 208.55602 208.87173 209.24243 209.61614
 210.39384 211.55655 212.79125 214.55896 216.47167 218.49937 220.57908 222.64678
 224.69149 226.76019 228.84190 230.93260 233.04631 235.20301 237.44372 239.79842
 242.40413 244.63983 246.62654 248.37624 249.77795 250.88565 251.69236 251.99306
 252.01477 251.77347 251.11818 250.05088 248.64159 246.78729 244.68100 242.49870
 240.27441 238.06311 235.86782 233.69152 231.53623 229.38793 227.39864 225.54034
 223.80805 222.26475 220.87946 219.63616 218.50287 217.44757 216.53628 215.66198
 214.88869 214.05339 213.13610 212.48480 211.91951 213.03279 215.66307 217.94991
 218.95880 220.38821 222.04755 223.53717 224.81894 226.20354 228.56628 230.02798
 230.19585 230.61142 233.30867 237.28915 241.70030 246.19756 250.50792 254.54131
 258.15598 261.35263 264.17960 266.66364 268.99298 271.17130 272.89713 274.31152
 276.22604 277.98535 279.52463 280.88751 282.07663 283.13501 284.10263 284.98828
 285.80545 286.54385 287.19638 288.10031
 366.78100 356.32017 345.73734 334.58852 322.97669 311.15586 299.01103 286.79920
 274.49637 262.37855 250.37272 239.65889 229.76606 220.85523 213.02241 206.00958
 199.82875 194.75192 191.31909 189.34627 188.36844 188.41761 189.23778 190.53095
 192.24112 194.32130 196.56947 198.91364 201.34381 203.80898 205.88216 207.70933
 209.32050 210.45067 210.66484 210.87802 210.80019 210.49036 210.10853 209.72370
 209.32587 209.02105 208.81422 208.66339 208.57656 208.89273 209.26391 209.63808
 210.41625 211.57942 212.81459 214.58277 216.49594 218.52411 220.60428 222.67245
 224.71762 226.78680 228.86897 230.96014 233.07431 235.23148 237.47266 239.82783
 242.43400 244.67017 246.65734 248.40751 249.80969 250.91786 251.72503 252.02620
 252.04837 251.80755 251.15272 250.08589 248.67706 246.82323 244.71741 242.53558
 240.31175 238.10092 235.90609 233.73026 231.57544 229.42761 227.43878 225.58095
 223.84912 222.30630 220.92147 219.67864 218.54581 217.49098 216.58016 215.70633
 214.93350 214.09867 213.18184 212.53101 211.96619 213.07420 215.69202 218.00029
 219.08856 220.54274 222.16226 223.66656 224.95160 226.24564 228.46660 229.74631
 229.87263 230.35222 233.11679 237.20409 241.66779 246.16508 250.46927 254.50386
 258.12561 261.32608 264.14795 266.60910 268.94116 271.13690 272.83121 274.30289
 276.18561 277.95544 279.50647 280.87347 282.06409 283.12320 284.09222 284.97919
 285.79050 286.52557 287.17770 288.08533
 366.78100 356.32069 345.73837 334.59006 322.97875 311.15843 299.01412 286.80281
 274.50049 262.38318 250.37787 239.66455 229.77224 220.86193 213.02961 206.01730
 199.83698 194.76067 191.32836 189.35604 188.37873 188.42842 189.24910 190.54279
 192.25348 194.33416 196.58285 198.92754 201.35822 203.82391 205.89760 207.72528
 209.33697 210.46766 210.68234 210.89603 210.81872 210.50940 210.12809 209.74378
 209.34646 209.04215 208.83583 208.68552 208.59921 208.91589 209.28758 209.66227
 210.44095 211.60464 212.84033 214.60901 216.52270 218.55139 220.63207 222.70076
 224.74645 226.81613 228.89882 230.99051 233.10519 235.26288 237.50457 239.86025
 242.46694 244.70363 246.69131 248.44200 249.84469 250.95337 251.76106 252.06274
 252.08543 251.84512 251.19080 250.12449 248.71618 246.86286 244.75755 242.57624
 240.35292 238.14261 235.94830 233.77298 231.61867 229.47136 227.48304 225.62573
 223.89442 222.35210 220.96779 219.72548 218.59316 217.53885 216.62854 215.75522
 214.98291 214.14859 213.23228 212.58197 212.01765 213.11830 215.71869 218.05527
 219.21144 220.69376 222.28551 223.78375 225.06091 226.29356 228.38567 229.48100
 229.55415 230.11424 232.93967 237.12781 241.64163 246.13516 250.43587 254.47191
 258.10110 261.30917 264.13211 266.57770 268.91287 271.11957 272.71167 274.21301
 276.14755 277.93393 279.48941 280.85736 282.04764 283.10693 284.07544 284.96033
 285.77344 286.50534 287.15799 288.06549
 366.78100 356.32124 345.73949 334.59173 322.98098 311.16122 299.01747 286.80671
 274.50495 262.38820 250.38344 239.67069 229.77893 220.86918 213.03742 206.02566
 199.84591 194.77015 191.33840 189.36664 188.38989 188.44013 189.26137 190.55562
 192.26686 194.34811 196.59735 198.94259 201.37384 203.84008 205.91433 207.74257
 209.35482 210.48606 210.70130 210.91555 210.83879 210.53004 210.14928 209.76553
 209.36877 209.06501 208.85926 208.70950 208.62375 208.94099 209.31324 209.68848
 210.46772 211.63197 212.86821 214.63746 216.55170 218.58095 220.66219 222.73143
 224.77768 226.84792 228.93117 231.02341 233.13866 235.29690 237.53914 239.89539
 242.50263 244.73988 246.72812 248.47936 249.88261 250.99185 251.80010 252.10234
 252.12559 251.88583 251.23207 250.16632 248.75856 246.90581 244.80105 242.62030
 240.39754 238.18778 235.99403 233.81927 231.66552 229.51876 227.53101 225.67425
 223.94349 222.40174 221.01798 219.77623 218.64447 217.59072 216.68096 215.80820
 215.03645 214.20269 213.28694 212.63718 212.07343 213.16475 215.74309 218.10347
 219.32953 220.83505 222.41844 223.89323 225.14661 226.33011 228.30203 229.21812
 229.23447 229.89021 232.77522 237.05066 241.60606 246.09676 250.39609 254.43242
 258.06747 261.28531 264.11545 266.55539 268.89471 271.10577 272.67102 274.31464
 276.15027 277.92145 279.47565 280.84280 282.03180 283.08844 284.05597 284.93634
 285.73834 286.46341 287.10522 288.01208
 366.78100 356.32193 345.74087 334.59380 322.98374 311.16467 299.02161 286.81154
 274.51048 262.39441 250.39034 239.67828 229.78721 220.87815 213.04708 206.03602
 199.85695 194.78188 191.35082 189.37975 188.40369 188.45462 189.27656 190.57149
 192.28343 194.36536 196.61529 198.96123 201.39316 203.86010 205.93503 207.76397
 209.37690 210.50884 210.72477 210.93970 210.86364 210.55557 210.17551 209.79244
 209.39638 209.09331 208.88825 208.73918 208.65411 208.97205 209.34498 209.72092
 210.50085 211.66579 212.90272 214.67265 216.58759 218.61752 220.69946 222.76939
 224.81633 226.88726 228.97120 231.06413 233.18006 235.33900 237.58193 239.93887
 242.54680 244.78474 246.77367 248.52561 249.92954 251.03947 251.84841 252.15134
 252.17528 251.93621 251.28315 250.21808 248.81102 246.95895 244.85488 242.67482
 240.45275 238.24369 236.05062 233.87656 231.72349 229.57742 227.59036 225.73429
 224.00423 222.46316 221.08010 219.83903 218.70797 217.65490 216.74583 215.87377
 215.10270 214.26964 213.35457 212.70551 212.14244 213.21948 215.76414 218.14359
 219.44794 220.97461 222.56430 224.00815 225.23076 226.36702 228.22046 228.96359
 228.93109 229.69626 232.63321 236.97562 241.56291 246.05368 250.35126 254.38351
 258.01984 261.24738 264.08786 266.53198 268.88239 271.09973 272.70361 274.20062
 276.13464 277.91327 279.46646 280.83380 282.02386 283.08124 284.05038 284.93527
 285.74747 286.48364 287.13281 288.05664
 366.78100 356.32274 345.74247 334.59621 322.98695 311.16868 299.02642 286.81716
 274.51689 262.40163 250.39837 239.68710 229.79684 220.88858 213.05831 206.04805
 199.86979 194.79552 191.36526 189.39500 188.41973 188.47147 189.29421 190.58994
 192.30268 194.38542 196.63615 198.98289 201.41563 203.88336 205.95910 207.78884
 209.40257 210.53531 210.75205 210.96779 210.89252 210.58526 210.20600 209.82373
 209.42847 209.12621 208.92194 208.77368 208.68942 209.00815 209.38189 209.75863
 210.53936 211.70510 212.94284 214.71357 216.62931 218.66005 220.74278 222.81352
 224.86126 226.93299 229.01773 231.11147 233.22820 235.38794 237.63168 239.98941
 242.59815 244.83689 246.82662 248.57936 249.98410 251.09483 251.90457 252.20831
 252.23304 251.99478 251.34252 250.27825 248.87199 247.02073 244.91746 242.73820
 240.51694 238.30867 236.11641 233.94315 231.79088 229.64562 227.65936 225.80409
 224.07483 222.53457 221.15230 219.91204 218.78178 217.72951 216.82125 215.94999
 215.17972 214.34746 213.43320 212.78493 212.22267 213.28241 215.78618 218.18010
 219.55865 221.10773 222.70879 224.11964 225.30740 226.39465 228.13383 228.70338
 228.63362 229.52823 232.51279 236.90433 241.51712 246.00854 250.30444 254.33046
 257.96671 261.20523 264.05765 266.50983 268.86417 271.07068 272.76904 274.33243
 276.14340 277.91565 279.47244 280.83942 282.03098 283.08963 284.05884 284.94653
 285.75845 286.49463 287.14767 288.06873
 366.78100 356.32353 345.74405 334.59858 322.99010 311.17263 299.03115 286.82268
 274.52320 262.40873 250.40625 239.69578 229.80630 220.89883 213.06935 206.05988
 199.88240 194.80893 191.37946 189.40998 188.43551 188.48803 189.31156 190.60808
 192.32161 194.40513 196.65666 199.00418 201.43771 203.90623 205.98276 207.81328
 209.42781 210.56133 210.77886 210.99539 210.92091 210.61444 210.23596 209.85449
 209.46001 209.15854 208.95506 208.80759 208.72411 209.04364 209.41816 209.79569
 210.57721 211.74374 212.98226 214.75379 216.67032 218.70184 220.78537 222.85689
 224.90542 226.97794 229.06347 231.15799 233.27552 235.43604 237.68057 240.03909
 242.64862 244.88814 246.87867 248.63219 250.03772 251.14924 251.95977 252.26430
 252.28982 252.05235 251.40087 250.33740 248.93192 247.08145 244.97897 242.80050
 240.58002 238.37255 236.18107 234.00860 231.85712 229.71265 227.72717 225.87270
 224.14423 222.60475 221.22328 219.98380 218.85433 217.80285 216.89538 216.02490
 215.25543 214.42395 213.51048 212.86300 212.30153 213.34351 215.80528 218.20892
 219.65863 221.24106 222.85362 224.23666 225.38438 226.42723 228.04854 228.43381
 228.34082 229.38048 232.40794 236.83350 241.46690 245.95940 250.25551 254.27518
 257.90921 261.15985 264.03107 266.50061 268.85825 271.04935 272.69449 274.27759
 276.16119 277.93988 279.49585 280.86441 282.05566 283.11462 284.08429 284.97153
 285.78421 286.52182 287.17279 288.09830
 366.78100 356.32436 345.74572 334.60108 322.99344 311.17680 299.03616 286.82852
 274.52989 262.41625 250.41461 239.70497 229.81633 220.90969 213.08105 206.07241
 199.89577 194.82313 191.39449 189.42585 188.45221 188.50557 189.32994 190.62730
 192.34166 194.42602 196.67838 199.02674 201.46110 203.93046 206.00782 207.83918
 209.45454 210.58890 210.80726 211.02462 210.95099 210.64535 210.26771 209.88707
 209.49343 209.19279 208.99015 208.84351 208.76087 209.08123 209.45659 209.83495
 210.61731 211.78467 213.02404 214.79640 216.71376 218.74612 220.83048 222.90284
 224.95220 227.02556 229.11192 231.20728 233.32564 235.48700 237.73236 240.09172
 242.70209 244.94245 246.93381 248.68817 250.09453 251.20689 252.01825 252.32361
 252.34997 252.11333 251.46269 250.40005 248.99541 247.14577 245.04414 242.86650
 240.64686 238.44022 236.24958 234.07794 231.92730 229.78366 227.79902 225.94538
 224.21774 222.67910 221.29846 220.05982 218.93119 217.88055 216.97391 216.10427
 215.33563 214.50499 213.59235 212.94571 212.38507 213.40782 215.82416 218.23383
 219.74911 221.37460 222.99652 224.35497 225.45776 226.46133 227.96707 228.16629
 228.06114 229.25902 232.32100 236.76805 241.41931 245.91284 250.20872 254.22041
 257.85016 261.11191 264.00293 266.49573 268.85428 271.02664 272.65768 274.32343
 276.18701 277.96799 279.52676 280.89874 282.09018 283.15009 284.12012 285.00613
 285.81924 286.55658 287.20761 288.13388
 366.78100 356.32524 345.74749 334.60373 322.99698 311.18122 299.04147 286.83471
 274.53696 262.42420 250.42344 239.71469 229.82693 220.92118 213.09342 206.08567
 199.90991 194.83816 191.41040 189.44265 188.46989 188.52413 189.34938 190.64762
 192.36287 194.44811 196.70136 199.05060 201.48585 203.95609 206.03433 207.86658
 209.48282 210.61807 210.83731 211.05556 210.98280 210.67805 210.30129 209.92154
 209.52878 209.22902 209.02727 208.88151 208.79976 209.12100 209.49725 209.87649
 210.65974 211.82798 213.06822 214.84147 216.75971 218.79296 220.87820 222.95145
 225.00169 227.07594 229.16318 231.25943 233.37867 235.54091 237.78716 240.14740
 242.75865 244.99989 246.99214 248.74738 250.15463 251.26787 252.08011 252.38636
 252.41360 252.17785 251.52809 250.46634 249.06258 247.21383 245.11307 242.93632
 240.71756 238.51180 236.32205 234.15129 232.00154 229.85878 227.87503 226.02227
 224.29552 222.75776 221.37800 220.14025 219.01249 217.96274 217.05698 216.18823
 215.42047 214.59072 213.67896 213.03321 212.47345 213.47452 215.83968 218.24785
 219.84109 221.51286 223.15005 224.49181 225.53255 226.49213 227.86873 227.89195
 227.79080 229.13809 232.24403 236.70763 241.36931 245.86440 250.16147 254.16766
 257.79489 261.06812 263.97986 266.49429 268.84485 270.98270 272.62268 274.36401
 276.21344 277.99493 279.55731 280.92920 282.12210 283.18338 284.15353 285.04074
 285.85324 286.59027 287.24054 288.16766
 366.78100 356.32608 345.74917 334.60625 323.00034 311.18542 299.04651 286.84059
 274.54368 262.43176 250.43185 239.72393 229.83702 220.93210 213.10519 206.09827
 199.92335 194.85244 191.42552 189.45861 188.48669 188.54178 189.36786 190.66695
 192.38303 194.46912 196.72320 199.07329 201.50937 203.98045 206.05954 207.89262
 209.50971 210.64579 210.86588 211.08496 211.01305 210.70913 210.33322 209.95430
 209.56239 209.26347 209.06256 208.91764 208.83672 209.15881 209.53589 209.91598
 210.70006 211.86915 213.11023 214.88432 216.80340 218.83749 220.92357 222.99766
 225.04874 227.12382 229.21191 231.30899 233.42908 235.59216 237.83925 240.20033
 242.81242 245.05450 247.04759 248.80367 250.21176 251.32584 252.13893 252.44601
 252.47409 252.23918 251.59026 250.52935 249.12643 247.27852 245.17860 243.00269
 240.78477 238.57986 236.39094 234.22103 232.07211 229.93019 227.94728 226.09536
 224.36945 222.83253 221.45362 220.21670 219.08979 218.04087 217.13596 216.26804
 215.50113 214.67221 213.76130 213.11638 212.55746 213.54135 215.86589 218.24536
 219.92706 221.65218 223.28925 224.61597 225.62790 226.55925 227.78922 227.59572
 227.49883 229.04265 232.17799 236.64252 241.31346 245.80951 250.10863 254.10751
 257.72870 261.01044 263.94345 266.48715 268.83630 270.94962 272.51788 274.19797
 276.23550 278.03757 279.59784 280.97049 282.16312 283.22299 284.19333 285.08020
 285.89087 286.62738 287.27554 288.19867
 366.78100 356.32694 345.75089 334.60883 323.00377 311.18972 299.05166 286.84661
 274.55055 262.43949 250.44044 239.73338 229.84732 220.94327 213.11721 206.11116
 199.93710 194.86704 191.44099 189.47493 188.50387 188.55982 189.38676 190.68671
 192.40365 194.49059 196.74554 199.09648 201.53342 204.00537 206.08531 207.91926
 209.53720 210.67414 210.89509 211.11503 211.04397 210.74092 210.36586 209.98780
 209.59675 209.29869 209.09864 208.95458 208.87452 209.19747 209.57541 209.95635
 210.74130 211.91124 213.15319 214.92813 216.84807 218.88302 220.96996 223.04490
 225.09685 227.17279 229.26174 231.35968 233.48062 235.64457 237.89251 240.25445
 242.86740 245.11034 247.10429 248.86123 250.27017 251.38512 252.19906 252.50700
 252.53595 252.30189 251.65383 250.59378 249.19172 247.34467 245.24561 243.07055
 240.85350 238.64944 236.46138 234.29233 232.14427 230.00322 228.02116 226.17010
 224.44505 222.90899 221.53093 220.29488 219.16882 218.12077 217.21671 216.34965
 215.58360 214.75554 213.84548 213.20143 212.64337 213.60649 215.88199 218.26492
 219.99591 221.77930 223.44295 224.75276 225.68428 226.58919 227.72086 227.40321
 227.25156 228.86287 232.10992 236.60400 241.27293 245.77286 250.07431 254.06602
 257.68231 260.97211 263.92526 266.49188 268.82492 270.89755 272.47668 274.25229
 276.26926 278.06714 279.62506 280.99585 282.18820 283.24792 284.21774 285.10364
 285.91357 286.64771 287.29449 288.22049
 366.78100 356.32789 345.75278 334.61168 323.00757 311.19446 299.05735 286.85325
 274.55814 262.44803 250.44992 239.74382 229.85871 220.95560 213.13049 206.12539
 199.95228 194.88317 191.45806 189.49295 188.52285 188.57974 189.40763 190.70852
 192.42642 194.51431 196.77020 199.12209 201.55999 204.03288 206.11377 207.94866
 209.56756 210.70545 210.92734 211.14823 211.07812 210.77602 210.40191 210.02480
 209.63469 209.33759 209.13848 208.99537 208.91626 209.24016 209.61905 210.00094
 210.78683 211.95773 213.20062 214.97651 216.89740 218.93329 221.02119 223.09708
 225.14997 227.22686 229.31676 231.41565 233.53754 235.70243 237.95133 240.31422
 242.92811 245.17200 247.16690 248.92479 250.33468 251.45057 252.26546 252.57436
 252.60425 252.37114 251.72403 250.66493 249.26382 247.41771 245.31960 243.14550
 240.92939 238.72628 236.53917 234.37107 232.22396 230.08385 228.10274 226.25263
 224.52853 222.99342 221.61631 220.38120 219.25610 218.20899 217.30588 216.43977
 215.67467 214.84756 213.93845 213.29534 212.73824 213.67619 215.89223 218.29721
 220.05135 221.89320 223.60486 224.89085 225.72983 226.59639 227.64687 227.26753
 227.06520 228.69250 232.05013 236.56741 241.22348 245.72179 250.01939 253.99886
 257.60733 260.90308 263.87405 266.46616 268.78784 270.83319 272.52957 274.45721
 276.28833 278.06921 279.63712 281.01367 282.20865 283.27026 284.24060 285.12921
 285.93820 286.67203 287.31927 288.24557
 366.78100 356.32857 345.75414 334.61371 323.01028 311.19785 299.06142 286.85799
 274.56356 262.45413 250.45670 239.75127 229.86684 220.96441 213.13998 206.13555
 199.96312 194.89468 191.47025 189.50582 188.53639 188.59396 189.42253 190.72410
 192.44267 194.53124 196.78781 199.14038 201.57895 204.05252 206.13409 207.96966
 209.58923 210.72780 210.95037 211.17194 211.10251 210.80108 210.42765 210.05122
 209.66179 209.36536 209.16693 209.02450 208.94607 209.27064 209.65021 210.03278
 210.81935 211.99091 213.23448 215.01105 216.93262 218.96919 221.05776 223.13433
 225.18790 227.26547 229.35604 231.45561 233.57818 235.74375 237.99332 240.35689
 242.97146 245.21603 247.21160 248.97017 250.38074 251.49731 252.31288 252.62245
 252.65302 252.42059 251.77416 250.71573 249.31530 247.46987 245.37244 243.19901
 240.98358 238.78115 236.59471 234.42728 232.28085 230.14142 228.16099 226.31156
 224.58813 223.05370 221.67727 220.44284 219.31841 218.27198 217.36955 216.50412
 215.73969 214.91326 214.00483 213.36240 212.80597 213.72873 215.90887 218.32274
 220.11165 221.98497 223.73416 225.01599 225.80011 226.61459 227.56267 227.14223
 226.91316 228.55959 232.00797 236.53857 241.18140 245.67686 249.97058 253.94130
 257.54602 260.85074 263.84619 266.46515 268.77530 270.78879 272.41824 274.35196
 276.30392 278.09796 279.66318 281.03677 282.23047 283.29190 284.26096 285.14630
 285.95483 286.68646 287.33255 288.25620
 366.78100 356.32925 345.75550 334.61575 323.01300 311.20126 299.06551 286.86276
 274.56901 262.46026 250.46351 239.75876 229.87501 220.97326 213.14952 206.14577
 199.97402 194.90627 191.48252 189.51877 188.55002 188.60827 189.43753 190.73978
 192.45903 194.54828 196.80553 199.15878 201.59803 204.07228 206.15453 207.99079
 209.61104 210.75029 210.97354 211.19579 211.12704 210.82629 210.45354 210.07779
 209.68905 209.39330 209.19555 209.05380 208.97605 209.30130 209.68155 210.06480
 210.85206 212.02431 213.26856 215.04581 216.96806 219.00531 221.09456 223.17181
 225.22606 227.30432 229.39557 231.49582 233.61907 235.78532 238.03557 240.39982
 243.01507 245.26032 247.25658 249.01583 250.42708 251.54433 252.36058 252.67083
 252.70208 252.47033 251.82459 250.76684 249.36709 247.52234 245.42559 243.25284
 241.03809 238.83634 236.65059 234.48385 232.33810 230.19935 228.21960 226.37085
 224.64810 223.11435 221.73860 220.50485 219.38111 218.33536 217.43361 216.56886
 215.80511 214.97936 214.07161 213.42986 212.87411 213.78059 215.92229 218.33339
 220.20970 222.08299 223.82712 225.11900 225.88495 226.64102 227.46054 226.99176
 226.75645 228.44708 231.97588 236.51602 241.14647 245.63843 249.93040 253.89574
 257.49570 260.80508 263.81366 266.44489 268.72470 270.70099 272.44751 274.35107
 276.33102 278.12192 279.68057 281.05145 282.24277 283.30225 284.27121 285.15704
 285.96335 286.69910 287.34457 288.26782
 366.78100 356.33031 345.75763 334.61894 323.01726 311.20657 299.07189 286.87020
 274.57752 262.46983 250.47415 239.77046 229.88778 220.98709 213.16441 206.16172
 199.99104 194.92435 191.50167 189.53898 188.57130 188.63061 189.46093 190.76424
 192.48456 194.57487 196.83319 199.18750 201.62782 204.10313 206.18645 208.02376
 209.64507 210.78539 211.00970 211.23302 211.16533 210.86565 210.49396 210.11928
 209.73159 209.43691 209.24022 209.09954 209.02285 209.34917 209.73048 210.11480
 210.90311 212.07643 213.32174 215.10006 217.02337 219.06169 221.15200 223.23032
 225.28563 227.36495 229.45726 231.55858 233.68289 235.85021 238.10152 240.46683
 243.08315 245.32946 247.32678 249.08709 250.49941 251.61772 252.43504 252.74635
 252.77867 252.54798 251.90330 250.84661 249.44793 247.60424 245.50856 243.33687
 241.12319 238.92250 236.73782 234.57213 232.42745 230.28976 228.31108 226.46339
 224.74171 223.20902 221.83434 220.60165 219.47897 218.43428 217.53359 216.66991
 215.90722 215.08254 214.17585 213.53517 212.98048 213.85564 215.92328 218.32367
 220.32327 222.20273 223.90709 225.20847 225.98221 226.68344 227.35661 226.82893
 226.59415 228.34126 231.94318 236.48975 241.10788 245.59610 249.88719 253.84990
 257.44931 260.76721 263.79929 266.46054 268.73743 270.68402 272.19238 274.30426
 276.35901 278.14459 279.69699 281.06522 282.25455 283.31250 284.28061 285.16516
 285.97272 286.70547 287.35254 288.26996
 366.78100 356.33140 345.75980 334.62219 323.02159 311.21199 299.07839 286.87779
 274.58618 262.47958 250.48498 239.78238 229.90077 221.00117 213.17957 206.17797
 200.00837 194.94276 191.52116 189.55956 188.59296 188.65336 189.48475 190.78915
 192.51055 194.60195 196.86135 199.21674 201.65814 204.13454 206.21894 208.05734
 209.67973 210.82113 211.04653 211.27093 211.20432 210.90572 210.53512 210.16152
 209.77492 209.48131 209.28571 209.14611 209.07051 209.39791 209.78030 210.16570
 210.95510 212.12950 213.37590 215.15529 217.07969 219.11909 221.21049 223.28988
 225.34628 227.42668 229.52008 231.62248 233.74787 235.91627 238.16867 240.53507
 243.15247 245.39986 247.39826 249.15966 250.57306 251.69246 252.51085 252.82325
 252.85665 252.62705 251.98345 250.92784 249.53024 247.68764 245.59304 243.42243
 241.20983 239.01023 236.82663 234.66203 232.51842 230.38182 228.40422 226.55762
 224.83702 223.30541 221.93181 220.70021 219.57861 218.53501 217.63540 216.77280
 216.01120 215.18760 214.28200 213.64239 213.08879 213.93297 215.92746 218.31143
 220.40916 222.31982 223.98439 225.29137 226.09825 226.76390 227.28148 226.68658
 226.44618 228.24016 231.90715 236.45586 241.06052 245.54324 249.82823 253.78018
 257.37021 260.68652 263.72986 266.40701 268.66656 270.57822 272.46619 274.38083
 276.40567 278.18280 279.72784 281.09033 282.27573 283.33096 284.29620 285.17734
 285.98602 286.71729 287.36475 288.28552
 366.78100 356.33205 345.76111 334.62416 323.02421 311.21526 299.08232 286.88237
 274.59142 262.48548 250.49153 239.78958 229.90863 221.00969 213.18874 206.18779
 200.01885 194.95390 191.53295 189.57200 188.60606 188.66711 189.49916 190.80421
 192.52627 194.61832 196.87837 199.23443 201.67648 204.15353 206.23858 208.07764
 209.70069 210.84274 211.06880 211.29385 211.22790 210.92995 210.56001 210.18706
 209.80111 209.50817 209.31322 209.17427 209.09932 209.42738 209.81043 210.19648
 210.98654 212.16159 213.40864 215.18869 217.11375 219.15380 221.24585 223.32590
 225.38296 227.46401 229.55806 231.66112 233.78717 235.95622 238.20927 240.57633
 243.19438 245.44243 247.44149 249.20354 250.61759 251.73764 252.55670 252.86975
 252.90380 252.67486 252.03191 250.97696 249.58001 247.73807 245.64412 243.47417
 241.26223 239.06328 236.88033 234.71638 232.57344 230.43749 228.46054 226.61460
 224.89465 223.36370 221.99075 220.75981 219.63886 218.59591 217.69696 216.83502
 216.07407 215.25112 214.34618 213.70723 213.15428 213.98441 215.94566 218.32036
 220.46857 222.40991 224.04762 225.35107 226.20665 226.86403 227.24025 226.58821
 226.33514 228.15358 231.87466 236.42395 241.01683 245.49406 249.77293 253.71590
 257.29773 260.61124 263.66183 266.35080 268.58896 270.46014 272.44925 274.37061
 276.39334 278.17233 279.71735 281.07928 282.26361 283.31760 284.28311 285.16446
 285.97186 286.70462 287.35245 288.26834
 366.78100 356.33241 345.76181 334.62522 323.02563 311.21704 299.08444 286.88485
 274.59426 262.48867 250.49507 239.79348 229.91289 221.01430 213.19370 206.19311
 200.02452 194.95993 191.53933 189.57874 188.61315 188.67456 189.50696 190.81237
 192.53478 194.62719 196.88759 199.24400 201.68641 204.16382 206.24922 208.08863
 209.71204 210.85445 211.08085 211.30626 211.24067 210.94307 210.57348 210.20089
 209.81530 209.52270 209.32811 209.18952 209.11493 209.44333 209.82674 210.21315
 211.00356 212.17896 213.42637 215.20678 217.13219 219.17259 221.26500 223.34541
 225.40282 227.48422 229.57863 231.68204 233.80845 235.97785 238.23126 240.59867
 243.21708 245.46548 247.46489 249.22730 250.64171 251.76211 252.58152 252.89493
 252.92933 252.70074 252.05815 251.00356 249.60696 247.76537 245.67178 243.50219
 241.29059 239.09200 236.90941 234.74582 232.60322 230.46763 228.49104 226.64545
 224.92585 223.39526 222.02267 220.79208 219.67148 218.62889 217.73030 216.86871
 216.10811 215.28552 214.38093 213.74234 213.18974 214.01707 215.97171 218.34854
 220.52298 222.47391 224.08876 225.37732 226.28780 226.96469 227.23250 226.54356
 226.26828 228.08247 231.84500 236.39464 240.97476 245.44212 249.70929 253.63846
 257.20813 260.51620 263.57596 266.28354 268.52039 270.37668 272.38400 274.33209
 276.35971 278.14175 279.68729 281.04904 282.23303 283.28699 284.25073 285.13269
 285.93976 286.67209 287.31561 288.23264
 366.78100 356.33276 345.76251 334.62627 323.02702 311.21878 299.08653 286.88729
 274.59705 262.49180 250.49856 239.79731 229.91707 221.01883 213.19858 206.19834
 200.03009 194.96585 191.54560 189.58536 188.62012 188.68187 189.51463 190.82038
 192.54314 194.63589 196.89665 199.25341 201.69616 204.17392 206.25967 208.09943
 209.72319 210.86594 211.09270 211.31845 211.25321 210.95596 210.58672 210.21448
 209.82923 209.53699 209.34274 209.20450 209.13025 209.45901 209.84277 210.22952
 211.02028 212.19603 213.44379 215.22455 217.15030 219.19106 221.28381 223.36457
 225.42232 227.50408 229.59884 231.70259 233.82935 235.99910 238.25286 240.62061
 243.23937 245.48813 247.48788 249.25064 250.66539 251.78615 252.60591 252.91966
 252.95442 252.72617 252.08393 251.02968 249.63344 247.79220 245.69895 243.52971
 241.31846 239.12022 236.93797 234.77473 232.63249 230.49724 228.52100 226.67575
 224.95651 223.42627 222.05402 220.82378 219.70353 218.66129 217.76304 216.90180
 216.14156 215.31931 214.41507 213.77682 213.22458 214.04865 215.99564 218.38393
 220.58931 222.52693 224.10944 225.37775 226.34152 227.05159 227.23964 226.52151
 226.22285 228.02699 231.82520 236.37817 240.94719 245.40155 249.65485 253.56963
 257.12408 260.42072 263.48145 266.19751 268.41870 270.26086 272.40088 274.26700
 276.28931 278.08200 279.63397 280.99860 282.18433 283.23810 284.20276 285.08377
 285.88889 286.62003 287.26587 288.17502
 366.78100 356.33321 345.76341 334.62762 323.02883 311.22103 299.08924 286.89044
 274.60065 262.49586 250.50306 239.80227 229.92248 221.02468 213.20489 206.20510
 200.03730 194.97351 191.55371 189.59392 188.62913 188.69133 189.52454 190.83075
 192.55395 194.64716 196.90837 199.26557 201.70878 204.18699 206.27319 208.11340
 209.73760 210.88081 211.10802 211.33422 211.26943 210.97264 210.60384 210.23205
 209.84726 209.55546 209.36167 209.22387 209.15008 209.47929 209.86349 210.25070
 211.04191 212.21811 213.46632 215.24753 217.17373 219.21494 221.30814 223.38935
 225.44756 227.52976 229.62497 231.72918 233.85638 236.02659 238.28080 240.64900
 243.26821 245.51741 247.51762 249.28083 250.69603 251.81724 252.63745 252.95165
 252.98686 252.75907 252.11727 251.06348 249.66768 247.82689 245.73410 243.56530
 241.35451 239.15672 236.97492 234.81213 232.67034 230.53554 228.55975 226.71496
 224.99616 223.46637 222.09457 220.86478 219.74499 218.70319 217.80540 216.94461
 216.18481 215.36302 214.45923 213.82143 213.26964 214.08385 216.00751 218.42526
 220.66742 222.57837 224.11275 225.35472 226.37109 227.12079 227.25368 226.51030
 226.19008 227.98450 231.81200 236.37134 240.93098 245.36861 249.60489 253.50383
 257.04086 260.31842 263.36890 266.08316 268.29239 270.17480 272.43433 274.18948
 276.20438 278.00238 279.55887 280.92490 282.11255 283.16901 284.13385 285.01620
 285.82233 286.55319 287.19693 288.10410
 366.78100 356.33367 345.76434 334.62901 323.03068 311.22335 299.09202 286.89369
 274.60436 262.50003 250.50770 239.80737 229.92804 221.03071 213.21138 206.21205
 200.04472 194.98139 191.56206 189.60273 188.63840 188.70107 189.53474 190.84141
 192.56508 194.65875 196.92042 199.27809 201.72176 204.20043 206.28710 208.12777
 209.75244 210.89611 211.12378 211.35045 211.28612 210.98979 210.62146 210.25013
 209.86580 209.57447 209.38114 209.24381 209.17048 209.50015 209.88482 210.27249
 211.06416 212.24083 213.48950 215.27117 217.19784 219.23951 221.33318 223.41485
 225.47352 227.55619 229.65186 231.75653 233.88420 236.05487 238.30954 240.67821
 243.29788 245.54755 247.54822 249.31189 250.72756 251.84923 252.66990 252.98457
 253.02024 252.79291 252.15158 251.09825 249.70292 247.86259 245.77026 243.60193
 241.39160 239.19427 237.01294 234.85061 232.70928 230.57495 228.59962 226.75529
 225.03695 223.50762 222.13629 220.90696 219.78763 218.74630 217.84897 216.98864
 216.22931 215.40798 214.50465 213.86732 213.31599 214.11848 216.01443 218.46748
 220.76135 222.63045 224.10562 225.31821 226.37769 227.17410 227.27657 226.50694
 226.16495 227.95216 231.80478 236.37320 240.92427 245.34322 249.55870 253.43983
 256.95709 260.21451 263.25708 265.98395 268.20151 270.09796 272.38770 274.11578
 276.12170 277.91806 279.47159 280.83850 282.02591 283.08112 284.04694 284.92911
 285.73431 286.46521 287.11008 288.01398
 366.78100 356.33414 345.76528 334.63042 323.03256 311.22569 299.09483 286.89697
 274.60811 262.50425 250.51239 239.81253 229.93367 221.03680 213.21794 206.21908
 200.05222 194.98936 191.57050 189.61164 188.64778 188.71092 189.54505 190.85219
 192.57633 194.67047 196.93261 199.29075 201.73489 204.21403 206.30117 208.14230
 209.76744 210.91158 211.13972 211.36686 211.30300 211.00714 210.63928 210.26841
 209.88455 209.59369 209.40083 209.26397 209.19111 209.52125 209.90639 210.29453
 211.08666 212.26380 213.51294 215.29508 217.22222 219.26436 221.35850 223.44064
 225.49978 227.58291 229.67905 231.78419 233.91233 236.08347 238.33861 240.70775
 243.32789 245.57802 247.57916 249.34330 250.75944 251.88158 252.70272 253.01786
 253.05400 252.82714 252.18627 251.13341 249.73855 247.89869 245.80683 243.63897
 241.42911 239.23225 237.05139 234.88952 232.74866 230.61480 228.63994 226.79608
 225.07822 223.54936 222.17850 220.94963 219.83077 218.78991 217.89305 217.03319
 216.27433 215.45347 214.55061 213.91375 213.36288 214.15276 216.01892 218.51077
 220.86119 222.68918 224.08725 225.27135 226.37839 227.21886 227.30017 226.50595
 226.14568 227.92900 231.80078 236.38033 240.92400 245.32253 249.51558 253.37918
 256.87772 260.11389 263.15030 265.89740 268.12173 269.99988 272.35165 274.03653
 276.03281 277.82315 279.37430 280.74045 281.92719 282.98138 283.94803 284.83084
 285.63672 286.36935 287.01520 287.92090
 366.78100 356.33474 345.76648 334.63222 323.03496 311.22870 299.09845 286.90119
 274.61293 262.50967 250.51841 239.81915 229.94089 221.04463 213.22637 206.22811
 200.06186 194.99960 191.58134 189.62308 188.65982 188.72356 189.55830 190.86604
 192.59078 194.68552 196.94826 199.30701 201.75175 204.23149 206.31923 208.16097
 209.78671 210.93145 211.16019 211.38793 211.32467 211.02942 210.66216 210.29190
 209.90864 209.61838 209.42612 209.28986 209.21760 209.54834 209.93408 210.32282
 211.11557 212.29331 213.54305 215.32579 217.25353 219.29627 221.39101 223.47375
 225.53349 227.61723 229.71398 231.81972 233.94846 236.12020 238.37594 240.74568
 243.36642 245.61716 247.61890 249.38364 250.80039 251.92313 252.74487 253.06061
 253.09735 252.87109 252.23083 251.17857 249.78431 247.94505 245.85379 243.68654
 241.47728 239.28102 237.10076 234.93950 232.79924 230.66598 228.69172 226.84846
 225.13120 223.60295 222.23269 221.00443 219.88617 218.84591 217.94965 217.09039
 216.33213 215.51187 214.60961 213.97335 213.42310 214.19215 216.00914 218.56708
 220.96198 222.73192 224.07593 225.22368 226.35539 227.24960 227.32690 226.50571
 226.12715 227.90950 231.79874 236.39247 240.93103 245.30809 249.47911 253.32692
 256.80560 260.01675 263.04181 265.81070 268.05478 269.93906 272.26645 273.94891
 275.93820 277.71530 279.26135 280.62531 281.81277 282.86710 283.83417 284.71844
 285.52444 286.25577 286.90445 287.80383
 366.78100 356.33523 345.76746 334.63368 323.03691 311.23114 299.10137 286.90460
 274.61683 262.51405 250.52328 239.82451 229.94674 221.05097 213.23320 206.23542
 200.06965 195.00788 191.59011 189.63234 188.66957 188.73379 189.56902 190.87725
 192.60248 194.69771 196.96094 199.32016 201.76539 204.24562 206.33385 208.17608
 209.80231 210.94753 211.17676 211.40499 211.34222 211.04745 210.68068 210.31090
 209.92813 209.63836 209.44659 209.31082 209.23905 209.57027 209.95650 210.34573
 211.13896 212.31719 213.56742 215.35064 217.27887 219.32210 221.41733 223.50056
 225.56079 227.64501 229.74224 231.84847 233.97770 236.14993 238.40616 240.77638
 243.39761 245.64884 247.65107 249.41630 250.83353 251.95675 252.77898 253.09521
 253.13244 252.90667 252.26690 251.21512 249.82135 247.98258 245.89181 243.72504
 241.51627 239.32049 237.14072 234.97995 232.84018 230.70741 228.73364 226.89086
 225.17409 223.64632 222.27655 221.04878 219.93101 218.89123 217.99546 217.13669
 216.37892 215.55915 214.65738 214.02160 213.47183 214.22455 216.00291 218.61366
 221.08633 222.77713 224.02148 225.17021 226.34944 227.27826 227.34502 226.50076
 226.11278 227.90128 231.80292 236.41261 240.94861 245.30463 249.45375 253.28571
 256.74408 259.92593 262.93460 265.72446 267.99811 269.88785 272.11444 273.86206
 275.84219 277.59357 279.13358 280.49768 281.68481 282.74075 283.70721 284.59207
 285.39795 286.13187 286.78146 287.67368
 366.78100 356.33554 345.76809 334.63463 323.03818 311.23272 299.10326 286.90681
 274.61935 262.51690 250.52644 239.82798 229.95053 221.05507 213.23762 206.24016
 200.07470 195.01325 191.59579 189.63834 188.67588 188.74042 189.57597 190.88451
 192.61006 194.70560 196.96914 199.32869 201.77423 204.25478 206.34332 208.18586
 209.81241 210.95795 211.18750 211.41604 211.35358 211.05913 210.69267 210.32322
 209.94076 209.65131 209.45985 209.32439 209.25294 209.58448 209.97103 210.36057
 211.15411 212.33266 213.58320 215.36675 217.29529 219.33883 221.43438 223.51792
 225.57847 227.66301 229.76055 231.86710 233.99664 236.16919 238.42573 240.79627
 243.41782 245.66936 247.67191 249.43745 250.85499 251.97854 252.80108 253.11763
 253.15517 252.92971 252.29026 251.23880 249.84535 248.00689 245.91643 243.74998
 241.54152 239.34607 237.16661 235.00615 232.86670 230.73424 228.76079 226.91833
 225.20187 223.67442 222.30496 221.07751 219.96005 218.92059 218.02514 217.16668
 216.40923 215.58977 214.68831 214.05286 213.50340 214.24825 216.00801 218.64543
 221.21461 222.85663 223.98373 225.10773 226.31232 227.25925 227.33012 226.50041
 226.12379 227.91280 231.81424 236.43910 240.97542 245.30951 249.43544 253.25217
 256.69125 259.84439 262.83640 265.65485 267.96164 269.83722 271.97467 273.78455
 275.74081 277.46014 278.99603 280.36133 281.54932 282.60547 283.57227 284.45703
 285.26529 285.99820 286.65088 287.53769
 366.78100 356.33595 345.76890 334.63585 323.03980 311.23475 299.10569 286.90964
 274.62259 262.52054 250.53049 239.83244 229.95539 221.06034 213.24329 206.24624
 200.08119 195.02014 191.60308 189.64603 188.68398 188.74893 189.58488 190.89383
 192.61978 194.71573 196.97968 199.33963 201.78558 204.26653 206.35547 208.19842
 209.82537 210.97132 211.20127 211.43022 211.36817 211.07412 210.70807 210.33902
 209.95697 209.66792 209.47686 209.34181 209.27076 209.60271 209.98966 210.37961
 211.17356 212.35251 213.60346 215.38741 217.31636 219.36030 221.45625 223.54020
 225.60115 227.68610 229.78405 231.89100 234.02095 236.19390 238.45085 240.82180
 243.44375 245.69569 247.69864 249.46459 250.88254 252.00649 252.82944 253.14639
 253.18434 252.95929 252.32024 251.26919 249.87614 248.03808 245.94803 243.78198
 241.57393 239.37888 237.19983 235.03978 232.90073 230.76868 228.79563 226.95358
 225.23753 223.71047 222.34142 221.11437 219.99732 218.95827 218.06322 217.20517
 216.44812 215.62907 214.72802 214.09297 213.54391 214.27734 216.01016 218.67798
 221.31970 222.93474 223.96680 225.04204 226.24797 227.20236 227.28426 226.51662
 226.16786 227.94182 231.83038 236.47072 241.00833 245.32161 249.42427 253.22916
 256.64944 259.76758 262.73270 265.58273 267.91980 269.79745 271.91544 273.66891
 275.61938 277.32367 278.86423 280.22876 281.41745 282.47394 283.44330 284.32785
 285.13669 285.87344 286.53821 287.42291
 366.78100 356.33631 345.76963 334.63694 323.04126 311.23657 299.10789 286.91220
 274.62552 262.52383 250.53415 239.83646 229.95978 221.06509 213.24841 206.25172
 200.08704 195.02635 191.60967 189.65298 188.69129 188.75661 189.59292 190.90224
 192.62855 194.72487 196.98918 199.34950 201.79581 204.27713 206.36644 208.20976
 209.83707 210.98339 211.21370 211.44302 211.38133 211.08765 210.72196 210.35328
 209.97159 209.68290 209.49222 209.35753 209.28685 209.61916 210.00648 210.39679
 211.19111 212.37042 213.62174 215.40605 217.33537 219.37968 221.47600 223.56031
 225.62163 227.70694 229.80526 231.91257 234.04288 236.21620 238.47351 240.84483
 243.46714 245.71946 247.72277 249.48909 250.90740 252.03172 252.85503 253.17235
 253.21066 252.98598 252.34729 251.29661 249.90392 248.06624 245.97655 243.81087
 241.60318 239.40849 237.22981 235.07012 232.93144 230.79975 228.82707 226.98538
 225.26970 223.74301 222.37433 221.14764 220.03096 218.99227 218.09759 217.23990
 216.48322 215.66453 214.76385 214.12916 213.58047 214.30334 216.01118 218.72099
 221.41194 223.01122 223.97231 224.99352 226.17996 227.13261 227.23161 226.51445
 226.18970 227.96423 231.84534 236.50357 241.04800 245.34352 249.42633 253.22481
 256.63400 259.71811 262.64621 265.51672 267.87335 269.73456 271.88239 273.55057
 275.50153 277.20142 278.73636 280.10168 281.28897 282.34512 283.31372 284.19843
 285.00778 285.74323 286.41547 287.29590
 366.78100 356.33657 345.77014 334.63771 323.04228 311.23785 299.10943 286.91400
 274.62757 262.52614 250.53671 239.83928 229.96285 221.06842 213.25199 206.25556
 200.09114 195.03071 191.61428 189.65785 188.69642 188.76199 189.59856 190.90813
 192.63470 194.73127 196.99584 199.35642 201.80299 204.28456 206.37413 208.21770
 209.84527 210.99184 211.22241 211.45198 211.39055 211.09712 210.73170 210.36327
 209.98184 209.69341 209.50298 209.36855 209.29812 209.63069 210.01826 210.40883
 211.20341 212.38298 213.63455 215.41912 217.34869 219.39326 221.48983 223.57440
 225.63597 227.72154 229.82011 231.92769 234.05826 236.23183 238.48940 240.86097
 243.48354 245.73611 247.73968 249.50625 250.92482 252.04940 252.87297 253.19054
 253.22911 253.00468 252.36625 251.31582 249.92339 248.08596 245.99653 243.83110
 241.62368 239.42925 237.25082 235.09139 232.95296 230.82153 228.84910 227.00767
 225.29224 223.76581 222.39738 221.17096 220.05453 219.01610 218.12167 217.26424
 216.50781 215.68938 214.78895 214.15452 213.60609 214.32193 216.01317 218.77238
 221.51720 223.10164 223.99919 224.96159 226.11232 227.05122 227.18068 226.48358
 226.19022 227.97723 231.85892 236.53453 241.08809 245.36787 249.43233 253.22202
 256.62015 259.67810 262.58124 265.44843 267.83438 269.72867 271.77386 273.51547
 275.38614 277.07349 278.59781 279.95932 281.14508 282.19943 283.16422 284.04388
 284.84958 285.58087 286.23059 287.10403
 366.78100 356.33698 345.77095 334.63893 323.04391 311.23989 299.11186 286.91684
 274.63082 262.52979 250.54077 239.84375 229.96773 221.07370 213.25768 206.26166
 200.09763 195.03761 191.62159 189.66557 188.70454 188.77052 189.60750 190.91747
 192.64445 194.74143 197.00641 199.36738 201.81436 204.29634 206.38631 208.23029
 209.85827 211.00525 211.23622 211.46620 211.40518 211.11215 210.74713 210.37911
 209.99809 209.71006 209.52004 209.38602 209.31599 209.64897 210.03695 210.42793
 211.22290 212.40288 213.65486 215.43983 217.36981 219.41479 221.51177 223.59674
 225.65872 227.74470 229.84367 231.95165 234.08263 236.25661 238.51458 240.88656
 243.50954 245.76251 247.76649 249.53347 250.95245 252.07742 252.90140 253.21938
 253.25835 253.03433 252.39631 251.34628 249.95426 248.11724 246.02822 243.86319
 241.65617 239.46215 237.28412 235.12510 232.98708 230.85606 228.88403 227.04301
 225.32799 223.80196 222.43394 221.20792 220.09190 219.05387 218.15985 217.30283
 216.54680 215.72878 214.82876 214.19474 213.64671 214.34953 216.01003 218.81577
 221.62181 223.18579 224.02165 224.92212 226.03714 226.96501 227.11383 226.45636
 226.20264 227.99918 231.87268 236.56178 241.12808 245.39490 249.44255 253.22491
 256.61362 259.64484 262.51605 265.39163 267.81641 269.73904 271.66553 273.48172
 275.27670 276.94608 278.45535 279.81058 280.99286 282.04303 283.00546 283.88235
 284.68365 285.41037 286.05325 286.91476
 366.78100 356.33757 345.77214 334.64071 323.04627 311.24284 299.11541 286.92098
 274.63555 262.53512 250.54668 239.85025 229.97482 221.08139 213.26596 206.27053
 200.10709 195.04766 191.63223 189.67680 188.71637 188.78294 189.62051 190.93107
 192.65864 194.75621 197.02178 199.38335 201.83092 204.31348 206.40405 208.24862
 209.87719 211.02476 211.25633 211.48689 211.42646 211.13403 210.76960 210.40217
 210.02174 209.73430 209.54487 209.41144 209.34201 209.67558 210.06415 210.45572
 211.25128 212.43185 213.68442 215.46999 217.40056 219.44613 221.54369 223.62926
 225.69183 227.77840 229.87797 231.98654 234.11810 236.29267 238.55124 240.92381
 243.54738 245.80095 247.80552 249.57308 250.99265 252.11822 252.94279 253.26136
 253.30093 253.07749 252.44006 251.39063 249.99920 248.16277 246.07434 243.90990
 241.70347 239.51004 237.33261 235.17418 233.03675 230.90631 228.93488 227.09445
 225.38002 223.85459 222.48716 221.26173 220.14629 219.10886 218.21543 217.35900
 216.60357 215.78614 214.88670 214.25327 213.70584 214.38878 216.00230 218.84390
 221.72542 223.27570 224.05106 224.88161 225.95827 226.86993 227.02704 226.40311
 226.19649 228.01862 231.89265 236.60008 241.17902 245.43803 249.47247 253.25146
 256.63571 259.64191 262.47467 265.35526 267.81686 269.78680 271.52115 273.40588
 275.20096 276.84692 278.34482 279.69974 280.88278 281.93445 282.89792 283.77426
 284.57101 285.29770 285.93817 286.79950
 366.78100 356.33796 345.77292 334.64189 323.04785 311.24481 299.11777 286.92373
 274.63869 262.53866 250.55062 239.85458 229.97954 221.08650 213.27146 206.27643
 200.11339 195.05435 191.63931 189.68427 188.72424 188.79120 189.62916 190.94012
 192.66808 194.76604 197.03201 199.39397 201.84193 204.32489 206.41585 208.26082
 209.88978 211.03774 211.26970 211.50066 211.44062 211.14859 210.78455 210.41751
 210.03747 209.75043 209.56139 209.42836 209.35932 209.69328 210.08224 210.47420
 211.27017 212.45113 213.70409 215.49005 217.42101 219.46697 221.56494 223.65090
 225.71386 227.80082 229.90078 232.00975 234.14171 236.31667 238.57563 240.94859
 243.57255 245.82652 247.83148 249.59944 251.01940 252.14536 252.97032 253.28929
 253.32925 253.10621 252.46917 251.42013 250.02910 248.19306 246.10502 243.94098
 241.73494 239.54190 237.36487 235.20683 233.06979 230.93975 228.96871 227.12868
 225.41464 223.88960 222.52256 221.29752 220.18248 219.14545 218.25241 217.39637
 216.64133 215.82429 214.92525 214.29222 213.74518 214.41910 216.01134 218.84702
 221.80424 223.37259 224.09715 224.87392 225.90935 226.77327 226.91200 226.32106
 226.17186 228.02977 231.89836 236.62199 241.22571 245.49663 249.52348 253.30139
 256.68958 259.67972 262.46259 265.33981 267.83029 269.81311 271.45343 273.32516
 275.10803 276.72174 278.19724 279.52856 280.68967 281.71848 282.66339 283.53131
 284.32312 285.04367 285.66791 286.42871
 366.78100 356.33798 345.77297 334.64195 323.04794 311.24492 299.11791 286.92389
 274.63888 262.53886 250.55085 239.85483 229.97982 221.08680 213.27179 206.27677
 200.11375 195.05474 191.63972 189.68471 188.72469 188.79168 189.62966 190.94065
 192.66863 194.76662 197.03260 199.39459 201.84257 204.32556 206.41654 208.26152
 209.89051 211.03849 211.27048 211.50146 211.44145 211.14943 210.78542 210.41840
 210.03839 209.75137 209.56236 209.42934 209.36033 209.69431 210.08329 210.47528
 211.27126 212.45225 213.70523 215.49122 217.42220 219.46819 221.56617 223.65216
 225.71514 227.80213 229.90211 232.01110 234.14308 236.31806 238.57705 240.95003
 243.57402 245.82800 247.83299 249.60097 251.02096 252.14694 252.97193 253.29091
 253.33090 253.10788 252.47087 251.42185 250.03083 248.19482 246.10680 243.94279
 241.73677 239.54376 237.36674 235.20873 233.07171 230.94170 228.97068 227.13067
 225.41665 223.89164 222.52462 221.29961 220.18459 219.14757 218.25456 217.39854
 216.64353 215.82651 214.92750 214.29448 213.74747 214.43063 216.04469 218.85364
 221.80081 223.43745 224.18689 224.89799 225.87901 226.70183 226.80177 226.22324
 226.11493 228.01785 231.90799 236.65298 241.27254 245.55833 249.58952 253.36948
 256.75198 259.70816 262.44409 265.30502 267.78198 269.76038 271.42923 273.23401
 275.03006 276.60797 278.06427 279.37830 280.52686 281.55176 282.49280 283.35873
 284.15540 284.87378 285.47018 286.20694
 366.78100 356.33754 345.77209 334.64063 323.04618 311.24272 299.11527 286.92081
 274.63536 262.53490 250.54644 239.84999 229.97453 221.08108 213.26562 206.27017
 200.10671 195.04726 191.63180 189.67634 188.71589 188.78243 189.61998 190.93052
 192.65807 194.75561 197.02116 199.38270 201.83024 204.31279 206.40333 208.24788
 209.87642 211.02397 211.25551 211.48606 211.42560 211.13314 210.76869 210.40123
 210.02078 209.73332 209.54387 209.41041 209.34096 209.67450 210.06304 210.45459
 211.25013 212.43068 213.68322 215.46877 217.39931 219.44486 221.54240 223.62794
 225.69049 227.77703 229.87658 231.98512 234.11667 236.29121 238.54976 240.92230
 243.54585 245.79939 247.80393 249.57148 250.99102 252.11657 252.94111 253.25966
 253.29920 253.07575 252.43829 251.38883 249.99738 248.16092 246.07247 243.90801
 241.70156 239.50810 237.33065 235.17219 233.03473 230.90428 228.93282 227.09237
 225.37791 223.85246 222.48500 221.25955 220.14409 219.10663 218.21318 217.35672
 216.60127 215.78381 214.88436 214.25090 213.70345 214.41957 216.11281 218.83154
 221.78288 223.41136 224.16388 224.92563 225.96927 226.74820 226.71594 226.11031
 225.93423 227.92215 231.87878 236.67563 241.31665 245.64105 249.68761 253.48569
 256.88760 259.82257 262.49173 265.25528 267.67319 269.57889 271.35440 273.22678
 274.87729 276.44870 277.89194 279.20285 280.36783 281.41800 282.39078 283.28018
 284.07742 284.76031 285.35651 286.11624
 366.78100 356.33638 345.76976 334.63714 323.04153 311.23691 299.10829 286.91267
 274.62605 262.52443 250.53481 239.83720 229.96058 221.06596 213.24934 206.25272
 200.08810 195.02748 191.61087 189.65425 188.69263 188.75801 189.59439 190.90377
 192.63015 194.72654 196.99092 199.35130 201.79768 204.27906 206.36844 208.21182
 209.83921 210.98559 211.21597 211.44535 211.38373 211.09011 210.72449 210.35588
 209.97426 209.68564 209.49502 209.36040 209.28978 209.62216 210.00955 210.39993
 211.19431 212.37369 213.62507 215.40945 217.33883 219.38322 221.47960 223.56398
 225.62536 227.71074 229.80912 231.91650 234.04689 236.22027 238.47765 240.84903
 243.47141 245.72379 247.72717 249.49356 250.91194 252.03632 252.85970 253.17708
 253.21546 252.99084 252.35223 251.30161 249.90899 248.07137 245.98175 243.81613
 241.60851 239.41390 237.23528 235.07566 232.93704 230.80542 228.83280 226.99118
 225.27557 223.74895 222.38033 221.15371 220.03709 218.99847 218.10385 217.24624
 216.48962 215.67100 214.77038 214.13576 213.58714 214.37500 216.26776 218.78683
 221.74492 223.29387 224.01576 224.95808 226.13321 226.89706 226.67459 226.12273
 225.68837 227.73996 231.75160 236.63963 241.33228 245.68890 249.74301 253.53870
 256.94849 259.91385 262.62683 265.29749 267.63004 269.51248 271.31427 273.13251
 274.79318 276.34360 277.74261 279.01859 280.17053 281.21942 282.20459 283.14822
 284.01688 284.79041 285.46613 286.32727
 366.78100 356.33851 345.77403 334.64354 323.05005 311.24757 299.12108 286.92759
 274.64311 262.54362 250.55614 239.86065 229.98616 221.09368 213.27919 206.28470
 200.12222 195.06373 191.64924 189.69476 188.73527 188.80278 189.64130 190.95281
 192.68132 194.77984 197.04635 199.40887 201.85738 204.34089 206.43241 208.27792
 209.90743 211.05595 211.28846 211.51997 211.46049 211.16900 210.80551 210.43903
 210.05954 209.77306 209.58457 209.45208 209.38360 209.71811 210.10762 210.50014
 211.29665 212.47816 213.73168 215.51819 217.44970 219.49622 221.59473 223.68124
 225.74476 227.83227 229.93279 232.04230 234.17481 236.35033 238.60984 240.98335
 243.60787 245.86238 247.86789 249.63641 251.05692 252.18343 253.00895 253.32846
 253.36897 253.14649 252.51000 251.46152 250.07103 248.23554 246.14806 243.98457
 241.77908 239.58660 237.41011 235.25262 233.11614 230.98665 229.01616 227.17668
 225.46319 223.93871 222.57222 221.34773 220.23325 219.19676 218.30427 217.44879
 216.69430 215.87781 214.97933 214.34684 213.80035 214.49451 216.17593 218.88416
 221.77115 223.29843 224.08881 224.91377 226.00661 226.84297 226.73627 226.23848
 225.73036 227.73373 231.74898 236.61658 241.29947 245.60350 249.69083 253.50827
 256.91586 259.87582 262.60773 265.31891 267.70276 269.63208 271.29251 273.13885
 274.86276 276.37701 277.73544 278.99332 280.15402 281.21512 282.22470 283.18802
 284.07462 284.86411 285.55380 286.43274
 366.78100 356.33979 345.77659 334.64738 323.05518 311.25397 299.12877 286.93656
 274.65336 262.55515 250.56895 239.87474 230.00154 221.11033 213.29713 206.30392
 200.14271 195.08551 191.67230 189.71910 188.76089 188.82969 189.66948 190.98228
 192.71207 194.81187 197.07966 199.44346 201.89325 204.37805 206.47084 208.31763
 209.94843 211.09822 211.33202 211.56481 211.50661 211.21640 210.85420 210.48899
 210.11079 209.82558 209.63838 209.50717 209.43997 209.77576 210.16655 210.56035
 211.35814 212.54094 213.79573 215.58353 217.51632 219.56412 221.66391 223.75171
 225.81650 227.90530 230.00709 232.11789 234.25168 236.42847 238.68927 241.06406
 243.68986 245.94565 247.95245 249.72224 251.14404 252.27183 253.09863 253.41942
 253.46122 253.24001 252.60481 251.55760 250.16839 248.33419 246.24798 244.08578
 241.88157 239.69037 237.51516 235.35896 233.22375 231.09555 229.12634 227.28814
 225.57593 224.05273 222.68752 221.46431 220.35111 219.31590 218.42470 217.57049
 216.81729 216.00208 215.10488 214.47367 213.92847 214.57007 216.12843 218.95686
 221.79927 223.37675 224.15562 224.81064 225.83354 226.72391 226.79666 226.30017
 225.77063 227.74559 231.76172 236.60091 241.28374 245.61877 249.72374 253.53436
 256.91315 259.85190 262.57468 265.26376 267.64932 269.58478 271.29099 273.08813
 274.78497 276.25845 277.58768 278.90503 280.09735 281.16406 282.13754 283.04080
 283.88242 284.63187 285.28659 286.12094
 366.78100 356.33924 345.77549 334.64573 323.05297 311.25121 299.12546 286.93270
 274.64894 262.55019 250.56343 239.86867 229.99491 221.10316 213.28940 206.29564
 200.13389 195.07613 191.66237 189.70862 188.74986 188.81810 189.65734 190.96959
 192.69883 194.79807 197.06532 199.42856 201.87780 204.36204 206.45429 208.30053
 209.93077 211.08002 211.31326 211.54550 211.48674 211.19599 210.83323 210.46747
 210.08872 209.80296 209.61520 209.48345 209.41569 209.75093 210.14117 210.53442
 211.33166 212.51390 213.76815 215.55539 217.48763 219.53487 221.63412 223.72136
 225.78560 227.87385 229.97509 232.08533 234.21857 236.39482 238.65506 241.02930
 243.65455 245.90979 247.91603 249.68527 251.10652 252.23376 253.06000 253.38025
 253.42149 253.19973 252.56398 251.51622 250.12646 248.29170 246.20495 244.04219
 241.83743 239.64568 237.46992 235.31316 233.17740 231.04865 229.07889 227.24013
 225.52738 224.00362 222.63786 221.41410 220.30035 219.26459 218.37283 217.51808
 216.76432 215.94856 215.05081 214.41905 213.87329 214.55498 216.26366 218.96788
 221.72548 223.22839 224.10065 224.85281 225.91174 226.93207 226.85866 226.40875
 225.70811 227.73590 231.77454 236.53415 241.22116 245.62881 249.78052 253.61044
 256.98349 259.91266 262.60263 265.24008 267.56949 269.50546 271.26572 273.01099
 274.66595 276.12463 277.35178 278.59167 279.78986 280.91409 281.95929 282.90616
 283.75775 284.51611 285.17859 286.02286
 366.78100 356.34116 345.77932 334.65148 323.06064 311.26079 299.13695 286.94611
 274.66427 262.56743 250.58259 239.88975 230.01791 221.12807 213.31623 206.32438
 200.16454 195.10870 191.69686 189.74502 188.78818 188.85834 189.69950 191.01366
 192.74481 194.84597 197.11513 199.48029 201.93145 204.41761 206.51177 208.35993
 209.99209 211.14325 211.37840 211.61256 211.55572 211.26688 210.90604 210.54220
 210.16536 209.88152 209.69568 209.56584 209.49999 209.83715 210.22931 210.62447
 211.42363 212.60779 213.86395 215.65311 217.58727 219.63642 221.73758 223.82674
 225.89290 227.98306 230.08622 232.19838 234.33354 236.51170 238.77386 241.15001
 243.77717 246.03433 248.04249 249.81365 251.23681 252.36597 253.19413 253.51629
 253.55944 253.33960 252.70576 251.65992 250.27208 248.43924 246.35440 244.19356
 241.99072 239.80088 237.62703 235.47219 233.33835 231.21151 229.24367 227.40683
 225.69599 224.17415 222.81031 221.58847 220.47662 219.44278 218.55294 217.70010
 216.94826 216.13442 215.23858 214.60874 214.06490 214.67569 216.30574 218.99525
 221.77124 223.39508 224.30289 224.98779 225.97174 226.80087 226.95502 226.24887
 225.91100 227.83858 231.75705 236.48245 241.16692 245.58476 249.74782 253.58817
 256.95850 259.91965 262.68420 265.31821 267.59723 269.53006 271.25607 272.93423
 274.51102 275.79446 277.37564 278.99759 280.41577 281.67047 282.81522 283.85229
 284.78500 285.61560 286.34119 287.26587
 366.78100 356.34261 345.78222 334.65583 323.06644 311.26804 299.14565 286.95626
 274.67587 262.58048 250.59709 239.90570 230.03531 221.14692 213.33653 206.34613
 200.18774 195.13335 191.72296 189.77257 188.81718 188.88879 189.73140 191.04701
 192.77962 194.88222 197.15283 199.51944 201.97205 204.45966 206.55527 208.40488
 210.03849 211.19110 211.42771 211.66331 211.60792 211.32053 210.96114 210.59875
 210.22336 209.94097 209.75658 209.62819 209.56380 209.90240 210.29601 210.69262
 211.49323 212.67884 213.93645 215.72706 217.66267 219.71328 221.81589 223.90649
 225.97410 228.06571 230.17032 232.28393 234.42054 236.60015 238.86376 241.24137
 243.86998 246.12858 248.13819 249.91080 251.33541 252.46602 253.29563 253.61924
 253.66385 253.44546 252.81307 251.76867 250.38228 248.55089 246.46750 244.30811
 242.10672 239.91833 237.74594 235.59255 233.46016 231.33476 229.36837 227.53298
 225.82359 224.30320 222.94081 221.72042 220.61003 219.57764 218.68925 217.83785
 217.08746 216.27507 215.38068 214.75229 214.20990 214.78070 216.38203 218.99028
 221.76328 223.62077 224.59885 225.04797 225.89107 226.41599 227.21159 226.01430
 225.92581 227.95085 231.82921 236.49208 241.17068 245.60538 249.77055 253.56873
 256.90250 259.84381 262.60660 265.21182 267.55249 269.60925 271.32736 272.96417
 274.48282 276.39499 278.04968 279.50259 280.75998 281.87244 282.88739 283.80688
 284.63385 285.37027 286.01358 286.83344
 366.78100 356.34028 345.77755 334.64883 323.05710 311.25638 299.13166 286.93993
 274.65721 262.55948 250.57376 239.88004 230.00731 221.11659 213.30386 206.31114
 200.15041 195.09369 191.68097 189.72824 188.77052 188.83979 189.68007 190.99335
 192.72362 194.82390 197.09217 199.45645 201.90673 204.39200 206.48528 208.33255
 209.96383 211.11411 211.34838 211.58166 211.52393 211.23421 210.87249 210.50776
 210.13004 209.84531 209.65859 209.52786 209.46114 209.79742 210.18869 210.58297
 211.38124 212.56452 213.81980 215.60807 217.54135 219.58962 221.68990 223.77818
 225.84345 227.93273 230.03500 232.14628 234.28056 236.45783 238.71911 241.09438
 243.72066 245.97694 247.98421 249.75449 251.17676 252.30504 253.13232 253.45359
 253.49587 253.27514 252.64042 251.59369 250.20497 248.37125 246.28552 244.12380
 241.92007 239.72935 237.55463 235.39890 233.26418 231.13645 229.16773 227.33001
 225.61828 224.09556 222.73083 221.50811 220.39539 219.36066 218.46994 217.61621
 216.86349 216.04877 215.15204 214.52132 213.97659 214.70082 216.57484 218.94247
 221.58078 223.70605 224.91060 225.24139 225.76624 226.14642 226.84171 225.71573
 225.99452 228.16307 232.01880 236.64415 241.33372 245.80496 249.98079 253.79401
 257.10477 260.02661 262.74762 265.28824 267.48459 269.29922 271.33282 272.94165
 274.33038 275.52075 276.55081 277.45526 278.23801 278.93054 279.56235 280.13474
 280.64954 281.10797 281.50845 282.01883
 366.78100 356.33866 345.77432 334.64397 323.05063 311.24829 299.12195 286.92861
 274.64426 262.54492 250.55758 239.86224 229.98790 221.09555 213.28121 206.28687
 200.12453 195.06619 191.65184 189.69750 188.73816 188.80582 189.64448 190.95613
 192.68479 194.78345 197.05011 199.41277 201.86143 204.34508 206.43674 208.28240
 209.91206 211.06072 211.29337 211.52503 211.46569 211.17435 210.81101 210.44466
 210.06532 209.77898 209.59064 209.45830 209.38995 209.72461 210.11427 210.50693
 211.30359 212.48524 213.73890 215.52556 217.45722 219.50388 221.60253 223.68919
 225.75285 227.84051 229.94117 232.05082 234.18348 236.35914 238.61880 240.99246
 243.61711 245.87177 247.87743 249.64609 251.06675 252.19340 253.01906 253.33872
 253.37938 253.15704 252.52070 251.47235 250.08201 248.24667 246.15933 243.99599
 241.79064 239.59830 237.42196 235.26462 233.12828 230.99893 229.02859 227.18925
 225.47591 223.95157 222.58522 221.36088 220.24654 219.21020 218.31786 217.46251
 216.70817 215.89183 214.99349 214.36115 213.81480 214.64334 216.69864 218.94685
 221.40915 223.59004 224.97025 225.43779 225.82800 226.31151 226.54967 225.28703
 225.55562 227.97191 232.03177 236.74289 241.47208 246.00787 250.25621 254.11630
 257.49405 260.43542 263.03439 265.41864 267.48010 268.98553 271.08273 273.32858
 275.29330 276.97736 278.43463 279.71420 280.82159 281.80133 282.69519 283.50497
 284.23331 284.88187 285.44843 286.17047
 366.78100 356.34136 345.77973 334.65209 323.06146 311.26182 299.13819 286.94755
 274.66592 262.56928 250.58464 239.89201 230.02037 221.13074 213.31910 206.32747
 200.16783 195.11220 191.70056 189.74893 188.79229 188.86265 189.70402 191.01838
 192.74975 194.85111 197.12048 199.48584 201.93721 204.42357 206.51793 208.36630
 209.99866 211.15003 211.38539 211.61976 211.56312 211.27449 210.91385 210.55022
 210.17358 209.88994 209.70431 209.57467 209.50904 209.84640 210.23877 210.63413
 211.43350 212.61786 213.87422 215.66359 217.59795 219.64732 221.74868 223.83805
 225.90441 227.99478 230.09814 232.21051 234.34587 236.52423 238.78660 241.16296
 243.79033 246.04769 248.05606 249.82742 251.25079 252.38015 253.20851 253.53088
 253.57424 253.35461 252.72097 251.67534 250.28770 248.45507 246.37043 244.20979
 242.00716 239.81752 237.64389 235.48925 233.35562 231.22898 229.26135 227.42471
 225.71408 224.19244 222.82880 221.60717 220.49553 219.46190 218.57226 217.71963
 216.96799 216.15436 215.25872 214.62908 214.08545 214.77863 216.64645 219.05763
 221.38173 223.35469 224.83122 225.46530 226.00394 226.64047 226.74904 225.06207
 225.09785 227.62375 231.91278 236.68938 241.44487 246.00856 250.31067 254.25394
 257.75110 260.76169 263.35989 265.72150 267.87866 269.23123 271.01321 274.05118
 276.68802 278.94815 280.90396 282.62131 284.10751 285.42242 286.62207 287.70886
 288.68634 289.55676 290.31717 291.28619
 366.78100 356.34352 345.78404 334.65856 323.07008 311.27260 299.15111 286.96263
 274.68315 262.58867 250.60619 239.91571 230.04623 221.15875 213.34927 206.35979
 200.20230 195.14882 191.73934 189.78986 188.83538 188.90790 189.75142 191.06794
 192.80146 194.90498 197.17649 199.54401 201.99753 204.48605 206.58257 208.43309
 210.06761 211.22113 211.45865 211.69517 211.64069 211.35420 210.99572 210.63424
 210.25976 209.97828 209.79480 209.66732 209.60384 209.94336 210.33788 210.73539
 211.53691 212.72343 213.98195 215.77347 217.70999 219.76151 221.86503 223.95655
 226.02507 228.11758 230.22310 232.33762 234.47514 236.65566 238.92018 241.29870
 243.92822 246.18774 248.19826 249.97178 251.39729 252.52881 253.35933 253.68385
 253.72937 253.51189 252.88041 251.83693 250.45145 248.62097 246.53848 244.38000
 242.17952 239.99204 237.82056 235.66808 233.53660 231.41212 229.44664 227.61216
 225.90367 224.38419 223.02271 221.80323 220.69375 219.66227 218.77479 217.92431
 217.17483 216.36335 215.46987 214.84238 214.30090 214.88751 216.56517 219.05319
 221.56213 223.51418 224.65715 225.08870 225.75388 226.97261 227.13002 225.57309
 225.32521 227.51547 231.75916 236.49948 241.21475 245.76212 250.05023 253.95631
 257.43597 260.58405 263.51422 266.19443 268.51569 270.33380 271.49112 273.85965
 276.70462 279.17450 281.31180 283.18848 284.81259 286.24951 287.56049 288.74814
 289.81631 290.76752 291.59845 292.65741
 366.78100 356.34227 345.78154 334.65481 323.06509 311.26636 299.14363 286.95390
 274.67317 262.57744 250.59371 239.90198 230.03126 221.14253 213.33180 206.34107
 200.18234 195.12761 191.71688 189.76616 188.81043 188.88170 189.72397 191.03924
 192.77151 194.87378 197.14405 199.51033 201.96260 204.44987 206.54514 208.39441
 210.02768 211.17995 211.41622 211.65150 211.59577 211.30804 210.94831 210.58558
 210.20985 209.92712 209.74240 209.61367 209.54894 209.88721 210.28048 210.67675
 211.47702 212.66229 213.91957 215.70984 217.64511 219.69538 221.79765 223.88792
 225.95519 228.04647 230.15074 232.26401 234.40028 236.57955 238.84282 241.22009
 243.84836 246.10664 248.11591 249.88818 251.31245 252.44272 253.27199 253.59526
 253.63954 253.42081 252.78808 251.74335 250.35662 248.52489 246.44116 244.28143
 242.07971 239.89098 237.71825 235.56452 233.43179 231.30606 229.33933 227.50361
 225.79388 224.27315 222.91042 221.68969 220.57896 219.54623 218.65750 217.80578
 217.05505 216.24232 215.34759 214.71886 214.17613 214.83665 216.56383 218.97765
 221.44901 223.67862 224.82619 225.09070 225.46997 226.32812 226.48779 225.84854
 225.94691 227.80205 231.78137 236.48886 241.17061 245.68993 249.91566 253.71278
 257.03564 260.07126 262.99377 265.72638 268.15466 270.33124 272.30258 274.07629
 275.89838 277.73434 279.46564 281.06171 282.44299 283.66504 284.78000 285.79007
 286.69852 287.50751 288.21420 289.11484
 366.78100 356.34076 345.77852 334.65028 323.05904 311.25880 299.13457 286.94333
 274.66109 262.56385 250.57861 239.88537 230.01313 221.12289 213.31065 206.31841
 200.15817 195.10193 191.68970 189.73746 188.78022 188.84998 189.69074 191.00450
 192.73526 194.83602 197.10478 199.46954 201.92030 204.40606 206.49983 208.34759
 209.97935 211.13011 211.36487 211.59863 211.54139 211.25215 210.89091 210.52667
 210.14943 209.86520 209.67896 209.54872 209.48248 209.81924 210.21100 210.60576
 211.40452 212.58828 213.84404 215.63280 217.56656 219.61533 221.71609 223.80485
 225.87061 227.96037 230.06313 232.17489 234.30965 236.48741 238.74917 241.12493
 243.75169 246.00846 248.01622 249.78698 251.20974 252.33850 253.16626 253.48802
 253.53078 253.31054 252.67630 251.63006 250.24182 248.40859 246.32335 244.16211
 241.95887 239.76863 237.59439 235.43915 233.30491 231.17767 229.20943 227.37219
 225.66096 224.13872 222.77448 221.55224 220.44000 219.40576 218.51552 217.66228
 216.91004 216.09580 215.19956 214.56932 214.02509 214.77574 216.65157 218.93271
 221.33826 223.49759 224.90915 225.34457 225.60588 226.21049 226.19594 225.35223
 225.86462 227.96228 231.91653 236.59955 241.30626 245.85794 250.14130 254.01082
 257.36334 260.26971 262.94672 265.48999 267.81039 269.81726 271.67300 273.58325
 275.59998 277.41714 279.00702 280.48132 281.79788 282.96271 284.02542 284.98816
 285.85406 286.62512 287.29874 288.15714
 366.78100 356.34081 345.77862 334.65042 323.05923 311.25904 299.13485 286.94365
 274.66146 262.56427 250.57908 239.88588 230.01369 221.12350 213.31131 206.31912
 200.15892 195.10273 191.69054 189.73835 188.78115 188.85096 189.69177 191.00558
 192.73638 194.83719 197.10600 199.47081 201.92162 204.40742 206.50123 208.34904
 209.98085 211.13165 211.36646 211.60027 211.54308 211.25388 210.89269 210.52850
 210.15131 209.86712 209.68092 209.55073 209.48454 209.82135 210.21315 210.60796
 211.40677 212.59058 213.84638 215.63519 217.56900 219.61781 221.71862 223.80742
 225.87323 227.96304 230.06585 232.17765 234.31246 236.49027 238.75208 241.12789
 243.75469 246.01150 248.01931 249.79012 251.21292 252.34173 253.16954 253.49135
 253.53415 253.31396 252.67977 251.63358 250.24539 248.41219 246.32700 244.16581
 241.96262 239.77242 237.59823 235.44304 233.30885 231.18165 229.21346 227.37627
 225.66508 224.14289 222.77869 221.55650 220.44431 219.41012 218.51992 217.66673
 216.91454 216.10035 215.20415 214.57396 214.02977 214.78316 216.66077 218.96400
 221.28253 223.23012 224.79297 225.48253 225.84821 226.46202 226.22006 225.04295
 225.55380 227.86032 231.94978 236.65897 241.37756 245.94728 250.25131 254.16393
 257.54770 260.47510 263.14789 265.65283 267.93030 269.90292 271.71381 273.52084
 275.30286 277.01379 278.57770 280.02408 281.42877 282.67157 283.80542 284.83264
 285.75647 286.57916 287.29788 288.21375
 366.78100 356.34031 345.77762 334.64893 323.05724 311.25656 299.13187 286.94018
 274.65749 262.55980 250.57411 239.88042 230.00773 221.11704 213.30435 206.31167
 200.15098 195.09429 191.68160 189.72891 188.77122 188.84053 189.68084 190.99415
 192.72446 194.82478 197.09309 199.45740 201.90771 204.39302 206.48633 208.33364
 209.96495 211.11526 211.34957 211.58289 211.52520 211.23551 210.87382 210.50913
 210.13144 209.84675 209.66006 209.52937 209.46269 209.79900 210.19031 210.58462
 211.38293 212.56624 213.82155 215.60986 217.54317 219.59148 221.69180 223.78011
 225.84542 227.93473 230.03704 232.14835 234.28266 236.45997 238.72128 241.09659
 243.72291 245.97922 247.98653 249.75684 251.17915 252.30746 253.13477 253.45608
 253.49839 253.27770 252.64302 251.59633 250.20764 248.37395 246.28826 244.12657
 241.92288 239.73219 237.55750 235.40182 233.26713 231.13944 229.17075 227.33306
 225.62137 224.09868 222.73399 221.51130 220.39861 219.36393 218.47324 217.61955
 216.86686 216.05217 215.15548 214.52479 213.98010 214.76022 216.66025 218.98526
 221.19469 222.97517 224.59412 225.42754 225.82198 226.64873 226.63208 224.78885
 225.35593 227.65083 231.85297 236.57251 241.27927 245.83228 250.11911 254.00601
 257.41690 260.43796 263.22757 265.83374 268.17010 270.17087 272.01910 273.81146
 275.50958 276.99335 278.26178 279.52463 280.72110 281.86618 282.99741 284.02222
 284.94391 285.76468 286.48169 287.39545
 366.78100 356.33978 345.77656 334.64734 323.05511 311.25389 299.12867 286.93645
 274.65323 262.55501 250.56879 239.87457 230.00134 221.11012 213.29690 206.30368
 200.14246 195.08524 191.67202 189.71879 188.76057 188.82935 189.66913 190.98191
 192.71169 194.81147 197.07924 199.44302 201.89280 204.37758 206.47036 208.31714
 209.94792 211.09770 211.33147 211.56425 211.50603 211.21581 210.85359 210.48837
 210.11015 209.82492 209.63770 209.50648 209.43926 209.77504 210.16582 210.55960
 211.35738 212.54015 213.79493 215.58271 217.51549 219.56327 221.66305 223.75083
 225.81560 227.90438 230.00616 232.11694 234.25072 236.42750 238.68828 241.06305
 243.68883 245.94461 247.95139 249.72117 251.14295 252.27073 253.09751 253.41828
 253.46006 253.23884 252.60362 251.55640 250.16718 248.33296 246.24673 244.08451
 241.88029 239.68907 237.51385 235.35763 233.22241 231.09418 229.12496 227.28674
 225.57452 224.05130 222.68608 221.46286 220.34964 219.31441 218.42319 217.56897
 216.81575 216.00053 215.10331 214.47209 213.92686 214.74423 216.71912 219.00156
 221.08698 222.91104 224.70099 225.33904 225.68385 226.46791 226.68652 225.02637
 225.36469 227.60371 231.80078 236.51019 241.20566 245.74908 250.02437 253.89546
 257.30786 260.36243 263.19498 265.83194 268.18774 270.21719 272.11572 273.96469
 275.68405 277.17520 278.45126 279.51859 280.65536 281.74368 282.82098 283.80350
 284.68713 285.47406 286.16147 287.03751
 366.78100 356.33939 345.77578 334.64617 323.05357 311.25196 299.12635 286.93374
 274.65013 262.55152 250.56492 239.87031 229.99670 221.10509 213.29148 206.29787
 200.13626 195.07866 191.66505 189.71144 188.75283 188.82122 189.66061 190.97301
 192.70240 194.80179 197.06918 199.43257 201.88196 204.36635 206.45875 208.30514
 209.93553 211.08492 211.31831 211.55070 211.49210 211.20149 210.83888 210.47327
 210.09466 209.80905 209.62144 209.48984 209.42223 209.75762 210.14801 210.54140
 211.33879 212.52119 213.77558 215.56297 217.49536 219.54275 221.64214 223.72953
 225.79393 227.88232 229.98371 232.09410 234.22749 236.40388 238.66427 241.03867
 243.66406 245.91945 247.92584 249.69523 251.11662 252.24402 253.07041 253.39080
 253.43219 253.21058 252.57497 251.52736 250.13776 248.30315 246.21654 244.05393
 241.84932 239.65771 237.48211 235.32550 233.18989 231.06128 229.09167 227.25306
 225.54045 224.01685 222.65124 221.42763 220.31402 219.27841 218.38680 217.53220
 216.77859 215.96298 215.06537 214.43376 213.88815 214.73424 216.77480 219.04076
 220.90639 222.90717 224.90210 225.33289 225.57925 226.12701 226.49179 225.36096
 225.58487 227.70259 231.82021 236.50327 241.20110 245.74615 250.01462 253.86757
 257.25998 260.31326 263.15912 265.80841 268.16885 270.24579 272.20322 274.08289
 275.79849 277.28073 278.58945 279.74838 280.89081 281.96402 283.03458 284.01016
 284.88757 285.66891 286.35147 287.22131
 366.78100 356.33913 345.77526 334.64540 323.05253 311.25066 299.12479 286.93192
 274.64806 262.54919 250.56232 239.86745 229.99359 221.10172 213.28785 206.29398
 200.13211 195.07425 191.66038 189.70651 188.74764 188.81577 189.65491 190.96704
 192.69617 194.79530 197.06244 199.42557 201.87470 204.35883 206.45096 208.29710
 209.92723 211.07636 211.30949 211.54162 211.48276 211.19189 210.82902 210.46315
 210.08429 209.79842 209.61055 209.47868 209.41081 209.74595 210.13608 210.52921
 211.32634 212.50847 213.76261 215.54974 217.48187 219.52900 221.62814 223.71527
 225.77940 227.86753 229.96866 232.07880 234.21193 236.38806 238.64819 241.02232
 243.64746 245.90259 247.90872 249.67785 251.09898 252.22612 253.05225 253.37238
 253.41351 253.19165 252.55578 251.50791 250.11804 248.28317 246.19631 244.03344
 241.82857 239.63670 237.46083 235.30397 233.16810 231.03923 229.06936 227.23050
 225.51763 223.99376 222.62789 221.40402 220.29016 219.25429 218.36242 217.50755
 216.75368 215.93782 215.03995 214.40808 213.86221 214.72522 216.78891 219.09953
 220.84511 222.90062 224.94511 225.39171 225.53075 225.85684 226.28975 225.40857
 225.71185 227.80994 231.81700 236.49110 241.19878 245.74982 250.01569 253.85016
 257.22336 260.27051 263.12796 265.77890 268.14835 270.26031 272.24142 274.16031
 275.89957 277.40735 278.69949 279.74963 280.81671 281.84348 282.81778 283.78101
 284.65543 285.43411 286.11435 286.98123
 366.78100 356.34032 345.77763 334.64895 323.05727 311.25659 299.13190 286.94022
 274.65754 262.55986 250.57417 239.88049 230.00781 221.11713 213.30444 206.31176
 200.15108 195.09440 191.68171 189.72903 188.77135 188.84067 189.68098 190.99430
 192.72462 194.82494 197.09325 199.45757 201.90789 204.39321 206.48652 208.33384
 209.96516 211.11548 211.34979 211.58311 211.52543 211.23575 210.87406 210.50938
 210.13170 209.84701 209.66033 209.52965 209.46297 209.79928 210.19060 210.58492
 211.38324 212.56655 213.82187 215.61019 217.54351 219.59182 221.69214 223.78046
 225.84578 227.93509 230.03741 232.14873 234.28305 236.46036 238.72168 241.09700
 243.72332 245.97963 247.98695 249.75727 251.17959 252.30790 253.13522 253.45654
 253.49886 253.27817 252.64349 251.59681 250.20812 248.37444 246.28876 244.12708
 241.92339 239.73271 237.55803 235.40235 233.26766 231.13998 229.17130 227.33362
 225.62193 224.09925 222.73457 221.51189 220.39920 219.36452 218.47384 217.62016
 216.86747 216.05279 215.15611 214.52543 213.98074 214.79245 216.72641 219.14415
 220.90747 222.90845 224.86620 225.38762 225.47975 225.74481 226.13184 225.60324
 225.93306 227.85898 231.82420 236.46278 241.18636 245.75378 250.03162 253.86772
 257.22055 260.24072 263.09235 265.75211 268.13635 270.26199 272.26361 274.17728
 275.92627 277.45541 278.76163 279.83673 280.83258 281.82657 282.71552 283.62900
 284.52124 285.31580 286.00992 286.89447
 366.78100 356.34074 345.77849 334.65023 323.05897 311.25871 299.13446 286.94320
 274.66094 262.56368 250.57843 239.88517 230.01291 221.12266 213.31040 206.31814
 200.15788 195.10163 191.68937 189.73711 188.77985 188.84960 189.69034 191.00408
 192.73482 194.83557 197.10431 199.46905 201.91980 204.40554 206.49928 208.34702
 209.97877 211.12951 211.36425 211.59799 211.54074 211.25148 210.89022 210.52597
 210.14871 209.86445 209.67819 209.54794 209.48168 209.81842 210.21016 210.60491
 211.40365 212.58739 213.84313 215.63188 217.56562 219.61436 221.71511 223.80385
 225.86959 227.95933 230.06208 232.17382 234.30856 236.48630 238.74805 241.12379
 243.75053 246.00728 248.01502 249.78576 251.20850 252.33725 253.16499 253.48673
 253.52947 253.30922 252.67496 251.62870 250.24044 248.40719 246.32193 244.16067
 241.95742 239.76716 237.59290 235.43764 233.30339 231.17613 229.20787 227.37061
 225.65936 224.13710 222.77284 221.55059 220.43833 219.40407 218.51381 217.66056
 216.90830 216.09404 215.19778 214.56753 214.02327 214.82468 216.72165 219.11105
 220.99733 222.94687 224.77498 225.35147 225.41257 225.63393 226.00369 225.77473
 226.10843 227.91815 231.84660 236.46040 241.18454 245.76503 250.05191 253.89900
 257.24567 260.24561 263.08743 265.75217 268.15085 270.27768 272.27557 274.17633
 275.90958 277.42636 278.73679 279.83939 280.93628 281.98962 282.93930 283.80469
 284.62665 285.39062 286.05801 286.90854
 366.78100 356.34028 345.77757 334.64885 323.05714 311.25642 299.13171 286.93999
 274.65727 262.55956 250.57384 239.88013 230.00741 221.11670 213.30398 206.31126
 200.15055 195.09383 191.68112 189.72840 188.77069 188.83997 189.68026 190.99354
 192.72382 194.82411 197.09239 199.45668 201.90696 204.39225 206.48553 208.33281
 209.96410 211.11438 211.34867 211.58195 211.52424 211.23452 210.87280 210.50809
 210.13037 209.84566 209.65894 209.52823 209.46151 209.79779 210.18908 210.58336
 211.38165 212.56493 213.82022 215.60850 217.54178 219.59007 221.69035 223.77864
 225.84392 227.93321 230.03549 232.14678 234.28106 236.45834 238.71963 241.09491
 243.72120 245.97748 247.98477 249.75505 251.17733 252.30562 253.13290 253.45419
 253.49647 253.27576 252.64104 251.59432 250.20561 248.37189 246.28618 244.12446
 241.92075 239.73003 237.55531 235.39960 233.26488 231.13717 229.16845 227.33074
 225.61902 224.09630 222.73159 221.50887 220.39616 219.36144 218.47073 217.61701
 216.86429 216.04958 215.15286 214.52215 213.97743 214.81345 216.78860 219.02650
 221.07680 223.02464 224.72263 225.30896 225.28864 225.43832 225.85857 225.91214
 226.28091 228.04012 231.88229 236.48260 241.19617 245.77347 250.05809 253.91460
 257.26138 260.25418 263.09711 265.77151 268.18802 270.31232 272.30066 274.19250
 275.91470 277.43839 278.77060 279.92633 280.87045 281.89182 282.89325 283.78235
 284.56641 285.29651 285.94803 286.77832
 366.78100 356.34060 345.77820 334.64979 323.05839 311.25799 299.13359 286.94219
 274.65978 262.56238 250.57698 239.88358 230.01118 221.12077 213.30837 206.31597
 200.15557 195.09917 191.68676 189.73436 188.77696 188.84656 189.68716 191.00075
 192.73135 194.83195 197.10055 199.46515 201.91575 204.40134 206.49494 208.34254
 209.97414 211.12474 211.35933 211.59293 211.53553 211.24613 210.88473 210.52032
 210.14292 209.85852 209.67212 209.54172 209.47531 209.81191 210.20351 210.59811
 211.39671 212.58030 213.83590 215.62450 217.55810 219.60670 221.70729 223.79589
 225.86149 227.95109 230.05369 232.16528 234.29988 236.47748 238.73908 241.11468
 243.74127 245.99787 248.00547 249.77607 251.19867 252.32726 253.15486 253.47646
 253.51906 253.29866 252.66426 251.61785 250.22945 248.39605 246.31065 244.14925
 241.94584 239.75544 237.58104 235.42564 233.29124 231.16383 229.19543 227.35803
 225.64663 224.12423 222.75982 221.53742 220.42502 219.39062 218.50022 217.64681
 216.89441 216.08001 215.18361 214.55321 214.00880 214.84111 216.80750 219.00645
 221.08452 223.04408 224.73981 225.27898 225.14037 225.21301 225.69797 226.02531
 226.45859 228.16449 231.92493 236.51303 241.21704 245.78891 250.06215 253.91342
 257.26556 260.26886 263.11700 265.79947 268.21936 270.33524 272.31189 274.19022
 275.90793 277.44626 278.80722 280.01825 281.03586 282.00916 282.99982 283.89853
 284.67703 285.38455 286.03860 286.87207
 366.78100 356.34118 345.77936 334.65153 323.06071 311.26089 299.13707 286.94624
 274.66442 262.56760 250.58278 239.88995 230.01813 221.12831 213.31649 206.32466
 200.16484 195.10902 191.69720 189.74537 188.78855 188.85873 189.69991 191.01408
 192.74526 194.84644 197.11562 199.48079 201.93197 204.41815 206.51233 208.36050
 209.99268 211.14386 211.37904 211.61322 211.55639 211.26757 210.90675 210.54293
 210.16610 209.88228 209.69646 209.56664 209.50081 209.83799 210.23017 210.62535
 211.42452 212.60870 213.86488 215.65406 217.58823 219.63741 221.73859 223.82777
 225.89394 227.98412 230.08730 232.19948 234.33465 236.51283 238.77501 241.15119
 243.77836 246.03554 248.04372 249.81490 251.23807 252.36725 253.19543 253.51761
 253.56079 253.34096 252.70714 251.66132 250.27350 248.44067 246.35585 244.19503
 241.99221 239.80238 237.62856 235.47374 233.33992 231.21309 229.24527 227.40845
 225.69763 224.17580 222.81198 221.59016 220.47834 219.44451 218.55469 217.70187
 216.95005 216.13622 215.24040 214.61058 214.06676 214.87968 216.80032 219.04276
 221.04486 223.03546 224.75435 225.21858 225.00740 225.02554 225.55156 226.08900
 226.61597 228.29376 231.97292 236.54570 241.24245 245.81213 250.08157 253.93114
 257.28787 260.30402 263.15729 265.83670 268.24646 270.35550 272.31174 274.16144
 275.86502 277.40659 278.78290 280.02902 281.20886 282.26279 283.24521 284.14926
 284.95462 285.66058 286.28885 287.09723
 366.78100 356.34128 345.77955 334.65183 323.06111 311.26138 299.13766 286.94694
 274.66521 262.56849 250.58376 239.89104 230.01932 221.12959 213.31787 206.32615
 200.16642 195.11070 191.69898 189.74725 188.79053 188.86081 189.70208 191.01636
 192.74763 194.84891 197.11819 199.48346 201.93474 204.42102 206.51529 208.36357
 209.99585 211.14712 211.38240 211.61668 211.55995 211.27123 210.91051 210.54678
 210.17006 209.88633 209.70061 209.57089 209.50516 209.84244 210.23472 210.62999
 211.42927 212.61355 213.86982 215.65910 217.59338 219.64265 221.74393 223.83320
 225.89948 227.98976 230.09303 232.20531 234.34059 236.51886 238.78114 241.15742
 243.78469 246.04197 248.05025 249.82152 251.24480 252.37407 253.20235 253.52463
 253.56790 253.34818 252.71446 251.66873 250.28101 248.44829 246.36356 244.20284
 242.00012 239.81039 237.63667 235.48195 233.34822 231.22150 229.25377 227.41705
 225.70633 224.18460 222.82088 221.59916 220.48743 219.45371 218.56399 217.71126
 216.95954 216.14582 215.25009 214.62037 214.07664 214.89311 216.82211 219.04709
 221.02785 223.02554 224.70743 225.12781 224.90982 224.89500 225.41455 226.08736
 226.72165 228.40952 232.02153 236.57896 241.27553 245.84940 250.12141 253.97293
 257.33191 260.35144 263.20139 265.87234 268.26880 270.38376 272.33676 274.17331
 275.88477 277.44678 278.85144 280.11072 281.21625 282.20868 283.13681 284.01016
 284.82922 285.56213 286.18784 286.97849
 366.78100 356.34136 345.77973 334.65209 323.06146 311.26182 299.13819 286.94755
 274.66592 262.56928 250.58465 239.89201 230.02038 221.13074 213.31911 206.32747
 200.16784 195.11220 191.70057 189.74893 188.79230 188.86266 189.70403 191.01839
 192.74976 194.85112 197.12049 199.48585 201.93722 204.42358 206.51795 208.36631
 209.99868 211.15004 211.38541 211.61977 211.56314 211.27450 210.91387 210.55023
 210.17360 209.88996 209.70433 209.57469 209.50906 209.84642 210.23879 210.63415
 211.43352 212.61788 213.87425 215.66361 217.59798 219.64734 221.74871 223.83807
 225.90444 227.99480 230.09817 232.21053 234.34590 236.52426 238.78663 241.16299
 243.79036 246.04772 248.05609 249.82745 251.25082 252.38018 253.20855 253.53091
 253.57428 253.35464 252.72101 251.67537 250.28774 248.45510 246.37047 244.20983
 242.00720 239.81756 237.64393 235.48929 233.35566 231.22902 229.26139 227.42475
 225.71412 224.19248 222.82885 221.60721 220.49558 219.46194 218.57231 217.71967
 216.96804 216.15440 215.25877 214.62913 214.08549 214.90750 216.84959 219.02815
 221.03635 222.99841 224.63318 225.03996 224.82167 224.77783 225.27057 226.04546
 226.78978 228.51552 232.07823 236.62239 241.32648 245.90657 250.18048 254.03270
 257.39264 260.40860 263.24777 265.89957 268.27734 270.39136 272.34146 274.17429
 275.89508 277.47018 278.88858 280.15811 281.27121 282.26273 283.21344 284.08249
 284.87775 285.59894 286.23267 287.02979
 366.78100 356.34170 345.78041 334.65311 323.06282 311.26352 299.14022 286.94993
 274.66863 262.57234 250.58804 239.89575 230.02445 221.13515 213.32386 206.33256
 200.17327 195.11797 191.70667 189.75538 188.79908 188.86979 189.71149 191.02620
 192.75790 194.85960 197.12931 199.49501 201.94672 204.43342 206.52812 208.37683
 210.00953 211.16124 211.39694 211.63165 211.57535 211.28705 210.92676 210.56346
 210.18717 209.90387 209.71857 209.58928 209.52398 209.86169 210.25439 210.65010
 211.44980 212.63450 213.89121 215.68091 217.61562 219.66532 221.76702 223.85673
 225.92343 228.01414 230.11784 232.23055 234.36625 236.54495 238.80766 241.18436
 243.81207 246.06977 248.07847 249.85018 251.27388 252.40359 253.23229 253.55499
 253.59870 253.37940 252.74611 251.70081 250.31352 248.48122 246.39692 244.23663
 242.03433 239.84504 237.67174 235.51744 233.38415 231.25785 229.29056 227.45426
 225.74397 224.22267 222.85937 221.63808 220.52678 219.49349 218.60419 217.75189
 217.00060 216.18730 215.29201 214.66271 214.11942 214.93518 216.86250 219.02155
 221.03242 222.97995 224.57600 224.94957 224.70370 224.63242 225.12630 225.98880
 226.83676 228.62050 232.15312 236.68723 241.39804 245.98022 250.24924 254.09673
 257.45651 260.46997 263.29712 265.92398 268.28351 270.39755 272.34875 274.18042
 275.90775 277.48969 278.91245 280.17902 281.29404 282.31577 283.27167 284.13937
 284.93677 285.65994 286.29138 287.08878
 366.78100 356.34193 345.78086 334.65380 323.06373 311.26466 299.14159 286.95153
 274.67046 262.57439 250.59032 239.89826 230.02719 221.13812 213.32705 206.33599
 200.17692 195.12185 191.71078 189.75972 188.80365 188.87458 189.71651 191.03145
 192.76338 194.86531 197.13524 199.50118 201.95311 204.44004 206.53497 208.38391
 210.01684 211.16877 211.40470 211.63963 211.58357 211.29550 210.93543 210.57236
 210.19630 209.91323 209.72816 209.59909 209.53403 209.87196 210.26489 210.66082
 211.46076 212.64569 213.90262 215.69255 217.62749 219.67742 221.77935 223.86928
 225.93622 228.02715 230.13108 232.24401 234.37995 236.55888 238.82181 241.19874
 243.82668 246.08461 248.09354 249.86547 251.28940 252.41934 253.24827 253.57120
 253.61513 253.39607 252.76300 251.71793 250.33086 248.49880 246.41473 244.25466
 242.05259 239.86353 237.69046 235.53639 233.40332 231.27726 229.31019 227.47412
 225.76405 224.24299 222.87992 221.65885 220.54778 219.51472 218.62565 217.77358
 217.02251 216.20945 215.31438 214.68531 214.14224 214.95706 216.88216 219.02155
 221.00375 222.97705 224.53317 224.84659 224.56070 224.46985 224.99368 225.92654
 226.86131 228.71866 232.24451 236.76979 241.48282 246.06076 250.32091 254.16089
 257.51883 260.52982 263.34714 265.94925 268.29114 270.40762 272.36270 274.19693
 275.92740 277.50708 278.91919 280.16931 281.30124 282.34277 283.29941 284.17010
 284.96710 285.69321 286.32825 287.11984
 366.78100 356.34203 345.78105 334.65408 323.06411 311.26514 299.14216 286.95219
 274.67122 262.57525 250.59127 239.89930 230.02833 221.13936 213.32838 206.33741
 200.17844 195.12346 191.71249 189.76152 188.80555 188.87657 189.71860 191.03363
 192.76566 194.86768 197.13771 199.50374 201.95577 204.44279 206.53782 208.38685
 210.01987 211.17190 211.40793 211.64296 211.58698 211.29901 210.93904 210.57607
 210.20009 209.91712 209.73215 209.60318 209.53820 209.87623 210.26926 210.66528
 211.46531 212.65034 213.90737 215.69739 217.63242 219.68245 221.78448 223.87450
 225.94153 228.03256 230.13659 232.24961 234.38564 236.56467 238.82769 241.20472
 243.83275 246.09078 248.09980 249.87183 251.29586 252.42589 253.25491 253.57794
 253.62197 253.40300 252.77002 251.72505 250.33808 248.50610 246.42213 244.26216
 242.06019 239.87121 237.69824 235.54427 233.41130 231.28532 229.31835 227.48238
 225.77241 224.25143 222.88846 221.66749 220.55651 219.52354 218.63457 217.78260
 217.03162 216.21865 215.32368 214.69471 214.15173 214.97148 216.90822 219.02124
 220.97052 222.95740 224.47890 224.75233 224.42662 224.29825 224.86975 225.86620
 226.86099 228.80043 232.34521 236.86330 241.57436 246.14639 250.39748 254.22897
 257.58252 260.59018 263.39688 265.97702 268.30453 270.42255 272.38409 274.22327
 275.95377 277.52435 278.91882 280.14948 281.27853 282.31915 283.27679 284.14810
 284.94641 285.67282 286.30887 287.10159
 366.78100 356.34211 345.78123 334.65434 323.06446 311.26557 299.14269 286.95280
 274.67191 262.57603 250.59214 239.90026 230.02937 221.14049 213.32960 206.33871
 200.17983 195.12494 191.71406 189.76317 188.80729 188.87840 189.72051 191.03563
 192.76774 194.86986 197.13997 199.50609 201.95820 204.44531 206.54043 208.38954
 210.02266 211.17477 211.41089 211.64600 211.59012 211.30223 210.94234 210.57946
 210.20357 209.92069 209.73580 209.60692 209.54203 209.88014 210.27326 210.66937
 211.46949 212.65460 213.91172 215.70183 217.63694 219.68706 221.78917 223.87929
 225.94640 228.03752 230.14163 232.25474 234.39086 236.56997 238.83309 241.21020
 243.83832 246.09643 248.10554 249.87766 251.30177 252.43189 253.26100 253.58412
 253.62823 253.40934 252.77646 251.73157 250.34469 248.51280 246.42892 244.26903
 242.06714 239.87826 237.70537 235.55149 233.41860 231.29272 229.32583 227.48994
 225.78006 224.25917 222.89629 221.67540 220.56452 219.53163 218.64275 217.79086
 217.03997 216.22709 215.33220 214.70332 214.16043 214.98497 216.93306 219.01627
 220.95251 222.92561 224.39862 224.66029 224.31819 224.14078 224.73503 225.79979
 226.85440 228.86838 232.44681 236.96486 241.67282 246.23871 250.47926 254.30070
 257.64832 260.65030 263.44733 266.00797 268.32291 270.44016 272.40652 274.24988
 275.97620 277.52902 278.89539 280.10217 281.23712 282.28027 283.23837 284.11145
 284.90799 285.63443 286.26999 287.06784
 366.78100 356.34224 345.78148 334.65473 323.06497 311.26621 299.14345 286.95369
 274.67294 262.57718 250.59342 239.90166 230.03090 221.14215 213.33139 206.34063
 200.18187 195.12711 191.71636 189.76560 188.80984 188.88108 189.72332 191.03857
 192.77081 194.87305 197.14329 199.50953 201.96178 204.44902 206.54426 208.39350
 210.02674 211.17899 211.41523 211.65047 211.59471 211.30695 210.94720 210.58444
 210.20868 209.92592 209.74117 209.61241 209.54765 209.88589 210.27913 210.67538
 211.47562 212.66086 213.91810 215.70834 217.64359 219.69383 221.79607 223.88631
 225.95355 228.04480 230.14904 232.26228 234.39852 236.57776 238.84101 241.21825
 243.84649 246.10473 248.11397 249.88622 251.31046 252.44070 253.26994 253.59318
 253.63743 253.41867 252.78591 251.74115 250.35439 248.52264 246.43888 244.27912
 242.07736 239.88860 237.71585 235.56209 233.42933 231.30357 229.33681 227.50106
 225.79130 224.27054 222.90778 221.68702 220.57627 219.54351 218.65475 217.80299
 217.05223 216.23948 215.34472 214.71596 214.17320 215.00017 216.95395 219.01035
 220.93695 222.89507 224.32176 224.56242 224.19325 223.97504 224.61671 225.73795
 226.81978 228.91949 232.55963 237.07991 241.78178 246.33855 250.56546 254.37303
 257.71167 260.70819 263.49744 266.04056 268.34399 270.45886 272.42987 274.27740
 275.99554 277.52631 278.86298 280.04871 281.17511 282.21750 283.17514 284.04974
 284.84659 285.57251 286.20944 287.00928
 366.78100 356.34260 345.78219 334.65579 323.06639 311.26798 299.14558 286.95618
 274.67577 262.58037 250.59697 239.90556 230.03516 221.14676 213.33636 206.34595
 200.18755 195.13315 191.72274 189.77234 188.81694 188.88853 189.73113 191.04673
 192.77932 194.88192 197.15252 199.51911 201.97171 204.45931 206.55490 208.40450
 210.03810 211.19069 211.42729 211.66289 211.60748 211.32008 210.96068 210.59827
 210.22287 209.94047 209.75607 209.62766 209.56326 209.90186 210.29545 210.69205
 211.49265 212.67824 213.93584 215.72644 217.66203 219.71263 221.81523 223.90582
 225.97342 228.06502 230.16961 232.28321 234.41981 236.59940 238.86300 241.24060
 243.86919 246.12779 248.13739 249.90999 251.33458 252.46518 253.29478 253.61837
 253.66297 253.44457 252.81216 251.76776 250.38136 248.54995 246.46655 244.30715
 242.10574 239.91734 237.74494 235.59153 233.45913 231.33373 229.36732 227.53192
 225.82252 224.30211 222.93971 221.71931 220.60890 219.57650 218.68810 217.83670
 217.08629 216.27389 215.37949 214.75108 214.20868 215.02751 216.96207 219.01762
 220.91904 222.84248 224.25526 224.49521 224.08081 223.77380 224.42212 225.71118
 226.87048 228.97910 232.66850 237.20593 241.89946 246.44292 250.65355 254.44508
 257.77109 260.76172 263.54620 266.07553 268.36673 270.47845 272.45413 274.30527
 276.01169 277.51382 278.81729 279.98199 281.11002 282.15286 283.11084 283.98346
 284.78140 285.50684 286.14276 286.94974
 366.78100 356.34320 345.78340 334.65761 323.06881 311.27101 299.14921 286.96041
 274.68061 262.58582 250.60302 239.91222 230.04242 221.15462 213.34483 206.35503
 200.19723 195.14343 191.73363 189.78383 188.82904 188.90124 189.74444 191.06064
 192.79384 194.89705 197.16825 199.53545 201.98865 204.47685 206.57305 208.42326
 210.05746 211.21066 211.44786 211.68406 211.62926 211.34247 210.98367 210.62187
 210.24707 209.96527 209.78148 209.65368 209.58988 209.92908 210.32328 210.72048
 211.52169 212.70789 213.96609 215.75729 217.69349 219.74470 221.84790 223.93910
 226.00730 228.09950 230.20470 232.31891 234.45611 236.63631 238.90051 241.27871
 243.90792 246.16712 248.17732 249.95052 251.37572 252.50692 253.33713 253.66133
 253.70653 253.48873 252.85693 251.81314 250.42734 248.59654 246.51374 244.35494
 242.15414 239.96635 237.79455 235.64175 233.50995 231.38515 229.41936 227.58456
 225.87576 224.35596 222.99416 221.77436 220.66457 219.63277 218.74497 217.89417
 217.14437 216.33257 215.43878 214.81098 214.26918 215.06873 216.95775 219.03174
 220.91359 222.76932 224.15814 224.43912 224.02762 223.63826 224.21419 225.51317
 226.81941 229.09869 232.81557 237.34641 242.02802 246.55287 250.74409 254.51669
 257.82870 260.81418 263.59833 266.11801 268.39743 270.50378 272.48163 274.33255
 276.02316 277.49918 278.77509 279.91565 281.03287 282.07397 283.03217 283.90524
 284.70233 285.42633 286.06342 286.87210
 366.78100 356.34378 345.78457 334.65935 323.07113 311.27392 299.15270 286.96448
 274.68527 262.59105 250.60883 239.91861 230.04940 221.16218 213.35296 206.36375
 200.20653 195.15331 191.74410 189.79488 188.84066 188.91345 189.75723 191.07401
 192.80780 194.91158 197.18336 199.55115 202.00493 204.49371 206.59049 208.44128
 210.07606 211.22984 211.46763 211.70441 211.65019 211.36398 211.00576 210.64454
 210.27033 209.98911 209.80589 209.67868 209.61546 209.95524 210.35003 210.74781
 211.54959 212.73637 213.99516 215.78694 217.72372 219.77551 221.87929 223.97107
 226.03986 228.13264 230.23842 232.35321 234.49099 236.67177 238.93656 241.31534
 243.94512 246.20491 248.21569 249.98947 251.41526 252.54704 253.37782 253.70260
 253.74839 253.53117 252.89995 251.85674 250.47152 248.64130 246.55909 244.40087
 242.20065 240.01344 237.84222 235.69000 233.55879 231.43457 229.46935 227.63514
 225.92692 224.40770 223.04648 221.82727 220.71805 219.68683 218.79962 217.94940
 217.20018 216.38897 215.49575 214.86853 214.32732 215.10989 216.95883 219.03168
 220.91576 222.70932 224.03430 224.34218 223.97066 223.55548 224.06969 225.30130
 226.69948 229.18016 232.96747 237.49648 242.16110 246.66280 250.83173 254.58492
 257.88300 260.86603 263.65137 266.16501 268.43317 270.53113 272.50861 274.35849
 276.03275 277.47879 278.72510 279.84735 280.95679 281.99664 282.95374 283.82700
 284.62317 285.34570 285.98370 286.79120
 366.78100 356.34423 345.78545 334.66068 323.07291 311.27614 299.15536 286.96759
 274.68882 262.59504 250.61327 239.92350 230.05472 221.16795 213.35918 206.37041
 200.21363 195.16086 191.75209 189.80331 188.84954 188.92277 189.76699 191.08422
 192.81845 194.92268 197.19490 199.56313 202.01736 204.50658 206.60381 208.45504
 210.09027 211.24449 211.48272 211.71995 211.66617 211.38040 211.02263 210.66185
 210.28808 210.00731 209.82454 209.69776 209.63499 209.97522 210.37044 210.76867
 211.57090 212.75813 214.01735 215.80958 217.74681 219.79903 221.90326 223.99549
 226.06471 228.15794 230.26417 232.37940 234.51762 236.69885 238.96408 241.34330
 243.97353 246.23376 248.24498 250.01921 251.44544 252.57767 253.40889 253.73412
 253.78035 253.56357 252.93280 251.89003 250.50526 248.67548 246.59371 244.43594
 242.23616 240.04939 237.87862 235.72684 233.59607 231.47230 229.50753 227.67375
 225.96598 224.44721 223.08643 221.86766 220.75889 219.72811 218.84134 217.99157
 217.24280 216.43202 215.53925 214.91248 214.37170 215.14403 216.96872 219.01694
 220.91035 222.67249 223.92131 224.21419 223.87299 223.46480 223.95506 225.12485
 226.58293 229.23976 233.11694 237.65247 242.29718 246.77333 250.91956 254.65271
 257.93649 260.91824 263.70572 266.21338 268.46887 270.55676 272.53281 274.38205
 276.04083 277.46280 278.68646 279.78979 280.88214 281.91943 282.87711 283.74863
 284.54343 285.26382 285.90088 286.71225
 366.78100 356.34465 345.78630 334.66195 323.07461 311.27826 299.15791 286.97056
 274.69221 262.59886 250.61752 239.92817 230.05982 221.17347 213.36512 206.37677
 200.22042 195.16808 191.75973 189.81138 188.85803 188.93168 189.77633 191.09399
 192.82864 194.93329 197.20594 199.57459 202.02924 204.51889 206.61655 208.46820
 210.10385 211.25850 211.49715 211.73480 211.68146 211.39611 211.03876 210.67841
 210.30506 210.02471 209.84236 209.71602 209.65367 209.99432 210.38997 210.78862
 211.59127 212.77893 214.03858 215.83123 217.76888 219.82153 221.92618 224.01883
 226.08849 228.18214 230.28879 232.40444 234.54309 236.72474 238.99040 241.37005
 244.00070 246.26135 248.27300 250.04765 251.47430 252.60696 253.43861 253.76426
 253.81091 253.59456 252.96421 251.92187 250.53752 248.70817 246.62682 244.46947
 242.27012 240.08377 237.91343 235.76208 233.63173 231.50838 229.54403 227.71068
 226.00334 224.48499 223.12464 221.90629 220.79794 219.76759 218.88124 218.03190
 217.28355 216.47320 215.58085 214.95450 214.41415 215.17606 216.97610 219.00406
 220.89993 222.64125 223.82253 224.08087 223.75273 223.35342 223.82799 224.97031
 226.50024 229.30186 233.26315 237.81323 242.43745 246.88724 251.01180 254.72557
 257.99329 260.97296 263.76389 266.26547 268.50809 270.58319 272.55872 274.40356
 276.04953 277.45160 278.65405 279.73926 280.81461 281.84805 282.80496 283.67676
 284.47037 285.18863 285.82416 286.63617
 366.78100 356.34513 345.78726 334.66339 323.07652 311.28065 299.16078 286.97391
 274.69604 262.60317 250.62230 239.93343 230.06556 221.17969 213.37182 206.38395
 200.22808 195.17621 191.76834 189.82047 188.86760 188.94172 189.78685 191.10498
 192.84011 194.94524 197.21837 199.58750 202.04263 204.53276 206.63089 208.48302
 210.11915 211.27428 211.51341 211.75154 211.69867 211.41380 211.05693 210.69706
 210.32419 210.04432 209.86245 209.73658 209.67471 210.01584 210.41197 210.81110
 211.61423 212.80236 214.06249 215.85562 217.79375 219.84688 221.95201 224.04514
 226.11527 228.20940 230.31653 232.43266 234.57179 236.75391 239.02004 241.40017
 244.03130 246.29243 248.30456 250.07969 251.50682 252.63995 253.47208 253.79821
 253.84534 253.62947 252.99960 251.95773 250.57386 248.74499 246.66412 244.50725
 242.30838 240.12251 237.95264 235.80177 233.67190 231.54903 229.58516 227.75229
 226.04542 224.52755 223.16768 221.94981 220.84194 219.81207 218.92620 218.07733
 217.32946 216.51959 215.62772 215.00185 214.46198 215.20996 216.97719 218.99567
 220.89157 222.60445 223.72513 223.94707 223.62622 223.23483 223.68356 224.82262
 226.43973 229.37164 233.40982 237.97685 242.58057 247.00398 251.10886 254.80269
 258.05298 261.02966 263.82193 266.31747 268.54813 270.61124 272.58401 274.43094
 276.06509 277.44839 278.63174 279.70114 280.75900 281.78760 282.74362 283.61462
 284.40723 285.12372 285.75647 286.57739
 366.78100 356.34563 345.78826 334.66489 323.07852 311.28315 299.16378 286.97741
 274.70005 262.60768 250.62731 239.93894 230.07157 221.18620 213.37883 206.39146
 200.23609 195.18472 191.77735 189.82998 188.87761 188.95224 189.79788 191.11651
 192.85214 194.95777 197.23140 199.60103 202.05666 204.54729 206.64592 208.49855
 210.13518 211.29081 211.53044 211.76907 211.71671 211.43234 211.07597 210.71660
 210.34423 210.06486 209.88349 209.75812 209.69675 210.03838 210.43501 210.83464
 211.63827 212.82690 214.08753 215.88117 217.81980 219.87343 221.97906 224.07269
 226.14332 228.23795 230.34558 232.46221 234.60184 236.78447 239.05110 241.43173
 244.06336 246.32500 248.33763 250.11326 251.54089 252.67452 253.50715 253.83378
 253.88141 253.66604 253.03667 251.99530 250.61193 248.78356 246.70319 244.54683
 242.34846 240.16309 237.99372 235.84335 233.71398 231.59161 229.62824 227.79587
 226.08950 224.57213 223.21276 221.99539 220.88802 219.85865 218.97329 218.12492
 217.37755 216.56818 215.67681 215.05144 214.51207 215.24593 216.97977 218.98297
 220.88301 222.56905 223.63033 223.80879 223.48863 223.10782 223.52904 224.67992
 226.38716 229.44955 233.56502 238.14357 242.72461 247.12325 251.21036 254.88481
 258.11838 261.08954 263.88293 266.36951 268.58643 270.64389 272.60928 274.45493
 276.08600 277.45471 278.62048 279.67505 280.71121 281.73636 282.69131 283.56180
 284.35205 285.06711 285.69748 286.51834
 366.78100 356.34600 345.78899 334.66599 323.07998 311.28498 299.16598 286.97997
 274.70297 262.61096 250.63096 239.94296 230.07595 221.19095 213.38394 206.39694
 200.24194 195.19093 191.78393 189.83692 188.88492 188.95992 189.80591 191.12491
 192.86090 194.96690 197.24090 199.61089 202.06689 204.55788 206.65688 208.50988
 210.14687 211.30287 211.54286 211.78186 211.72986 211.44585 211.08985 210.73084
 210.35884 210.07984 209.89883 209.77383 209.71282 210.05482 210.45182 210.85181
 211.65581 212.84480 214.10580 215.89980 217.83879 219.89279 221.99878 224.09278
 226.16378 228.25877 230.36677 232.48376 234.62376 236.80676 239.07375 241.45475
 244.08674 246.34874 248.36174 250.13773 251.56573 252.69972 253.53272 253.85972
 253.90771 253.69271 253.06370 252.02270 250.63970 248.81169 246.73169 244.57568
 242.37768 240.19268 238.02367 235.87367 233.74466 231.62266 229.65966 227.82765
 226.12165 224.60464 223.24564 222.02864 220.92163 219.89263 219.00762 218.15962
 217.41262 216.60361 215.71261 215.08760 214.54860 215.27252 216.98285 218.97137
 220.87616 222.53606 223.53824 223.66328 223.33514 222.96664 223.36897 224.54129
 226.33948 229.53531 233.72870 238.31218 242.86913 247.24600 251.31624 254.97127
 258.18860 261.15561 263.95227 266.43619 268.63660 270.62021 272.64310 274.49695
 276.12830 277.49420 278.65259 279.68491 280.68146 281.69363 282.64789 283.51694
 284.30646 285.01801 285.64676 286.46198
 366.78100 356.34619 345.78939 334.66658 323.08077 311.28597 299.16716 286.98136
 274.70455 262.61274 250.63294 239.94513 230.07832 221.19352 213.38671 206.39991
 200.24510 195.19429 191.78749 189.84068 188.88887 188.96407 189.81026 191.12946
 192.86565 194.97184 197.24604 199.61623 202.07242 204.56362 206.66281 208.51601
 210.15320 211.30939 211.54959 211.78878 211.73697 211.45317 211.09736 210.73856
 210.36675 210.08794 209.90714 209.78233 209.72152 210.06372 210.46091 210.86111
 211.66530 212.85449 214.11569 215.90988 217.84907 219.90327 222.00946 224.10366
 226.17485 228.27004 230.37824 232.49543 234.63562 236.81882 239.08601 241.46721
 244.09940 246.36159 248.37479 250.15098 251.57917 252.71337 253.54656 253.87376
 253.92195 253.70714 253.07834 252.03753 250.65472 248.82692 246.74711 244.59131
 242.39350 240.20869 238.03989 235.89008 233.76127 231.63947 229.67666 227.84486
 226.13905 224.62224 223.26344 222.04663 220.93982 219.91102 219.02621 218.17841
 217.43160 216.62279 215.73199 215.10718 214.56837 215.28529 216.97905 218.96500
 220.87392 222.50838 223.45442 223.51535 223.16415 222.79932 223.19386 224.40208
 226.29991 229.63103 233.89868 238.48332 243.01910 247.37732 251.43274 255.06915
 258.27084 261.23032 264.02356 266.49838 268.68127 270.62796 272.66663 274.53342
 276.16504 277.53848 278.69928 279.71878 280.68353 281.66284 282.61209 283.47888
 284.26697 284.97824 285.60687 286.42624
 366.78100 356.34657 345.79013 334.66770 323.08227 311.28784 299.16940 286.98397
 274.70754 262.61610 250.63667 239.94924 230.08281 221.19837 213.39194 206.40551
 200.25107 195.20064 191.79421 189.84778 188.89634 188.97191 189.81848 191.13804
 192.87461 194.98118 197.25575 199.62631 202.08288 204.57445 206.67401 208.52758
 210.16515 211.32172 211.56228 211.80185 211.75042 211.46698 211.11155 210.75312
 210.38169 210.10325 209.92282 209.79839 209.73795 210.08052 210.47809 210.87866
 211.68322 212.87279 214.13436 215.92892 217.86849 219.92306 222.02962 224.12419
 226.19576 228.29133 230.39989 232.51746 234.65803 236.84159 239.10916 241.49073
 244.12330 246.38586 248.39943 250.17600 251.60456 252.73913 253.57270 253.90027
 253.94883 253.73440 253.10597 252.06553 250.68310 248.85567 246.77624 244.62080
 242.42337 240.23894 238.07050 235.92107 233.79264 231.67121 229.70877 227.87734
 226.17191 224.65547 223.29704 222.08061 220.97418 219.94574 219.06131 218.21388
 217.46744 216.65901 215.76858 215.14415 214.60571 215.31131 216.97839 218.94550
 220.86485 222.48267 223.38083 223.37387 222.98439 222.60863 223.00098 224.25990
 226.26797 229.73273 234.07176 238.66055 243.17964 247.52298 251.56340 255.17722
 258.36060 261.30957 264.08887 266.55136 268.75555 270.61185 272.69547 274.58511
 276.20984 277.58749 278.75580 279.76901 280.71805 281.66458 282.60590 283.47272
 284.26013 284.97092 285.59805 286.41544
 366.78100 356.34711 345.79123 334.66934 323.08446 311.29057 299.17268 286.98780
 274.71191 262.62103 250.64214 239.95526 230.08937 221.20548 213.39960 206.41371
 200.25983 195.20994 191.80405 189.85817 188.90728 188.98340 189.83051 191.15063
 192.88774 194.99485 197.26997 199.64108 202.09820 204.59031 206.69042 208.54454
 210.18265 211.33977 211.58088 211.82100 211.77011 211.48722 211.13234 210.77445
 210.40357 210.12568 209.94579 209.82191 209.76202 210.10514 210.50325 210.90437
 211.70948 212.89959 214.16171 215.95682 217.89694 219.95205 222.05916 224.15428
 226.22639 228.32251 230.43162 232.54974 234.69085 236.87496 239.14308 241.52519
 244.15831 246.42142 248.43553 250.21265 251.64176 252.77688 253.61099 253.93911
 253.98822 253.77433 253.14645 252.10656 250.72468 248.89779 246.81890 244.66402
 242.46713 240.28325 238.11536 235.96647 233.83859 231.71770 229.75582 227.92493
 226.22005 224.70416 223.34627 222.13039 221.02450 219.99662 219.11273 218.26584
 217.51996 216.71207 215.82219 215.19830 214.66042 215.34962 216.97798 218.91255
 220.85159 222.46098 223.30740 223.23880 222.81024 222.40553 222.78801 224.11560
 226.24208 229.83366 234.24129 238.84213 243.35284 247.68561 251.70981 255.29672
 258.45978 261.39624 264.16266 266.60886 268.72260 270.67200 272.73483 274.62784
 276.25272 277.63388 278.80209 279.81403 280.75742 281.70947 282.65210 283.51999
 284.30612 285.01654 285.64206 286.44864
 366.78100 356.34759 345.79218 334.67077 323.08636 311.29295 299.17553 286.99112
 274.71571 262.62530 250.64689 239.96048 230.09507 221.21166 213.40625 206.42084
 200.26743 195.21802 191.81260 189.86719 188.91678 188.99337 189.84096 191.16155
 192.89914 195.00673 197.28232 199.65391 202.11150 204.60409 206.70467 208.55926
 210.19785 211.35544 211.59703 211.83762 211.78721 211.50480 211.15039 210.79298
 210.42257 210.14516 209.96574 209.84233 209.78292 210.12651 210.52510 210.92669
 211.73228 212.92287 214.18546 215.98105 217.92164 219.97723 222.08481 224.18040
 226.25299 228.34958 230.45917 232.57776 234.71935 236.90394 239.17253 241.55512
 244.18871 246.45230 248.46688 250.24447 251.67406 252.80965 253.64424 253.97283
 254.02242 253.80901 253.18160 252.14219 250.76078 248.93437 246.85595 244.70154
 242.50513 240.32172 238.15431 236.00590 233.87849 231.75808 229.79667 227.96626
 226.26185 224.74644 223.38902 222.17361 221.06820 220.04079 219.15738 218.31097
 217.56556 216.75815 215.86874 215.24533 214.70792 215.38155 216.97308 218.88380
 220.83502 222.44319 223.23834 223.09830 222.63625 222.20200 222.55719 223.95512
 226.21550 229.93593 234.40695 239.02324 243.53410 247.86421 251.87555 255.43044
 258.56696 261.48511 264.23383 266.65912 268.67285 270.75427 272.80667 274.65573
 276.28061 277.66449 278.83047 279.84290 280.80179 281.79102 282.74112 283.60898
 284.39807 285.11084 285.73993 286.55228
 366.78100 356.34783 345.79267 334.67150 323.08734 311.29417 299.17701 286.99284
 274.71768 262.62751 250.64935 239.96318 230.09802 221.21485 213.40969 206.42452
 200.27136 195.22219 191.81703 189.87186 188.92170 188.99853 189.84637 191.16720
 192.90504 195.01287 197.28871 199.66054 202.11838 204.61121 206.71205 208.56688
 210.20572 211.36355 211.60539 211.84622 211.79606 211.51389 211.15973 210.80256
 210.43240 210.15523 209.97607 209.85290 209.79374 210.13757 210.53641 210.93824
 211.74408 212.93491 214.19775 215.99358 217.93442 219.99025 222.09809 224.19392
 226.26676 228.36359 230.47343 232.59226 234.73410 236.91893 239.18777 241.57060
 244.20444 246.46827 248.48311 250.26094 251.69078 252.82661 253.66145 253.99028
 254.04012 253.82695 253.19979 252.16062 250.77946 248.95329 246.87513 244.72096
 242.52480 240.34163 238.17447 236.02630 233.89914 231.77897 229.81781 227.98764
 226.28348 224.76831 223.41115 222.19598 221.09082 220.06365 219.18049 218.33432
 217.58916 216.78199 215.89283 215.26966 214.73250 215.39755 216.96884 218.86324
 220.81760 222.42291 223.17455 222.95947 222.45668 221.99229 222.31047 223.78958
 226.19882 230.04073 234.56587 239.19463 243.71056 248.04718 252.05444 255.58580
 258.69916 261.59067 264.30627 266.68857 268.67773 270.80936 272.85651 274.68158
 276.29440 277.67941 278.84985 279.86884 280.85532 281.86343 282.81604 283.68549
 284.48001 285.19873 285.83228 286.65515
 366.78100 356.34792 345.79284 334.67176 323.08768 311.29460 299.17753 286.99345
 274.71837 262.62829 250.65021 239.96413 230.09905 221.21597 213.41089 206.42581
 200.27273 195.22366 191.81858 189.87350 188.92342 189.00034 189.84826 191.16918
 192.90710 195.01502 197.29094 199.66286 202.12078 204.61371 206.71463 208.56955
 210.20847 211.36639 211.60831 211.84923 211.79915 211.51707 211.16299 210.80591
 210.43584 210.15876 209.97968 209.85660 209.79752 210.14144 210.54036 210.94228
 211.74820 212.93912 214.20204 215.99797 217.93889 219.99481 222.10273 224.19865
 226.27157 228.36849 230.47841 232.59733 234.73925 236.92417 239.19310 241.57602
 244.20994 246.47386 248.48878 250.26670 251.69662 252.83254 253.66746 253.99638
 254.04630 253.83322 253.20615 252.16707 250.78599 248.95991 246.88183 244.72775
 242.53167 240.34859 238.18151 236.03343 233.90635 231.78628 229.82520 227.99512
 226.29104 224.77596 223.41888 222.20380 221.09872 220.07164 219.18856 218.34248
 217.59741 216.79033 215.90125 215.27817 214.74109 215.40448 216.97183 218.84264
 220.79631 222.40919 223.11726 222.79985 222.24817 221.77080 222.07417 223.63283
 226.18187 230.14980 234.72530 239.36650 243.89458 248.23033 252.22519 255.73860
 258.84317 261.72171 264.40997 266.75034 268.64374 270.88892 272.87192 274.70407
 276.30005 277.68408 278.86359 279.88437 280.88010 281.89417 282.84781 283.72061
 284.51773 285.23886 285.87967 286.71033
 366.78100 356.34798 345.79296 334.67193 323.08791 311.29489 299.17787 286.99384
 274.71882 262.62880 250.65078 239.96475 230.09973 221.21671 213.41169 206.42666
 200.27364 195.22462 191.81960 189.87458 188.92455 189.00153 189.84951 191.17049
 192.90846 195.01644 197.29242 199.66440 202.12237 204.61535 206.71633 208.57131
 210.21028 211.36826 211.61024 211.85122 211.80120 211.51917 211.16515 210.80813
 210.43811 210.16108 209.98206 209.85904 209.80002 210.14399 210.54297 210.94495
 211.75093 212.94190 214.20488 216.00086 217.94184 219.99782 222.10579 224.20177
 226.27475 228.37173 230.48170 232.60068 234.74266 236.92764 239.19661 241.57959
 244.21357 246.47755 248.49252 250.27050 251.70048 252.83646 253.67144 254.00041
 254.05039 253.83737 253.21035 252.17132 250.79030 248.96428 246.88626 244.73223
 242.53621 240.35319 238.18617 236.03815 233.91112 231.79110 229.83008 228.00006
 226.29603 224.78101 223.42399 222.20897 221.10394 220.07692 219.19390 218.34788
 217.60285 216.79583 215.90681 215.28379 214.74677 215.40929 216.97459 218.82410
 220.76030 222.38762 223.09459 222.66415 222.00926 221.52188 221.81430 223.48134
 226.18710 230.27177 234.90355 239.55409 244.07742 248.40479 252.37918 255.87486
 258.98199 261.85767 264.53326 266.87579 268.59665 270.89795 272.90518 274.74216
 276.33252 277.69278 278.86197 279.85767 280.85004 281.86533 282.81912 283.69144
 284.49008 285.21576 285.85809 286.69153
 366.78100 356.34809 345.79319 334.67228 323.08837 311.29546 299.17856 286.99465
 274.71974 262.62983 250.65193 239.96602 230.10111 221.21821 213.41330 206.42839
 200.27548 195.22658 191.82167 189.87676 188.92685 189.00395 189.85204 191.17313
 192.91122 195.01932 197.29541 199.66750 202.12560 204.61869 206.71978 208.57487
 210.21397 211.37206 211.61415 211.85524 211.80534 211.52343 211.16952 210.81262
 210.44271 210.16580 209.98689 209.86399 209.80508 210.14917 210.54826 210.95036
 211.75645 212.94754 214.21064 216.00673 217.94782 220.00391 222.11201 224.20810
 226.28119 228.37828 230.48838 232.60747 234.74956 236.93465 239.20375 241.58684
 244.22093 246.48503 248.50012 250.27821 251.70830 252.84440 253.67949 254.00858
 254.05867 253.84577 253.21886 252.17995 250.79905 248.97314 246.89523 244.74132
 242.54542 240.36251 238.19560 236.04769 233.92079 231.80088 229.83997 228.01007
 226.30616 224.79125 223.43434 222.21944 221.11453 220.08762 219.20471 218.35881
 217.61390 216.80699 215.91808 215.29518 214.75827 215.41650 216.97168 218.81116
 220.72093 222.33768 223.05515 222.60527 221.83505 221.11749 221.50549 223.43460
 226.25763 230.40186 235.08606 239.75922 244.26779 248.58449 252.53490 256.00632
 259.11011 261.97751 264.62076 266.95135 268.55951 270.84055 272.95102 274.80188
 276.39474 277.74847 278.92703 279.91284 280.81491 281.77005 282.71524 283.58807
 284.38477 285.11432 285.76346 286.60501
 366.78100 356.34825 345.79350 334.67274 323.08899 311.29624 299.17949 286.99574
 274.72098 262.63123 250.65348 239.96773 230.10298 221.22022 213.41547 206.43072
 200.27797 195.22922 191.82446 189.87971 188.92996 189.00721 189.85546 191.17670
 192.91495 195.02320 197.29945 199.67170 202.12995 204.62319 206.72444 208.57969
 210.21894 211.37719 211.61943 211.86068 211.81093 211.52918 211.17543 210.81867
 210.44892 210.17217 209.99342 209.87067 209.81191 210.15616 210.55541 210.95766
 211.76391 212.95515 214.21840 216.01465 217.95590 220.01215 222.12039 224.21664
 226.28989 228.38714 230.49739 232.61663 234.75888 236.94413 239.21338 241.59663
 244.23087 246.49512 248.51037 250.28862 251.71887 252.85511 253.69036 254.01961
 254.06986 253.85711 253.23035 252.19160 250.81085 248.98510 246.90735 244.75359
 242.55784 240.37509 238.20834 236.06059 233.93384 231.81408 229.85333 228.02358
 226.31983 224.80508 223.44832 222.23357 221.12882 220.10207 219.21932 218.37356
 217.62881 216.82206 215.93331 215.31056 214.77380 215.42387 216.95970 218.80536
 220.69919 222.27628 222.97185 222.52887 221.69804 220.76418 221.18932 223.33804
 226.30226 230.54015 235.26859 239.96013 244.47015 248.77580 252.70180 256.14694
 259.24292 262.10794 264.70703 266.92892 268.68051 270.84402 272.94150 274.82169
 276.40826 277.75830 278.89481 279.83429 280.77576 281.76593 282.71561 283.58780
 284.38589 285.11639 285.76575 286.61401
 366.78100 356.34824 345.79348 334.67273 323.08897 311.29621 299.17945 286.99569
 274.72094 262.63118 250.65342 239.96766 230.10291 221.22015 213.41539 206.43063
 200.27787 195.22912 191.82436 189.87960 188.92984 189.00708 189.85533 191.17657
 192.91481 195.02305 197.29929 199.67154 202.12978 204.62302 206.72426 208.57950
 210.21875 211.37699 211.61923 211.86047 211.81072 211.52896 211.17520 210.81844
 210.44868 210.17193 209.99317 209.87041 209.81165 210.15589 210.55514 210.95738
 211.76362 212.95486 214.21810 216.01435 217.95559 220.01183 222.12007 224.21631
 226.28956 228.38680 230.49704 232.61628 234.75853 236.94377 239.21301 241.59625
 244.23049 246.49474 248.50998 250.28822 251.71846 252.85470 253.68995 254.01919
 254.06943 253.85667 253.22991 252.19116 250.81040 248.98464 246.90688 244.75312
 242.55737 240.37461 238.20785 236.06009 233.93334 231.81358 229.85282 228.02306
 226.31930 224.80455 223.44779 222.23303 221.12827 220.10151 219.21876 218.37300
 217.62824 216.82148 215.93272 215.30997 214.77321 215.41931 216.94577 218.78920
 220.68961 222.23492 222.86888 222.39906 221.55217 220.48338 220.89891 223.20670
 226.32411 230.67809 235.45288 240.15173 244.65668 248.95932 252.86792 256.28281
 259.36887 262.23804 264.83618 266.96573 268.73151 270.93161 272.92300 274.83621
 276.42252 277.75214 278.84125 279.76352 280.70587 281.69412 282.64160 283.51343
 284.31149 285.03812 285.68512 286.54251
 366.78100 356.34805 345.79310 334.67215 323.08820 311.29524 299.17829 286.99434
 274.71939 262.62944 250.65149 239.96554 230.10059 221.21763 213.41268 206.42773
 200.27478 195.22583 191.82088 189.87593 188.92598 189.00302 189.85107 191.17212
 192.91017 195.01822 197.29427 199.66632 202.12437 204.61741 206.71846 208.57351
 210.21256 211.37061 211.61266 211.85371 211.80376 211.52180 211.16785 210.81090
 210.44095 210.16400 209.98505 209.86210 209.80315 210.14719 210.54624 210.94829
 211.75434 212.94539 214.20844 216.00449 217.94554 220.00158 222.10963 224.20568
 226.27873 228.37578 230.48583 232.60488 234.74693 236.93197 239.20102 241.58407
 244.21812 246.48217 248.49722 250.27527 251.70532 252.84136 253.67641 254.00546
 254.05551 253.84256 253.21561 252.17666 250.79571 248.96975 246.89180 244.73785
 242.54190 240.35895 238.19200 236.04405 233.91710 231.79714 229.83619 228.00624
 226.30229 224.78734 223.43039 222.21544 221.11049 220.08353 219.20058 218.35463
 217.60968 216.80273 215.91378 215.29083 214.75388 215.40506 216.94357 218.75830
 220.67032 222.22032 222.77138 222.23001 221.35762 220.23256 220.63295 223.07251
 226.34998 230.82349 235.63907 240.34462 244.84625 249.13704 253.02876 256.41238
 259.47952 262.32953 264.94348 267.12375 268.72769 270.88577 272.97397 274.91238
 276.49310 277.79425 278.87262 279.78906 280.61383 281.53891 282.47775 283.34546
 284.14182 284.86826 285.51486 286.38251
 366.78100 356.34798 345.79295 334.67193 323.08790 311.29488 299.17785 286.99383
 274.71880 262.62878 250.65075 239.96473 230.09970 221.21668 213.41165 206.42663
 200.27360 195.22458 191.81955 189.87453 188.92450 189.00148 189.84945 191.17043
 192.90841 195.01638 197.29236 199.66433 202.12231 204.61528 206.71626 208.57123
 210.21021 211.36818 211.61016 211.85113 211.80111 211.51908 211.16506 210.80803
 210.43801 210.16098 209.98196 209.85893 209.79991 210.14388 210.54286 210.94483
 211.75081 212.94179 214.20476 216.00074 217.94171 219.99769 222.10566 224.20164
 226.27461 228.37159 230.48156 232.60054 234.74251 236.92749 239.19646 241.57944
 244.21341 246.47739 248.49236 250.27034 251.70031 252.83629 253.67126 254.00024
 254.05022 253.83719 253.21017 252.17114 250.79012 248.96409 246.88607 244.73204
 242.53602 240.35299 238.18597 236.03794 233.91092 231.79089 229.82987 227.99984
 226.29582 224.78079 223.42377 222.20874 221.10372 220.07669 219.19367 218.34764
 217.60262 216.79560 215.90657 215.28355 214.74652 215.39711 216.93419 218.74269
 220.63876 222.17604 222.70021 222.06667 221.12027 219.95293 220.36093 222.92728
 226.38646 230.98146 235.83122 240.53569 245.05009 249.33484 253.20554 256.56720
 259.61621 262.41782 264.97610 267.20261 268.88968 270.86960 273.05356 274.95663
 276.50943 277.78879 278.85684 279.75473 280.53925 281.37457 282.28503 283.14410
 283.92776 284.62915 285.22940 285.95370
 366.78100 356.34776 345.79252 334.67128 323.08705 311.29381 299.17657 286.99233
 274.71709 262.62685 250.64862 239.96238 230.09714 221.21390 213.40866 206.42342
 200.27019 195.22095 191.81571 189.87047 188.92023 188.99699 189.84475 191.16552
 192.90328 195.01104 197.28680 199.65856 202.11632 204.60909 206.70985 208.56461
 210.20337 211.36113 211.60289 211.84366 211.79342 211.51118 211.15694 210.79970
 210.42946 210.15223 209.97299 209.84975 209.79051 210.13427 210.53303 210.93479
 211.74056 212.93132 214.19408 215.98984 217.93060 219.98636 222.09413 224.18989
 226.26265 228.35941 230.46917 232.58793 234.72970 236.91446 239.18322 241.56598
 244.19974 246.46350 248.47826 250.25603 251.68579 252.82155 253.65631 253.98507
 254.03483 253.82160 253.19436 252.15512 250.77388 248.94764 246.86940 244.71517
 242.51893 240.33569 238.16845 236.02021 233.89297 231.77273 229.81150 227.98126
 226.27702 224.76178 223.40454 222.18930 221.08407 220.05683 219.17359 218.32735
 217.58211 216.77487 215.88564 215.26240 214.72516 215.38298 216.93716 218.72235
 220.60146 222.09277 222.60252 221.92693 220.91786 219.67610 220.05621 222.75220
 226.40564 231.10344 236.02458 240.74155 245.24644 249.53413 253.40729 256.73901
 259.76416 262.53177 265.01605 267.21204 269.10269 271.05615 273.14160 274.98209
 276.51849 277.78647 278.83688 279.72058 280.47055 281.28741 282.19409 283.06042
 283.84488 284.55142 285.15930 285.93399
 354.97500 345.04800 334.58700 324.11500 313.32600 302.53700 291.65000 280.76700
 269.93100 259.19300 248.62200 238.61700 229.08700 220.35500 212.54000 205.53500
 199.46400 194.49300 191.14300 189.19000 188.08900 188.01400 188.72400 189.90600
 191.46900 193.38200 195.40300 197.55600 199.80700 202.06000 204.28800 206.47900
 208.55200 210.37800 212.02500 213.65900 214.99800 216.11800 217.17200 218.25900
 219.49400 220.64500 221.67900 222.61400 223.54500 224.98200 226.57100 228.19000
 229.79700 231.81100 233.86500 235.97200 238.24200 240.55300 242.89900 245.25300
 247.48800 249.53500 251.36600 252.84800 254.09800 255.16700 256.02700 256.25300
 256.09500 255.54300 253.93500 252.56600 251.38400 250.24500 249.05200 247.70100
 246.01600 243.99600 241.78400 239.39300 236.81300 234.22300 231.65800 229.14400
 226.74000 224.47300 222.33500 220.32500 218.44000 216.67700 214.96200 213.47200
 212.20000 211.10800 210.26000 209.63900 209.24400 209.03100 209.05800 209.33300
 209.78400 210.62600 211.33100 212.39100 213.62500 214.84668 217.72949 219.47640
 220.32566 220.86828 220.88710 220.27371 219.43733 218.84250 219.04934 220.86203
 222.60583 225.72206 229.03064 232.61777 236.12270 239.51333 242.70767 245.68587
 248.41061 250.90679 253.19353 254.91714 256.48655 257.94920 259.39966 260.69384
 261.81714 262.77997 263.71679 264.54570 265.26305 265.89772 266.47676 267.00133
 267.47312 267.89325 268.26027 268.72800
