|-------------------------------------------------------------------------|
|   File Name : in_temp.dat
|   Subject   : temperature profiles used for initial guess atmosphere
|   File Type : input of gmtr
|   Data Type : atmospherical data
|   Author/s  : WRF-Chem
|   Date      : Fri Jul 26 15:39:24 2024
|-------------------------------------------------------------------------|

 WRF-Chem temperature
#
 values of T (K)    (8f10.5)
#
 354.97500 345.04800 334.58700 324.11500 313.32600 302.53700 291.65000 280.76700
 269.93100 259.19300 248.62200 238.61700 229.08700 220.35500 212.54000 205.53500
 199.46400 194.49300 191.14300 189.19000 188.08900 188.01400 188.72400 189.90600
 191.46900 193.38200 195.40300 197.55600 199.80700 202.06000 204.28800 206.47900
 208.55200 210.37800 212.02500 213.65900 214.99800 216.11800 217.17200 218.25900
 219.49400 220.64500 221.67900 222.61400 223.54500 224.98200 226.57100 228.19000
 229.79700 231.81100 233.86500 235.97200 238.24200 240.55300 242.89900 245.25300
 247.48800 249.53500 251.36600 252.84800 254.09800 255.16700 256.02700 256.25300
 256.09500 255.54300 253.93500 252.56600 251.38400 250.24500 249.05200 247.70100
 246.01600 243.99600 241.78400 239.39300 236.81300 234.22300 231.65800 229.14400
 226.74000 224.47300 222.33500 220.32500 218.44000 216.67700 214.96200 213.47200
 212.20000 211.10800 210.26000 209.63900 209.24400 209.03100 209.05800 209.33300
 209.78400 210.62600 211.33100 212.39100 213.62500 214.84668 217.72949 219.47640
 220.32566 220.86828 220.88710 220.27371 219.43733 218.84250 219.04934 220.86203
 222.60583 225.72206 229.03064 232.61777 236.12270 239.51333 242.70767 245.68587
 248.41061 250.90679 253.19353 254.91714 256.48655 257.94920 259.39966 260.69384
 261.81714 262.77997 263.71679 264.54570 265.26305 265.89772 266.47676 267.00133
 267.47312 267.89325 268.26027 268.72800
 366.78100 356.33500 345.76700 334.63300 323.03600 311.23000 299.10000 286.90300
 274.61500 262.51200 250.52100 239.82200 229.94400 221.04800 213.23000 206.23200
 200.06600 195.00400 191.58600 189.62800 188.66500 188.72900 189.56400 190.87200
 192.59700 194.69200 196.95500 199.31400 201.75900 204.23900 206.32700 208.16900
 209.79500 210.94000 211.16900 211.39700 211.33400 211.03900 210.67200 210.30200
 209.91900 209.62900 209.43700 209.30100 209.22900 209.56000 209.94600 210.33500
 211.12800 212.30600 213.55600 215.33900 217.26700 219.31000 221.40500 223.48800
 225.54800 227.63200 229.72900 231.83500 233.96400 236.13600 238.39200 240.76200
 243.38300 245.63400 247.63600 249.40100 250.81800 251.94100 252.76300 253.07900
 253.11600 252.89000 252.25000 251.19800 249.80400 247.96500 245.87400 243.70700
 241.49800 239.30200 237.12200 234.96100 232.82100 230.68800 228.71400 226.87100
 225.15400 223.62600 222.25600 221.02800 219.91000 218.87000 217.97400 217.11500
 216.35700 215.53700 214.63500 213.99900 213.44900 212.85855 212.01316 212.61654
 214.26826 216.08686 218.14273 220.53346 223.40855 226.78828 231.49734 235.90155
 239.42278 243.28576 247.23140 251.11907 254.80144 258.23331 261.38913 264.27520
 266.89312 269.26852 271.44504 273.08845 274.58484 275.98591 277.39845 278.65879
 279.75272 280.69038 281.56708 282.34086 283.01050 283.60295 284.14348 284.63317
 285.07358 285.46577 285.80838 286.24500
 381.81900 372.39900 361.20600 349.77600 337.62200 324.85300 311.81000 298.35300
 284.86000 271.32400 258.56100 246.30400 236.08700 226.79600 218.44800 211.29000
 205.52200 200.89400 197.38100 194.84800 193.01500 192.31500 192.25000 192.43100
 192.91200 193.53700 194.13600 194.71200 195.26200 195.83100 196.39300 196.97600
 197.60400 198.14900 198.58400 199.05700 199.69500 200.37800 201.05400 201.70800
 202.31300 202.85700 203.35500 203.86200 204.56900 205.29700 206.02600 206.98700
 208.19300 209.44100 210.96900 212.57600 214.46200 216.51300 218.63000 220.85300
 223.34100 225.96200 228.73900 231.69700 234.70600 237.70600 240.69200 243.65700
 246.73700 249.69900 252.52100 255.06300 257.29000 259.23300 260.63300 261.68000
 262.46100 262.79800 262.69100 262.22400 261.06900 259.52500 257.70700 255.50700
 253.00100 250.30200 247.39800 244.45200 241.65400 239.05400 236.73300 234.59000
 232.59500 230.72500 228.83400 226.82600 224.66600 222.38700 220.10400 217.71500
 215.45900 213.06600 210.54600 208.09300 205.35400 202.08130 196.05959 200.71215
 209.01611 216.90438 223.84126 229.78593 235.00632 240.20838 245.98943 250.68668
 254.32982 257.93487 261.55666 264.96801 268.15192 271.06452 273.76717 276.25691
 278.57680 280.74479 282.77456 284.60533 286.27232 287.81705 289.31715 290.65561
 291.81734 292.81312 293.70701 294.49387 295.17482 295.77730 296.32696 296.82492
 297.27278 297.67160 298.02000 298.46400
 399.33000 389.90700 379.81300 368.66800 357.52200 345.30100 333.07400 320.22700
 307.21600 293.84800 280.37600 267.29600 254.61000 242.98700 232.15100 221.97700
 212.67200 204.28600 197.66900 192.82100 189.48600 187.45200 186.81400 187.08900
 187.78100 189.05400 190.64800 192.54200 194.63000 196.75200 198.67100 200.15800
 201.53500 202.48700 202.97500 203.34000 203.53900 203.49700 203.38500 203.24700
 203.00500 202.78600 202.60300 202.43700 202.42600 202.88800 203.42000 203.95100
 204.89500 205.99200 207.30100 208.95800 210.73800 213.10000 215.56400 218.18000
 220.96600 223.91800 226.96100 230.09200 233.29300 236.55700 239.95500 243.53700
 246.84500 249.39000 251.54200 253.47400 255.19500 256.48400 257.43100 258.05900
 258.21200 258.04000 257.58200 256.64300 255.23900 253.50700 251.40800 249.05600
 246.57600 243.99400 241.38900 238.83000 236.34400 233.98600 231.96900 230.11800
 228.42300 226.89900 225.54800 224.29700 223.10500 221.96500 220.95800 220.11300
 219.49000 218.92000 218.32500 217.88100 217.42300 216.96366 216.35568 216.80261
 217.73415 218.28582 218.64258 219.10077 220.44626 222.53987 226.38451 230.35736
 233.59734 237.39164 241.29814 245.22796 248.98002 252.51130 255.78595 258.80109
 261.54781 264.05210 266.34239 268.04198 269.58951 271.01303 272.35754 273.55718
 274.59842 275.49092 276.28989 276.99307 277.60161 278.14001 278.63122 279.07623
 279.47646 279.83287 280.14422 280.54100
 399.73800 389.78500 379.66200 368.15100 356.64100 344.35000 331.79200 318.88800
 305.72600 292.49300 279.20900 266.73800 254.69600 244.21100 234.45700 225.43300
 217.56900 210.45100 204.30000 199.30600 195.45800 192.57600 191.02700 190.38600
 190.23900 190.53400 191.16600 191.92500 192.79500 193.76600 194.73200 195.31200
 195.80000 196.05200 196.11500 196.11500 196.03900 195.72300 195.34000 194.98900
 194.75100 194.79200 195.13300 195.59800 196.50600 198.13600 199.85800 201.56600
 204.17900 206.82300 209.89300 213.28400 216.82800 220.60500 224.38700 228.20900
 232.03200 235.82500 239.56000 243.25800 246.84500 250.20100 253.70900 257.46800
 261.53000 264.22100 266.60100 268.68100 270.32900 271.74100 272.83600 273.47400
 273.89800 274.00200 273.75700 273.28800 272.37100 271.10000 269.58900 267.77900
 265.81600 263.72100 261.39300 258.91600 256.29800 253.42300 250.33100 247.11400
 243.83700 240.52900 237.24900 233.99900 230.72800 227.51500 224.25400 220.95200
 217.62700 213.65600 210.12100 206.78900 204.01000 201.99491 199.07309 198.76551
 199.40006 200.48994 201.46112 202.31912 203.45100 204.96110 207.47502 210.85391
 213.70530 217.29629 220.99574 224.72316 228.28753 231.64854 234.68024 237.40893
 239.70644 241.60899 243.46854 245.67368 247.68154 249.52395 251.24767 252.78566
 254.12057 255.26479 256.23740 257.09036 257.82852 258.48160 259.07744 259.61723
 260.10271 260.53504 260.91270 261.39400
 399.73800 389.78500 379.66200 368.15100 356.64100 344.35000 331.79200 318.88800
 305.72600 292.49300 279.20900 266.73800 254.69600 244.21100 234.45700 225.43300
 217.56900 210.45100 204.30000 199.30600 195.45800 192.57600 191.02700 190.38600
 190.23900 190.53400 191.16600 191.92500 192.79500 193.76600 194.73200 195.31200
 195.80000 196.05200 196.11500 196.11500 196.03900 195.72300 195.34000 194.98900
 194.75100 194.79200 195.13300 195.59800 196.50600 198.13600 199.85800 201.56600
 204.17900 206.82300 209.89300 213.28400 216.82800 220.60500 224.38700 228.20900
 232.03200 235.82500 239.56000 243.25800 246.84500 250.20100 253.70900 257.46800
 261.53000 264.22100 266.60100 268.68100 270.32900 271.74100 272.83600 273.47400
 273.89800 274.00200 273.75700 273.28800 272.37100 271.10000 269.58900 267.77900
 265.81600 263.72100 261.39300 258.91600 256.29800 253.42300 250.33100 247.11400
 243.83700 240.52900 237.24900 233.99900 230.72800 227.51500 224.25400 220.95200
 217.62700 213.65600 210.12100 206.78900 204.01000 201.99491 199.07309 198.76551
 199.40006 200.48994 201.46112 202.31912 203.45100 204.96110 207.47502 210.85391
 213.70530 217.29629 220.99574 224.72316 228.28753 231.64854 234.68024 237.40893
 239.70644 241.60899 243.46854 245.67368 247.68154 249.52395 251.24767 252.78566
 254.12057 255.26479 256.23740 257.09036 257.82852 258.48160 259.07744 259.61723
 260.10271 260.53504 260.91270 261.39400
 399.33000 389.90700 379.81300 368.66800 357.52200 345.30100 333.07400 320.22700
 307.21600 293.84800 280.37600 267.29600 254.61000 242.98700 232.15100 221.97700
 212.67200 204.28600 197.66900 192.82100 189.48600 187.45200 186.81400 187.08900
 187.78100 189.05400 190.64800 192.54200 194.63000 196.75200 198.67100 200.15800
 201.53500 202.48700 202.97500 203.34000 203.53900 203.49700 203.38500 203.24700
 203.00500 202.78600 202.60300 202.43700 202.42600 202.88800 203.42000 203.95100
 204.89500 205.99200 207.30100 208.95800 210.73800 213.10000 215.56400 218.18000
 220.96600 223.91800 226.96100 230.09200 233.29300 236.55700 239.95500 243.53700
 246.84500 249.39000 251.54200 253.47400 255.19500 256.48400 257.43100 258.05900
 258.21200 258.04000 257.58200 256.64300 255.23900 253.50700 251.40800 249.05600
 246.57600 243.99400 241.38900 238.83000 236.34400 233.98600 231.96900 230.11800
 228.42300 226.89900 225.54800 224.29700 223.10500 221.96500 220.95800 220.11300
 219.49000 218.92000 218.32500 217.88100 217.42300 216.96366 216.35568 216.80261
 217.73415 218.28582 218.64258 219.10077 220.44626 222.53987 226.38451 230.35736
 233.59734 237.39164 241.29814 245.22796 248.98002 252.51130 255.78595 258.80109
 261.54781 264.05210 266.34239 268.04198 269.58951 271.01303 272.35754 273.55718
 274.59842 275.49092 276.28989 276.99307 277.60161 278.14001 278.63122 279.07623
 279.47646 279.83287 280.14422 280.54100
 381.81900 372.39900 361.20600 349.77600 337.62200 324.85300 311.81000 298.35300
 284.86000 271.32400 258.56100 246.30400 236.08700 226.79600 218.44800 211.29000
 205.52200 200.89400 197.38100 194.84800 193.01500 192.31500 192.25000 192.43100
 192.91200 193.53700 194.13600 194.71200 195.26200 195.83100 196.39300 196.97600
 197.60400 198.14900 198.58400 199.05700 199.69500 200.37800 201.05400 201.70800
 202.31300 202.85700 203.35500 203.86200 204.56900 205.29700 206.02600 206.98700
 208.19300 209.44100 210.96900 212.57600 214.46200 216.51300 218.63000 220.85300
 223.34100 225.96200 228.73900 231.69700 234.70600 237.70600 240.69200 243.65700
 246.73700 249.69900 252.52100 255.06300 257.29000 259.23300 260.63300 261.68000
 262.46100 262.79800 262.69100 262.22400 261.06900 259.52500 257.70700 255.50700
 253.00100 250.30200 247.39800 244.45200 241.65400 239.05400 236.73300 234.59000
 232.59500 230.72500 228.83400 226.82600 224.66600 222.38700 220.10400 217.71500
 215.45900 213.06600 210.54600 208.09300 205.35400 202.08130 196.05959 200.71215
 209.01611 216.90438 223.84126 229.78593 235.00632 240.20838 245.98943 250.68668
 254.32982 257.93487 261.55666 264.96801 268.15192 271.06452 273.76717 276.25691
 278.57680 280.74479 282.77456 284.60533 286.27232 287.81705 289.31715 290.65561
 291.81734 292.81312 293.70701 294.49387 295.17482 295.77730 296.32696 296.82492
 297.27278 297.67160 298.02000 298.46400
 366.78100 356.34017 345.77734 334.64851 323.05668 311.25585 299.13103 286.93920
 274.65637 262.55854 250.57271 239.87888 230.00605 221.11522 213.30239 206.30956
 200.14874 195.09191 191.67908 189.72625 188.76842 188.83759 189.67776 190.99093
 192.72110 194.82127 197.08944 199.45362 201.90379 204.38896 206.48213 208.32930
 209.96047 211.11064 211.34481 211.57798 211.52015 211.23033 210.86850 210.50367
 210.12584 209.84101 209.65418 209.52335 209.45652 209.79269 210.18386 210.57803
 211.37621 212.55938 213.81455 215.60272 217.53589 219.58406 221.68423 223.77240
 225.83757 227.92674 230.02892 232.14009 234.27426 236.45143 238.71260 241.08777
 243.71394 245.97011 247.97728 249.74745 251.16962 252.29780 253.12497 253.44614
 253.48831 253.26748 252.63265 251.58582 250.19699 248.36316 246.27733 244.11551
 241.91168 239.72085 237.54602 235.39019 233.25536 231.12753 229.15870 227.32087
 225.60904 224.08621 222.72139 221.49856 220.38573 219.35090 218.46007 217.60624
 216.85341 216.03858 215.14175 214.51092 213.96609 213.27748 211.65321 211.18694
 211.97511 213.87053 215.88531 217.01347 218.95073 222.97552 228.90311 233.95435
 237.78200 241.49765 245.20865 249.04735 253.03922 256.25281 258.83368 261.31119
 264.17285 266.89999 269.26559 271.28571 273.10583 274.83914 276.47379 278.13907
 279.85461 281.49191 282.98453 284.33899 285.51801 286.56546 287.52454 288.39670
 289.18646 289.89340 290.52173 291.35217
 366.78100 356.33803 345.77306 334.64210 323.04813 311.24516 299.11819 286.92423
 274.63926 262.53929 250.55132 239.85536 229.98039 221.08742 213.27245 206.27748
 200.11452 195.05555 191.64058 189.68561 188.72565 188.79268 189.63071 190.94174
 192.66977 194.76781 197.03384 199.39587 201.84390 204.32694 206.41797 208.26300
 209.89203 211.04007 211.27210 211.50313 211.44316 211.15119 210.78723 210.42026
 210.04029 209.75332 209.56436 209.43139 209.36242 209.69645 210.08548 210.47752
 211.27355 212.45458 213.70761 215.49365 217.42468 219.47071 221.56874 223.65478
 225.71781 227.80484 229.90487 232.01390 234.14594 236.32097 238.58000 240.95303
 243.57707 245.83110 247.83613 249.60416 251.02419 252.15023 252.97526 253.29429
 253.33432 253.11136 252.47439 251.42542 250.03445 248.19849 246.11052 243.94655
 241.74058 239.54761 237.37065 235.21268 233.07571 230.94574 228.97478 227.13481
 225.42084 223.89587 222.52891 221.30394 220.18897 219.15200 218.25903 217.40307
 216.64810 215.83113 214.93216 214.29920 213.75223 213.17116 211.80014 211.35866
 212.04330 213.96104 215.93684 217.05605 218.85027 222.88232 228.84386 233.87212
 237.69069 241.41451 245.15076 249.01077 253.00563 256.17001 258.70081 261.18994
 264.03827 266.77756 269.17426 271.19046 272.98383 274.69299 276.33560 278.01532
 279.73981 281.38312 282.88116 284.23642 285.41693 286.46439 287.42355 288.29608
 289.08640 289.79562 290.41965 291.25763
 366.78100 356.33566 345.76832 334.63498 323.03864 311.23330 299.10396 286.90763
 274.62029 262.51795 250.52761 239.82927 229.95193 221.05659 213.23925 206.24191
 200.07657 195.01523 191.59789 189.64055 188.67822 188.74288 189.57854 190.88720
 192.61286 194.70852 196.97218 199.33184 201.77750 204.25816 206.34682 208.18948
 209.81614 210.96180 211.19147 211.42013 211.35779 211.06345 210.69711 210.32777
 209.94543 209.65609 209.46475 209.32941 209.25807 209.58973 209.97639 210.36606
 211.15972 212.33838 213.58904 215.37270 217.30136 219.34502 221.44068 223.52434
 225.58500 227.66966 229.76732 231.87398 234.00365 236.17631 238.43297 240.80363
 243.42529 245.67695 247.67961 249.44527 250.86293 251.98659 252.80925 253.12591
 253.16357 252.93824 252.29890 251.24756 249.85422 248.01588 245.92554 243.75920
 241.55086 239.35552 237.17618 235.01584 232.87650 230.74416 228.77083 226.92849
 225.21215 223.68481 222.31547 221.08813 219.97079 218.93145 218.03611 217.17777
 216.42043 215.60109 214.69975 214.06441 213.51508 213.05257 211.96075 211.49721
 212.13542 214.06021 215.96068 217.10426 218.78477 222.80280 228.79407 233.79219
 237.59857 241.32780 245.08881 248.96973 252.95993 256.07843 258.56735 261.06995
 263.90149 266.65219 269.08072 271.09384 272.86218 274.54800 276.20044 277.89569
 279.62872 281.27649 282.78067 284.13715 285.31824 286.36588 287.32642 288.19882
 288.99020 289.69891 290.32544 291.16220
 366.78100 356.33360 345.76420 334.62881 323.03041 311.22301 299.09161 286.89322
 274.60382 262.49942 250.50702 239.80662 229.92723 221.02983 213.21043 206.21103
 200.04364 194.98024 191.56084 189.60144 188.63704 188.69965 189.53325 190.83985
 192.56345 194.65705 196.91866 199.27626 201.71986 204.19846 206.28507 208.12567
 209.75027 210.89387 211.12147 211.34808 211.28368 210.98728 210.61888 210.24749
 209.86309 209.57169 209.37829 209.24089 209.16750 209.49710 209.88170 210.26930
 211.06091 212.23751 213.48611 215.26771 217.19431 219.23592 221.32952 223.41112
 225.46972 227.55233 229.64793 231.75253 233.88013 236.05073 238.30534 240.67394
 243.29354 245.54314 247.54374 249.30735 250.72295 251.84455 252.66515 252.97976
 253.01536 252.78796 252.14656 251.09316 249.69777 247.85737 245.76497 243.59657
 241.38618 239.18878 237.00738 234.84498 232.70358 230.56919 228.59379 226.74939
 225.03099 223.50160 222.13020 220.90080 219.78140 218.74000 217.84261 216.98221
 216.22281 215.40141 214.49801 213.86062 213.30922 212.94876 212.09752 211.63979
 212.23700 214.15456 215.99304 217.14899 218.73819 222.73782 228.74693 233.70860
 237.50246 241.23915 245.02672 248.92598 252.90387 255.98019 258.43579 260.95160
 263.76303 266.52066 268.97821 270.98953 272.73816 274.40860 276.07361 277.78427
 279.52478 281.17523 282.68463 284.04269 285.22479 286.27225 287.23209 288.10611
 288.89877 289.60858 290.23499 291.07132
 366.78100 356.33198 345.76096 334.62394 323.02392 311.21490 299.08188 286.88186
 274.59084 262.48482 250.49080 239.78878 229.90776 221.00874 213.18772 206.18670
 200.01768 194.95266 191.53164 189.57062 188.60460 188.66558 189.49756 190.80254
 192.52452 194.61650 196.87648 199.23246 201.67444 204.15142 206.23640 208.07538
 209.69836 210.84034 211.06632 211.29130 211.22528 210.92726 210.55724 210.18422
 209.79820 209.50518 209.31016 209.17114 209.09612 209.42410 209.80708 210.19306
 210.98304 212.15802 213.40500 215.18498 217.10996 219.14994 221.24192 223.32190
 225.37888 227.45986 229.55384 231.65682 233.78280 235.95178 238.20476 240.57174
 243.18972 245.43770 247.43668 249.19866 250.61264 251.73262 252.55160 252.86458
 252.89856 252.66954 252.02652 250.97150 249.57448 247.73246 245.63844 243.46842
 241.25640 239.05738 236.87436 234.71034 232.56732 230.43130 228.45428 226.60826
 224.88824 223.35722 221.98420 220.75318 219.63216 218.58914 217.69012 216.82810
 216.06708 215.24406 214.33904 213.70002 213.14700 212.86613 212.20264 211.79137
 212.34879 214.24036 216.03630 217.19186 218.70201 222.68875 228.69885 233.62279
 237.40463 241.15327 244.96819 248.88168 252.83975 255.87688 258.30557 260.83420
 263.62024 266.37897 268.86264 270.87482 272.61316 274.27707 275.95447 277.68228
 279.42603 281.08218 282.59540 283.95352 285.13504 286.18262 287.14386 288.01990
 288.80945 289.52319 290.14914 290.98758
 366.78100 356.33063 345.75825 334.61988 323.01851 311.20814 299.07376 286.87239
 274.58002 262.47264 250.47727 239.77390 229.89152 220.99115 213.16878 206.16641
 199.99603 194.92966 191.50729 189.54491 188.57754 188.63717 189.46779 190.77142
 192.49205 194.58268 196.84130 199.19593 201.63656 204.11218 206.19581 208.03344
 209.65507 210.79569 211.02032 211.24395 211.17657 210.87720 210.50583 210.13145
 209.74408 209.44971 209.25334 209.11296 209.03659 209.36322 209.74484 210.12947
 210.91810 212.09172 213.33735 215.11598 217.03961 219.07823 221.16886 223.24749
 225.30311 227.38274 229.47537 231.57700 233.70162 235.86925 238.12088 240.48650
 243.10313 245.34976 247.34738 249.10801 250.52064 251.63927 252.45689 252.76852
 252.80115 252.57077 251.92640 250.87003 249.47165 247.62828 245.53291 243.36154
 241.14816 238.94779 236.76342 234.59804 232.45367 230.31630 228.33793 226.49055
 224.76918 223.23681 221.86243 220.63006 219.50769 218.46331 217.56294 216.69957
 215.93720 215.11282 214.20645 213.56608 213.01170 212.79659 212.28836 211.94299
 212.46942 214.32289 216.08957 217.22896 218.67679 222.65504 228.64954 233.53952
 237.31065 241.07283 244.91278 248.83601 252.76561 255.76808 258.17737 260.71716
 263.47263 266.22562 268.72980 270.74625 272.48666 274.15472 275.84534 277.58582
 279.33182 280.99292 282.51019 283.86990 285.05161 286.09915 287.06140 287.93558
 288.72745 289.43964 290.06961 290.90515
 366.78100 356.32946 345.75592 334.61638 323.01384 311.20230 299.06676 286.86422
 274.57068 262.46214 250.46560 239.76106 229.87752 220.97598 213.15244 206.14890
 199.97736 194.90982 191.48628 189.52274 188.55420 188.61266 189.44212 190.74458
 192.46404 194.55350 196.81097 199.16443 201.60389 204.07835 206.16081 207.99727
 209.61773 210.75719 210.98065 211.20311 211.13457 210.83403 210.46149 210.08595
 209.69741 209.40187 209.20433 209.06279 208.98525 209.31071 209.69117 210.07463
 210.86209 212.03455 213.27901 215.05647 216.97893 219.01639 221.10585 223.18331
 225.23777 227.31623 229.40769 231.50815 233.63161 235.79807 238.04853 240.41299
 243.02845 245.27391 247.27037 249.02983 250.44129 251.55875 252.37521 252.68567
 252.71713 252.48559 251.84005 250.78251 249.38297 247.53844 245.44190 243.26936
 241.05482 238.85328 236.66774 234.50120 232.35566 230.21712 228.23758 226.38904
 224.66650 223.13296 221.75742 220.52388 219.40034 218.35480 217.45326 216.58872
 215.82518 214.99964 214.09210 213.45056 212.89502 212.73647 212.36185 212.08945
 212.59419 214.41272 216.15100 217.25252 218.67101 222.63443 228.59711 233.46121
 237.22386 240.99739 244.85985 248.78745 252.68019 255.65425 258.05353 260.60306
 263.32275 266.06168 268.57855 270.60150 272.35388 274.04111 275.74814 277.49963
 279.24673 280.90820 282.42978 283.78912 284.97205 286.02066 286.98141 287.85718
 288.65097 289.36270 289.99170 290.83157
 366.78100 356.32846 345.75393 334.61339 323.00986 311.19732 299.06079 286.85725
 274.56272 262.45318 250.45565 239.75011 229.86558 220.96304 213.13851 206.13397
 199.96144 194.89290 191.46836 189.50383 188.53429 188.59176 189.42022 190.72169
 192.44015 194.52862 196.78508 199.13755 201.57601 204.04948 206.13094 207.96641
 209.58587 210.72434 210.94680 211.16826 211.09873 210.79719 210.42366 210.04712
 209.65759 209.36105 209.16252 209.01998 208.94145 209.26591 209.64538 210.02784
 210.81431 211.98577 213.22924 215.00570 216.92717 218.96363 221.05209 223.12856
 225.18202 227.25949 229.34995 231.44942 233.57188 235.73735 237.98681 240.35028
 242.96474 245.20921 247.20467 248.96314 250.37360 251.49007 252.30553 252.61499
 252.64546 252.41292 251.76639 250.70785 249.30732 247.46178 245.36425 243.19071
 240.97518 238.77264 236.58611 234.41857 232.27204 230.13250 228.15197 226.30243
 224.57889 223.04436 221.66782 220.43329 219.30875 218.26222 217.35968 216.49415
 215.72961 214.90308 213.99454 213.35201 212.79547 212.68576 212.42653 212.22592
 212.72255 214.51071 216.21848 217.26900 218.67621 222.62682 228.54716 233.38571
 237.13957 240.92433 244.80780 248.73682 252.58272 255.53284 257.93314 260.49237
 263.17279 265.88895 268.41214 270.44092 272.21725 273.93237 275.65942 277.41833
 279.16541 280.83014 282.35483 283.71637 284.89893 285.94855 286.91049 287.78680
 288.58078 289.29361 289.92294 290.76520
 366.78100 356.32764 345.75229 334.61093 323.00657 311.19321 299.05586 286.85150
 274.55614 262.44579 250.44743 239.74107 229.85571 220.95236 213.12700 206.12164
 199.94829 194.87893 191.45357 189.48821 188.51786 188.57450 189.40214 190.70279
 192.42043 194.50807 196.76371 199.11536 201.55300 204.02564 206.10629 207.94093
 209.55957 210.69721 210.91886 211.13950 211.06914 210.76679 210.39243 210.01507
 209.62471 209.32736 209.12800 208.98464 208.90529 209.22893 209.60757 209.98922
 210.77486 211.94550 213.18814 214.96379 216.88443 218.92007 221.00772 223.08336
 225.13600 227.21264 229.30229 231.40093 233.52257 235.68722 237.93586 240.29850
 242.91214 245.15579 247.15043 248.90807 250.31772 251.43336 252.24800 252.55664
 252.58629 252.35293 251.70557 250.64622 249.24486 247.39850 245.30014 243.12579
 240.90943 238.70607 236.51872 234.35036 232.20300 230.06264 228.08129 226.23093
 224.50657 222.97122 221.59386 220.35850 219.23314 218.18579 217.28243 216.41607
 215.65072 214.82336 213.91400 213.27064 212.71329 212.64529 212.48468 212.35260
 212.84970 214.62555 216.28569 217.27867 218.71936 222.63045 228.49362 233.30934
 237.05750 240.85431 244.75916 248.68645 252.47318 255.40013 257.81161 260.38202
 263.02219 265.70953 268.23230 270.27301 272.08179 273.83340 275.57867 277.34308
 279.09012 280.75784 282.28839 283.64972 284.83292 285.88400 286.84537 287.72308
 288.51749 289.23111 289.85928 290.70667
 366.78100 356.32715 345.75130 334.60946 323.00461 311.19076 299.05291 286.84807
 274.55222 262.44137 250.44252 239.73567 229.84983 220.94598 213.12013 206.11428
 199.94043 194.87059 191.44474 189.47889 188.50804 188.56420 189.39135 190.69150
 192.40865 194.49580 196.75096 199.10211 201.53926 204.01141 206.09156 207.92572
 209.54387 210.68102 210.90217 211.12233 211.05148 210.74863 210.37378 209.99593
 209.60509 209.30724 209.10739 208.96354 208.88369 209.20685 209.58500 209.96615
 210.75130 211.92146 213.16361 214.93876 216.85891 218.89406 220.98122 223.05637
 225.10852 227.18467 229.27382 231.37198 233.49313 235.65728 237.90543 240.26759
 242.88074 245.12389 247.11804 248.87519 250.28435 251.39950 252.21365 252.52180
 252.55095 252.31711 251.66926 250.60941 249.20756 247.36072 245.26187 243.08702
 240.87017 238.66632 236.47848 234.30963 232.16178 230.02093 228.03908 226.18824
 224.46339 222.92754 221.54969 220.31385 219.18800 218.14015 217.23630 216.36945
 215.60361 214.77576 213.86591 213.22206 212.66422 212.62326 212.52652 212.47560
 212.98216 214.73111 216.37077 217.30614 218.75294 222.64551 228.45505 233.23643
 236.97305 240.78194 244.70860 248.63315 252.34898 255.25264 257.68503 260.26987
 262.87048 265.52533 268.04443 270.10184 271.95538 273.74911 275.50940 277.27399
 279.02155 280.69031 282.22531 283.58841 284.77142 285.82278 286.78656 287.66495
 288.45941 289.17459 289.80438 290.65292
 366.78100 356.32672 345.75045 334.60817 323.00290 311.18862 299.05035 286.84507
 274.54880 262.43752 250.43825 239.73097 229.84470 220.94042 213.11415 206.10787
 199.93360 194.86332 191.43705 189.47077 188.49950 188.55522 189.38195 190.68167
 192.39840 194.48512 196.73985 199.09057 201.52730 203.99902 206.07875 207.91247
 209.53020 210.66692 210.88765 211.10737 211.03610 210.73282 210.35755 209.97927
 209.58800 209.28972 209.08945 208.94517 208.86490 209.18762 209.56535 209.94607
 210.73080 211.90052 213.14225 214.91697 216.83670 218.87142 220.95814 223.03287
 225.08459 227.16032 229.24904 231.34677 233.46749 235.63122 237.87894 240.24067
 242.85339 245.09612 247.08984 248.84657 250.25529 251.37002 252.18374 252.49147
 252.52019 252.28592 251.63764 250.57737 249.17509 247.32782 245.22854 243.05327
 240.83599 238.63172 236.44344 234.27417 232.12589 229.98462 228.00234 226.15107
 224.42579 222.88952 221.51124 220.27497 219.14869 218.10042 217.19614 216.32887
 215.56259 214.73432 213.82404 213.17977 212.62149 212.60741 212.57413 212.57350
 213.12326 214.86528 216.42274 217.33360 218.84579 222.66277 228.40274 233.14833
 236.87956 240.70718 244.66014 248.58064 252.21669 255.09602 257.55536 260.15558
 262.71979 265.33945 267.85092 269.93231 271.83905 273.68179 275.45319 277.20834
 278.95447 280.62781 282.16736 283.53058 284.71625 285.76712 286.72992 287.60883
 288.40607 289.12146 289.75208 290.60339
 366.78100 356.32629 345.74958 334.60687 323.00116 311.18644 299.04773 286.84202
 274.54531 262.43360 250.43389 239.72618 229.83947 220.93475 213.10804 206.10133
 199.92662 194.85591 191.42920 189.46249 188.49078 188.54606 189.37235 190.67164
 192.38793 194.47422 196.72851 199.07880 201.51509 203.98638 206.06566 207.89895
 209.51624 210.65253 210.87282 211.09211 211.02040 210.71669 210.34097 209.96226
 209.57055 209.27184 209.07113 208.92642 208.84571 209.16800 209.54529 209.92557
 210.70986 211.87915 213.12044 214.89473 216.81402 218.84831 220.93460 223.00888
 225.06017 227.13546 229.22375 231.32104 233.44133 235.60462 237.85191 240.21319
 242.82548 245.06777 247.06106 248.81735 250.22564 251.33993 252.15322 252.46051
 252.48879 252.25408 251.60537 250.54466 249.14195 247.29424 245.19453 243.01882
 240.80110 238.59639 236.40768 234.23797 232.08926 229.94755 227.96484 226.11313
 224.38742 222.85070 221.47199 220.23528 219.10857 218.05986 217.15515 216.28744
 215.52073 214.69201 213.78130 213.13659 212.57788 212.59398 212.63197 212.66655
 213.22188 215.00598 216.57124 217.34679 218.85600 222.67482 228.36623 233.07280
 236.79607 240.64029 244.61703 248.52734 252.07570 254.93054 257.42313 260.04242
 262.57584 265.15619 267.65567 269.76303 271.72766 273.62256 275.40506 277.14706
 278.88477 280.56995 282.11166 283.47607 284.66077 285.71298 286.67746 287.55688
 288.35428 289.06985 289.70224 290.55664
 366.78100 356.32670 345.75039 334.60809 323.00279 311.18848 299.05018 286.84488
 274.54857 262.43727 250.43797 239.73066 229.84436 220.94005 213.11375 206.10745
 199.93314 194.86284 191.43654 189.47023 188.49893 188.55463 189.38132 190.68102
 192.39772 194.48441 196.73911 199.08981 201.52650 203.99820 206.07790 207.91159
 209.52929 210.66599 210.88668 211.10638 211.03507 210.73177 210.35647 209.97816
 209.58686 209.28856 209.08825 208.94395 208.86365 209.18634 209.56404 209.94474
 210.72943 211.89913 213.14083 214.91552 216.83522 218.86992 220.95661 223.03131
 225.08301 227.15870 229.24740 231.34509 233.46579 235.62949 237.87718 240.23888
 242.85158 245.09427 247.08797 248.84467 250.25336 251.36806 252.18176 252.48945
 252.51815 252.28385 251.63554 250.57524 249.17294 247.32563 245.22633 243.05103
 240.83372 238.62942 236.44111 234.27181 232.12351 229.98220 227.99990 226.14860
 224.42329 222.88699 221.50869 220.27238 219.14608 218.09778 217.19347 216.32617
 215.55987 214.73156 213.82126 213.17696 212.61865 212.62915 212.65395 212.76921
 213.31233 215.06384 216.74318 217.46535 218.91342 222.68642 228.31804 232.98495
 236.69972 240.56175 244.56398 248.46429 251.92476 254.76056 257.29492 259.93561
 262.44263 264.97971 267.45917 269.59177 271.61343 273.56479 275.35696 277.08704
 278.81757 280.51660 282.06070 283.42612 284.61139 285.66501 286.62967 287.50830
 288.30908 289.02423 289.65622 290.51428
 366.78100 356.32736 345.75172 334.61008 323.00544 311.19180 299.05416 286.84953
 274.55389 262.44325 250.44461 239.73797 229.85233 220.94869 213.12305 206.11741
 199.94377 194.87413 191.44849 189.48285 188.51221 188.56858 189.39594 190.69630
 192.41366 194.50102 196.75638 199.10774 201.54510 204.01746 206.09782 207.93218
 209.55054 210.68790 210.90927 211.12963 211.05899 210.75635 210.38171 210.00407
 209.61343 209.31579 209.11615 208.97251 208.89287 209.21623 209.59459 209.97595
 210.76132 211.93168 213.17404 214.94940 216.86976 218.90512 220.99248 223.06784
 225.12020 227.19656 229.28592 231.38428 233.50564 235.67001 237.91837 240.28073
 242.89409 245.13745 247.13181 248.88917 250.29853 251.41389 252.22825 252.53661
 252.56597 252.33233 251.68469 250.62506 249.22342 247.37678 245.27814 243.10350
 240.88686 238.68322 236.49558 234.32694 232.17930 230.03866 228.05702 226.20638
 224.48174 222.94611 221.56847 220.33283 219.20719 218.15955 217.25591 216.38927
 215.62363 214.79599 213.88635 213.24271 212.68507 212.67900 212.66466 212.86401
 213.43170 215.11200 216.85751 217.58907 219.00717 222.69728 228.26765 232.89638
 236.60564 240.49065 244.51910 248.40866 251.78015 254.59427 257.16779 259.82681
 262.30890 264.80026 267.25696 269.41565 271.50092 273.51385 275.31851 277.03561
 278.75452 280.46524 282.01126 283.37692 284.56268 285.61624 286.58295 287.46326
 288.26154 288.97885 289.61188 290.46976
 366.78100 356.32751 345.75203 334.61054 323.00606 311.19257 299.05509 286.85060
 274.55512 262.44463 250.44615 239.73966 229.85418 220.95069 213.12521 206.11972
 199.94624 194.87675 191.45127 189.48578 188.51530 188.57181 189.39933 190.69984
 192.41736 194.50487 196.76039 199.11190 201.54942 204.02193 206.10245 207.93696
 209.55548 210.69299 210.91450 211.13502 211.06453 210.76205 210.38756 210.01008
 209.61959 209.32211 209.12262 208.97914 208.89965 209.22317 209.60168 209.98320
 210.76871 211.93923 213.18174 214.95726 216.87777 218.91329 221.00080 223.07632
 225.12883 227.20535 229.29486 231.39338 233.51489 235.67941 237.92792 240.29044
 242.90395 245.14747 247.14198 248.89950 250.30901 251.42452 252.23904 252.54755
 252.57707 252.34358 251.69610 250.63661 249.23513 247.38864 245.29016 243.11567
 240.89919 238.69570 236.50822 234.33973 232.19225 230.05176 228.07028 226.21979
 224.49531 222.95982 221.58234 220.34685 219.22137 218.17388 217.27040 216.40391
 215.63843 214.81094 213.90146 213.25797 212.70049 212.70988 212.73210 212.86346
 213.56108 215.24167 216.93352 217.69348 219.11993 222.69769 228.22545 232.82080
 236.52774 240.43706 244.48701 248.35852 251.63423 254.41707 257.02502 259.70142
 262.16437 264.61533 267.05014 269.24225 271.39487 273.47348 275.29337 277.00021
 278.70410 280.41360 281.95932 283.32562 284.51147 285.56516 286.53299 287.41364
 288.21243 288.93137 289.56558 290.42532
 366.78100 356.32784 345.75268 334.61152 323.00736 311.19421 299.05705 286.85289
 274.55773 262.44757 250.44941 239.74325 229.85809 220.95493 213.12978 206.12462
 199.95146 194.88230 191.45714 189.49198 188.52182 188.57866 189.40650 190.70734
 192.42519 194.51303 196.76887 199.12071 201.55855 204.03139 206.11223 207.94707
 209.56591 210.70376 210.92560 211.14644 211.07628 210.77412 210.39996 210.02280
 209.63264 209.33548 209.13633 208.99317 208.91401 209.23785 209.61669 209.99853
 210.78437 211.95521 213.19805 214.97390 216.89474 218.93058 221.01842 223.09426
 225.14710 227.22394 229.31378 231.41262 233.53447 235.69931 237.94815 240.31099
 242.92483 245.16867 247.16351 248.92135 250.33119 251.44703 252.26188 252.57072
 252.60056 252.36740 251.72024 250.66108 249.25992 247.41376 245.31560 243.14145
 240.92529 238.72213 236.53497 234.36681 232.21965 230.07949 228.09833 226.24817
 224.52402 222.98886 221.61170 220.37654 219.25138 218.20422 217.30106 216.43490
 215.66974 214.84259 213.93343 213.29027 212.73311 212.74707 212.78006 212.90616
 213.69737 215.34030 216.98201 217.79700 219.24586 222.70984 228.19411 232.76366
 236.46555 240.39400 244.45526 248.29771 251.47368 254.22075 256.86469 259.56326
 262.01651 264.43423 266.85068 269.07895 271.29660 273.43683 275.27011 276.96640
 278.65302 280.36307 281.90894 283.27640 284.46313 285.51852 286.48404 287.36639
 288.16626 288.88580 289.51962 290.38290
 366.78100 356.32816 345.75332 334.61248 323.00864 311.19580 299.05896 286.85512
 274.56028 262.45044 250.45260 239.74676 229.86192 220.95908 213.13424 206.12940
 199.95656 194.88772 191.46288 189.49804 188.52820 188.58536 189.41352 190.71468
 192.43284 194.52100 196.77716 199.12932 201.56748 204.04064 206.12180 207.95696
 209.57612 210.71428 210.93644 211.15760 211.08776 210.78592 210.41208 210.03524
 209.64540 209.34856 209.14972 209.00688 208.92804 209.25220 209.63136 210.01352
 210.79968 211.97084 213.21400 214.99016 216.91132 218.94748 221.03564 223.11180
 225.16496 227.24212 229.33228 231.43144 233.55360 235.71876 237.96792 240.33108
 242.94524 245.18940 247.18456 248.94272 250.35288 251.46904 252.28420 252.59336
 252.62352 252.39068 251.74384 250.68500 249.28416 247.43832 245.34048 243.16664
 240.95080 238.74796 236.56112 234.39328 232.24644 230.10660 228.12576 226.27592
 224.55208 223.01724 221.64040 220.40556 219.28072 218.23388 217.33104 216.46520
 215.70036 214.87352 213.96468 213.32184 212.76500 212.78455 212.83073 212.96024
 213.81743 215.42740 217.02161 217.91414 219.38293 222.72978 228.17307 232.72083
 236.41043 240.34856 244.41098 248.21786 251.29539 254.01024 256.69464 259.42068
 261.87299 264.26508 266.66559 268.93079 271.20886 273.40399 275.24670 276.93570
 278.60938 280.31387 281.86032 283.22723 284.41388 285.46967 286.43597 287.31912
 288.11960 288.83841 289.47369 290.33871
 366.78100 356.32871 345.75442 334.61414 323.01085 311.19856 299.06227 286.85899
 274.56470 262.45541 250.45812 239.75284 229.86855 220.96626 213.14197 206.13769
 199.96540 194.89711 191.47282 189.50853 188.53925 188.59696 189.42567 190.72738
 192.44610 194.53481 196.79152 199.14423 201.58295 204.05666 206.13837 207.97408
 209.59380 210.73251 210.95522 211.17693 211.10765 210.80636 210.43307 210.05678
 209.66749 209.37121 209.17292 209.03063 208.95234 209.27706 209.65677 210.03948
 210.82619 211.99791 213.24162 215.01833 216.94004 218.97676 221.06547 223.14218
 225.19589 227.27360 229.36432 231.46403 233.58674 235.75245 238.00217 240.36588
 242.98059 245.22530 247.22102 248.97973 250.39044 251.50715 252.32287 252.63258
 252.66329 252.43100 251.78471 250.72643 249.32614 247.48085 245.38356 243.21028
 240.99499 238.79270 236.60641 234.43913 232.29284 230.15355 228.17326 226.32398
 224.60069 223.06640 221.69011 220.45582 219.33154 218.28525 217.38296 216.51767
 215.75339 214.92710 214.01881 213.37652 212.82024 212.83553 212.87163 213.01140
 213.94196 215.52652 217.06110 218.04111 219.53294 222.75256 228.15739 232.67848
 236.34874 240.29204 244.34877 248.11600 251.10118 253.78760 256.51413 259.27148
 261.73297 264.10965 266.50049 268.80499 271.13684 273.37747 275.22952 276.91022
 278.57703 280.26593 281.81281 283.17889 284.36661 285.42343 286.39059 287.27383
 288.07379 288.79312 289.42801 290.29529
 366.78100 356.32951 345.75603 334.61654 323.01406 311.20257 299.06709 286.86460
 274.57112 262.46263 250.46615 239.76166 229.87818 220.97669 213.15321 206.14972
 199.97824 194.91075 191.48727 189.52378 188.55530 188.61381 189.44333 190.74584
 192.46536 194.55487 196.81239 199.16590 201.60542 204.07993 206.16245 207.99896
 209.61948 210.75899 210.98251 211.20502 211.13654 210.83605 210.46357 210.08808
 209.69960 209.40411 209.20663 209.06514 208.98766 209.31317 209.69369 210.07720
 210.86472 212.03723 213.28175 215.05926 216.98178 219.01929 221.10881 223.18632
 225.24084 227.31935 229.41087 231.51138 233.63490 235.80141 238.05193 240.41644
 243.03196 245.27747 247.27399 249.03350 250.44502 251.56253 252.37905 252.68956
 252.72108 252.48959 251.84411 250.78662 249.38714 247.54265 245.44617 243.27368
 241.05920 238.85771 236.67223 234.50574 232.36026 230.22177 228.24229 226.39380
 224.67132 223.13783 221.76235 220.52886 219.40538 218.35989 217.45841 216.59392
 215.83044 215.00495 214.09747 213.45598 212.90050 212.90100 212.90219 213.05347
 214.07077 215.63742 217.11172 218.17679 219.69392 222.77567 228.14301 232.62633
 236.27783 240.22604 244.27332 247.99518 250.89397 253.55396 256.32065 259.11163
 261.59210 263.96451 266.35547 268.70193 271.08203 273.36279 275.22714 276.90018
 278.57263 280.21658 281.75903 283.12662 284.31494 285.37106 286.33887 287.22192
 288.02441 288.74121 289.37830 290.24438
 366.78100 356.33040 345.75781 334.61921 323.01761 311.20702 299.07242 286.87082
 274.57823 262.47063 250.47503 239.77144 229.88884 220.98825 213.16565 206.16305
 199.99246 194.92586 191.50326 189.54067 188.57307 188.63247 189.46288 190.76628
 192.48668 194.57709 196.83549 199.18989 201.63030 204.10570 206.18910 208.02651
 209.64791 210.78832 211.01272 211.23612 211.16853 210.86893 210.49733 210.12274
 209.73514 209.44054 209.24395 209.10335 209.02675 209.35316 209.73456 210.11896
 210.90737 212.08077 213.32617 215.10458 217.02798 219.06639 221.15679 223.23519
 225.29060 227.37000 229.46240 231.56381 233.68821 235.85561 238.10702 240.47242
 243.08882 245.33523 247.33263 249.09303 250.50544 251.62384 252.44124 252.75265
 252.78505 252.55446 251.90986 250.85326 249.45467 247.61107 245.51547 243.34388
 241.13028 238.92968 236.74509 234.57949 232.43489 230.29730 228.31870 226.47110
 224.74951 223.21691 221.84231 220.60972 219.48712 218.44252 217.54193 216.67833
 215.91574 215.09114 214.18454 213.54395 212.98935 212.97215 212.93153 213.08875
 214.19594 215.74718 217.17743 218.32568 219.86673 222.80392 228.13116 232.56931
 236.20517 240.15874 244.18811 247.85690 250.67421 253.30983 256.11185 258.93661
 261.44519 263.82812 266.23123 268.62274 271.04425 273.35623 275.23166 276.89609
 278.56921 280.17065 281.70953 283.07755 284.26608 285.32233 286.29041 287.17169
 287.97504 288.69354 289.32861 290.19940
 366.78100 356.33133 345.75967 334.62200 323.02133 311.21167 299.07800 286.87733
 274.58567 262.47900 250.48433 239.78167 229.90000 221.00033 213.17867 206.17700
 200.00733 194.94167 191.52000 189.55833 188.59167 188.65200 189.48333 190.78767
 192.50900 194.60033 196.85967 199.21500 201.65633 204.13267 206.21700 208.05533
 209.67767 210.81900 211.04433 211.26867 211.20200 210.90333 210.53267 210.15900
 209.77233 209.47867 209.28300 209.14333 209.06767 209.39500 209.77733 210.16267
 210.95200 212.12633 213.37267 215.15200 217.07633 219.11567 221.20700 223.28634
 225.34267 227.42300 229.51634 231.61867 233.74400 235.91234 238.16467 240.53100
 243.14834 245.39567 247.39400 249.15534 250.56867 251.68800 252.50634 252.81867
 252.85200 252.62234 251.97867 250.92300 249.52534 247.68267 245.58800 243.41734
 241.20467 239.00500 236.82134 234.65667 232.51300 230.37634 228.39867 226.55200
 224.83134 223.29967 221.92600 220.69434 219.57267 218.52900 217.62934 216.76667
 216.00500 215.18134 214.27567 213.63600 213.08234 213.04619 212.96078 213.12250
 214.31602 215.84721 217.24855 218.48636 220.05208 222.84920 228.12263 232.52235
 236.14296 240.09824 244.09590 247.69719 250.43491 253.05026 255.88431 258.74225
 261.28812 263.69760 266.12628 268.56482 271.02133 273.35287 275.23318 276.88904
 278.55103 280.14630 281.68701 283.05746 284.24759 285.30624 286.27707 287.16385
 287.97379 288.70157 289.34232 290.21118
 366.78100 356.33225 345.76150 334.62475 323.02500 311.21625 299.08350 286.88374
 274.59299 262.48724 250.49349 239.79174 229.91099 221.01224 213.19149 206.19074
 200.02199 194.95724 191.53649 189.57573 188.60998 188.67123 189.50348 190.80873
 192.53098 194.62323 196.88348 199.23973 201.68198 204.15923 206.24448 208.08373
 209.70697 210.84922 211.07547 211.30072 211.23497 210.93722 210.56747 210.19472
 209.80897 209.51622 209.32147 209.18272 209.10796 209.43621 209.81946 210.20571
 210.99596 212.17121 213.41846 215.19871 217.12396 219.16421 221.25646 223.33671
 225.39396 227.47520 229.56945 231.67270 233.79895 235.96820 238.22145 240.58870
 243.20695 245.45520 247.45445 249.21670 250.63095 251.75119 252.57044 252.88369
 252.91794 252.68919 252.04644 250.99169 249.59494 247.75319 245.65944 243.48969
 241.27794 239.07918 236.89643 234.73268 232.58993 230.45418 228.47743 226.63168
 224.91193 223.38118 222.00843 220.77768 219.65693 218.61418 217.71542 216.85367
 216.09292 215.27017 214.36542 213.72667 213.17392 213.11946 212.99078 213.15985
 214.42801 215.93781 217.31523 218.64543 220.25211 222.91991 228.11861 232.49538
 236.09535 240.04678 243.99640 247.51459 250.17706 252.77673 255.63919 258.52887
 261.12018 263.57236 266.04053 268.52679 271.01248 273.35818 275.24292 276.89169
 278.54535 280.12680 281.66611 283.03732 284.22787 285.28827 286.26065 287.14886
 287.96014 288.68839 289.32974 290.19931
 366.78100 356.33312 345.76324 334.62736 323.02848 311.22060 299.08872 286.88985
 274.59997 262.49509 250.50221 239.80133 229.92145 221.02357 213.20369 206.20381
 200.03593 194.97205 191.55217 189.59229 188.62742 188.68954 189.52266 190.82878
 192.55190 194.64502 196.90614 199.26326 201.70638 204.18450 206.27062 208.11074
 209.73486 210.87799 211.10511 211.33123 211.26635 210.96947 210.60059 210.22871
 209.84383 209.55195 209.35807 209.22019 209.14631 209.47544 209.85956 210.24668
 211.03780 212.21392 213.46204 215.24316 217.16928 219.21040 221.30352 223.38464
 225.44276 227.52488 229.62001 231.72413 233.85125 236.02137 238.27549 240.64361
 243.26273 245.51185 247.51197 249.27509 250.69021 251.81133 252.63145 252.94558
 252.98070 252.75282 252.11094 251.05706 249.66118 247.82030 245.72742 243.55854
 241.34766 239.14978 236.96790 234.80502 232.66315 230.52827 228.55239 226.70751
 224.98863 223.45875 222.08687 220.85699 219.73711 218.69523 217.79735 216.93647
 216.17659 215.35472 214.45084 213.81296 213.26108 213.18936 213.01991 213.21011
 214.52835 216.01675 217.38315 218.79330 220.44968 223.01866 228.11787 232.48976
 236.06688 240.00630 243.89401 247.31427 249.90791 252.49323 255.37943 258.30069
 260.94583 263.45569 265.97110 268.50345 271.01303 273.36508 275.25317 276.89658
 278.54984 280.10577 281.64401 283.01425 284.20786 285.26727 286.23904 287.12708
 287.93921 288.66891 289.31198 290.17538
 366.78100 356.33371 345.76443 334.62914 323.03086 311.22357 299.09229 286.89400
 274.60472 262.50043 250.50815 239.80786 229.92858 221.03129 213.21201 206.21272
 200.04544 194.98215 191.56287 189.60358 188.63930 188.70201 189.53573 190.84244
 192.56616 194.65987 196.92159 199.27930 201.72302 204.20173 206.28845 208.12916
 209.75388 210.89759 211.12531 211.35202 211.28774 210.99145 210.62317 210.25188
 209.86760 209.57631 209.38303 209.24574 209.17246 209.50217 209.88689 210.27460
 211.06632 212.24303 213.49175 215.27346 217.20018 219.24189 221.33561 223.41732
 225.47604 227.55875 229.65447 231.75918 233.88690 236.05761 238.31233 240.68104
 243.30076 245.55047 247.55119 249.31490 250.73062 251.85233 252.67305 252.98776
 253.02348 252.79619 252.15491 251.10162 249.70634 247.86605 245.77377 243.60548
 241.39520 239.19791 237.01663 234.85434 232.71306 230.57877 228.60349 226.75920
 225.04092 223.51163 222.14035 220.91106 219.79178 218.75049 217.85321 216.99292
 216.23364 215.41235 214.50907 213.87178 213.32050 213.24342 213.06131 213.26125
 214.62640 216.10487 217.43886 218.92087 220.64874 223.12302 228.12610 232.50439
 236.05415 239.97363 243.78767 247.09953 249.63345 252.20656 255.11301 258.06537
 260.77094 263.34641 265.91315 268.48798 271.01630 273.36792 275.25223 276.89413
 278.55078 280.08911 281.62589 282.99808 284.19089 285.25110 286.22351 287.11224
 287.92401 288.65359 289.29788 290.15665
 366.78100 356.33456 345.76612 334.63168 323.03424 311.22781 299.09737 286.89993
 274.61149 262.50805 250.51661 239.81717 229.93873 221.04230 213.22386 206.22542
 200.05898 194.99654 191.57810 189.61966 188.65622 188.71979 189.55435 190.86191
 192.58647 194.68103 196.94359 199.30215 201.74671 204.22628 206.31384 208.15540
 209.78096 210.92552 211.15408 211.38164 211.31820 211.02276 210.65533 210.28489
 209.90145 209.61101 209.41857 209.28213 209.20969 209.54025 209.92582 210.31438
 211.10694 212.28450 213.53406 215.31662 217.24418 219.28674 221.38131 223.46387
 225.52343 227.60699 229.70355 231.80911 233.93767 236.10923 238.36479 240.73436
 243.35492 245.60548 247.60704 249.37160 250.78816 251.91072 252.73228 253.04785
 253.08441 252.85797 252.21753 251.16509 249.77065 247.93121 245.83977 243.67234
 241.46290 239.26646 237.08602 234.92458 232.78414 230.65070 228.67626 226.83283
 225.11539 223.58695 222.21651 220.98807 219.86963 218.82919 217.93275 217.07331
 216.31488 215.49444 214.59200 213.95556 213.40512 213.30608 213.07205 213.35182
 214.71724 216.18439 217.52104 219.03392 220.81206 223.23373 228.13776 232.51942
 236.05272 239.94965 243.68562 246.88376 249.36362 251.92213 254.84184 257.82104
 260.58987 263.23602 265.85770 268.47580 271.02090 273.36823 275.24670 276.88934
 278.55084 280.07446 281.61075 282.98334 284.17615 285.23526 286.20737 287.09555
 287.90637 288.63916 289.27728 290.13754
 366.78100 356.33486 345.76673 334.63259 323.03546 311.22932 299.09919 286.90205
 274.61392 262.51078 250.51965 239.82051 229.94238 221.04624 213.22811 206.22997
 200.06384 195.00170 191.58357 189.62543 188.66230 188.72616 189.56103 190.86889
 192.59376 194.68862 196.95149 199.31035 201.75522 204.23508 206.32295 208.16481
 209.79068 210.93554 211.16441 211.39227 211.32913 211.03400 210.66686 210.29673
 209.91359 209.62346 209.43132 209.29519 209.22305 209.55392 209.93978 210.32865
 211.12151 212.29938 213.54924 215.33211 217.25997 219.30284 221.39770 223.48057
 225.54043 227.62430 229.72116 231.82703 233.95589 236.12776 238.38362 240.75349
 243.37435 245.62522 247.62708 249.39195 250.80881 251.93168 252.75354 253.06940
 253.10627 252.88013 252.24000 251.18786 249.79373 247.95459 245.86346 243.69632
 241.48719 239.29105 237.11092 234.94978 232.80965 230.67651 228.70238 226.85924
 225.14211 223.61397 222.24384 221.01570 219.89757 218.85743 217.96130 217.10216
 216.34403 215.52389 214.62176 213.98562 213.43549 213.33420 213.09489 213.41812
 214.91652 216.26921 217.49962 219.12103 221.00241 223.32443 228.16893 232.56032
 236.07474 239.94278 243.59241 246.66577 249.08464 251.62306 254.55206 257.55795
 260.39697 263.12488 265.80954 268.47275 271.03223 273.37167 275.23959 276.88040
 278.54614 280.05722 281.59482 282.96707 284.15955 285.21954 286.18967 287.07883
 287.89026 288.62204 289.26260 290.11383
 366.78100 356.33490 345.76680 334.63271 323.03561 311.22951 299.09941 286.90232
 274.61422 262.51112 250.52002 239.82093 229.94283 221.04673 213.22863 206.23054
 200.06444 195.00234 191.58424 189.62615 188.66305 188.72695 189.56185 190.86976
 192.59466 194.68956 196.95246 199.31136 201.75627 204.23617 206.32407 208.16597
 209.79188 210.93678 211.16568 211.39358 211.33049 211.03539 210.66829 210.29819
 209.91510 209.62500 209.43290 209.29680 209.22471 209.55561 209.94151 210.33041
 211.12331 212.30122 213.55112 215.33402 217.26192 219.30483 221.39973 223.48263
 225.54253 227.62644 229.72334 231.82924 233.95814 236.13005 238.38595 240.75585
 243.37675 245.62766 247.62956 249.39446 250.81136 251.93427 252.75617 253.07207
 253.10897 252.88287 252.24278 251.19068 249.79658 247.95748 245.86639 243.69929
 241.49019 239.29409 237.11400 234.95290 232.81280 230.67970 228.70561 226.86251
 225.14541 223.61731 222.24722 221.01912 219.90102 218.86092 217.96483 217.10573
 216.34763 215.52753 214.62543 213.98934 213.43924 213.33057 213.07381 213.65685
 215.07051 216.24042 217.45880 219.16869 221.18808 223.54257 228.22238 232.59076
 236.09944 239.93709 243.49098 246.42812 248.77934 251.30362 254.25034 257.29233
 260.21246 263.03110 265.78012 268.48282 271.04959 273.37283 275.22739 276.86649
 278.53549 280.03809 281.57452 282.94547 284.13712 285.19443 286.16278 287.04999
 287.86313 288.59415 289.23434 290.08240
 366.78100 356.33441 345.76582 334.63122 323.03363 311.22704 299.09645 286.89885
 274.61026 262.50667 250.51508 239.81548 229.93689 221.04030 213.22171 206.22311
 200.05652 194.99393 191.57534 189.61674 188.65315 188.71656 189.55097 190.85837
 192.58278 194.67719 196.93960 199.29800 201.74241 204.22182 206.30923 208.15063
 209.77604 210.92045 211.14886 211.37626 211.31267 211.01708 210.64949 210.27889
 209.89530 209.60471 209.41212 209.27552 209.20293 209.53334 209.91875 210.30715
 211.09956 212.27697 213.52638 215.30879 217.23619 219.27860 221.37301 223.45542
 225.51482 227.59823 229.69464 231.80005 233.92845 236.09986 238.35527 240.72468
 243.34508 245.59549 247.59690 249.36131 250.77771 251.90012 252.72153 253.03694
 253.07334 252.84675 252.20616 251.15357 249.75897 247.91938 245.82779 243.66020
 241.45060 239.25401 237.07342 234.91183 232.77123 230.63764 228.66305 226.81946
 225.10186 223.57327 222.20268 220.97409 219.85549 218.81490 217.91831 217.05872
 216.30013 215.47953 214.57694 213.94035 213.38976 213.31284 213.13109 213.79155
 215.11618 216.30482 217.49287 219.22185 221.34930 223.77014 228.27888 232.60992
 236.11574 239.92291 243.37646 246.17764 248.46910 250.99002 253.96049 257.04428
 260.04837 262.95245 265.75778 268.49274 271.06104 273.36578 275.20816 276.84589
 278.51788 280.02512 281.54706 282.91251 284.09943 285.15594 286.12201 287.00714
 287.81885 288.54977 289.18906 290.02997
 366.78100 356.33457 345.76614 334.63171 323.03428 311.22785 299.09742 286.89999
 274.61156 262.50813 250.51670 239.81727 229.93884 221.04241 213.22398 206.22555
 200.05912 194.99669 191.57826 189.61983 188.65640 188.71996 189.55453 190.86210
 192.58667 194.68124 196.94381 199.30238 201.74695 204.22652 206.31409 208.15566
 209.78123 210.92580 211.15437 211.38194 211.31851 211.02308 210.65565 210.28522
 209.90179 209.61136 209.41893 209.28250 209.21007 209.54064 209.92621 210.31478
 211.10735 212.28492 213.53449 215.31706 217.24463 219.28720 221.38177 223.46434
 225.52391 227.60748 229.70405 231.80962 233.93819 236.10975 238.36532 240.73489
 243.35546 245.60603 247.60760 249.37217 250.78874 251.91131 252.73288 253.04845
 253.08502 252.85859 252.21816 251.16573 249.77130 247.93187 245.84044 243.67301
 241.46358 239.26715 237.08672 234.92529 232.78486 230.65143 228.67700 226.83357
 225.11614 223.58771 222.21728 220.98885 219.87042 218.82999 217.93356 217.07413
 216.31570 215.49527 214.59284 213.95641 213.40598 213.33575 213.16988 213.90375
 215.17061 216.37054 217.55753 219.29568 221.47610 223.96609 228.33078 232.62587
 236.12679 239.90379 243.26004 245.92944 248.16890 250.69464 253.69075 256.81512
 259.89612 262.87506 265.72882 268.49384 271.06363 273.34940 275.17810 276.81500
 278.48883 279.99429 281.51242 282.87662 284.06207 285.11517 286.07950 286.96039
 287.76898 288.49429 289.11765 289.94080
 366.78100 356.33513 345.76726 334.63340 323.03653 311.23066 299.10079 286.90393
 274.61606 262.51319 250.52232 239.82346 229.94559 221.04972 213.23185 206.23399
 200.06812 195.00625 191.58838 189.63051 188.66765 188.73178 189.56691 190.87504
 192.60018 194.69531 196.95844 199.31757 201.76271 204.24284 206.33097 208.17310
 209.79924 210.94437 211.17350 211.40163 211.33876 211.04390 210.67703 210.30716
 209.92429 209.63443 209.44256 209.30669 209.23482 209.56596 209.95209 210.34122
 211.13435 212.31248 213.56262 215.34575 217.27388 219.31701 221.41215 223.49528
 225.55541 227.63954 229.73668 231.84281 233.97194 236.14407 238.40021 240.77034
 243.39147 245.64260 247.64473 249.40987 250.82700 251.95013 252.77226 253.08840
 253.12553 252.89966 252.25979 251.20793 249.81406 247.97519 245.88432 243.71746
 241.50859 239.31272 237.13285 234.97198 232.83212 230.69925 228.72538 226.88251
 225.16565 223.63778 222.26791 221.04004 219.92218 218.88231 217.98644 217.12757
 216.36971 215.54984 214.64797 214.01210 213.46223 213.38339 213.19713 214.00006
 215.26418 216.40881 217.62497 219.38997 221.57803 224.12868 228.37276 232.63879
 236.13553 239.88283 243.14230 245.68765 247.88158 250.41528 253.43677 256.59805
 259.74762 262.79498 265.69656 268.49207 271.06131 273.32599 275.13803 276.77454
 278.44717 279.95599 281.47754 282.84125 284.02628 285.07822 286.04022 286.92188
 287.72794 288.45187 289.07095 289.88611
 366.78100 356.33519 345.76738 334.63358 323.03677 311.23096 299.10115 286.90434
 274.61654 262.51373 250.52292 239.82411 229.94630 221.05050 213.23269 206.23488
 200.06907 195.00726 191.58946 189.63165 188.66884 188.73303 189.56822 190.87642
 192.60161 194.69680 196.95999 199.31918 201.76438 204.24457 206.33276 208.17495
 209.80114 210.94634 211.17553 211.40372 211.34091 211.04610 210.67930 210.30949
 209.92668 209.63687 209.44506 209.30926 209.23745 209.56864 209.95483 210.34402
 211.13722 212.31541 213.56560 215.34879 217.27698 219.32018 221.41537 223.49856
 225.55875 227.64294 229.74014 231.84633 233.97552 236.14771 238.40390 240.77410
 243.39529 245.64648 247.64867 249.41386 250.83106 251.95425 252.77644 253.09263
 253.12982 252.90402 252.26421 251.21240 249.81859 247.97978 245.88898 243.72217
 241.51336 239.31755 237.13774 234.97694 232.83713 230.70432 228.73051 226.88770
 225.17090 223.64309 222.27328 221.04547 219.92766 218.88786 217.99205 217.13324
 216.37543 215.55562 214.65382 214.01801 213.46820 213.40659 213.26102 214.08768
 215.34908 216.43805 217.69246 219.46378 221.64612 224.27235 228.42250 232.67386
 236.16025 239.87004 243.03279 245.45862 247.61072 250.15036 253.19157 256.38336
 259.59601 262.70908 265.65701 268.47995 271.04926 273.29401 275.10144 276.74136
 278.40964 279.91330 281.43182 282.79495 283.97937 285.03073 285.98981 286.86957
 287.67691 288.40167 289.01712 289.82782
 366.78100 356.33484 345.76668 334.63252 323.03536 311.22921 299.09905 286.90189
 274.61373 262.51057 250.51941 239.82025 229.94209 221.04593 213.22777 206.22962
 200.06346 195.00130 191.58314 189.62498 188.66182 188.72566 189.56050 190.86834
 192.59319 194.68803 196.95087 199.30971 201.75455 204.23439 206.32223 208.16407
 209.78991 210.93475 211.16360 211.39144 211.32828 211.03312 210.66596 210.29580
 209.91264 209.62248 209.43032 209.29417 209.22201 209.55285 209.93869 210.32753
 211.12037 212.29821 213.54805 215.33089 217.25873 219.30158 221.39642 223.47926
 225.53910 227.62294 229.71978 231.82562 233.95446 236.12630 238.38215 240.75199
 243.37283 245.62367 247.62551 249.39035 250.80719 251.93003 252.75187 253.06771
 253.10456 252.87840 252.23824 251.18608 249.79192 247.95276 245.86160 243.69444
 241.48528 239.28913 237.10897 234.94781 232.80765 230.67449 228.70033 226.85717
 225.14001 223.61185 222.24169 221.01354 219.89538 218.85522 217.95906 217.09990
 216.34174 215.52158 214.61942 213.98326 213.43311 213.40807 213.34894 214.18892
 215.41582 216.45950 217.74271 219.51587 221.71385 224.41606 228.48996 232.71858
 236.18803 239.84843 242.91350 245.22678 247.34238 249.89424 252.95715 256.18411
 259.46384 262.63608 265.61414 268.45184 271.01480 273.24222 275.05704 276.71179
 278.37933 279.91754 281.36703 282.72571 283.91348 284.96677 285.92752 286.80945
 287.62216 288.34711 288.96393 289.77148
 366.78100 356.33479 345.76657 334.63236 323.03514 311.22893 299.09871 286.90150
 274.61328 262.51007 250.51885 239.81964 229.94142 221.04521 213.22700 206.22878
 200.06257 195.00035 191.58214 189.62392 188.66071 188.72449 189.55928 190.86706
 192.59185 194.68663 196.94942 199.30820 201.75299 204.23278 206.32056 208.16235
 209.78813 210.93292 211.16170 211.38949 211.32627 211.03106 210.66384 210.29363
 209.91041 209.62020 209.42799 209.29177 209.21956 209.55034 209.93613 210.32491
 211.11770 212.29548 213.54527 215.32805 217.25584 219.29862 221.39341 223.47619
 225.53598 227.61977 229.71655 231.82234 233.95112 236.12291 238.37869 240.74848
 243.36926 245.62005 247.62183 249.38662 250.80340 251.92619 252.74798 253.06376
 253.10055 252.87433 252.23412 251.18190 249.78769 247.94847 245.85726 243.69004
 241.48083 239.28461 237.10440 234.94318 232.80297 230.66976 228.69554 226.85233
 225.13511 223.60690 222.23668 221.00847 219.89025 218.85004 217.95382 217.09461
 216.33639 215.51618 214.61397 213.97775 213.42754 213.42603 213.42247 214.27722
 215.52187 216.49709 217.78383 219.60242 221.79611 224.52719 228.53790 232.74713
 236.18718 239.78403 242.74521 244.95695 247.05486 249.64076 252.74530 256.02289
 259.37106 262.58786 265.58316 268.42953 270.98721 273.19739 275.00610 276.65930
 278.31665 279.86313 281.30768 282.66614 283.85434 284.90848 285.86963 286.75269
 287.56598 288.29413 288.90558 289.71582
 366.78100 356.33490 345.76681 334.63271 323.03561 311.22952 299.09942 286.90232
 274.61423 262.51113 250.52003 239.82093 229.94284 221.04674 213.22864 206.23055
 200.06445 195.00235 191.58426 189.62616 188.66306 188.72697 189.56187 190.86977
 192.59468 194.68958 196.95248 199.31139 201.75629 204.23619 206.32409 208.16600
 209.79190 210.93680 211.16571 211.39361 211.33051 211.03542 210.66832 210.29822
 209.91513 209.62503 209.43293 209.29684 209.22474 209.55564 209.94155 210.33045
 211.12335 212.30125 213.55116 215.33406 217.26196 219.30487 221.39977 223.48267
 225.54258 227.62648 229.72338 231.82929 233.95819 236.13009 238.38600 240.75590
 243.37680 245.62771 247.62961 249.39451 250.81141 251.93432 252.75622 253.07212
 253.10903 252.88293 252.24283 251.19074 249.79664 247.95754 245.86645 243.69935
 241.49025 239.29416 237.11406 234.95296 232.81287 230.67977 228.70567 226.86257
 225.14548 223.61738 222.24728 221.01919 219.90109 218.86099 217.96490 217.10580
 216.34770 215.52761 214.62551 213.98941 213.43932 213.45206 213.48213 214.38081
 215.64760 216.53442 217.84760 219.72542 221.86787 224.57858 228.55962 232.75386
 236.15646 239.67273 242.52892 244.66731 246.77948 249.41281 252.56668 255.89943
 259.30270 262.55276 265.56519 268.42139 270.98187 273.18893 274.98895 276.60574
 278.21048 279.71423 281.21609 282.57730 283.76175 284.81479 285.77429 286.65601
 287.46515 288.19174 288.80341 289.60962
 366.78100 356.33462 345.76623 334.63185 323.03446 311.22808 299.09769 286.90031
 274.61193 262.50854 250.51716 239.81777 229.93939 221.04300 213.22462 206.22624
 200.05985 194.99747 191.57908 189.62070 188.65731 188.72093 189.55555 190.86316
 192.58778 194.68239 196.94501 199.30362 201.74824 204.22785 206.31547 208.15709
 209.78270 210.92732 211.15593 211.38355 211.32016 211.02478 210.65740 210.28701
 209.90363 209.61324 209.42086 209.28447 209.21209 209.54271 209.92832 210.31694
 211.10955 212.28717 213.53678 215.31940 217.24702 219.28963 221.38425 223.46686
 225.52648 227.61009 229.70671 231.81233 233.94094 236.11256 238.36817 240.73779
 243.35840 245.60902 247.61064 249.37525 250.79187 251.91448 252.73610 253.05171
 253.08833 252.86194 252.22156 251.16918 249.77479 247.93541 245.84402 243.67664
 241.46725 239.27087 237.09049 234.92910 232.78872 230.65533 228.68095 226.83756
 225.12018 223.59180 222.22141 220.99303 219.87464 218.83426 217.93787 217.07849
 216.32011 215.49972 214.59734 213.96095 213.41057 213.45584 213.56279 214.51097
 215.74776 216.57802 217.93642 219.80733 221.89922 224.60060 228.60390 232.75105
 236.10606 239.53773 242.29904 244.38647 246.52261 249.19991 252.40268 255.79414
 259.24365 262.52408 265.55203 268.41443 270.98520 273.20255 275.01205 276.60217
 278.15631 279.63641 281.06085 282.41434 283.59885 284.64944 285.61111 286.48975
 287.29736 288.02316 288.63660 289.44031
 366.78100 356.33434 345.76568 334.63102 323.03336 311.22670 299.09604 286.89838
 274.60971 262.50605 250.51439 239.81473 229.93607 221.03941 213.22075 206.22209
 200.05543 194.99277 191.57411 189.61545 188.65179 188.71513 189.54947 190.85680
 192.58114 194.67548 196.93782 199.29616 201.74050 204.21984 206.30718 208.14852
 209.77386 210.91820 211.14654 211.37388 211.31022 211.01456 210.64690 210.27623
 209.89257 209.60191 209.40925 209.27259 209.19993 209.53027 209.91561 210.30395
 211.09629 212.27363 213.52297 215.30531 217.23265 219.27499 221.36932 223.45166
 225.51100 227.59434 229.69068 231.79602 233.92436 236.09570 238.35104 240.72038
 243.34072 245.59106 247.59240 249.35674 250.77308 251.89541 252.71675 253.03209
 253.06843 252.84177 252.20111 251.14845 249.75379 247.91413 245.82247 243.65481
 241.44515 239.24849 237.06783 234.90617 232.76551 230.63184 228.65718 226.81352
 225.09586 223.56720 222.19654 220.96788 219.84922 218.80856 217.91190 217.05224
 216.29358 215.47292 214.57026 213.93360 213.38293 213.46172 213.64781 214.62819
 215.84633 216.63501 218.03056 219.86589 221.92329 224.63373 228.68732 232.73282
 236.04456 239.39064 242.06836 244.10576 246.25053 248.98277 252.24959 255.70653
 259.19370 262.49026 265.52643 268.39764 270.98294 273.21976 275.04825 276.63562
 278.15552 279.59619 280.93369 282.23560 283.41202 284.46054 285.42117 286.30008
 287.10751 287.83591 288.44879 289.25684
 366.78100 356.33419 345.76539 334.63058 323.03277 311.22597 299.09516 286.89735
 274.60854 262.50474 250.51293 239.81312 229.93432 221.03751 213.21870 206.21990
 200.05309 194.99028 191.57147 189.61267 188.64886 188.71205 189.54625 190.85344
 192.57763 194.67183 196.93402 199.29221 201.73640 204.21560 206.30279 208.14398
 209.76918 210.91337 211.14156 211.36876 211.30495 211.00914 210.64133 210.27053
 209.88672 209.59591 209.40311 209.26630 209.19349 209.52369 209.90888 210.29707
 211.08926 212.26646 213.51565 215.29784 217.22504 219.26723 221.36142 223.44362
 225.50281 227.58600 229.68219 231.78739 233.91558 236.08677 238.34197 240.71116
 243.33135 245.58155 247.58274 249.34693 250.76312 251.88532 252.70651 253.02170
 253.05790 252.83109 252.19028 251.13748 249.74267 247.90286 245.81106 243.64325
 241.43344 239.23663 237.05583 234.89402 232.75321 230.61941 228.64460 226.80079
 225.08299 223.55418 222.18337 220.95456 219.83576 218.79495 217.89814 217.03834
 216.27953 215.45872 214.55592 213.91911 213.36830 213.47768 213.73610 214.74205
 215.91670 216.75195 218.10182 219.92303 221.96513 224.68736 228.76334 232.64949
 235.95963 239.22699 241.82289 243.82002 245.97748 248.77119 252.11691 255.63437
 259.15228 262.46515 265.50424 268.38446 270.97870 273.22791 275.07770 276.67941
 278.17422 279.57288 280.88507 282.08255 283.24185 284.28836 285.24500 286.12463
 286.93448 287.66034 288.28195 289.08905
 366.78100 356.33530 345.76761 334.63391 323.03721 311.23151 299.10182 286.90512
 274.61742 262.51473 250.52403 239.82533 229.94764 221.05194 213.23424 206.23654
 200.07085 195.00915 191.59145 189.63376 188.67106 188.73536 189.57066 190.87897
 192.60427 194.69957 196.96288 199.32218 201.76748 204.24779 206.33609 208.17839
 209.80469 210.95000 211.17930 211.40760 211.34491 211.05021 210.68351 210.31381
 209.93112 209.64142 209.44972 209.31403 209.24233 209.57363 209.95994 210.34924
 211.14254 212.32084 213.57115 215.35445 217.28275 219.32606 221.42136 223.50466
 225.56496 227.64927 229.74657 231.85287 233.98218 236.15448 238.41078 240.78109
 243.40239 245.65369 247.65599 249.42130 250.83860 251.96190 252.78421 253.10051
 253.13781 252.91211 252.27242 251.22072 249.82702 247.98833 245.89763 243.73093
 241.52224 239.32654 237.14684 234.98614 232.84645 230.71375 228.74005 226.89736
 225.18066 223.65296 222.28326 221.05557 219.93787 218.89817 218.00248 217.14378
 216.38608 215.56639 214.66469 214.02899 213.47929 213.55966 213.74954 214.94003
 215.98456 216.76683 218.21538 220.06042 222.07387 224.77742 228.81218 232.50049
 235.82384 239.00134 241.52406 243.48694 245.68427 248.58170 252.01727 255.59741
 259.13416 262.45096 265.48132 268.34512 270.94901 273.20358 275.06790 276.67642
 278.16364 279.56927 280.88803 282.07867 283.16571 284.20590 285.16388 286.04318
 286.85236 287.58289 288.20905 289.01779
 366.78100 356.33492 345.76684 334.63276 323.03568 311.22959 299.09951 286.90243
 274.61435 262.51127 250.52019 239.82111 229.94303 221.04695 213.22886 206.23078
 200.06470 195.00262 191.58454 189.62646 188.66338 188.72730 189.56222 190.87013
 192.59505 194.68997 196.95289 199.31181 201.75673 204.23665 206.32457 208.16649
 209.79240 210.93732 211.16624 211.39416 211.33108 211.03600 210.66892 210.29884
 209.91575 209.62567 209.43359 209.29751 209.22543 209.55635 209.94227 210.33119
 211.12411 212.30202 213.55194 215.33486 217.26278 219.30570 221.40062 223.48354
 225.54346 227.62738 229.72429 231.83021 233.95913 236.13105 238.38697 240.75689
 243.37781 245.62873 247.63065 249.39556 250.81248 251.93540 252.75732 253.07324
 253.11016 252.88408 252.24400 251.19192 249.79783 247.95875 245.86767 243.70059
 241.49151 239.29543 237.11535 234.95427 232.81419 230.68110 228.70702 226.86394
 225.14686 223.61878 222.24870 221.02062 219.90254 218.86246 217.96637 217.10729
 216.34921 215.52913 214.62705 213.99097 213.44089 213.56522 213.85896 215.10132
 216.06104 216.74768 218.35950 220.16396 222.14497 224.83823 228.83722 232.41745
 235.66943 238.72667 241.18390 243.13904 245.38750 248.37842 251.90686 255.54134
 259.10080 262.43768 265.46805 268.30014 270.87802 273.10373 274.97794 276.63937
 278.21094 279.64890 280.92310 282.06845 283.20740 284.25284 285.21371 286.09311
 286.89789 287.62189 288.25244 289.05328
 366.78100 356.33210 345.76120 334.62430 323.02440 311.21550 299.08260 286.88270
 274.59179 262.48589 250.49199 239.79009 229.90919 221.01029 213.18939 206.18849
 200.01959 194.95469 191.53379 189.57289 188.60699 188.66809 189.50019 190.80529
 192.52738 194.61948 196.87958 199.23568 201.67778 204.15488 206.23998 208.07908
 209.70218 210.84428 211.07038 211.29548 211.22958 210.93168 210.56178 210.18887
 209.80297 209.51007 209.31517 209.17627 209.10137 209.42947 209.81257 210.19867
 210.98877 212.16387 213.41097 215.19107 217.11617 219.15627 221.24837 223.32846
 225.38556 227.46666 229.56076 231.66386 233.78996 235.95906 238.21216 240.57926
 243.19736 245.44546 247.44456 249.20666 250.62076 251.74086 252.55995 252.87305
 252.90715 252.67825 252.03535 250.98045 249.58355 247.74165 245.64775 243.47785
 241.26595 239.06705 236.88415 234.72025 232.57735 230.44145 228.46454 226.61864
 224.89874 223.36784 221.99494 220.76404 219.64314 218.60024 217.70134 216.83944
 216.07854 215.25564 214.35074 213.71184 213.15894 213.45079 214.14035 215.12125
 215.98271 217.02060 218.54071 220.11435 222.14510 224.89937 228.91158 232.40169
 235.56020 238.48911 240.87082 242.82520 245.09885 248.14600 251.76341 255.47145
 259.06052 262.38058 265.38538 268.16904 270.70596 272.94302 274.93768 276.74509
 278.35040 279.73923 280.97449 282.14240 283.26334 284.31122 285.27551 286.15848
 286.96552 287.69681 288.34375 289.16824
 366.78100 356.33020 345.75741 334.61861 323.01681 311.20602 299.07122 286.86942
 274.57663 262.46883 250.47303 239.76924 229.88644 220.98564 213.16285 206.16005
 199.98926 194.92246 191.49966 189.53687 188.56907 188.62827 189.45848 190.76168
 192.48188 194.57209 196.83029 199.18449 201.62470 204.09990 206.18310 208.02031
 209.64151 210.78171 211.00592 211.22912 211.16132 210.86153 210.48973 210.11493
 209.72714 209.43234 209.23554 209.09475 209.01795 209.34416 209.72536 210.10956
 210.89777 212.07097 213.31617 215.09438 217.01758 219.05578 221.14599 223.22419
 225.27939 227.35860 229.45080 231.55200 233.67621 235.84341 238.09461 240.45982
 243.07602 245.32222 247.31943 249.07963 250.49183 251.61004 252.42724 252.73845
 252.77065 252.53985 251.89506 250.83826 249.43946 247.59567 245.49987 243.32807
 241.11428 238.91348 236.72868 234.56289 232.41809 230.28029 228.30150 226.45370
 224.73190 223.19911 221.82431 220.59151 219.46872 218.42392 217.52312 216.65933
 215.89653 215.07173 214.16494 213.52414 212.96935 213.38220 214.35809 215.17838
 216.00623 217.27640 218.55205 220.05968 222.19441 224.99431 229.00452 232.40710
 235.50578 238.30315 240.58217 242.51227 244.79706 247.89992 251.60307 255.37131
 258.92377 262.19919 265.23206 268.07800 270.70291 273.06635 275.16962 276.99377
 278.52982 279.81119 280.91980 281.94043 282.95663 283.97412 284.93381 285.81726
 286.62665 287.37955 288.06360 288.93530
 366.78100 356.33029 345.75758 334.61887 323.01715 311.20644 299.07173 286.87002
 274.57731 262.46960 250.47389 239.77017 229.88746 220.98675 213.16404 206.16133
 199.99062 194.92391 191.50119 189.53848 188.57077 188.63006 189.46035 190.76364
 192.48393 194.57421 196.83250 199.18679 201.62708 204.10237 206.18566 208.02295
 209.64424 210.78452 211.00881 211.23210 211.16439 210.86468 210.49297 210.11826
 209.73054 209.43583 209.23912 209.09841 209.02170 209.34799 209.72928 210.11356
 210.90185 212.07514 213.32043 215.09872 217.02201 219.06030 221.15058 223.22887
 225.28416 227.36345 229.45574 231.55703 233.68132 235.84860 238.09989 240.46518
 243.08147 245.32776 247.32505 249.08534 250.49762 251.61591 252.43320 252.74449
 252.77678 252.54607 251.90136 250.84464 249.44593 247.60222 245.50651 243.33480
 241.12109 238.92038 236.73566 234.56995 232.42524 230.28753 228.30882 226.46111
 224.73940 223.20668 221.83197 220.59926 219.47655 218.43184 217.53113 216.66742
 215.90471 215.07999 214.17328 213.53257 212.97786 213.40656 214.41943 215.36040
 216.13274 217.29680 218.58344 220.19237 222.32722 225.09084 229.05222 232.41241
 235.38849 238.05669 240.23447 242.15546 244.48323 247.67004 251.45418 255.24927
 258.80338 262.12088 265.24188 268.19104 270.88541 273.26624 275.32001 277.03815
 278.44174 279.59113 280.58484 281.50537 282.43094 283.41949 284.38480 285.27274
 286.08936 286.84424 287.57132 288.49789
 366.78100 356.33010 345.75721 334.61831 323.01642 311.20552 299.07063 286.86873
 274.57584 262.46794 250.47205 239.76815 229.88526 220.98436 213.16147 206.15857
 199.98768 194.92078 191.49789 189.53499 188.56709 188.62620 189.45630 190.75941
 192.47951 194.56962 196.82772 199.18183 201.62193 204.09704 206.18014 208.01725
 209.63835 210.77846 211.00256 211.22567 211.15777 210.85787 210.48598 210.11108
 209.72319 209.42829 209.23140 209.09050 209.01361 209.33971 209.72082 210.10492
 210.89303 212.06613 213.31124 215.08934 217.01245 219.05055 221.14066 223.21876
 225.27386 227.35297 229.44507 231.54618 233.67028 235.83739 238.08849 240.45360
 243.06970 245.31581 247.31291 249.07302 250.48512 251.60323 252.42033 252.73144
 252.76354 252.53265 251.88775 250.83085 249.43196 247.58806 245.49217 243.32027
 241.10638 238.90548 236.72059 234.55469 232.40980 230.27190 228.29301 226.44511
 224.72322 223.19032 221.81543 220.58253 219.45963 218.41474 217.51384 216.64995
 215.88705 215.06216 214.15526 213.51437 212.95947 213.41823 214.50209 215.52271
 216.17076 217.22168 218.67755 220.46109 222.56735 225.22768 229.06628 232.44087
 235.27751 237.81879 239.89030 241.80385 244.20276 247.49516 251.38449 255.20973
 258.80231 262.16922 265.33170 268.27393 270.93073 273.24490 275.20270 276.80972
 278.10922 279.18134 280.15732 281.14066 282.17117 283.21793 284.18274 285.06729
 285.87888 286.61621 287.30161 288.19016
 366.78100 356.33129 345.75958 334.62187 323.02116 311.21145 299.07774 286.87703
 274.58532 262.47861 250.48390 239.78119 229.89947 220.99976 213.17805 206.17634
 200.00663 194.94092 191.51921 189.55750 188.59079 188.65108 189.48237 190.78666
 192.50795 194.59924 196.85853 199.21382 201.65511 204.13140 206.21569 208.05398
 209.67627 210.81756 211.04285 211.26714 211.20042 210.90171 210.53100 210.15729
 209.77058 209.47687 209.28116 209.14145 209.06574 209.39303 209.77532 210.16061
 210.94990 212.12419 213.37048 215.14977 217.07406 219.11335 221.20464 223.28393
 225.34022 227.42051 229.51380 231.61608 233.74137 235.90966 238.16195 240.52824
 243.14553 245.39282 247.39111 249.15240 250.56569 251.68498 252.50327 252.81556
 252.84885 252.61914 251.97543 250.91972 249.52201 247.67930 245.58459 243.41388
 241.20117 239.00146 236.81774 234.65303 232.50932 230.37261 228.39490 226.54819
 224.82748 223.29577 221.92206 220.69035 219.56864 218.52493 217.62522 216.76251
 216.00080 215.17709 214.27138 213.63167 213.07796 213.50499 214.51389 215.66452
 216.20932 217.22343 218.84402 220.71008 222.76422 225.30820 229.04651 232.41223
 235.14726 237.55016 239.49944 241.42418 243.95424 247.38802 251.37372 255.23694
 258.85947 262.23645 265.38562 268.27087 270.88489 273.16003 275.06174 276.59219
 277.81079 278.82166 279.78696 280.84763 281.99997 283.04950 284.01404 284.89627
 285.70074 286.42804 287.09494 287.95541
 366.78100 356.33233 345.76166 334.62499 323.02532 311.21665 299.08398 286.88431
 274.59364 262.48797 250.49431 239.79264 229.91197 221.01330 213.19263 206.19196
 200.02329 194.95862 191.53795 189.57728 188.61161 188.67294 189.50527 190.81060
 192.53293 194.62526 196.88559 199.24192 201.68425 204.16159 206.24692 208.08625
 209.70958 210.85191 211.07824 211.30357 211.23790 210.94023 210.57056 210.19789
 209.81222 209.51955 209.32488 209.18621 209.11154 209.43987 209.82320 210.20953
 210.99987 212.17520 213.42253 215.20286 217.12819 219.16852 221.26085 223.34118
 225.39851 227.47984 229.57417 231.67750 233.80383 235.97316 238.22649 240.59382
 243.21215 245.46048 247.45981 249.22215 250.63648 251.75681 252.57614 252.88947
 252.92380 252.69513 252.05246 250.99779 249.60112 247.75945 245.66578 243.49611
 241.28444 239.08577 236.90310 234.73943 232.59676 230.46109 228.48443 226.63876
 224.91909 223.38842 222.01575 220.78508 219.66441 218.62174 217.72307 216.86140
 216.10073 215.27806 214.37339 213.73472 213.18205 213.59702 214.58014 215.58873
 216.33435 217.41539 219.03433 220.82739 222.83208 225.31354 228.93895 232.36932
 234.99025 237.20891 239.05350 241.01967 243.71062 247.29486 251.39709 255.31602
 258.97821 262.33279 265.41727 268.25757 270.83694 273.06876 274.90097 276.34183
 277.49234 278.49396 279.49051 280.70261 281.88419 282.94952 283.93332 284.84250
 285.68521 286.54929 287.31729 288.29605
 366.78100 356.33127 345.75954 334.62182 323.02109 311.21136 299.07763 286.87691
 274.58518 262.47845 250.48372 239.78100 229.89927 220.99954 213.17781 206.17608
 200.00636 194.94063 191.51890 189.55717 188.59045 188.65072 189.48199 190.78626
 192.50754 194.59881 196.85808 199.21335 201.65463 204.13090 206.21517 208.05344
 209.67571 210.81699 211.04226 211.26653 211.19980 210.90108 210.53035 210.15662
 209.76989 209.47617 209.28044 209.14071 209.06498 209.39225 209.77453 210.15980
 210.94907 212.12334 213.36962 215.14889 217.07316 219.11243 221.20371 223.28298
 225.33925 227.41952 229.51280 231.61507 233.74034 235.90861 238.16088 240.52716
 243.14443 245.39170 247.38997 249.15125 250.56452 251.68379 252.50206 252.81434
 252.84761 252.61788 251.97415 250.91842 249.52070 247.67797 245.58324 243.41251
 241.19979 239.00006 236.81633 234.65160 232.50788 230.37115 228.39342 226.54669
 224.82596 223.29424 221.92051 220.68878 219.56705 218.52333 217.62360 216.76087
 215.99914 215.17542 214.26969 213.62996 213.07623 213.59401 214.80383 215.46799
 216.31277 217.41092 219.04648 220.96577 223.04915 225.49542 228.88942 232.43564
 234.82458 236.91565 238.72066 240.81700 243.68768 247.36554 251.43210 255.39270
 259.06284 262.38318 265.39154 268.17212 270.69098 272.83682 274.57193 275.95303
 277.11679 278.21048 279.41971 280.76297 281.96988 283.06528 284.18033 285.24683
 286.20605 287.06021 287.80643 288.75735
 366.78100 356.33121 345.75942 334.62163 323.02083 311.21104 299.07725 286.87646
 274.58467 262.47788 250.48309 239.78029 229.89850 220.99871 213.17692 206.17513
 200.00534 194.93955 191.51775 189.55596 188.58917 188.64938 189.48059 190.78480
 192.50601 194.59721 196.85642 199.21163 201.65284 204.12905 206.21326 208.05146
 209.67367 210.81488 211.04009 211.26430 211.19751 210.89872 210.52792 210.15413
 209.76734 209.47355 209.27776 209.13797 209.06218 209.38938 209.77159 210.15680
 210.94601 212.12022 213.36643 215.14564 217.06984 219.10905 221.20026 223.27947
 225.33568 227.41589 229.50910 231.61130 233.73651 235.90472 238.15693 240.52314
 243.14035 245.38756 247.38576 249.14697 250.56018 251.67939 252.49760 252.80981
 252.84302 252.61322 251.96943 250.91364 249.51585 247.67306 245.57827 243.40748
 241.19468 238.99489 236.81110 234.64631 232.50252 230.36573 228.38794 226.54114
 224.82035 223.28856 221.91477 220.68298 219.56119 218.51739 217.61760 216.75481
 215.99302 215.16923 214.26344 213.62365 213.06985 213.64769 214.93913 215.54930
 216.49088 217.70337 219.34842 221.25981 223.29439 225.57086 229.09998 232.36723
 234.64279 236.59991 238.40677 240.58887 243.60683 247.36560 251.43039 255.40305
 259.06488 262.34958 265.29288 267.97882 270.38562 272.43130 274.04065 275.29233
 276.75421 278.57809 280.42947 282.29941 283.91769 285.34943 286.65570 287.83908
 288.90341 289.85120 290.67914 291.73428
 366.78100 356.33019 345.75737 334.61856 323.01675 311.20593 299.07112 286.86931
 274.57649 262.46868 250.47287 239.76905 229.88624 220.98542 213.16261 206.15980
 199.98898 194.92217 191.49936 189.53654 188.56873 188.62792 189.45810 190.76129
 192.48148 194.57166 196.82985 199.18404 201.62422 204.09941 206.18260 208.01978
 209.64097 210.78115 211.00534 211.22853 211.16071 210.86090 210.48909 210.11427
 209.72646 209.43165 209.23483 209.09402 209.01721 209.34339 209.72458 210.10877
 210.89695 212.07014 213.31533 215.09351 217.01670 219.05489 221.14507 223.22326
 225.27844 227.35763 229.44982 231.55100 233.67519 235.84238 238.09356 240.45875
 243.07494 245.32112 247.31831 249.07850 250.49068 251.60887 252.42606 252.73724
 252.76943 252.53862 251.89380 250.83699 249.43818 247.59436 245.49855 243.32673
 241.11292 238.91211 236.72729 234.56148 232.41667 230.27885 228.30004 226.45223
 224.73041 223.19760 221.82279 220.58997 219.46716 218.42235 217.52153 216.65772
 215.89491 215.07009 214.16328 213.52246 212.96765 213.65091 215.08446 215.62582
 216.47952 217.81317 219.39778 221.26051 223.27647 225.29184 229.14400 232.21527
 234.38388 236.35400 238.29041 240.65372 243.72354 247.47823 251.50780 255.45201
 259.09323 262.34186 265.25015 267.87738 270.16461 271.92822 273.13101 275.51709
 278.68860 281.43695 283.81519 285.90344 287.71066 289.30957 290.76834 292.08990
 293.27847 294.33691 295.26154 296.43988
 366.78100 356.32626 345.74951 334.60677 323.00102 311.18628 299.04753 286.84179
 274.54504 262.43330 250.43355 239.72581 229.83906 220.93432 213.10758 206.10083
 199.92609 194.85534 191.42860 189.46185 188.49011 188.54536 189.37162 190.67087
 192.38713 194.47338 196.72764 199.07790 201.51415 203.98541 206.06466 207.89792
 209.51517 210.65143 210.87168 211.09094 211.01919 210.71545 210.33970 209.96096
 209.56922 209.27047 209.06973 208.92498 208.84424 209.16649 209.54375 209.92400
 210.70826 211.87751 213.11877 214.89302 216.81228 218.84654 220.93279 223.00705
 225.05830 227.13356 229.22181 231.31907 233.43932 235.60258 237.84983 240.21109
 242.82335 245.06560 247.05886 248.81511 250.22337 251.33762 252.15088 252.45813
 252.48639 252.25164 251.60290 250.54215 249.13941 247.29167 245.19192 243.01618
 240.79843 238.59369 236.40494 234.23520 232.08645 229.94471 227.96196 226.11022
 224.38447 222.84773 221.46899 220.23224 219.10550 218.05675 217.15201 216.28426
 215.51752 214.68877 213.77803 213.13328 212.57454 213.48895 215.38705 215.80814
 216.26599 217.66028 219.28685 221.08434 223.05493 225.35950 229.10620 232.23178
 234.40712 236.35503 238.26393 240.65085 243.83871 247.61697 251.65190 255.62433
 259.31277 262.61987 265.51651 268.06903 270.21884 271.70081 273.27408 276.55902
 279.83078 282.63516 285.06189 287.19275 289.03680 290.66833 292.15686 293.50537
 294.71817 295.79822 296.74170 297.94406
 366.78100 356.32409 345.74518 334.60027 322.99235 311.17544 299.03453 286.82662
 274.52771 262.41380 250.41188 239.70197 229.81306 220.90615 213.07724 206.06833
 199.89141 194.81850 191.38959 189.42068 188.44677 188.49986 189.32394 190.62103
 192.33512 194.41921 196.67130 199.01939 201.45347 203.92256 205.99965 207.83074
 209.44583 210.57992 210.79800 211.01509 210.94118 210.63527 210.25736 209.87645
 209.48253 209.18162 208.97871 208.83180 208.74889 209.06898 209.44406 209.82215
 210.60424 211.77133 213.01042 214.78251 216.69959 218.73168 220.81577 222.88786
 224.93695 227.01004 229.09612 231.19121 233.30930 235.47039 237.71548 240.07457
 242.68465 244.92474 246.91583 248.66992 250.07601 251.18810 251.99918 252.30427
 252.33036 252.09345 251.44254 250.37963 248.97471 247.12480 245.02289 242.84498
 240.62507 238.41816 236.22724 234.05533 231.90442 229.76051 227.77560 225.92169
 224.19377 222.65486 221.27395 220.03504 218.90613 217.85522 216.94830 216.07839
 215.30948 214.47857 213.56566 212.91875 212.35783 213.36934 215.59636 216.24721
 216.33247 217.55923 219.11902 220.75012 222.77579 225.23273 228.94666 232.03842
 234.16180 236.10114 238.08447 240.58038 243.85168 247.70416 251.77972 255.78690
 259.51950 262.87540 265.83536 268.40433 270.60522 272.26297 273.49014 276.36603
 279.53833 282.25748 284.61044 286.67651 288.46454 290.04648 291.48975 292.79727
 293.97321 295.02042 295.93521 297.10104
 366.78100 356.32603 345.74906 334.60608 323.00011 311.18514 299.04617 286.84020
 274.54323 262.43125 250.43128 239.72331 229.83634 220.93137 213.10439 206.09742
 199.92245 194.85148 191.42451 189.45754 188.48556 188.54059 189.36662 190.66565
 192.38168 194.46770 196.72173 199.07176 201.50779 203.97882 206.05785 207.89087
 209.50790 210.64393 210.86396 211.08299 211.01101 210.70704 210.33107 209.95210
 209.56013 209.26116 209.06018 208.91521 208.83424 209.15627 209.53330 209.91332
 210.69735 211.86638 213.10741 214.88144 216.80047 218.83449 220.92052 222.99455
 225.04558 227.12061 229.20863 231.30566 233.42569 235.58872 237.83575 240.19678
 242.80880 245.05083 247.04386 248.79989 250.20792 251.32195 252.13497 252.44200
 252.47003 252.23506 251.58609 250.52511 249.12214 247.27417 245.17420 242.99823
 240.78026 238.57528 236.38631 234.21634 232.06737 229.92540 227.94242 226.09045
 224.36448 222.82751 221.44854 220.21157 219.08459 218.03562 217.13065 216.26268
 215.49571 214.66673 213.75576 213.11079 212.55182 213.43736 215.55659 216.65872
 216.71437 217.71124 219.13852 220.56274 222.52200 225.06383 228.67818 231.67769
 233.71561 235.63472 237.70009 240.33487 243.71164 247.65623 251.79387 255.83275
 259.57355 262.94977 265.96906 268.57620 270.77911 272.53781 273.72830 276.42084
 279.54312 282.21939 284.53528 286.56879 288.32861 289.88559 291.30612 292.59302
 293.75043 294.78113 295.68152 296.82895
 366.78100 356.33163 345.76027 334.62290 323.02254 311.21317 299.07980 286.87944
 274.58807 262.48170 250.48734 239.78497 229.90361 221.00424 213.18287 206.18151
 200.01214 194.94677 191.52541 189.56404 188.59768 188.65831 189.48994 190.79458
 192.51621 194.60785 196.86748 199.22311 201.66475 204.14138 206.22601 208.06465
 209.68728 210.82892 211.05455 211.27918 211.21282 210.91445 210.54408 210.17072
 209.78435 209.49099 209.29562 209.15625 209.08089 209.40852 209.79116 210.17679
 210.96642 212.14106 213.38769 215.16732 217.09196 219.13159 221.22323 223.30286
 225.35949 227.44013 229.53376 231.63639 233.76203 235.93066 238.18330 240.54993
 243.16756 245.41520 247.41383 249.17547 250.58910 251.70873 252.52737 252.84000
 252.87363 252.64427 252.00090 250.94554 249.54817 247.70580 245.61144 243.44107
 241.22870 239.02934 236.84597 234.68161 232.53824 230.40187 228.42451 226.57814
 224.85778 223.32641 221.95304 220.72168 219.60031 218.55694 217.65758 216.79521
 216.03385 215.21048 214.30511 213.66575 213.11238 213.69888 215.30376 216.87172
 217.25381 218.10817 219.37912 220.53403 222.35107 224.96033 228.36501 231.28848
 233.24568 235.14717 237.30061 240.08676 243.58345 247.59853 251.80627 255.88982
 259.67181 263.09146 266.14944 268.82074 271.02811 272.88303 274.25452 275.83173
 278.74026 281.41443 283.72852 285.76044 287.51889 289.07468 290.49408 291.77997
 292.93649 293.96637 294.86606 296.01260
 366.78100 356.33708 345.77116 334.63924 323.04432 311.24040 299.11248 286.91756
 274.63164 262.53072 250.54180 239.84488 229.96896 221.07504 213.25912 206.26320
 200.09928 195.03936 191.62344 189.66752 188.70660 188.77268 189.60976 190.91984
 192.64692 194.74400 197.00908 199.37016 201.81724 204.29932 206.38940 208.23348
 209.86156 211.00864 211.23972 211.46980 211.40888 211.11596 210.75104 210.38313
 210.00221 209.71429 209.52437 209.39045 209.32053 209.65361 210.04169 210.43277
 211.22785 212.40793 213.66001 215.44509 217.37517 219.42025 221.51733 223.60241
 225.66449 227.75057 229.84965 231.95773 234.08881 236.26289 238.52097 240.89305
 243.51613 245.76921 247.77329 249.54037 250.95945 252.08453 252.90861 253.22669
 253.26577 253.04185 252.40393 251.35401 249.96209 248.12517 246.03625 243.87133
 241.66441 239.47049 237.29257 235.13365 232.99573 230.86481 228.89289 227.05197
 225.33705 223.81113 222.44321 221.21729 220.10137 219.06345 218.16953 217.31261
 216.55669 215.73877 214.83885 214.20493 213.65701 213.98889 214.99753 216.78749
 217.87013 218.75082 219.80002 220.72737 222.36453 224.93867 228.08546 230.91380
 232.70129 234.49707 236.68990 239.67851 243.37250 247.52994 251.81259 255.93916
 259.74747 263.18228 266.27579 269.03607 271.42465 273.46432 275.17099 276.39639
 277.63165 279.61313 281.72552 283.58035 285.18555 286.60574 287.90146 289.07526
 290.13098 291.07111 291.89240 292.93903
 366.78100 356.33960 345.77621 334.64681 323.05442 311.25302 299.12762 286.93523
 274.65183 262.55343 250.56704 239.87264 229.99925 221.10785 213.29445 206.30106
 200.13966 195.08226 191.66887 189.71547 188.75708 188.82568 189.66528 190.97789
 192.70749 194.80709 197.07470 199.43830 201.88791 204.37251 206.46511 208.31172
 209.94232 211.09192 211.32553 211.55813 211.49974 211.20934 210.84694 210.48155
 210.10315 209.81776 209.63036 209.49896 209.43157 209.76717 210.15777 210.55138
 211.34898 212.53159 213.78619 215.57379 217.50640 219.55400 221.65360 223.74121
 225.80581 227.89442 229.99602 232.10662 234.24023 236.41683 238.67743 241.05204
 243.67764 245.93325 247.93985 249.70945 251.13106 252.25866 253.08526 253.40587
 253.44747 253.22608 252.59068 251.54328 250.15389 248.31949 246.23309 244.07070
 241.86630 239.67491 237.49951 235.34311 233.20772 231.07932 229.10993 227.27153
 225.55913 224.03574 222.67034 221.44694 220.33355 219.29815 218.40676 217.55236
 216.79896 215.98357 215.08617 214.45477 213.90938 214.14769 214.82253 216.60371
 218.01830 218.90056 220.22940 221.31056 222.65817 224.91751 228.07376 230.46497
 232.29906 234.02330 236.22159 239.24857 243.03319 247.25195 251.54654 255.62688
 259.36835 262.78888 265.91495 268.74377 271.23853 273.40225 275.26944 276.82578
 278.05722 279.02258 280.12320 281.49237 282.72836 283.98624 285.15796 286.21948
 287.17422 288.02438 288.76709 289.71359
 366.78100 356.33983 345.77666 334.64749 323.05532 311.25415 299.12898 286.93681
 274.65364 262.55547 250.56930 239.87513 230.00196 221.11078 213.29761 206.30444
 200.14327 195.08610 191.67293 189.71976 188.76159 188.83042 189.67025 190.98308
 192.71291 194.81274 197.08057 199.44440 201.89423 204.37906 206.47189 208.31872
 209.94955 211.09938 211.33321 211.56604 211.50787 211.21770 210.85553 210.49035
 210.11218 209.82701 209.63984 209.50867 209.44150 209.77733 210.16816 210.56199
 211.35982 212.54265 213.79748 215.58531 217.51814 219.56597 221.66580 223.75363
 225.81846 227.90729 230.00912 232.11995 234.25378 236.43061 238.69144 241.06627
 243.69210 245.94792 247.95475 249.72458 251.14641 252.27424 253.10107 253.42190
 253.46373 253.24256 252.60739 251.56022 250.17105 248.33688 246.25071 244.08854
 241.88437 239.69320 237.51803 235.36186 233.22669 231.09852 229.12935 227.29118
 225.57901 224.05584 222.69066 221.46749 220.35432 219.31915 218.42798 217.57381
 216.82064 216.00547 215.10830 214.47713 213.93196 214.17786 214.76137 216.62480
 218.12881 218.91264 220.52165 221.79245 223.04561 225.04387 228.18715 230.23744
 232.08046 233.78976 235.92880 238.95610 242.78612 247.03819 251.35133 255.41170
 259.11496 262.48395 265.57526 268.37189 270.84390 272.98483 274.84558 276.44366
 277.80090 278.97931 280.03693 280.98761 281.90558 282.91690 283.89200 284.79214
 285.61960 286.43057 287.18076 288.13675
 366.78100 356.33949 345.77598 334.64647 323.05396 311.25245 299.12694 286.93443
 274.65093 262.55242 250.56591 239.87140 229.99789 221.10638 213.29287 206.29936
 200.13785 195.08034 191.66683 189.71332 188.75481 188.82330 189.66280 190.97529
 192.70478 194.80427 197.07176 199.43525 201.88474 204.36923 206.46172 208.30821
 209.93870 211.08819 211.32168 211.55417 211.49567 211.20516 210.84265 210.47714
 210.09863 209.81312 209.62561 209.49410 209.42659 209.76208 210.15257 210.54606
 211.34355 212.52604 213.78054 215.56803 217.50052 219.54801 221.64750 223.73499
 225.79948 227.88797 229.98946 232.09995 234.23344 236.40993 238.67042 241.04491
 243.67041 245.92590 247.93239 249.70188 251.12337 252.25086 253.07735 253.39784
 253.43933 253.21782 252.58231 251.53480 250.14529 248.31078 246.22428 244.06177
 241.85726 239.66575 237.49024 235.33373 233.19822 231.06971 229.10020 227.26169
 225.54918 224.02567 222.66016 221.43665 220.32315 219.28764 218.39613 217.54162
 216.78811 215.97260 215.07509 214.44358 213.89807 214.17937 214.84398 216.58888
 218.16629 219.07947 220.65718 222.04839 223.33040 225.21330 228.13693 230.09819
 231.77011 233.55392 235.74026 238.85464 242.73344 247.02449 251.34766 255.42316
 259.12119 262.47449 265.54800 268.34589 270.82568 272.94547 274.74979 276.28952
 277.56787 278.68387 279.72488 280.73087 281.58572 282.50125 283.45361 284.34161
 285.14072 285.84930 286.48074 287.34286
 366.78100 356.34121 345.77943 334.65164 323.06086 311.26107 299.13728 286.94650
 274.66471 262.56792 250.58314 239.89035 230.01857 221.12878 213.31699 206.32521
 200.16542 195.10964 191.69785 189.74606 188.78928 188.85949 189.70071 191.01492
 192.74613 194.84735 197.11656 199.48177 201.93299 204.41920 206.51342 208.36163
 209.99384 211.14506 211.38027 211.61449 211.55770 211.26891 210.90813 210.54434
 210.16756 209.88377 209.69798 209.56820 209.50241 209.83962 210.23184 210.62705
 211.42627 212.61048 213.86669 215.65591 217.59012 219.63934 221.74055 223.82976
 225.89598 227.98619 230.08941 232.20162 234.33683 236.51505 238.77726 241.15347
 243.78069 246.03790 248.04612 249.81733 251.24054 252.36976 253.19797 253.52019
 253.56340 253.34361 252.70983 251.66404 250.27626 248.44347 246.35868 244.19790
 241.99511 239.80532 237.63154 235.47675 233.34297 231.21618 229.24839 227.41161
 225.70082 224.17904 222.81525 221.59346 220.48168 219.44789 218.55811 217.70532
 216.95353 216.13975 215.24396 214.61417 214.07039 214.28961 214.80759 216.50380
 218.34467 219.41702 220.81834 222.14627 223.41093 225.27492 228.05444 229.79765
 231.40915 233.18758 235.44518 238.70197 242.66135 247.00801 251.35478 255.44424
 259.14017 262.49582 265.57639 268.38455 270.86752 272.98746 274.77652 276.28867
 277.52405 278.59396 279.59784 280.61844 281.50320 282.39700 283.34375 284.22696
 285.01733 285.71985 286.35382 287.21802
 366.78100 356.34498 345.78695 334.66293 323.07590 311.27988 299.15986 286.97283
 274.69481 262.60179 250.62076 239.93174 230.06371 221.17769 213.36967 206.38164
 200.22562 195.17360 191.76557 189.81755 188.86452 188.93850 189.78348 191.10145
 192.83643 194.94141 197.21438 199.58336 202.03833 204.52831 206.62629 208.47826
 210.11424 211.26922 211.50819 211.74617 211.69314 211.40812 211.05110 210.69107
 210.31805 210.03803 209.85600 209.72998 209.66795 210.00893 210.40491 210.80388
 211.60686 212.79484 214.05481 215.84779 217.78576 219.83874 221.94372 224.03669
 226.10667 228.20065 230.30762 232.42360 234.56257 236.74455 239.01053 241.39050
 244.02148 246.28246 248.29443 250.06941 251.49638 252.62936 253.46134 253.78731
 253.83429 253.61827 252.98824 251.94622 250.56219 248.73317 246.65215 244.49512
 242.29610 240.11008 237.94005 235.78903 233.65900 231.53598 229.57196 227.73893
 226.03191 224.51389 223.15386 221.93584 220.82781 219.79779 218.91177 218.06274
 217.31472 216.50470 215.61267 214.98665 214.44662 214.51353 214.67163 216.35573
 218.63463 219.81593 221.11079 222.37070 223.53844 225.31602 227.91968 229.39005
 230.94258 232.73215 235.09865 238.52473 242.57790 246.96574 251.32368 255.40305
 259.08975 262.45523 265.56244 268.38837 270.87292 272.99194 274.79819 276.34036
 277.58765 278.64624 279.62469 280.61667 281.48035 282.38171 283.32895 284.21289
 285.00159 285.70328 286.33524 287.19943
 366.78100 356.34392 345.78485 334.65977 323.07170 311.27462 299.15354 286.96547
 274.68639 262.59232 250.61024 239.92017 230.05109 221.16401 213.35494 206.36586
 200.20879 195.15571 191.74663 189.79756 188.84348 188.91641 189.76033 191.07726
 192.81118 194.91510 197.18703 199.55495 202.00888 204.49780 206.59472 208.44565
 210.08057 211.23450 211.47242 211.70935 211.65527 211.36919 211.01112 210.65004
 210.27597 209.99489 209.81181 209.68474 209.62166 209.96159 210.35651 210.75444
 211.55636 212.74328 214.00221 215.79413 217.73106 219.78298 221.88690 223.97883
 226.04775 228.14068 230.24660 232.36153 234.49945 236.68037 238.94530 241.32422
 243.95415 246.21407 248.22499 249.99892 251.42484 252.55677 253.38769 253.71261
 253.75854 253.54146 252.91039 251.86731 250.48224 248.65216 246.57008 244.41201
 242.21193 240.02486 237.85378 235.70170 233.57063 231.44655 229.48148 227.64740
 225.93933 224.42025 223.05917 221.84010 220.73102 219.69995 218.81287 217.96279
 217.21372 216.40264 215.50957 214.88249 214.34142 214.48021 214.80814 216.29623
 218.54608 219.80905 221.44307 222.70419 223.79756 225.49329 227.95355 229.17647
 230.62444 232.37660 234.81042 238.35350 242.48010 246.88902 251.24661 255.30467
 258.98444 262.36938 265.51682 268.36139 270.85016 272.98428 274.84448 276.44986
 277.75372 278.84180 279.82672 280.78217 281.59692 282.50494 283.46930 284.35712
 285.15411 285.86282 286.50443 287.36975
 366.78100 356.33791 345.77282 334.64173 323.04763 311.24454 299.11745 286.92336
 274.63827 262.53818 250.55008 239.85399 229.97890 221.08581 213.27072 206.27563
 200.11253 195.05344 191.63835 189.68326 188.72317 188.79008 189.62798 190.93889
 192.66680 194.76471 197.03062 199.39253 201.84043 204.32334 206.41425 208.25916
 209.88807 211.03598 211.26788 211.49879 211.43870 211.14661 210.78252 210.41543
 210.03534 209.74824 209.55915 209.42606 209.35697 209.69088 210.07979 210.47169
 211.26760 212.44851 213.70142 215.48733 217.41824 219.46414 221.56205 223.64796
 225.71087 227.79778 229.89769 232.00659 234.13850 236.31341 238.57232 240.94523
 243.56914 245.82304 247.82795 249.59586 251.01577 252.14168 252.96659 253.28549
 253.32540 253.10231 252.46522 251.41613 250.02504 248.18894 246.10085 243.93676
 241.73067 239.53758 237.36049 235.20240 233.06530 230.93521 228.96412 227.12403
 225.40994 223.88485 222.51775 221.29266 220.17757 219.14048 218.24739 217.39130
 216.63620 215.81911 214.92002 214.28693 213.73984 214.17236 215.19423 216.42204
 218.16229 219.64116 221.60255 222.80800 223.91995 225.66457 228.12363 229.20195
 230.52371 232.20518 234.63496 238.22849 242.40515 246.82278 251.17213 255.20050
 258.85468 262.23636 265.40686 268.27606 270.79468 272.98303 274.91400 276.57489
 277.94299 279.08047 280.08542 281.00186 281.86621 282.85275 283.82272 284.71323
 285.50974 286.22345 286.89240 287.76123
 366.78100 356.33388 345.76475 334.62963 323.03151 311.22439 299.09326 286.89514
 274.60602 262.50189 250.50977 239.80965 229.93052 221.03340 213.21428 206.21516
 200.04803 194.98491 191.56579 189.60666 188.64254 188.70542 189.53929 190.84617
 192.57005 194.66393 196.92580 199.28368 201.72756 204.20643 206.29331 208.13419
 209.75906 210.90294 211.13082 211.35770 211.29357 210.99745 210.62933 210.25820
 209.87408 209.58296 209.38983 209.25271 209.17959 209.50947 209.89434 210.28222
 211.07410 212.25097 213.49985 215.28173 217.20860 219.25048 221.34436 223.42624
 225.48511 227.56799 229.66387 231.76874 233.89662 236.06750 238.32237 240.69125
 243.31113 245.56101 247.56188 249.32576 250.74164 251.86351 252.68439 252.99927
 253.03514 252.80802 252.16690 251.11378 249.71865 247.87853 245.78641 243.61828
 241.40816 239.21104 237.02991 234.86779 232.72667 230.59255 228.61742 226.77330
 225.05518 223.52605 222.15493 220.92581 219.80668 218.76556 217.86844 217.00832
 216.24919 215.42807 214.52495 213.88782 213.33670 213.96243 215.44078 216.59230
 217.93953 219.71303 221.67271 222.78772 223.91438 225.72649 228.20874 229.18834
 230.39806 232.05453 234.47243 238.11287 242.35451 246.78751 251.13995 255.16362
 258.81265 262.18988 265.35828 268.22070 270.72385 272.89954 274.82034 276.47473
 277.84088 279.00070 280.08911 281.16559 282.24042 283.28711 284.25967 285.15039
 285.94455 286.65356 287.30560 288.14252
 366.78100 356.33456 345.76612 334.63168 323.03424 311.22780 299.09736 286.89991
 274.61147 262.50803 250.51659 239.81715 229.93871 221.04227 213.22383 206.22539
 200.05895 194.99651 191.57807 189.61963 188.65618 188.71974 189.55430 190.86186
 192.58642 194.68098 196.94354 199.30210 201.74666 204.22622 206.31378 208.15534
 209.78090 210.92545 211.15401 211.38157 211.31813 211.02269 210.65525 210.28481
 209.90137 209.61093 209.41849 209.28205 209.20961 209.54017 209.92572 210.31428
 211.10684 212.28440 213.53396 215.31652 217.24408 219.28664 221.38120 223.46376
 225.52332 227.60688 229.70344 231.80899 233.93755 236.10911 238.36467 240.73423
 243.35479 245.60535 247.60691 249.37147 250.78803 251.91059 252.73215 253.04770
 253.08426 252.85782 252.21738 251.16494 249.77050 247.93106 245.83962 243.67218
 241.46274 239.26630 237.08586 234.92442 232.78397 230.65053 228.67609 226.83265
 225.11521 223.58677 222.21633 220.98789 219.86945 218.82901 217.93257 217.07313
 216.31469 215.49424 214.59180 213.95536 213.40492 213.99959 215.40459 216.71864
 217.95735 219.92146 221.82243 222.89973 223.98059 225.75803 228.15550 229.02071
 230.14636 231.79431 234.26906 237.97798 242.28990 246.74628 251.11166 255.15010
 258.81027 262.19064 265.35397 268.20206 270.67892 272.80701 274.66437 276.26233
 277.59839 278.80048 280.03113 281.29422 282.46902 283.51947 284.48880 285.36914
 286.15344 286.84970 287.47760 288.28925
 366.78100 356.33677 345.77054 334.63831 323.04308 311.23885 299.11062 286.91539
 274.62916 262.52793 250.53870 239.84147 229.96524 221.07101 213.25479 206.25856
 200.09433 195.03410 191.61787 189.66164 188.70041 188.76618 189.60295 190.91272
 192.63949 194.73626 197.00103 199.36180 201.80857 204.29034 206.38011 208.22388
 209.85165 210.99842 211.22919 211.45896 211.39773 211.10450 210.73927 210.37104
 209.98982 209.70159 209.51136 209.37713 209.30690 209.63967 210.02744 210.41821
 211.21298 212.39275 213.64452 215.42929 217.35906 219.40383 221.50060 223.58537
 225.64714 227.73291 229.83168 231.93945 234.07022 236.24399 238.50176 240.87353
 243.49630 245.74907 247.75284 249.51962 250.93839 252.06316 252.88693 253.20470
 253.24347 253.01924 252.38101 251.33078 249.93855 248.10132 246.01209 243.84686
 241.63963 239.44540 237.26717 235.10794 232.96971 230.83848 228.86625 227.02502
 225.30979 223.78356 222.41533 221.18910 220.07287 219.03464 218.14042 217.28319
 216.52696 215.70873 214.80850 214.17427 213.62604 214.12135 215.29156 216.76381
 218.12215 220.06082 221.94830 223.06145 224.09886 225.81163 228.08841 228.82802
 229.87578 231.50060 234.07695 237.86821 242.22458 246.69585 251.06770 255.11035
 258.77081 262.14905 265.31311 268.16504 270.65811 272.79572 274.65015 276.24881
 277.59500 278.80124 280.00754 281.23749 282.39896 283.44586 284.41327 285.29428
 286.07742 286.77249 287.39923 288.21021
 366.78100 356.33814 345.77329 334.64243 323.04858 311.24572 299.11886 286.92501
 274.64015 262.54030 250.55244 239.85658 229.98173 221.08887 213.27402 206.27916
 200.11630 195.05745 191.64259 189.68774 188.72788 188.79502 189.63317 190.94431
 192.67246 194.77060 197.03674 199.39889 201.84703 204.33018 206.42132 208.26646
 209.89561 211.04375 211.27590 211.50704 211.44718 211.15533 210.79147 210.42461
 210.04476 209.75790 209.56905 209.43619 209.36733 209.70148 210.09062 210.48277
 211.27891 212.46005 213.71320 215.49934 217.43049 219.47663 221.57477 223.66092
 225.72406 227.81121 229.91135 232.02049 234.15264 236.32778 238.58693 240.96007
 243.58421 245.83836 247.84350 249.61165 251.03179 252.15793 252.98308 253.30222
 253.34237 253.11951 252.48265 251.43380 250.04294 248.20709 246.11923 243.95537
 241.74952 239.55666 237.37981 235.22195 233.08509 230.95524 228.98438 227.14453
 225.43067 223.90581 222.53896 221.31410 220.19925 219.16239 218.26953 217.41368
 216.65882 215.84197 214.94311 214.31025 213.76340 214.20338 215.24287 216.75313
 218.31339 220.13431 222.00488 223.15407 224.16640 225.86797 228.07550 228.72151
 229.68040 231.23607 233.91296 237.80403 242.18306 246.66301 251.03638 255.07686
 258.72882 262.09320 265.25198 268.10684 270.61401 272.78149 274.66882 276.30084
 277.68640 278.91541 280.07379 281.20502 282.29630 283.34106 284.31366 285.20468
 285.99557 286.70816 287.37314 288.22211
 366.78100 356.33859 345.77417 334.64376 323.05035 311.24793 299.12152 286.92811
 274.64369 262.54428 250.55686 239.86145 229.98704 221.09462 213.28021 206.28580
 200.12338 195.06497 191.65056 189.69614 188.73673 188.80432 189.64290 190.95449
 192.68308 194.78166 197.04825 199.41083 201.85942 204.34301 206.43459 208.28018
 209.90977 211.05835 211.29094 211.52253 211.46311 211.17170 210.80829 210.44187
 210.06246 209.77605 209.58763 209.45522 209.38680 209.72139 210.11098 210.50356
 211.30015 212.48174 213.73532 215.52191 217.45350 219.50008 221.59867 223.68526
 225.74884 227.83643 229.93702 232.04660 234.17919 236.35478 238.61436 240.98795
 243.61253 245.86712 247.87271 249.64129 251.06188 252.18847 253.01405 253.33364
 253.37423 253.15181 252.51540 251.46699 250.07657 248.24116 246.15375 243.99033
 241.78492 239.59250 237.41609 235.25868 233.12226 230.99285 229.02244 227.18302
 225.46961 223.94520 222.57878 221.35437 220.23996 219.20354 218.31113 217.45572
 216.70130 215.88489 214.98647 214.35406 213.80765 214.23778 215.25400 216.73796
 218.44159 220.22659 222.06383 223.20692 224.19476 225.89549 228.06961 228.62894
 229.50064 230.99841 233.77618 237.76332 242.16193 246.64532 251.01714 255.05853
 258.70810 262.05905 265.20279 268.04794 270.55270 272.73465 274.64490 276.30157
 277.71051 278.95459 280.10904 281.20020 282.27563 283.31699 284.29245 285.18094
 285.97943 286.70663 287.37540 288.22766
 366.78100 356.33778 345.77256 334.64135 323.04713 311.24391 299.11669 286.92248
 274.63726 262.53704 250.54882 239.85261 229.97739 221.08417 213.26895 206.27374
 200.11052 195.05130 191.63608 189.68087 188.72065 188.78743 189.62521 190.93600
 192.66378 194.76156 197.02734 199.38913 201.83691 204.31969 206.41047 208.25526
 209.88404 211.03182 211.26360 211.49439 211.43417 211.14195 210.77773 210.41052
 210.03030 209.74308 209.55386 209.42065 209.35143 209.68521 210.07399 210.46578
 211.26156 212.44234 213.69512 215.48091 217.41169 219.45747 221.55525 223.64104
 225.70382 227.79060 229.89038 231.99917 234.13095 236.30573 238.56451 240.93730
 243.56108 245.81486 247.81964 249.58743 251.00721 252.13299 252.95777 253.27656
 253.31634 253.09312 252.45590 251.40669 250.01547 248.17925 246.09103 243.92682
 241.72060 239.52738 237.35016 235.19195 233.05473 230.92451 228.95329 227.11308
 225.39886 223.87364 222.50642 221.28121 220.16599 219.12877 218.23555 217.37934
 216.62412 215.80690 214.90768 214.27447 213.72725 214.20799 215.34381 216.70482
 218.46979 220.33904 222.17755 223.27495 224.21498 225.96005 228.07869 228.55836
 229.31258 230.76178 233.63600 237.71504 242.12804 246.61127 250.97539 255.00999
 258.65594 262.00516 265.14215 267.98306 270.49402 272.69431 274.62231 276.29236
 277.71481 278.96683 280.13269 281.21466 282.29834 283.33777 284.30753 285.19427
 285.99295 286.74008 287.41348 288.27164
 366.78100 356.33692 345.77085 334.63877 323.04370 311.23962 299.11155 286.91647
 274.63039 262.52932 250.54024 239.84317 229.96709 221.07302 213.25694 206.26087
 200.09679 195.03671 191.62064 189.66456 188.70349 188.76941 189.60634 190.91626
 192.64318 194.74011 197.00503 199.36596 201.81288 204.29481 206.38473 208.22865
 209.85658 211.00350 211.23443 211.46435 211.40328 211.11020 210.74512 210.37705
 209.99597 209.70790 209.51782 209.38375 209.31367 209.64660 210.03452 210.42544
 211.22037 212.40029 213.65222 215.43714 217.36707 219.41199 221.50891 223.59384
 225.65576 227.74169 229.84061 231.94854 234.07946 236.25338 238.51131 240.88323
 243.50616 245.75908 247.76301 249.52993 250.94885 252.07378 252.89770 253.21563
 253.25455 253.03048 252.39240 251.34233 249.95025 248.11317 246.02410 243.85902
 241.65195 239.45787 237.27980 235.12072 232.98264 230.85157 228.87949 227.03842
 225.32334 223.79727 222.42919 221.20311 220.08704 219.04896 218.15489 217.29781
 216.54174 215.72366 214.82359 214.18951 213.64143 214.17458 215.43532 216.70628
 218.46658 220.38110 222.28055 223.50983 224.44574 226.03372 228.02274 228.43648
 229.12064 230.52834 233.49007 237.66115 242.06532 246.54382 250.88435 254.89836
 258.53998 261.90137 265.04620 267.89688 270.42892 272.65732 274.60825 276.29343
 277.73221 278.99683 280.17245 281.25854 282.38300 283.43152 284.40134 285.29175
 286.09964 286.85144 287.51105 288.35159
 366.78100 356.33743 345.77187 334.64030 323.04574 311.24217 299.11461 286.92004
 274.63448 262.53391 250.54535 239.84878 229.97322 221.07965 213.26409 206.26852
 200.10496 195.04539 191.62983 189.67426 188.71369 188.78013 189.61756 190.92800
 192.65543 194.75287 197.01830 199.37974 201.82717 204.30961 206.40004 208.24448
 209.87291 211.02035 211.25178 211.48222 211.42165 211.12909 210.76452 210.39696
 210.01639 209.72882 209.53926 209.40569 209.33613 209.66956 210.05800 210.44943
 211.24487 212.42530 213.67774 215.46317 217.39361 219.43904 221.53648 223.62191
 225.68435 227.77078 229.87022 231.97865 234.11008 236.28452 238.54295 240.91539
 243.53882 245.79226 247.79669 249.56413 250.98356 252.10900 252.93343 253.25187
 253.29130 253.06774 252.43017 251.38061 249.98904 248.15248 246.06391 243.89934
 241.69278 239.49921 237.32165 235.16308 233.02552 230.89495 228.92339 227.08282
 225.36826 223.84269 222.47513 221.24956 220.13400 219.09643 218.20287 217.34630
 216.59074 215.77317 214.87360 214.24004 213.69247 214.21288 215.44925 216.76784
 218.49031 220.38092 222.31357 223.63857 224.64603 226.07495 227.94170 228.36388
 228.92883 230.29338 233.32616 237.63228 242.02217 246.49097 250.80107 254.80019
 258.44556 261.81616 264.95624 267.80624 270.34644 272.59335 274.55679 276.24789
 277.70181 278.98688 280.17596 281.34216 282.49249 283.54178 284.51675 285.41290
 286.26089 287.02838 287.69882 288.55322
 366.78100 356.33675 345.77051 334.63826 323.04301 311.23876 299.11052 286.91527
 274.62902 262.52778 250.53853 239.84128 229.96503 221.07079 213.25454 206.25829
 200.09405 195.03380 191.61755 189.66130 188.70006 188.76581 189.60256 190.91232
 192.63907 194.73582 197.00057 199.36133 201.80808 204.28983 206.37958 208.22334
 209.85109 210.99784 211.22860 211.45835 211.39710 211.10385 210.73861 210.37036
 209.98911 209.70087 209.51062 209.37637 209.30612 209.63888 210.02663 210.41738
 211.21214 212.39189 213.64364 215.42839 217.35815 219.40290 221.49965 223.58441
 225.64616 227.73191 229.83066 231.93842 234.06917 236.24292 238.50068 240.87243
 243.49518 245.74793 247.75169 249.51844 250.93719 252.06195 252.88570 253.20345
 253.24220 253.01796 252.37971 251.32946 249.93721 248.09997 246.01072 243.84547
 241.63823 239.44398 237.26573 235.10648 232.96824 230.83699 228.86474 227.02350
 225.30825 223.78200 222.41375 221.18751 220.07126 219.03301 218.13877 217.28152
 216.52527 215.70702 214.80678 214.17253 213.62428 214.19225 215.54504 216.81657
 218.43498 220.33377 222.24300 223.61943 224.76062 226.10889 227.88596 228.44481
 228.78206 230.21436 233.31776 237.63266 242.04410 246.48453 250.77473 254.77563
 258.43668 261.81366 264.93646 267.76877 270.30170 272.55313 274.50446 276.18451
 277.64832 278.95468 280.17612 281.43942 282.62265 283.68936 284.69986 285.68414
 286.56943 287.35779 288.04645 288.92410
 366.78100 356.33561 345.76823 334.63484 323.03846 311.23307 299.10368 286.90730
 274.61991 262.51753 250.52714 239.82875 229.95137 221.05598 213.23859 206.24121
 200.07582 195.01444 191.59705 189.63966 188.67728 188.74189 189.57751 190.88612
 192.61173 194.70735 196.97096 199.33058 201.77619 204.25680 206.34542 208.18803
 209.81465 210.96026 211.18987 211.41849 211.35610 211.06171 210.69533 210.32594
 209.94356 209.65417 209.46278 209.32740 209.25601 209.58763 209.97424 210.36385
 211.15747 212.33608 213.58670 215.37031 217.29892 219.34254 221.43815 223.52177
 225.58238 227.66699 229.76461 231.87122 234.00083 236.17345 238.43006 240.80068
 243.42229 245.67390 247.67652 249.44213 250.85975 251.98336 252.80597 253.12259
 253.16020 252.93482 252.29543 251.24404 249.85066 248.01227 245.92189 243.75550
 241.54711 239.35173 237.17234 235.01195 232.87257 230.74018 228.76680 226.92441
 225.20802 223.68064 222.31125 221.08387 219.96648 218.92709 218.03171 217.17332
 216.41594 215.59655 214.69516 214.05978 213.51039 214.14343 215.64726 216.91092
 218.40178 220.28726 222.16690 223.59601 224.84499 226.19897 227.86702 228.47414
 228.71248 230.17442 233.30095 237.63852 242.06253 246.47978 250.76477 254.77765
 258.45691 261.83920 264.95184 267.77090 270.29831 272.54788 274.49860 276.17322
 277.64142 278.97061 280.21701 281.56012 282.75412 283.83670 284.89896 285.87009
 286.74350 287.52127 288.20071 289.06659
 366.78100 356.33734 345.77168 334.64002 323.04536 311.24170 299.11404 286.91939
 274.63373 262.53307 250.54441 239.84775 229.97209 221.07843 213.26277 206.26711
 200.10345 195.04379 191.62813 189.67247 188.71181 188.77816 189.61550 190.92584
 192.65318 194.75052 197.01586 199.37720 201.82454 204.30688 206.39722 208.24156
 209.86990 211.01724 211.24859 211.47893 211.41827 211.12561 210.76095 210.39329
 210.01263 209.72497 209.53531 209.40165 209.33199 209.66533 210.05367 210.44502
 211.24036 212.42070 213.67304 215.45838 217.38872 219.43406 221.53140 223.61674
 225.67908 227.76542 229.86476 231.97310 234.10444 236.27879 238.53713 240.90947
 243.53281 245.78615 247.79049 249.55783 250.97717 252.10251 252.92685 253.24519
 253.28453 253.06087 252.42322 251.37356 249.98190 248.14524 246.05658 243.89192
 241.68526 239.49160 237.31394 235.15528 233.01762 230.88696 228.91530 227.07465
 225.35999 223.83433 222.46667 221.24101 220.12535 219.08769 218.19403 217.33737
 216.58171 215.76405 214.86439 214.23073 213.68307 214.24068 215.58669 217.02515
 218.54256 220.34676 222.17192 223.61063 224.86855 226.23538 227.83067 228.32536
 228.53024 230.03516 233.24097 237.62581 242.06126 246.46417 250.74551 254.77386
 258.47696 261.87344 264.98560 267.80014 270.32812 272.58701 274.54224 276.20273
 277.66989 279.00140 280.31641 281.67078 282.87479 283.97916 285.05334 286.02646
 286.90167 287.68106 288.36191 289.22958
 366.78100 356.33856 345.77411 334.64367 323.05023 311.24779 299.12134 286.92790
 274.64346 262.54402 250.55657 239.86113 229.98669 221.09425 213.27980 206.28536
 200.12292 195.06448 191.65003 189.69559 188.73615 188.80371 189.64226 190.95382
 192.68238 194.78094 197.04749 199.41005 201.85861 204.34217 206.43372 208.27928
 209.90884 211.05740 211.28995 211.52151 211.46207 211.17063 210.80718 210.44074
 210.06130 209.77486 209.58641 209.45397 209.38553 209.72009 210.10964 210.50220
 211.29876 212.48032 213.73387 215.52043 217.45199 219.49855 221.59710 223.68366
 225.74722 227.83478 229.93533 232.04489 234.17745 236.35301 238.61256 240.98612
 243.61068 245.86524 247.87079 249.63935 251.05991 252.18647 253.01202 253.33158
 253.37214 253.14970 252.51325 251.46481 250.07437 248.23893 246.15148 243.98804
 241.78260 239.59016 237.41371 235.25627 233.11983 230.99039 229.01994 227.18050
 225.46706 223.94262 222.57617 221.35173 220.23729 219.20085 218.30840 217.45296
 216.69852 215.88208 214.98363 214.35119 213.80475 214.31700 215.56387 217.05983
 218.63756 220.43811 222.23041 223.64169 224.87041 226.25420 227.80292 228.13150
 228.32185 229.86670 233.16170 237.60608 242.05316 246.44040 250.71297 254.75839
 258.49194 261.91510 265.04074 267.86426 270.40521 272.68414 274.65936 276.32465
 277.77747 279.10120 280.40729 281.76300 282.96524 284.06781 285.13821 286.10791
 286.98004 287.75668 288.43515 289.29977
 366.78100 356.33656 345.77013 334.63769 323.04225 311.23782 299.10938 286.91395
 274.62751 262.52607 250.53664 239.83920 229.96276 221.06833 213.25189 206.25545
 200.09102 195.03058 191.61415 189.65771 188.69627 188.76184 189.59840 190.90796
 192.63453 194.73109 196.99565 199.35622 201.80278 204.28434 206.37391 208.21747
 209.84504 210.99160 211.22216 211.45173 211.39029 211.09685 210.73142 210.36298
 209.98154 209.69311 209.50267 209.36824 209.29780 209.63036 210.01793 210.40849
 211.20305 212.38262 213.63418 215.41874 217.34831 219.39287 221.48944 223.57400
 225.63556 227.72113 229.81969 231.92725 234.05782 236.23138 238.48894 240.86051
 243.48307 245.73564 247.73920 249.50576 250.92433 252.04889 252.87245 253.19002
 253.22858 253.00414 252.36571 251.31527 249.92284 248.08540 245.99596 243.83053
 241.62309 239.42865 237.25022 235.09078 232.95234 230.82091 228.84847 227.00703
 225.29160 223.76516 222.39673 221.17029 220.05385 219.01542 218.12098 217.26354
 216.50711 215.68867 214.78823 214.15380 213.60536 214.22116 215.69157 217.12860
 218.56630 220.38893 222.25229 223.69145 224.91309 226.32343 227.95795 227.97858
 228.14969 229.67331 233.03239 237.56355 241.99776 246.35547 250.62009 254.66846
 258.41922 261.86273 265.00897 267.85953 270.43677 272.76505 274.78290 276.47818
 277.95325 279.29086 280.54263 281.83542 283.02216 284.08517 285.08179 286.01971
 286.86328 287.61447 288.27069 289.10699
 366.78100 356.33483 345.76665 334.63248 323.03530 311.22913 299.09895 286.90178
 274.61360 262.51043 250.51925 239.82008 229.94190 221.04573 213.22755 206.22938
 200.06321 195.00103 191.58286 189.62468 188.66151 188.72533 189.56016 190.86798
 192.59281 194.68763 196.95046 199.30928 201.75411 204.23393 206.32176 208.16359
 209.78941 210.93424 211.16306 211.39089 211.32771 211.03254 210.66536 210.29519
 209.91201 209.62184 209.42966 209.29349 209.22131 209.55214 209.93797 210.32679
 211.11962 212.29744 213.54727 215.33009 217.25792 219.30074 221.39557 223.47839
 225.53822 227.62204 229.71887 231.82469 233.95352 236.12535 238.38117 240.75100
 243.37182 245.62265 247.62447 249.38930 250.80612 251.92895 252.75077 253.06660
 253.10342 252.87725 252.23708 251.18490 249.79073 247.95155 245.86038 243.69320
 241.48403 239.28785 237.10768 234.94650 232.80633 230.67315 228.69898 226.85580
 225.13863 223.61046 222.24028 221.01211 219.89393 218.85376 217.95758 217.09841
 216.34023 215.52006 214.61788 213.98171 213.43153 214.13153 215.78969 217.24182
 218.59576 220.41960 222.31047 223.75822 224.99063 226.40341 227.99835 227.86819
 228.08255 229.55960 232.93861 237.54527 241.91341 246.24025 250.48849 254.53046
 258.28369 261.73376 264.89240 267.76801 270.38242 272.74469 274.79898 276.53915
 278.05704 279.43570 280.69028 281.90375 283.06699 284.11887 285.08463 285.96921
 286.78128 287.50681 288.14062 288.94833
 366.78100 356.33465 345.76631 334.63196 323.03462 311.22827 299.09793 286.90058
 274.61223 262.50889 250.51754 239.81820 229.93985 221.04351 213.22516 206.22681
 200.06047 194.99812 191.57978 189.62143 188.65809 188.72174 189.55639 190.86405
 192.58870 194.68336 196.94601 199.30467 201.74932 204.22897 206.31663 208.15828
 209.78394 210.92859 211.15725 211.38490 211.32155 211.02621 210.65886 210.28852
 209.90517 209.61483 209.42248 209.28613 209.21379 209.54444 209.93010 210.31875
 211.11141 212.28906 213.53871 215.32137 217.24902 219.29168 221.38633 223.46899
 225.52864 227.61229 229.70895 231.81460 233.94326 236.11491 238.37057 240.74022
 243.36087 245.61153 247.61318 249.37784 250.79449 251.91715 252.73880 253.05445
 253.09111 252.86476 252.22442 251.17207 249.77773 247.93838 245.84703 243.67969
 241.47034 239.27400 237.09365 234.93231 232.79196 230.65861 228.68427 226.84092
 225.12358 223.59523 222.22489 220.99654 219.87819 218.83785 217.94150 217.08216
 216.32381 215.50347 214.60112 213.96477 213.41443 214.12302 215.79715 217.36082
 218.69858 220.48306 222.32585 223.76137 225.01234 226.43884 228.00288 227.86740
 228.06171 229.57802 232.97737 237.52747 241.86005 246.15291 250.38066 254.42209
 258.17679 261.62732 264.78586 267.67322 270.31354 272.70746 274.78842 276.54657
 278.09439 279.49988 280.77420 281.96423 283.11267 284.16092 285.12375 285.99966
 286.78741 287.48825 288.10254 288.88538
 366.78100 356.33556 345.76812 334.63467 323.03823 311.23279 299.10335 286.90690
 274.61946 262.51702 250.52658 239.82813 229.95069 221.05525 213.23781 206.24036
 200.07492 195.01348 191.59604 189.63859 188.67615 188.74071 189.57627 190.88482
 192.61038 194.70594 196.96950 199.32906 201.77461 204.25517 206.34373 208.18629
 209.81284 210.95840 211.18796 211.41652 211.35407 211.05963 210.69319 210.32375
 209.94130 209.65186 209.46042 209.32498 209.25353 209.58509 209.97165 210.36121
 211.15477 212.33332 213.58388 215.36744 217.29600 219.33955 221.43511 223.51867
 225.57923 227.66378 229.76134 231.86790 233.99746 236.17001 238.42657 240.79713
 243.41869 245.67024 247.67280 249.43836 250.85592 251.97947 252.80203 253.11859
 253.15615 252.93071 252.29126 251.23982 249.84638 248.00794 245.91749 243.75105
 241.54261 239.34717 237.16772 235.00728 232.86784 230.73540 228.76195 226.91951
 225.20307 223.67563 222.30618 221.07874 219.96130 218.92186 218.02642 217.16797
 216.41053 215.59109 214.68965 214.05420 213.50476 214.17062 215.74377 217.49942
 218.84415 220.55400 222.30763 223.69545 224.95480 226.41113 227.97629 227.90787
 228.04628 229.59344 232.99416 237.51833 241.84703 246.10437 250.31004 254.34454
 258.10211 261.55292 264.70605 267.59485 270.24939 272.67078 274.75662 276.51306
 278.08005 279.51883 280.82452 282.01379 283.11752 284.16611 285.12390 285.98734
 286.74307 287.39075 287.95798 288.69003
 366.78100 356.33654 345.77009 334.63763 323.04218 311.23772 299.10927 286.91381
 274.62736 262.52590 250.53644 239.83899 229.96253 221.06808 213.25162 206.25517
 200.09071 195.03025 191.61380 189.65734 188.69589 188.76143 189.59798 190.90752
 192.63407 194.73061 196.99515 199.35570 201.80224 204.28379 206.37333 208.21688
 209.84442 210.99096 211.22151 211.45105 211.38960 211.09614 210.73069 210.36223
 209.98078 209.69232 209.50186 209.36741 209.29695 209.62950 210.01704 210.40759
 211.20213 212.38168 213.63322 215.41776 217.34731 219.39185 221.48840 223.57294
 225.63449 227.72003 229.81857 231.92612 234.05666 236.23021 238.48775 240.85930
 243.48184 245.73439 247.73793 249.50447 250.92302 252.04756 252.87111 253.18865
 253.22720 253.00274 252.36429 251.31383 249.92137 248.08392 245.99446 243.82901
 241.62155 239.42710 237.24864 235.08918 232.95073 230.81927 228.84682 227.00536
 225.28991 223.76345 222.39500 221.16854 220.05208 219.01363 218.11917 217.26172
 216.50526 215.68681 214.78635 214.15189 213.60344 214.22563 215.69560 217.59309
 218.98970 220.63214 222.29361 223.61150 224.85220 226.34196 227.93596 227.91501
 228.01210 229.57640 232.99542 237.53085 241.85484 246.07118 250.26631 254.30147
 258.06567 261.51706 264.66086 267.53943 270.19308 272.61096 274.67258 276.42645
 278.02161 279.48538 280.81686 282.01407 283.12134 284.15863 285.11539 285.97589
 286.74280 287.41986 288.02060 288.82590
 366.78100 356.33715 345.77129 334.63944 323.04459 311.24074 299.11288 286.91803
 274.63218 262.53133 250.54247 239.84562 229.96977 221.07591 213.26006 206.26421
 200.10036 195.04050 191.62465 189.66880 188.70795 188.77409 189.61124 190.92139
 192.64853 194.74568 197.01083 199.37198 201.81912 204.30127 206.39142 208.23557
 209.86371 211.01086 211.24201 211.47215 211.41130 211.11845 210.75360 210.38574
 210.00489 209.71704 209.52719 209.39333 209.32348 209.65663 210.04477 210.43592
 211.23107 212.41122 213.66336 215.44851 217.37866 219.42381 221.52095 223.60610
 225.66825 227.75439 229.85354 231.96169 234.09284 236.26698 238.52513 240.89728
 243.52043 245.77357 247.77772 249.54487 250.96401 252.08916 252.91331 253.23146
 253.27060 253.04675 252.40890 251.35905 249.96719 248.13034 246.04149 243.87663
 241.66978 239.47593 237.29808 235.13922 233.00137 230.87052 228.89867 227.05781
 225.34296 223.81711 222.44925 221.22340 220.10755 219.06970 218.17584 217.31899
 216.56314 215.74529 214.84543 214.21158 213.66373 214.26312 215.67929 217.63348
 219.12549 220.69272 222.26845 223.52519 224.75188 226.27998 227.89896 227.92052
 228.00790 229.55504 232.99428 237.55246 241.86263 246.04816 250.22813 254.26852
 258.04718 261.50504 264.64212 267.51212 270.16357 272.57986 274.61777 276.35031
 277.94910 279.42715 280.77518 281.98697 283.09351 284.12607 285.07309 285.93573
 286.72046 287.41669 288.02426 288.83423
 366.78100 356.33761 345.77223 334.64084 323.04645 311.24306 299.11568 286.92129
 274.63590 262.53551 250.54713 239.85074 229.97535 221.08196 213.26658 206.27119
 200.10780 195.04842 191.63303 189.67764 188.71725 188.78387 189.62148 190.93209
 192.65970 194.75732 197.02293 199.38454 201.83215 204.31477 206.40538 208.24999
 209.87861 211.02622 211.25783 211.48844 211.42806 211.13567 210.77128 210.40389
 210.02351 209.73612 209.54673 209.41334 209.34396 209.67757 210.06618 210.45780
 211.25341 212.43402 213.68663 215.47225 217.40286 219.44847 221.54608 223.63170
 225.69431 227.78092 229.88053 231.98915 234.12076 236.29537 238.55398 240.92660
 243.55021 245.80382 247.80844 249.57605 250.99566 252.12127 252.94589 253.26450
 253.30411 253.08072 252.44334 251.39395 250.00256 248.16617 246.07779 243.91340
 241.70701 239.51363 237.33624 235.17785 233.04046 230.91008 228.93869 227.09830
 225.38391 223.85853 222.49114 221.26575 220.15036 219.11298 218.21959 217.36320
 216.60782 215.79043 214.89104 214.25765 213.71027 214.29353 215.67154 217.65047
 219.28323 220.75859 222.23241 223.43303 224.64333 226.20372 227.87923 227.94864
 228.01469 229.53671 232.99086 237.56653 241.86378 246.01276 250.17450 254.22260
 258.01459 261.48074 264.61768 267.48904 270.14581 272.56891 274.59540 276.30963
 277.89944 279.37888 280.73566 281.95557 283.05136 284.07831 285.02570 285.89139
 286.68155 287.38446 287.99448 288.79895
 366.78100 356.33850 345.77400 334.64350 323.05000 311.24750 299.12101 286.92751
 274.64301 262.54351 250.55601 239.86051 229.98601 221.09351 213.27901 206.28451
 200.12201 195.06351 191.64902 189.69452 188.73502 188.80252 189.64102 190.95252
 192.68102 194.77952 197.04602 199.40852 201.85702 204.34053 206.43203 208.27753
 209.90703 211.05553 211.28803 211.51953 211.46003 211.16853 210.80503 210.43853
 210.05904 209.77254 209.58404 209.45154 209.38304 209.71754 210.10704 210.49954
 211.29604 212.47754 213.73104 215.51754 217.44905 219.49555 221.59405 223.68055
 225.74405 227.83155 229.93205 232.04155 234.17405 236.34955 238.60905 240.98256
 243.60706 245.86156 247.86706 249.63556 251.05606 252.18256 253.00806 253.32756
 253.36806 253.14556 252.50906 251.46057 250.07007 248.23457 246.14707 243.98357
 241.77807 239.58557 237.40907 235.25157 233.11507 230.98557 229.01508 227.17558
 225.46208 223.93758 222.57108 221.34658 220.23208 219.19558 218.30308 217.44758
 216.69308 215.87658 214.97809 214.34559 213.79909 214.34593 215.63792 217.67310
 219.44855 220.83659 222.19774 223.34354 224.53506 226.13655 227.84062 227.94864
 228.01726 229.52832 232.99078 237.57802 241.86276 245.97739 250.12473 254.16988
 257.97159 261.44492 264.58481 267.46228 270.12772 272.56281 274.58652 276.28879
 277.86356 279.33514 280.69275 281.92136 283.00330 284.02643 284.97537 285.84424
 286.63461 287.34570 287.95718 288.76254
 366.78100 356.33984 345.77668 334.64753 323.05537 311.25421 299.12905 286.93690
 274.65374 262.55558 250.56942 239.87527 230.00211 221.11095 213.29779 206.30463
 200.14348 195.08632 191.67316 189.72000 188.76185 188.83069 189.67053 190.98337
 192.71321 194.81306 197.08090 199.44474 201.89458 204.37943 206.47227 208.31911
 209.94995 211.09980 211.33364 211.56648 211.50832 211.21816 210.85601 210.49085
 210.11269 209.82753 209.64038 209.50922 209.44206 209.77790 210.16874 210.56259
 211.36043 212.54327 213.79811 215.58596 217.51880 219.56664 221.66648 223.75433
 225.81917 227.90801 230.00985 232.12069 234.25454 236.43138 238.69222 241.06706
 243.69291 245.94875 247.95559 249.72543 251.14727 252.27512 253.10196 253.42280
 253.46464 253.24349 252.60833 251.56117 250.17201 248.33786 246.25170 244.08954
 241.88538 239.69422 237.51907 235.36291 233.22775 231.09959 229.13044 227.29228
 225.58012 224.05696 222.69180 221.46865 220.35549 219.32033 218.42917 217.57502
 216.82186 216.00670 215.10954 214.47839 213.93323 214.42232 215.57787 217.70871
 219.60342 220.91795 222.16028 223.27470 224.44914 225.99556 227.77342 227.97467
 228.05067 229.54382 233.00220 237.59795 241.87514 245.95074 250.07538 254.11928
 257.93134 261.41193 264.55499 267.43732 270.11157 272.55551 274.57828 276.27390
 277.83282 279.29114 280.64343 281.87756 282.95630 283.97995 284.93225 285.80374
 286.59888 287.31689 287.92862 288.73581
 366.78100 356.34087 345.77874 334.65061 323.05948 311.25935 299.13522 286.94410
 274.66197 262.56484 250.57971 239.88658 230.01445 221.12432 213.31219 206.32006
 200.15993 195.10380 191.69167 189.73954 188.78241 188.85229 189.69316 191.00703
 192.73790 194.83877 197.10764 199.47251 201.92338 204.40925 206.50312 208.35099
 209.98286 211.13373 211.36860 211.60248 211.54535 211.25622 210.89509 210.53096
 210.15383 209.86970 209.68357 209.55344 209.48731 209.82418 210.21605 210.61092
 211.40979 212.59367 213.84954 215.63841 217.57228 219.62115 221.72202 223.81089
 225.87676 227.96663 230.06950 232.18137 234.31624 236.49411 238.75598 241.13186
 243.75873 246.01560 248.02347 249.79434 251.21721 252.34608 253.17395 253.49582
 253.53869 253.31856 252.68443 251.63830 250.25017 248.41705 246.33192 244.17079
 241.96766 239.77753 237.60340 235.44827 233.31414 231.18701 229.21888 227.38175
 225.67062 224.14849 222.78436 221.56224 220.45011 219.41598 218.52585 217.67272
 216.92059 216.10646 215.21033 214.58020 214.03607 214.48332 215.53999 217.72458
 219.74211 221.01430 222.13667 223.20970 224.36462 225.84474 227.68805 227.98511
 228.08101 229.56699 233.02080 237.62740 241.90340 245.93243 250.02917 254.07469
 257.89615 261.38440 264.52966 267.41476 270.09497 272.54517 274.56622 276.25607
 277.80243 279.24524 280.58862 281.81906 282.90811 283.93909 284.89331 285.76651
 286.56567 287.28448 287.90170 288.71313
 366.78100 356.34099 345.77899 334.65098 323.05997 311.25997 299.13596 286.94495
 274.66295 262.56594 250.58093 239.88793 230.01592 221.12591 213.31391 206.32190
 200.16189 195.10589 191.69388 189.74187 188.78486 188.85486 189.69585 191.00984
 192.74084 194.84183 197.11082 199.47582 201.92681 204.41280 206.50680 208.35479
 209.98678 211.13778 211.37277 211.60676 211.54976 211.26075 210.89974 210.53574
 210.15873 209.87472 209.68872 209.55871 209.49270 209.82970 210.22169 210.61668
 211.41568 212.59967 213.85566 215.64466 217.57865 219.62764 221.72864 223.81763
 225.88362 227.97362 230.07661 232.18860 234.32359 236.50159 238.76358 241.13957
 243.76657 246.02356 248.03155 249.80255 251.22554 252.35453 253.18253 253.50452
 253.54751 253.32751 252.69350 251.64749 250.25949 248.42648 246.34147 244.18047
 241.97746 239.78745 237.61345 235.45844 233.32443 231.19743 229.22942 227.39241
 225.68141 224.15940 222.79539 221.57339 220.46138 219.42737 218.53737 217.68436
 216.93235 216.11834 215.22234 214.59233 214.04832 214.49754 215.55890 217.69733
 219.84637 221.14680 222.15517 223.14969 224.26495 225.68196 227.57269 227.96848
 228.10730 229.59892 233.04599 237.66255 241.94293 245.92763 249.99704 254.03746
 257.86661 261.35941 264.50537 267.39151 270.07651 272.53030 274.54819 276.23523
 277.76941 279.19629 280.52957 281.75061 282.86414 283.89932 284.85574 285.73181
 286.53351 287.25470 287.87665 288.68860
 366.78100 356.34079 345.77858 334.65037 323.05916 311.25894 299.13473 286.94352
 274.66131 262.56410 250.57889 239.88568 230.01347 221.12325 213.31104 206.31883
 200.15862 195.10241 191.69020 189.73799 188.78078 188.85056 189.69135 191.00514
 192.73593 194.83672 197.10551 199.47030 201.92109 204.40687 206.50066 208.34845
 209.98024 211.13103 211.36582 211.59961 211.54240 211.25318 210.89197 210.52776
 210.15055 209.86634 209.68013 209.54992 209.48371 209.82050 210.21228 210.60707
 211.40586 212.58965 213.84544 215.63423 217.56802 219.61681 221.71759 223.80638
 225.87217 227.96196 230.06475 232.17654 234.31133 236.48912 238.75090 241.12669
 243.75348 246.01027 248.01806 249.78885 251.21164 252.34043 253.16821 253.49000
 253.53279 253.31258 252.67837 251.63216 250.24395 248.41074 246.32552 244.16431
 241.96110 239.77089 237.59668 235.44147 233.30726 231.18005 229.21183 227.37462
 225.66341 224.14120 222.77699 221.55478 220.44257 219.40836 218.51815 217.66493
 216.91272 216.09851 215.20230 214.57209 214.02788 214.49364 215.59406 217.66449
 219.91341 221.29189 222.21350 223.09521 224.14517 225.50668 227.43527 227.93462
 228.13734 229.64323 233.07750 237.69960 241.98698 245.94316 249.97969 254.00786
 257.84158 261.33606 264.47937 267.36462 270.05322 272.50497 274.51636 276.20059
 277.72769 279.14447 280.46701 281.67618 282.82126 283.86334 284.82034 285.69766
 286.49948 287.22348 287.85254 288.66119
 366.78100 356.34137 345.77974 334.65211 323.06149 311.26186 299.13823 286.94760
 274.66597 262.56934 250.58472 239.89209 230.02046 221.13083 213.31920 206.32757
 200.16795 195.11232 191.70069 189.74906 188.79243 188.86280 189.70418 191.01855
 192.74992 194.85129 197.12066 199.48603 201.93741 204.42378 206.51815 208.36652
 209.99889 211.15026 211.38564 211.62001 211.56338 211.27475 210.91412 210.55049
 210.17387 209.89024 209.70461 209.57498 209.50935 209.84672 210.23910 210.63447
 211.43384 212.61821 213.87458 215.66395 217.59833 219.64770 221.74907 223.83844
 225.90481 227.99518 230.09856 232.21093 234.34630 236.52467 238.78704 241.16341
 243.79079 246.04816 248.05653 249.82790 251.25127 252.38064 253.20902 253.53139
 253.57476 253.35513 252.72150 251.67587 250.28825 248.45562 246.37099 244.21036
 242.00773 239.81810 237.64448 235.48985 233.35622 231.22959 229.26196 227.42533
 225.71471 224.19308 222.82945 221.60782 220.49619 219.46256 218.57294 217.72031
 216.96868 216.15505 215.25942 214.62979 214.08617 214.52895 215.57510 217.67677
 219.97522 221.38525 222.27216 223.05916 224.03609 225.34569 227.29433 227.88402
 228.15913 229.69046 233.11267 237.73814 242.03516 245.97061 249.96925 253.98482
 257.82169 261.31470 264.45163 267.33380 270.02240 272.46606 274.46652 276.14795
 277.67322 279.08453 280.39764 281.61588 282.77924 283.82742 284.78738 285.66705
 286.47021 287.19412 287.83173 288.64597
 366.78100 356.34277 345.78254 334.65631 323.06708 311.26885 299.14662 286.95739
 274.67716 262.58193 250.59870 239.90747 230.03724 221.14901 213.33878 206.34855
 200.19032 195.13609 191.72586 189.77563 188.82040 188.89217 189.73494 191.05071
 192.78348 194.88625 197.15702 199.52379 201.97656 204.46432 206.56009 208.40986
 210.04363 211.19640 211.43317 211.66894 211.61371 211.32648 210.96725 210.60502
 210.22979 209.94756 209.76333 209.63510 209.57087 209.90964 210.30341 210.70018
 211.50095 212.68672 213.94449 215.73526 217.67103 219.72180 221.82457 223.91534
 225.98311 228.07488 230.17965 232.29342 234.43019 236.60996 238.87373 241.25150
 243.88027 246.13904 248.14881 249.92158 251.34635 252.47712 253.30689 253.63066
 253.67543 253.45720 252.82497 251.78074 250.39451 248.56328 246.48005 244.32082
 242.11959 239.93136 237.75913 235.60590 233.47367 231.34844 229.38221 227.54697
 225.83774 224.31751 222.95528 221.73505 220.62482 219.59259 218.70436 217.85313
 217.10290 216.29067 215.39644 214.76821 214.22598 214.60677 215.50641 217.72044
 220.06049 221.40907 222.30182 223.05247 223.96388 225.21617 227.15955 227.81224
 228.15894 229.73012 233.14891 237.77835 242.08459 246.00116 249.96284 253.96443
 257.80136 261.29135 264.42004 267.29886 269.98672 272.42130 274.41147 276.09277
 277.61826 279.02551 280.33124 281.57086 282.73987 283.78922 284.75208 285.63358
 286.43768 287.16281 287.79953 288.61465
 366.78100 356.34396 345.78492 334.65987 323.07183 311.27479 299.15375 286.96571
 274.68666 262.59262 250.61058 239.92054 230.05149 221.16445 213.35541 206.36637
 200.20933 195.15628 191.74724 189.79820 188.84416 188.91712 189.76107 191.07803
 192.81199 194.91595 197.18790 199.55586 202.00982 204.49878 206.59574 208.44669
 210.08165 211.23561 211.47357 211.71053 211.65648 211.37044 211.01240 210.65136
 210.27732 209.99627 209.81323 209.68619 209.62315 209.96310 210.35806 210.75602
 211.55798 212.74494 214.00389 215.79585 217.73281 219.78477 221.88873 223.98068
 226.04964 228.14260 230.24856 232.36351 234.50147 236.68243 238.94739 241.32635
 243.95630 246.21626 248.22722 250.00118 251.42714 252.55909 253.39005 253.71501
 253.76097 253.54392 252.91288 251.86984 250.48480 248.65476 246.57271 244.41467
 242.21463 240.02759 237.85655 235.70450 233.57346 231.44942 229.48438 227.65034
 225.94229 224.42325 223.06221 221.84317 220.73412 219.70308 218.81604 217.96600
 217.21696 216.40591 215.51287 214.88583 214.34479 214.67584 215.45799 217.73776
 220.15254 221.42921 222.31445 223.05289 223.90070 225.09929 227.02971 227.73212
 228.15198 229.77158 233.18915 237.82161 242.13620 246.03488 249.96518 253.94589
 257.77460 261.25537 264.37616 267.25574 269.94791 272.38025 274.36868 276.05133
 277.57452 278.97723 280.27136 281.53812 282.71091 283.76083 284.72501 285.60727
 286.41275 287.13800 287.77606 288.60535
 366.78100 356.34441 345.78582 334.66122 323.07363 311.27704 299.15645 286.96885
 274.69026 262.59667 250.61508 239.92548 230.05689 221.17030 213.36171 206.37311
 200.21652 195.16393 191.75534 189.80674 188.85315 188.92656 189.77097 191.08837
 192.82278 194.92719 197.19960 199.56800 202.02241 204.51182 206.60923 208.46063
 210.09604 211.25045 211.48886 211.72626 211.67267 211.38708 211.02949 210.66889
 210.29530 210.01471 209.83212 209.70552 209.64293 209.98334 210.37875 210.77715
 211.57956 212.76697 214.02638 215.81879 217.75619 219.80860 221.91301 224.00542
 226.07482 228.16823 230.27464 232.39005 234.52845 236.70986 238.97527 241.35468
 243.98508 246.24549 248.25690 250.03131 251.45771 252.59012 253.42153 253.74694
 253.79334 253.57675 252.94616 251.90357 250.51897 248.68938 246.60779 244.45020
 242.25060 240.06401 237.89342 235.74183 233.61123 231.48764 229.52305 227.68946
 225.98186 224.46327 223.10268 221.88409 220.77549 219.74490 218.85831 218.00872
 217.26013 216.44953 215.55694 214.93035 214.38976 214.70821 215.46059 217.71489
 220.20567 221.51645 222.34506 223.02289 223.79710 224.96318 226.89879 227.66190
 228.16273 229.83125 233.24112 237.87161 242.19591 246.08540 249.97432 253.92557
 257.73914 261.20248 264.31497 267.20093 269.90375 272.34232 274.33652 276.02289
 277.54239 278.94012 280.22525 281.51569 282.69092 283.74060 284.70526 285.58923
 286.39432 287.12170 287.75992 288.59109
 366.78100 356.34450 345.78600 334.66150 323.07400 311.27751 299.15701 286.96951
 274.69101 262.59751 250.61601 239.92651 230.05801 221.17152 213.36302 206.37452
 200.21802 195.16552 191.75702 189.80852 188.85502 188.92853 189.77303 191.09053
 192.82503 194.92953 197.20203 199.57053 202.02503 204.51454 206.61204 208.46354
 210.09904 211.25354 211.49204 211.72954 211.67604 211.39055 211.03305 210.67255
 210.29905 210.01855 209.83605 209.70955 209.64705 209.98756 210.38306 210.78156
 211.58406 212.77156 214.03106 215.82356 217.76106 219.81357 221.91807 224.01057
 226.08007 228.17357 230.28007 232.39557 234.53407 236.71558 238.98108 241.36058
 243.99108 246.25158 248.26308 250.03758 251.46408 252.59659 253.42809 253.75359
 253.80009 253.58359 252.95309 251.91059 250.52609 248.69660 246.61510 244.45760
 242.25810 240.07160 237.90110 235.74960 233.61910 231.49561 229.53111 227.69761
 225.99011 224.47161 223.11111 221.89261 220.78411 219.75362 218.86712 218.01762
 217.26912 216.45862 215.56612 214.93962 214.39912 214.72202 215.48488 217.68349
 220.20808 221.65128 222.41518 222.96825 223.64265 224.79872 226.75882 227.59682
 228.19374 229.91661 233.30954 237.92921 242.26944 246.15305 250.00009 253.91353
 257.70142 261.14066 264.24191 267.13574 269.85107 272.29489 274.29489 275.98682
 277.50739 278.90433 280.17892 281.50479 282.68546 283.73550 284.70166 285.58411
 286.39151 287.11884 287.76193 288.59344
 366.78100 356.34464 345.78629 334.66193 323.07457 311.27822 299.15786 286.97050
 274.69215 262.59879 250.61743 239.92807 230.05972 221.17336 213.36500 206.37665
 200.22029 195.16793 191.75958 189.81122 188.85786 188.93151 189.77615 191.09379
 192.82844 194.93308 197.20572 199.57437 202.02901 204.51865 206.61629 208.46794
 210.10358 211.25822 211.49687 211.73451 211.68115 211.39580 211.03844 210.67808
 210.30473 210.02437 209.84201 209.71566 209.65330 209.99394 210.38958 210.78823
 211.59087 212.77851 214.03816 215.83080 217.76844 219.82109 221.92573 224.01837
 226.08802 228.18166 230.28830 232.40395 234.54259 236.72423 238.98988 241.36952
 244.00016 246.26080 248.27245 250.04709 251.47373 252.60638 253.43802 253.76366
 253.81031 253.59395 252.96359 251.92124 250.53688 248.70752 246.62617 244.46881
 242.26945 240.08310 237.91274 235.76138 233.63102 231.50767 229.54331 227.70995
 226.00260 224.48424 223.12388 221.90553 220.79717 219.76681 218.88046 218.03110
 217.28274 216.47239 215.58003 214.95367 214.41331 214.73817 215.50571 217.66240
 220.18982 221.76505 222.50879 222.92233 223.48682 224.62534 226.60019 227.51230
 228.21844 230.01236 233.38945 237.99387 242.35538 246.24388 250.04457 253.91965
 257.66977 261.07898 264.16644 267.06479 269.78735 272.22635 274.22623 275.92731
 277.45776 278.86249 280.16180 281.49988 282.68625 283.74124 284.70706 285.59320
 286.40298 287.13452 287.77289 288.60983
 366.78100 356.34486 345.78671 334.66257 323.07542 311.27928 299.15913 286.97199
 274.69384 262.60070 250.61955 239.93041 230.06226 221.17612 213.36798 206.37983
 200.22369 195.17154 191.76340 189.81525 188.86211 188.93596 189.78082 191.09867
 192.83353 194.93838 197.21124 199.58010 202.03495 204.52481 206.62266 208.47452
 210.11037 211.26523 211.50408 211.74194 211.68879 211.40365 211.04651 210.68636
 210.31322 210.03307 209.85093 209.72478 209.66264 210.00349 210.39935 210.79820
 211.60106 212.78891 214.04877 215.84163 217.77948 219.83234 221.93719 224.03005
 226.09990 228.19376 230.30061 232.41647 234.55532 236.73718 239.00303 241.38289
 244.01375 246.27460 248.28646 250.06131 251.48817 252.62102 253.45288 253.77873
 253.82559 253.60944 252.97930 251.93715 250.55301 248.72387 246.64272 244.48558
 242.28643 240.10029 237.93014 235.77900 233.64885 231.52571 229.56156 227.72842
 226.02128 224.50313 223.14299 221.92484 220.81670 219.78655 218.90041 218.05126
 217.30312 216.49297 215.60083 214.97468 214.43454 214.75928 215.52647 217.64456
 220.17598 221.81902 222.61185 222.91362 223.35271 224.46767 226.42734 227.38797
 228.21291 230.10207 233.47668 238.06435 242.44975 246.34685 250.11090 253.94344
 257.64844 261.02344 264.09369 266.98978 269.71085 272.13586 274.13235 275.84598
 277.39725 278.81879 280.16086 281.50812 282.69666 283.75436 284.72409 285.61237
 286.42383 287.15515 287.79529 288.63345
 366.78100 356.34504 345.78708 334.66312 323.07616 311.28020 299.16024 286.97328
 274.69532 262.60236 250.62140 239.93244 230.06448 221.17852 213.37056 206.38260
 200.22664 195.17468 191.76672 189.81876 188.86580 188.93984 189.78488 191.10292
 192.83796 194.94300 197.21604 199.58508 202.04012 204.53016 206.62820 208.48024
 210.11628 211.27132 211.51036 211.74840 211.69544 211.41048 211.05352 210.69356
 210.32060 210.04063 209.85867 209.73271 209.67075 210.01179 210.40783 210.80687
 211.60991 212.79795 214.05799 215.85103 217.78907 219.84211 221.94715 224.04019
 226.11023 228.20427 230.31131 232.42735 234.56639 236.74843 239.01447 241.39451
 244.02555 246.28659 248.29863 250.07367 251.50071 252.63375 253.46579 253.79183
 253.83887 253.62291 252.99295 251.95099 250.56703 248.73807 246.65711 244.50015
 242.30119 240.11523 237.94527 235.79431 233.66435 231.54139 229.57743 227.74447
 226.03751 224.51955 223.15959 221.94163 220.83367 219.80371 218.91775 218.06879
 217.32083 216.51087 215.61891 214.99295 214.45299 214.78125 215.55681 217.62007
 220.16862 221.82887 222.68959 222.94058 223.28113 224.32349 226.23251 227.23299
 228.18123 230.18280 233.57117 238.13901 242.54675 246.45880 250.19550 253.98175
 257.63425 260.97238 264.02206 266.91312 269.62592 272.03555 274.02826 275.75760
 277.33411 278.77969 280.17047 281.52530 282.71561 283.77502 284.74567 285.63614
 286.44727 287.18146 287.82193 288.66101
 366.78100 356.34507 345.78714 334.66321 323.07628 311.28035 299.16041 286.97348
 274.69555 262.60262 250.62169 239.93276 230.06483 221.17890 213.37097 206.38304
 200.22710 195.17517 191.76724 189.81931 188.86638 188.94045 189.78552 191.10359
 192.83866 194.94373 197.21679 199.58586 202.04093 204.53100 206.62907 208.48114
 210.11721 211.27228 211.51135 211.74942 211.69648 211.41155 211.05462 210.69469
 210.32176 210.04183 209.85990 209.73397 209.67204 210.01311 210.40917 210.80824
 211.61131 212.79938 214.05945 215.85252 217.79059 219.84366 221.94873 224.04180
 226.11187 228.20593 230.31300 232.42907 234.56814 236.75021 239.01628 241.39635
 244.02742 246.28849 248.30056 250.07562 251.50269 252.63576 253.46783 253.79390
 253.84097 253.62504 252.99511 251.95318 250.56925 248.74031 246.65938 244.50245
 242.30352 240.11759 237.94766 235.79673 233.66680 231.54387 229.57994 227.74700
 226.04007 224.52214 223.16221 221.94428 220.83635 219.80642 218.92049 218.07156
 217.32363 216.51370 215.62176 214.99583 214.45590 214.79694 215.60268 217.58794
 220.14536 221.84158 222.76105 222.95969 223.20135 224.22003 226.04640 227.04257
 228.11769 230.25211 233.67010 238.22961 242.65559 246.58022 250.28951 254.02074
 257.62195 260.92303 263.95120 266.83521 269.53879 271.93488 273.92505 275.66953
 277.27594 278.74084 280.19763 281.55618 282.74646 283.80432 284.77762 285.66739
 286.48019 287.21408 287.85449 288.69391
 366.78100 356.34487 345.78674 334.66261 323.07548 311.27935 299.15922 286.97209
 274.69396 262.60083 250.61970 239.93057 230.06244 221.17631 213.36818 206.38005
 200.22392 195.17179 191.76366 189.81553 188.86240 188.93627 189.78114 191.09901
 192.83388 194.93875 197.21162 199.58049 202.03536 204.52523 206.62310 208.47497
 210.11084 211.26571 211.50458 211.74245 211.68932 211.40419 211.04706 210.68693
 210.31380 210.03367 209.85154 209.72541 209.66328 210.00415 210.40002 210.79889
 211.60175 212.78962 214.04949 215.84236 217.78023 219.83310 221.93797 224.03084
 226.10071 228.19458 230.30145 232.41732 234.55619 236.73806 239.00393 241.38380
 244.01467 246.27554 248.28741 250.06228 251.48915 252.62202 253.45389 253.77976
 253.82663 253.61050 252.98037 251.93824 250.55411 248.72498 246.64385 244.48672
 242.28759 240.10146 237.93133 235.78020 233.65007 231.52694 229.56281 227.72968
 226.02255 224.50442 223.14429 221.92616 220.81803 219.78790 218.90177 218.05264
 217.30451 216.49438 215.60225 214.97612 214.43599 214.80040 215.66138 217.56290
 220.08582 221.85355 222.81931 223.02716 223.18799 224.05659 225.82193 226.87776
 228.06964 230.32054 233.77490 238.31856 242.76167 246.70720 250.39430 254.06444
 257.61505 260.87650 263.88162 266.75684 269.45090 271.83545 273.82416 275.58408
 277.21915 278.70154 280.22031 281.59103 282.78384 283.84360 284.81708 285.70618
 286.51743 287.25290 287.89069 288.72903
 366.78100 356.34460 345.78619 334.66179 323.07439 311.27798 299.15758 286.97018
 274.69177 262.59837 250.61696 239.92756 230.05916 221.17275 213.36435 206.37595
 200.21954 195.16714 191.75874 189.81033 188.85693 188.93053 189.77512 191.09272
 192.82731 194.93191 197.20451 199.57310 202.02770 204.51730 206.61489 208.46649
 210.10209 211.25668 211.49528 211.73288 211.67947 211.39407 211.03667 210.67626
 210.30286 210.02245 209.84005 209.71365 209.65124 209.99184 210.38744 210.78603
 211.58863 212.77623 214.03582 215.82842 217.76602 219.81861 221.92321 224.01581
 226.08540 228.17900 230.28559 232.40119 234.53979 236.72138 238.98698 241.36658
 243.99717 246.25777 248.26937 250.04396 251.47056 252.60316 253.43475 253.76035
 253.80694 253.59054 252.96014 251.91773 250.53333 248.70393 246.62252 244.46512
 242.26572 240.07931 237.90891 235.75751 233.62710 231.50370 229.53930 227.70589
 225.99849 224.48008 223.11968 221.90128 220.79287 219.76247 218.87607 218.02666
 217.27826 216.46786 215.57545 214.94905 214.40865 214.79887 215.72084 217.55594
 220.00697 221.85599 222.84879 223.08153 223.18547 223.89096 225.59911 226.73148
 228.03784 230.39969 233.89052 238.41342 242.87204 246.84004 250.50696 254.11719
 257.61047 260.82999 263.81094 266.67700 269.36200 271.73489 273.72009 275.49390
 277.16290 278.70609 280.24127 281.61807 282.81436 283.87875 284.85205 285.74237
 286.55298 287.28577 287.92740 288.76083
 366.78100 356.34442 345.78584 334.66126 323.07367 311.27709 299.15651 286.96893
 274.69035 262.59677 250.61519 239.92560 230.05702 221.17044 213.36186 206.37328
 200.21670 195.16412 191.75553 189.80695 188.85337 188.92679 189.77121 191.08863
 192.82304 194.92746 197.19988 199.56830 202.02272 204.51214 206.60956 208.46097
 210.09639 211.25081 211.48923 211.72665 211.67307 211.38749 211.02990 210.66932
 210.29574 210.01516 209.83258 209.70600 209.64342 209.98383 210.37925 210.77767
 211.58009 212.76751 214.02693 215.81935 217.75676 219.80918 221.91360 224.00602
 226.07544 228.16886 230.27528 232.39069 234.52911 236.71053 238.97595 241.35537
 243.98579 246.24621 248.25762 250.03204 251.45846 252.59088 253.42230 253.74772
 253.79413 253.57755 252.94697 251.90439 250.51981 248.69023 246.60865 244.45106
 242.25148 240.06490 237.89432 235.74274 233.61216 231.48858 229.52399 227.69041
 225.98283 224.46425 223.10367 221.88509 220.77651 219.74592 218.85934 218.00976
 217.26118 216.45060 215.55802 214.93144 214.39085 214.80209 215.77368 217.56015
 219.92502 221.84985 222.86485 223.10431 223.15633 223.72482 225.38318 226.58977
 228.01364 230.48602 234.01407 238.51913 242.99356 246.98503 250.62503 254.17503
 257.61142 260.78613 263.74033 266.59644 269.27295 271.63580 273.61926 275.41116
 277.11581 278.71747 280.26160 281.64105 282.83957 283.90350 284.87836 285.76907
 286.57938 287.31180 287.95120 288.78564
 366.78100 356.34428 345.78557 334.66085 323.07313 311.27642 299.15570 286.96798
 274.68927 262.59555 250.61383 239.92412 230.05540 221.16868 213.35996 206.37125
 200.21453 195.16181 191.75310 189.80438 188.85066 188.92395 189.76823 191.08551
 192.81980 194.92408 197.19636 199.56465 202.01893 204.50821 206.60550 208.45678
 210.09206 211.24635 211.48463 211.72191 211.66819 211.38248 211.02476 210.66404
 210.29033 210.00961 209.82689 209.70018 209.63746 209.97774 210.37303 210.77131
 211.57359 212.76088 214.02016 215.81244 217.74973 219.80201 221.90629 223.99858
 226.06786 228.16114 230.26743 232.38271 234.52099 236.70227 238.96756 241.34684
 243.97712 246.23741 248.24869 250.02297 251.44926 252.58154 253.41282 253.73811
 253.78439 253.56767 252.93696 251.89424 250.50952 248.67981 246.59809 244.44037
 242.24066 240.05394 237.88322 235.73151 233.60079 231.47707 229.51235 227.67864
 225.97092 224.45220 223.09149 221.87277 220.76405 219.73334 218.84662 217.99690
 217.24819 216.43747 215.54475 214.91804 214.37732 214.80811 215.82588 217.57303
 219.84196 221.82042 222.87823 223.11209 223.10890 223.56502 225.17966 226.45551
 227.99004 230.57117 234.14391 238.63434 243.12202 247.13353 250.75031 254.23973
 257.61578 260.74521 263.67276 266.51935 269.18674 271.53571 273.51248 275.31610
 277.01654 278.75656 280.30881 281.68033 282.87305 283.93570 284.90796 285.79810
 286.60565 287.33560 287.97345 288.80713
 366.78100 356.34420 345.78541 334.66061 323.07282 311.27602 299.15523 286.96743
 274.68863 262.59484 250.61304 239.92325 230.05445 221.16766 213.35886 206.37006
 200.21327 195.16047 191.75168 189.80288 188.84909 188.92229 189.76649 191.08370
 192.81790 194.92211 197.19431 199.56252 202.01672 204.50592 206.60313 208.45433
 210.08954 211.24374 211.48195 211.71915 211.66535 211.37956 211.02176 210.66097
 210.28717 210.00638 209.82358 209.69679 209.63399 209.97419 210.36940 210.76760
 211.56981 212.75701 214.01622 215.80842 217.74562 219.79783 221.90203 223.99424
 226.06344 228.15665 230.26285 232.37805 234.51626 236.69746 238.96267 241.34187
 243.97208 246.23228 248.24348 250.01769 251.44389 252.57610 253.40730 253.73251
 253.77871 253.56191 252.93112 251.88832 250.50353 248.67373 246.59194 244.43414
 242.23434 240.04755 237.87675 235.72496 233.59416 231.47037 229.50557 227.67177
 225.96398 224.44518 223.08439 221.86559 220.75680 219.72600 218.83920 217.98941
 217.24061 216.42982 215.53702 214.91023 214.36943 214.81776 215.87700 217.58717
 219.77383 221.77705 222.88426 223.09839 223.03983 223.41440 224.99205 226.33081
 227.96603 230.65416 234.27986 238.75833 243.25517 247.28140 250.87552 254.30836
 257.62811 260.71320 263.61600 266.45056 269.10678 271.44571 273.42416 275.24161
 276.98669 278.74905 280.30948 281.68637 282.88187 283.94379 284.91528 285.80319
 286.60928 287.33420 287.96924 288.79938
 366.78100 356.34435 345.78570 334.66105 323.07340 311.27675 299.15610 286.96846
 274.68981 262.59616 250.61451 239.92486 230.05621 221.16956 213.36091 206.37226
 200.21561 195.16296 191.75431 189.80567 188.85202 188.92537 189.76972 191.08707
 192.82142 194.92577 197.19812 199.56647 202.02082 204.51017 206.60752 208.45887
 210.09423 211.24858 211.48693 211.72428 211.67063 211.38498 211.02733 210.66668
 210.29303 210.01238 209.82973 209.70308 209.64043 209.98079 210.37614 210.77449
 211.57684 212.76419 214.02354 215.81589 217.75324 219.80559 221.90994 224.00229
 226.07164 228.16500 230.27135 232.38670 234.52505 236.70640 238.97175 241.35110
 243.98145 246.24180 248.25315 250.02750 251.45385 252.58620 253.41756 253.74291
 253.78926 253.57261 252.94196 251.89931 250.51466 248.68501 246.60336 244.44571
 242.24606 240.05941 237.88876 235.73712 233.60647 231.48282 229.51817 227.68452
 225.97687 224.45822 223.09757 221.87892 220.77027 219.73962 218.85297 218.00333
 217.25468 216.44403 215.55138 214.92473 214.38408 214.84418 215.93121 217.57921
 219.69920 221.71298 222.87057 223.06140 222.94443 223.25099 224.80753 226.20570
 227.95749 230.73088 234.41647 238.88847 243.39232 247.43607 251.01213 254.39261
 257.65833 260.69836 263.56668 266.39029 269.03464 271.35562 273.30792 275.13272
 276.95306 278.75458 280.32065 281.70007 282.89828 283.96158 284.93500 285.82233
 286.62704 287.35031 287.98856 288.81696
 366.78100 356.34457 345.78614 334.66171 323.07428 311.27785 299.15742 286.96999
 274.69155 262.59812 250.61669 239.92726 230.05883 221.17240 213.36397 206.37554
 200.21911 195.16668 191.75825 189.80982 188.85639 188.92996 189.77452 191.09209
 192.82666 194.93123 197.20380 199.57237 202.02694 204.51651 206.61408 208.46565
 210.10122 211.25579 211.49436 211.73193 211.67849 211.39306 211.03563 210.67520
 210.30177 210.02134 209.83891 209.71248 209.65005 209.99062 210.38619 210.78476
 211.58733 212.77490 214.03446 215.82703 217.76460 219.81717 221.92174 224.01431
 226.08388 228.17745 230.28402 232.39959 234.53816 236.71973 238.98530 241.36487
 243.99543 246.25600 248.26757 250.04214 251.46871 252.60128 253.43285 253.75842
 253.80499 253.58856 252.95813 251.91570 250.53127 248.70184 246.62041 244.46297
 242.26354 240.07711 237.90668 235.75525 233.62482 231.50139 229.53696 227.70353
 225.99610 224.47767 223.11724 221.89881 220.79038 219.75994 218.87351 218.02408
 217.27565 216.46522 215.57279 214.94636 214.40593 214.87599 215.98659 217.57899
 219.60419 221.61810 222.84277 223.01843 222.84718 223.10054 224.63786 226.08969
 227.94888 230.80739 234.55437 239.02963 243.53999 247.60422 251.17174 254.50398
 257.71368 260.70837 263.53867 266.34714 268.98282 271.28882 273.23593 275.07327
 276.93042 278.73032 280.29251 281.66852 282.86105 283.91766 284.88293 285.75980
 286.55096 287.25891 287.87726 288.66467
 366.78100 356.34474 345.78648 334.66222 323.07496 311.27870 299.15844 286.97118
 274.69292 262.59966 250.61840 239.92914 230.06088 221.17462 213.36636 206.37810
 200.22184 195.16958 191.76132 189.81306 188.85980 188.93354 189.77828 191.09602
 192.83076 194.93550 197.20825 199.57699 202.03173 204.52147 206.61921 208.47095
 210.10669 211.26143 211.50017 211.73791 211.68465 211.39939 211.04213 210.68187
 210.30861 210.02835 209.84609 209.71983 209.65757 209.99831 210.39405 210.79279
 211.59553 212.78327 214.04301 215.83575 217.77349 219.82623 221.93097 224.02371
 226.09345 228.18719 230.29393 232.40967 234.54841 236.73015 238.99589 241.37563
 244.00637 246.26711 248.27885 250.05359 251.48033 252.61307 253.44481 253.77055
 253.81729 253.60103 252.97077 251.92851 250.54425 248.71499 246.63374 244.47648
 242.27722 240.09096 237.92070 235.76944 233.63918 231.51592 229.55166 227.71840
 226.01114 224.49288 223.13262 221.91436 220.80610 219.77584 218.88958 218.04032
 217.29206 216.48180 215.58954 214.96328 214.42302 214.90422 216.04111 217.57986
 219.55281 221.56418 222.80692 222.96045 222.74103 222.97105 224.47853 225.97318
 227.91011 230.87982 234.68642 239.15836 243.66878 247.75212 251.32118 254.62042
 257.78217 260.73798 263.54111 266.32071 268.92355 271.19653 273.13312 274.99429
 276.90030 278.70129 280.26215 281.63571 282.82675 283.88364 284.84830 285.72729
 286.52463 287.24109 287.87616 288.69662
 366.78100 356.34545 345.78790 334.66435 323.07781 311.28226 299.16271 286.97616
 274.69861 262.60606 250.62551 239.93697 230.06942 221.18387 213.37632 206.38877
 200.23322 195.18167 191.77413 189.82658 188.87403 188.94848 189.79393 191.11238
 192.84783 194.95329 197.22674 199.59619 202.05164 204.54209 206.64054 208.49299
 210.12944 211.28490 211.52435 211.76280 211.71025 211.42570 211.06915 210.70960
 210.33706 210.05751 209.87596 209.75041 209.68886 210.03031 210.42676 210.82622
 211.62967 212.81812 214.07857 215.87202 217.81047 219.86392 221.96938 224.06283
 226.13328 228.22773 230.33518 232.45163 234.59108 236.77354 239.03999 241.42044
 244.05189 246.31334 248.32579 250.10124 251.52870 252.66215 253.49460 253.82105
 253.86850 253.65295 253.02340 251.98186 250.59831 248.76976 246.68921 244.53266
 242.33411 240.14856 237.97902 235.82847 233.69892 231.57637 229.61282 227.78027
 226.07372 224.55618 223.19663 221.97908 220.87153 219.84198 218.95643 218.10788
 217.36033 216.55079 215.65924 215.03369 214.49414 214.96321 216.07143 217.56128
 219.52377 221.52411 222.76797 222.88586 222.61452 222.82651 224.31317 225.85199
 227.87613 230.94037 234.80176 239.27400 243.78270 247.87390 251.44571 254.72740
 257.85745 260.78711 263.56308 266.32220 268.90781 271.16711 273.08356 274.92950
 276.85886 278.64990 280.20676 281.57574 282.76401 283.81610 284.77930 285.65955
 286.46573 287.19275 287.82568 288.63336
 366.78100 356.34526 345.78752 334.66378 323.07705 311.28131 299.16157 286.97483
 274.69709 262.60435 250.62361 239.93487 230.06714 221.18140 213.37366 206.38592
 200.23018 195.17844 191.77070 189.82296 188.87023 188.94449 189.78975 191.10801
 192.84327 194.94853 197.22179 199.59105 202.04632 204.53658 206.63484 208.48710
 210.12336 211.27862 211.51788 211.75614 211.70341 211.41867 211.06193 210.70219
 210.32945 210.04971 209.86797 209.74224 209.68050 210.02176 210.41802 210.81728
 211.62054 212.80880 214.06906 215.86233 217.80059 219.85385 221.95911 224.05237
 226.12263 228.21689 230.32415 232.44042 234.57968 236.76194 239.02820 241.40846
 244.03972 246.30098 248.31324 250.08851 251.51577 252.64903 253.48129 253.80755
 253.85481 253.63907 253.00933 251.96760 250.58386 248.75512 246.67438 244.51764
 242.31890 240.13316 237.96343 235.81269 233.68295 231.56021 229.59647 227.76373
 226.05699 224.53925 223.17952 221.96178 220.85404 219.82430 218.93856 218.08982
 217.34208 216.53234 215.64061 215.01487 214.47513 214.97484 216.15549 217.52365
 219.42621 221.48434 222.73993 222.80524 222.47324 222.67746 224.15712 225.73981
 227.86017 231.00836 234.92326 239.39256 243.89766 248.00856 251.59616 254.86035
 257.94638 260.83566 263.57532 266.31332 268.88986 271.15298 273.10263 274.98007
 276.79437 278.58710 280.14450 281.51672 282.70856 283.77243 284.75415 285.64975
 286.45203 287.15939 287.78882 288.59900
 366.78100 356.34446 345.78592 334.66138 323.07384 311.27730 299.15675 286.96921
 274.69067 262.59713 250.61559 239.92605 230.05751 221.17097 213.36243 206.37389
 200.21735 195.16481 191.75626 189.80772 188.85418 188.92764 189.77210 191.08956
 192.82402 194.92848 197.20094 199.56940 202.02386 204.51331 206.61077 208.46223
 210.09769 211.25215 211.49061 211.72807 211.67453 211.38899 211.03145 210.67091
 210.29737 210.01682 209.83428 209.70774 209.64520 209.98566 210.38112 210.77958
 211.58204 212.76950 214.02896 215.82142 217.75887 219.81133 221.91579 224.00825
 226.07771 228.17117 230.27763 232.39309 234.53155 236.71301 238.97847 241.35793
 243.98838 246.24884 248.26030 250.03476 251.46122 252.59368 253.42514 253.75060
 253.79706 253.58052 252.94998 251.90743 250.52289 248.69335 246.61181 244.45427
 242.25473 240.06819 237.89765 235.74611 233.61557 231.49203 229.52748 227.69394
 225.98640 224.46786 223.10732 221.88878 220.78024 219.74970 218.86316 218.01362
 217.26508 216.45454 215.56199 214.93545 214.39491 214.95285 216.27107 217.51450
 219.25378 221.36717 222.72487 222.80316 222.39577 222.53851 223.94632 225.52876
 227.77480 231.02570 235.02252 239.51399 244.04666 248.18587 251.81029 255.07877
 258.13605 260.97607 263.64676 266.30734 268.81061 270.99304 272.88892 274.81512
 276.86203 278.64893 280.20395 281.57495 282.76605 283.82800 284.81137 285.70407
 286.50613 287.22797 287.87961 288.71002
 366.78100 356.34671 345.79043 334.66814 323.08285 311.28857 299.17028 286.98499
 274.70871 262.61742 250.63813 239.95085 230.08456 221.20027 213.39399 206.40770
 200.25342 195.20313 191.79684 189.85056 188.89927 188.97498 189.82170 191.14141
 192.87812 194.98484 197.25955 199.63026 202.08698 204.57869 206.67840 208.53212
 210.16983 211.32654 211.56726 211.80697 211.75568 211.47240 211.11711 210.75882
 210.38754 210.10925 209.92897 209.80468 209.74439 210.08711 210.48482 210.88553
 211.69025 212.87996 214.14167 215.93639 217.87610 219.93081 222.03753 224.13224
 226.20395 228.29967 230.40838 232.52609 234.66681 236.85052 239.11823 241.49995
 244.13266 246.39537 248.40909 250.18580 251.61452 252.74923 253.58294 253.91066
 253.95937 253.74508 253.11680 252.07651 250.69422 248.86694 246.78765 244.63236
 242.43508 240.25079 238.08250 235.93322 233.80493 231.68364 229.72136 227.89007
 226.18478 224.66850 223.31021 222.09392 220.98764 219.95935 219.07507 218.22778
 217.48149 216.67321 215.78292 215.15863 214.62035 215.08862 216.19498 217.56589
 219.22258 221.19890 222.65253 222.76724 222.30896 222.43608 223.77736 225.35834
 227.69031 231.05255 235.11543 239.60789 244.11182 248.33235 252.04755 255.36473
 258.37863 261.16470 263.78961 266.37341 268.80930 270.91412 272.77496 274.75708
 276.72971 278.42944 279.94162 281.26965 282.44000 283.50864 284.52591 285.33945
 285.89450 286.30359 286.63641 287.06058
 366.78100 356.34766 345.79231 334.67097 323.08663 311.29328 299.17594 286.99160
 274.71625 262.62591 250.64757 239.96122 230.09588 221.21254 213.40719 206.42185
 200.26851 195.21916 191.81382 189.86848 188.91814 188.99479 189.84245 191.16311
 192.90076 195.00842 197.28408 199.65573 202.11339 204.60605 206.70670 208.56136
 210.20002 211.35767 211.59933 211.83999 211.78964 211.50730 211.15296 210.79561
 210.42527 210.14793 209.96858 209.84524 209.78590 210.12955 210.52821 210.92987
 211.73552 212.92618 214.18884 215.98449 217.92515 219.98081 222.08846 224.18412
 226.25678 228.35344 230.46309 232.58175 234.72341 236.90806 239.17672 241.55938
 244.19303 246.45669 248.47135 250.24900 251.67866 252.81432 253.64897 253.97763
 254.02729 253.81394 253.18660 252.14726 250.76591 248.93957 246.86123 244.70688
 242.51054 240.32720 238.15985 236.01151 233.88417 231.76382 229.80248 227.97214
 226.26779 224.75245 223.39511 222.17977 221.07442 220.04708 219.16374 218.31739
 217.57205 216.76471 215.87536 215.25202 214.71468 215.16069 216.21443 217.51051
 219.17735 221.17780 222.53300 222.53235 222.11086 222.31798 223.66617 225.37135
 227.68419 231.09624 235.20375 239.70343 244.19102 248.41920 252.14713 255.47940
 258.48874 261.26459 263.87976 266.43539 268.86331 270.99170 272.84406 274.73907
 276.61841 278.29532 279.77805 281.11581 282.27972 283.33301 284.30795 285.15637
 285.94431 286.67932 287.32141 288.13968
 366.78100 356.34565 345.78829 334.66494 323.07859 311.28323 299.16388 286.97753
 274.70017 262.60782 250.62747 239.93912 230.07176 221.18641 213.37906 206.39170
 200.23635 195.18500 191.77764 189.83029 188.87794 188.95258 189.79823 191.11688
 192.85252 194.95817 197.23182 199.60147 202.05711 204.54776 206.64641 208.49905
 210.13570 211.29135 211.53099 211.76964 211.71729 211.43293 211.07658 210.71723
 210.34487 210.06552 209.88417 209.75882 209.69746 210.03911 210.43576 210.83540
 211.63905 212.82770 214.08834 215.88199 217.82064 219.87428 221.97993 224.07358
 226.14422 228.23887 230.34652 232.46317 234.60281 236.78546 239.05211 241.43275
 244.06440 246.32605 248.33869 250.11434 251.54199 252.67563 253.50828 253.83493
 253.88257 253.66722 253.03787 251.99652 250.61316 248.78481 246.70446 244.54810
 242.34975 240.16440 237.99504 235.84469 233.71534 231.59298 229.62963 227.79728
 226.09092 224.57357 223.21422 221.99687 220.88951 219.86016 218.97481 218.12645
 217.37910 216.56975 215.67839 215.05304 214.51369 215.07919 216.41829 217.49202
 218.87932 220.84036 222.40327 222.51530 222.08215 222.23116 223.53969 225.37778
 227.59517 231.09567 235.24896 239.72034 244.21634 248.47200 252.30220 255.69836
 258.72375 261.47775 264.07727 266.58017 268.94611 271.00790 272.84164 274.70926
 276.46951 278.06357 279.47464 280.78851 281.97546 283.03418 283.98926 284.84259
 285.61011 286.29355 286.89062 287.65149
 366.78100 356.34519 345.78738 334.66357 323.07675 311.28094 299.16113 286.97432
 274.69651 262.60370 250.62288 239.93407 230.06626 221.18045 213.37264 206.38483
 200.22902 195.17720 191.76939 189.82158 188.86877 188.94296 189.78815 191.10634
 192.84152 194.94671 197.21990 199.58909 202.04428 204.53447 206.63265 208.48484
 210.12103 211.27622 211.51541 211.75360 211.70079 211.41597 211.05916 210.69935
 210.32654 210.04673 209.86492 209.73911 209.67729 210.01848 210.41467 210.81386
 211.61705 212.80524 214.06542 215.85861 217.79680 219.84999 221.95518 224.04837
 226.11856 228.21274 230.31993 232.43612 234.57531 236.75750 239.02369 241.40388
 244.03506 246.29625 248.30844 250.08363 251.51082 252.64401 253.47619 253.80238
 253.84957 253.63376 253.00395 251.96214 250.57833 248.74951 246.66870 244.51189
 242.31308 240.12727 237.95746 235.80665 233.67683 231.55402 229.59021 227.75740
 226.05059 224.53278 223.17296 221.95515 220.84734 219.81753 218.93172 218.08291
 217.33510 216.52528 215.63347 215.00766 214.46785 215.07175 216.49670 217.52963
 218.80157 220.65573 222.30342 222.61220 222.29880 222.33977 223.48390 225.30106
 227.53108 231.09322 235.28845 239.74348 244.23456 248.49413 252.40334 255.90288
 258.94464 261.66763 264.23462 266.67447 268.98410 271.00845 272.88300 274.64575
 276.37360 277.90741 279.26474 280.59677 281.78613 282.86746 283.86127 284.76160
 285.57132 286.29239 286.92230 287.72507
 366.78100 356.34615 345.78931 334.66646 323.08061 311.28577 299.16692 286.98107
 274.70423 262.61238 250.63253 239.94468 230.07784 221.19299 213.38614 206.39930
 200.24445 195.19360 191.78676 189.83991 188.88806 188.96322 189.80937 191.12852
 192.86468 194.97083 197.24498 199.61514 202.07129 204.56244 206.66159 208.51475
 210.15190 211.30805 211.54821 211.78736 211.73551 211.45167 211.09582 210.73697
 210.36513 210.08628 209.90543 209.78059 209.71974 210.06189 210.45905 210.85920
 211.66335 212.85250 214.11366 215.90781 217.84696 219.90112 222.00727 224.10142
 226.17258 228.26773 230.37588 232.49304 234.63319 236.81634 239.08350 241.46465
 244.09680 246.35896 248.37211 250.14826 251.57641 252.71057 253.54372 253.87087
 253.91903 253.70418 253.07533 252.03449 250.65164 248.82379 246.74395 244.58810
 242.39025 240.20541 238.03656 235.88671 233.75787 231.63602 229.67317 227.84132
 226.13548 224.61863 223.25978 222.04294 220.93609 219.90724 219.02240 218.17455
 217.42770 216.61886 215.72801 215.10316 214.56432 215.13422 216.48615 217.56668
 218.83087 220.53935 222.18199 222.61629 222.38319 222.33687 223.39456 225.18254
 227.50653 231.14445 235.38005 239.80748 244.26637 248.52057 252.46227 256.03259
 259.08713 261.80304 264.34756 266.77692 269.06140 271.08871 272.97025 274.72360
 276.39087 277.87576 279.21500 280.56744 281.80569 282.93414 283.96365 284.89633
 285.73520 286.48218 287.13474 287.96637
 366.78100 356.34643 345.78986 334.66729 323.08172 311.28715 299.16858 286.98301
 274.70643 262.61486 250.63529 239.94772 230.08115 221.19658 213.39001 206.40344
 200.24887 195.19830 191.79173 189.84516 188.89359 188.96902 189.81545 191.13487
 192.87130 194.97773 197.25216 199.62259 202.07902 204.57045 206.66988 208.52331
 210.16074 211.31717 211.55760 211.79703 211.74546 211.46189 211.10631 210.74774
 210.37617 210.09760 209.91703 209.79246 209.73189 210.07432 210.47175 210.87218
 211.67661 212.86604 214.12747 215.92190 217.86133 219.91576 222.02218 224.11661
 226.18804 228.28347 230.39190 232.50933 234.64976 236.83319 239.10062 241.48205
 244.11448 246.37691 248.39034 250.16677 251.59520 252.72962 253.56305 253.89048
 253.93891 253.72434 253.09577 252.05520 250.67263 248.84506 246.76549 244.60992
 242.41235 240.22778 238.05921 235.90964 233.78106 231.65949 229.69692 227.86535
 226.15978 224.64321 223.28464 222.06807 220.96150 219.93293 219.04836 218.20079
 217.45422 216.64565 215.75508 215.13050 214.59193 215.16208 216.51523 217.60107
 218.84673 220.48637 222.19768 222.70613 222.36945 222.21208 223.28607 225.04532
 227.52629 231.21973 235.49155 239.90164 244.34750 248.59154 252.53203 256.07495
 259.13565 261.84027 264.36807 266.79428 269.07446 271.13190 273.06320 274.83572
 276.47702 277.95322 279.49487 280.96664 282.24149 283.36942 284.39850 285.33075
 286.16922 286.91586 287.56815 288.39938
 366.78100 356.34667 345.79033 334.66800 323.08266 311.28833 299.17000 286.98466
 274.70833 262.61699 250.63766 239.95032 230.08399 221.19966 213.39332 206.40699
 200.25265 195.20232 191.79599 189.84965 188.89832 188.97398 189.82065 191.14031
 192.87698 194.98365 197.25831 199.62898 202.08564 204.57731 206.67698 208.53064
 210.16831 211.32497 211.56564 211.80530 211.75397 211.47064 211.11530 210.75697
 210.38563 210.10730 209.92697 209.80263 209.74230 210.08496 210.48263 210.88330
 211.68796 212.87763 214.13929 215.93396 217.87362 219.92829 222.03496 224.12962
 226.20129 228.29695 230.40562 232.52329 234.66395 236.84762 239.11528 241.49695
 244.12961 246.39228 248.40595 250.18261 251.61128 252.74594 253.57961 253.90728
 253.95594 253.74161 253.11327 252.07294 250.69060 248.86327 246.78394 244.62860
 242.43127 240.24693 238.07860 235.92927 233.80093 231.67960 229.71726 227.88593
 226.18060 224.66426 223.30593 222.08959 220.98326 219.95492 219.07059 218.22326
 217.47692 216.66859 215.77825 215.15392 214.61559 215.18263 216.52913 217.62721
 218.84375 220.39581 222.11746 222.70346 222.30563 222.11433 223.25157 224.95589
 227.50162 231.25700 235.58914 240.00581 244.40779 248.64143 252.55574 256.07782
 259.19955 261.93976 264.48337 266.89069 269.14026 271.21262 273.13013 274.87976
 276.47946 278.23834 279.92365 281.42953 282.73276 283.88577 284.93771 285.89072
 286.74783 287.51108 288.17786 289.02759
 366.78100 356.34692 345.79084 334.66876 323.08369 311.28961 299.17153 286.98645
 274.71037 262.61929 250.64022 239.95314 230.08706 221.20298 213.39690 206.41082
 200.25675 195.20667 191.80059 189.85451 188.90343 188.97935 189.82627 191.14620
 192.88312 194.99004 197.26496 199.63588 202.09280 204.58473 206.68465 208.53857
 210.17649 211.33341 211.57433 211.81426 211.76318 211.48010 211.12502 210.76694
 210.39586 210.11779 209.93771 209.81363 209.75355 210.09647 210.49439 210.89531
 211.70024 212.89016 214.15208 215.94700 217.88692 219.94184 222.04877 224.14369
 226.21561 228.31153 230.42045 232.53837 234.67930 236.86322 239.13114 241.51306
 244.14598 246.40890 248.42282 250.19975 251.62867 252.76359 253.59751 253.92543
 253.97435 253.76028 253.13220 252.09212 250.71004 248.88296 246.80388 244.64881
 242.45173 240.26765 238.09957 235.95049 233.82241 231.70134 229.73926 227.90818
 226.20310 224.68702 223.32894 222.11286 221.00679 219.97871 219.09463 218.24755
 217.50147 216.69339 215.80332 215.17924 214.64116 215.20164 216.53133 217.62091
 218.87685 220.34996 221.91083 222.44473 222.12212 222.02283 223.21709 225.02708
 227.55209 231.33566 235.70125 240.12152 244.49481 248.71507 252.59254 256.06400
 259.31332 262.16315 264.63614 267.01074 269.20178 271.23984 273.13110 274.79160
 276.36121 278.07300 279.74396 281.24887 282.55124 283.70352 284.75479 285.70718
 286.56375 287.32654 287.99286 288.84204
 366.78100 356.34649 345.78997 334.66746 323.08195 311.28743 299.16892 286.98341
 274.70689 262.61538 250.63587 239.94835 230.08184 221.19733 213.39081 206.40430
 200.24979 195.19927 191.79276 189.84625 188.89473 188.97022 189.81671 191.13619
 192.87268 194.97917 197.25365 199.62414 202.08063 204.57211 206.67160 208.52509
 210.16257 211.31906 211.55955 211.79904 211.74752 211.46401 211.10850 210.74998
 210.37847 210.09996 209.91944 209.79493 209.73442 210.07690 210.47439 210.87488
 211.67936 212.86885 214.13034 215.92482 217.86431 219.91880 222.02528 224.11977
 226.19126 228.28674 230.39523 232.51272 234.65320 236.83669 239.10418 241.48566
 244.11815 246.38064 248.39412 250.17061 251.59910 252.73358 253.56707 253.89456
 253.94304 253.72853 253.10002 252.05950 250.67699 248.84948 246.76996 244.61445
 242.41694 240.23242 238.06391 235.91440 233.78588 231.66437 229.70186 227.87034
 226.16483 224.64832 223.28980 222.07329 220.96678 219.93826 219.05375 218.20624
 217.45972 216.65121 215.76070 215.13618 214.59767 215.19400 216.57904 217.58194
 218.87947 220.42984 221.86287 222.20782 221.74634 221.68878 223.12022 225.02847
 227.60046 231.43384 235.82613 240.27740 244.67776 248.91286 252.83618 256.27603
 259.44553 262.31375 264.79913 267.10184 269.24673 271.23822 273.09216 274.75159
 276.36761 278.21744 279.97476 281.51782 282.85321 284.03467 285.11258 286.08911
 286.96738 287.74948 288.43271 289.30341
 366.78100 356.34646 345.78991 334.66737 323.08182 311.28728 299.16873 286.98319
 274.70664 262.61510 250.63555 239.94801 230.08146 221.19692 213.39037 206.40383
 200.24928 195.19874 191.79220 189.84565 188.89411 188.96956 189.81602 191.13547
 192.87193 194.97838 197.25284 199.62329 202.07975 204.57120 206.67066 208.52411
 210.16157 211.31802 211.55848 211.79793 211.74639 211.46285 211.10730 210.74876
 210.37721 210.09867 209.91812 209.79358 209.73303 210.07549 210.47294 210.87340
 211.67785 212.86731 214.12876 215.92322 217.86267 219.91713 222.02359 224.11804
 226.18950 228.28495 230.39341 232.51086 234.65132 236.83477 239.10223 241.48368
 244.11614 246.37859 248.39205 250.16850 251.59696 252.73141 253.56487 253.89233
 253.94078 253.72624 253.09769 252.05715 250.67460 248.84706 246.76751 244.61197
 242.41442 240.22988 238.06133 235.91179 233.78324 231.66170 229.69915 227.86761
 226.16206 224.64552 223.28698 222.07043 220.96389 219.93534 219.05080 218.20325
 217.45671 216.64816 215.75762 215.13307 214.59453 215.20483 216.59956 217.56401
 218.87112 220.46944 221.80919 222.04601 221.44221 221.33287 223.08102 225.09450
 227.73596 231.55553 235.94728 240.42476 244.85364 249.12161 253.10918 256.54642
 259.68848 262.49811 264.94940 267.22314 269.34109 271.33060 273.15161 274.89651
 276.93024 279.11191 280.99979 282.65747 284.09204 285.36130 286.51929 287.56833
 288.51184 289.35205 290.08603 291.02142
 366.78100 356.34683 345.79066 334.66850 323.08333 311.28916 299.17099 286.98582
 274.70966 262.61849 250.63932 239.95215 230.08598 221.20182 213.39565 206.40948
 200.25531 195.20514 191.79898 189.85281 188.90164 188.97747 189.82430 191.14414
 192.88097 194.98780 197.26263 199.63346 202.09030 204.58213 206.68196 208.53579
 210.17362 211.33046 211.57129 211.81112 211.75995 211.47678 211.12162 210.76345
 210.39228 210.11411 209.93394 209.80978 209.74961 210.09244 210.49027 210.89111
 211.69594 212.88577 214.14760 215.94243 217.88227 219.93710 222.04393 224.13876
 226.21059 228.30643 230.41526 232.53309 234.67392 236.85775 239.12559 241.50742
 244.14025 246.40308 248.41691 250.19375 251.62258 252.75741 253.59124 253.91907
 253.96791 253.75374 253.12557 252.08540 250.70323 248.87607 246.79690 244.64173
 242.44456 240.26039 238.09223 235.94306 233.81489 231.69372 229.73155 227.90039
 226.19522 224.67905 223.32088 222.10471 220.99855 219.97038 219.08621 218.23904
 217.49287 216.68471 215.79454 215.17037 214.63220 215.22154 216.58475 217.55730
 218.85399 220.49469 221.73360 221.80121 221.20872 221.28352 222.89413 225.05589
 227.76025 231.63063 236.05017 240.52936 244.95230 249.21234 253.17238 256.65820
 259.78320 262.57593 265.05725 267.36179 269.52145 271.54514 273.39993 275.15985
 277.24313 279.43307 281.35306 283.03891 284.49786 285.78870 286.96637 288.03323
 288.99280 289.84729 290.59375 291.54501
 366.78100 356.34684 345.79068 334.66852 323.08336 311.28920 299.17104 286.98588
 274.70972 262.61856 250.63940 239.95224 230.08608 221.20192 213.39576 206.40960
 200.25544 195.20528 191.79912 189.85296 188.90180 188.97764 189.82448 191.14432
 192.88116 194.98800 197.26283 199.63367 202.09051 204.58235 206.68219 208.53603
 210.17387 211.33071 211.57155 211.81139 211.76023 211.47707 211.12191 210.76375
 210.39259 210.11443 209.93427 209.81011 209.74995 210.09279 210.49063 210.89147
 211.69631 212.88615 214.14799 215.94283 217.88267 219.93751 222.04435 224.13919
 226.21103 228.30687 230.41571 232.53355 234.67439 236.85823 239.12607 241.50791
 244.14075 246.40359 248.41743 250.19427 251.62311 252.75795 253.59179 253.91963
 253.96847 253.75431 253.12615 252.08599 250.70383 248.87666 246.79750 244.64234
 242.44518 240.26102 238.09286 235.94370 233.81554 231.69438 229.73222 227.90106
 226.19590 224.67974 223.32158 222.10542 220.99926 219.97110 219.08694 218.23978
 217.49362 216.68546 215.79530 215.17114 214.63298 215.21942 216.58655 217.56163
 218.78519 220.48347 221.80666 221.73636 220.99985 221.11458 222.60075 224.93478
 227.73714 231.67918 236.13304 240.62289 245.05536 249.32039 253.27402 256.78568
 259.85593 262.59247 265.05930 267.36520 269.54208 271.59192 273.49866 275.20334
 277.26016 279.29526 281.08881 282.66367 284.02658 285.23239 286.33252 287.32916
 288.22556 289.02377 289.72107 290.60971
 366.78100 356.34773 345.79246 334.67119 323.08692 311.29365 299.17638 286.99212
 274.71685 262.62658 250.64831 239.96204 230.09677 221.21350 213.40823 206.42296
 200.26969 195.22042 191.81515 189.86988 188.91962 188.99635 189.84408 191.16481
 192.90254 195.01027 197.28600 199.65773 202.11546 204.60819 206.70892 208.56365
 210.20238 211.36012 211.60185 211.84258 211.79231 211.51004 211.15577 210.79850
 210.42823 210.15096 209.97169 209.84842 209.78915 210.13288 210.53162 210.93335
 211.73908 212.92981 214.19254 215.98827 217.92900 219.98473 222.09246 224.18819
 226.26092 228.35765 230.46738 232.58612 234.72785 236.91258 239.18131 241.56404
 244.19777 246.46150 248.47623 250.25396 251.68369 252.81942 253.65415 253.98288
 254.03262 253.81935 253.19208 252.15281 250.77154 248.94527 246.86700 244.71273
 242.51646 240.33319 238.16592 236.01765 233.89038 231.77011 229.80885 227.97858
 226.27431 224.75904 223.40177 222.18650 221.08123 220.05396 219.17069 218.32442
 217.57915 216.77188 215.88261 215.25935 214.72208 215.26178 216.54510 217.59477
 218.79286 220.35577 221.72392 221.69980 220.86237 220.95490 222.42749 224.84491
 227.73416 231.74353 236.23039 240.74136 245.20999 249.48061 253.40352 256.90765
 259.98627 262.71423 265.17630 267.47699 269.64624 271.69293 273.55411 275.49136
 277.60385 279.65912 281.43759 282.99924 284.35068 285.54639 286.63727 287.62555
 288.51440 289.30591 289.99738 290.87854
 366.78100 356.34807 345.79313 334.67220 323.08826 311.29533 299.17839 286.99446
 274.71952 262.62959 250.65166 239.96572 230.10079 221.21785 213.41292 206.42798
 200.27505 195.22611 191.82118 189.87625 188.92631 189.00338 189.85144 191.17251
 192.91057 195.01864 197.29470 199.66677 202.12484 204.61790 206.71897 208.57403
 210.21310 211.37116 211.61323 211.85429 211.80436 211.52243 211.16849 210.81156
 210.44162 210.16469 209.98575 209.86282 209.80388 210.14795 210.54701 210.94908
 211.75515 212.94621 214.20928 216.00534 217.94641 220.00247 222.11054 224.20660
 226.27967 228.37674 230.48680 232.60587 234.74793 236.93300 239.20206 241.58513
 244.21919 246.48326 248.49833 250.27639 251.70646 252.84252 253.67759 254.00665
 254.05672 253.84378 253.21685 252.17792 250.79698 248.97105 246.89311 244.73918
 242.54324 240.36031 238.19337 236.04544 233.91851 231.79857 229.83764 228.00770
 226.30377 224.78883 223.43190 222.21696 221.11203 220.08510 219.20216 218.35623
 217.61129 216.80436 215.91542 215.29249 214.75555 215.27063 216.50198 217.57646
 218.87440 220.32692 221.43350 221.31801 220.68808 220.99496 222.28294 224.79349
 227.73732 231.82529 236.35948 240.87370 245.33492 249.59547 253.46890 256.94025
 260.04285 262.81281 265.33945 267.66696 269.84210 271.87869 273.78098 275.54077
 277.32230 279.11349 280.79379 282.26920 283.54605 284.67572 285.70639 286.64011
 287.47986 288.22769 288.88095 289.71347
 366.78100 356.34704 345.79107 334.66911 323.08414 311.29018 299.17221 286.98725
 274.71129 262.62032 250.64136 239.95439 230.08843 221.20446 213.39850 206.41254
 200.25857 195.20861 191.80264 189.85668 188.90571 188.98175 189.82879 191.14882
 192.88586 194.99289 197.26793 199.63896 202.09600 204.58804 206.68807 208.54211
 210.18014 211.33718 211.57821 211.81825 211.76729 211.48432 211.12936 210.77139
 210.40043 210.12246 209.94250 209.81854 209.75857 210.10161 210.49964 210.90068
 211.70571 212.89575 214.15779 215.95282 217.89286 219.94789 222.05493 224.14996
 226.22200 228.31804 230.42707 232.54511 234.68614 236.87018 239.13822 241.52025
 244.15329 246.41632 248.43036 250.20739 251.63643 252.77147 253.60550 253.93354
 253.98257 253.76861 253.14064 252.10068 250.71872 248.89175 246.81279 244.65782
 242.46086 240.27689 238.10893 235.95997 233.83200 231.71104 229.74907 227.91811
 226.21314 224.69718 223.33922 222.12325 221.01729 219.98932 219.10536 218.25839
 217.51243 216.70447 215.81450 215.19054 214.65257 215.21033 216.52438 217.52199
 218.80943 220.34952 221.33720 221.08951 220.41351 220.74780 222.16681 224.72554
 227.84039 231.93625 236.47205 240.98856 245.47043 249.75748 253.62143 257.03137
 260.06274 262.82745 265.38461 267.74915 269.94943 272.00525 273.92694 275.67853
 277.23529 278.37759 279.55835 280.98444 282.22449 283.32159 284.32257 285.22937
 286.04492 286.77118 287.40564 288.21417
 366.78100 356.34639 345.78979 334.66718 323.08157 311.28696 299.16836 286.98275
 274.70614 262.61454 250.63493 239.94732 230.08071 221.19611 213.38950 206.40289
 200.24829 195.19768 191.79107 189.84446 188.89286 188.96825 189.81464 191.13404
 192.87043 194.97682 197.25121 199.62161 202.07800 204.56939 206.66879 208.52218
 210.15957 211.31596 211.55636 211.79575 211.74414 211.46054 211.10493 210.74632
 210.37471 210.09611 209.91550 209.79089 209.73029 210.07268 210.47007 210.87047
 211.67486 212.86425 214.12564 215.92004 217.85943 219.91382 222.02022 224.11461
 226.18600 228.28139 230.38979 232.50718 234.64757 236.83097 239.09836 241.47975
 244.11214 246.37454 248.38793 250.16432 251.59272 252.72711 253.56050 253.88789
 253.93629 253.72168 253.09307 252.05247 250.66986 248.84225 246.76264 244.60704
 242.40943 240.22482 238.05622 235.90661 233.77800 231.65639 229.69379 227.86218
 226.15657 224.63997 223.28136 222.06475 220.95814 219.92954 219.04493 218.19732
 217.45072 216.64211 215.75150 215.12689 214.58829 215.17084 216.53981 217.50926
 218.71884 220.28712 221.31718 220.98849 220.16460 220.46791 222.05112 224.57726
 227.88629 232.03288 236.58437 241.11667 245.61333 249.91241 253.77835 257.16000
 260.14893 262.88730 265.43799 267.81201 270.01920 272.09402 274.03360 275.80350
 277.33057 278.43991 279.10614 280.27621 281.53229 282.64362 283.65753 284.57608
 285.40219 286.13785 286.78052 287.59952
 366.78100 356.34619 345.78938 334.66656 323.08075 311.28594 299.16713 286.98131
 274.70450 262.61269 250.63288 239.94507 230.07825 221.19344 213.38663 206.39982
 200.24500 195.19419 191.78738 189.84057 188.88876 188.96394 189.81013 191.12932
 192.86551 194.97169 197.24588 199.61607 202.07226 204.56345 206.66263 208.51582
 210.15301 211.30920 211.54939 211.78857 211.73676 211.45295 211.09714 210.73832
 210.36651 210.08770 209.90689 209.78208 209.72126 210.06345 210.46064 210.86083
 211.66501 212.85420 214.11539 215.90958 217.84877 219.90295 222.00914 224.10333
 226.17452 228.26970 230.37789 232.49508 234.63527 236.81846 239.08564 241.46683
 244.09902 246.36121 248.37439 250.15058 251.57877 252.71296 253.54615 253.87333
 253.92152 253.70671 253.07790 252.03708 250.65427 248.82646 246.74665 244.59084
 242.39302 240.20821 238.03940 235.88959 233.76077 231.63896 229.67615 227.84434
 226.13853 224.62171 223.26290 222.04609 220.93928 219.91046 219.02565 218.17784
 217.43103 216.62222 215.73140 215.10659 214.56778 215.15331 216.53192 217.51007
 218.68541 220.19130 221.24867 220.94301 219.97794 220.12245 221.88147 224.50893
 227.95815 232.14220 236.70792 241.25511 245.74879 250.02594 253.87132 257.24734
 260.21991 262.95435 265.51926 267.90918 270.12958 272.20932 274.16821 275.91815
 277.33954 278.39651 279.08771 279.91269 281.12418 282.26517 283.30612 284.24918
 285.09732 285.85263 286.51242 287.35327
 366.78100 356.34569 345.78837 334.66506 323.07875 311.28344 299.16412 286.97781
 274.70050 262.60819 250.62787 239.93956 230.07225 221.18693 213.37962 206.39231
 200.23700 195.18568 191.77837 189.83106 188.87875 188.95343 189.79912 191.11781
 192.85350 194.95918 197.23287 199.60256 202.05824 204.54893 206.64762 208.50031
 210.13699 211.29268 211.53237 211.77106 211.71874 211.43443 211.07812 210.71880
 210.34649 210.06718 209.88587 209.76055 209.69924 210.04093 210.43762 210.83730
 211.64099 212.82968 214.09037 215.88405 217.82274 219.87643 221.98211 224.07580
 226.14649 228.24118 230.34886 232.46555 234.60524 236.78793 239.05461 241.43530
 244.06699 246.32867 248.34136 250.11705 251.54474 252.67842 253.51111 253.83780
 253.88549 253.67017 253.04086 251.99955 250.61624 248.78792 246.70761 244.55130
 242.35298 240.16767 237.99836 235.84805 233.71873 231.59642 229.63311 227.80080
 226.09448 224.57717 223.21786 222.00054 220.89323 219.86392 218.97861 218.13029
 217.38298 216.57367 215.68236 215.05704 214.51773 215.12340 216.54630 217.50592
 218.66454 220.12100 221.23430 220.94247 219.80759 219.78293 221.63045 224.45277
 228.00482 232.24222 236.82712 241.38850 245.88506 250.14789 253.97008 257.32532
 260.28912 263.01422 265.58936 267.98718 270.21530 272.30969 274.27347 275.98926
 277.34369 278.30548 278.92657 279.64041 280.75656 281.88986 282.92380 283.86047
 284.70294 285.45312 286.10849 286.94366
 366.78100 356.34513 345.78726 334.66340 323.07653 311.28066 299.16079 286.97393
 274.69606 262.60319 250.62232 239.93346 230.06559 221.17972 213.37185 206.38399
 200.22812 195.17625 191.76838 189.82051 188.86765 188.94178 189.78691 191.10504
 192.84018 194.94531 197.21844 199.58757 202.04271 204.53284 206.63097 208.48310
 210.11924 211.27437 211.51350 211.75163 211.69876 211.41390 211.05703 210.69716
 210.32429 210.04443 209.86256 209.73669 209.67482 210.01596 210.41209 210.81122
 211.61435 212.80248 214.06262 215.85575 217.79388 219.84701 221.95215 224.04528
 226.11541 228.20954 230.31668 232.43281 234.57194 236.75407 239.02021 241.40034
 244.03147 246.29260 248.30473 250.07987 251.50700 252.64013 253.47226 253.79840
 253.84553 253.62966 252.99979 251.95793 250.57406 248.74519 246.66432 244.50746
 242.30859 240.12272 237.95285 235.80198 233.67212 231.54925 229.58538 227.75251
 226.04565 224.52778 223.16791 221.95004 220.84218 219.81231 218.92644 218.07757
 217.32971 216.51984 215.62797 215.00210 214.46223 215.08957 216.56195 217.51601
 218.62267 220.04416 221.18158 220.84956 219.63341 219.52620 221.44391 224.41634
 228.06714 232.35400 236.96011 241.52922 246.02298 250.26602 254.05376 257.38910
 260.35721 263.08185 265.66360 268.07999 270.32349 272.42584 274.40271 276.12936
 277.43326 278.20209 278.64532 279.22461 280.30322 281.42722 282.45270 283.38174
 284.21729 284.96136 285.61136 286.43973
 366.78100 356.34515 345.78731 334.66346 323.07662 311.28077 299.16093 286.97408
 274.69624 262.60339 250.62255 239.93370 230.06586 221.18001 213.37217 206.38432
 200.22848 195.17663 191.76879 189.82094 188.86810 188.94225 189.78741 191.10556
 192.84071 194.94587 197.21902 199.58818 202.04333 204.53349 206.63164 208.48380
 210.11995 211.27511 211.51426 211.75242 211.69957 211.41473 211.05788 210.69804
 210.32519 210.04535 209.86350 209.73766 209.67581 210.01696 210.41312 210.81227
 211.61543 212.80358 214.06374 215.85689 217.79505 219.84820 221.95336 224.04651
 226.11667 228.21082 230.31798 232.43413 234.57329 236.75544 239.02160 241.40175
 244.03291 246.29406 248.30622 250.08137 251.50852 252.64168 253.47383 253.79999
 253.84714 253.63130 253.00145 251.95961 250.57576 248.74692 246.66607 244.50923
 242.31038 240.12454 237.95469 235.80385 233.67400 231.55116 229.58731 227.75447
 226.04762 224.52978 223.16993 221.95208 220.84424 219.81439 218.92855 218.07970
 217.33186 216.52201 215.63017 215.00432 214.46448 215.07938 216.53198 217.58348
 218.56781 219.86044 220.99760 220.64818 219.42772 219.28258 221.32500 224.33362
 228.15359 232.47076 237.10034 241.67041 246.15094 250.37349 254.13135 257.44760
 260.42572 263.16217 265.73962 268.15442 270.40198 272.53348 274.53885 276.28162
 277.52225 278.24359 278.58896 278.84360 279.56454 280.61755 281.63843 282.56329
 283.39511 284.13583 284.78293 285.60754
 366.78100 356.34543 345.78785 334.66428 323.07771 311.28213 299.16256 286.97599
 274.69841 262.60584 250.62527 239.93669 230.06912 221.18355 213.37597 206.38840
 200.23283 195.18125 191.77368 189.82611 188.87353 188.94796 189.79339 191.11181
 192.84724 194.95267 197.22609 199.59552 202.05095 204.54137 206.63980 208.49223
 210.12865 211.28408 211.52351 211.76193 211.70936 211.42479 211.06821 210.70864
 210.33607 210.05649 209.87492 209.74935 209.68777 210.02920 210.42563 210.82505
 211.62848 212.81691 214.07733 215.87076 217.80919 219.86261 221.96804 224.06147
 226.13189 228.22632 230.33375 232.45017 234.58960 236.77203 239.03845 241.41888
 244.05031 246.31173 248.32416 250.09959 251.52701 252.66044 253.49287 253.81929
 253.86672 253.65115 253.02157 251.98000 250.59643 248.76785 246.68728 244.53071
 242.33213 240.14656 237.97699 235.82642 233.69684 231.57427 229.61070 227.77812
 226.07155 224.55398 223.19440 221.97683 220.86926 219.83968 218.95411 218.10554
 217.35796 216.54839 215.65682 215.03124 214.49167 215.08138 216.47699 217.64441
 218.66240 219.83958 220.94243 220.39877 219.11501 218.94040 221.17596 224.19720
 228.23151 232.56882 237.23235 241.80489 246.28177 250.49942 254.23784 257.54205
 260.52280 263.26700 265.82697 268.23328 270.48959 272.62534 274.62656 276.33786
 277.50845 278.20480 278.56412 278.81241 279.19058 279.96652 280.92386 281.81686
 282.62671 283.34787 283.97787 284.78070
 366.78100 356.34389 345.78478 334.65967 323.07156 311.27445 299.15334 286.96523
 274.68612 262.59201 250.60990 239.91979 230.05068 221.16357 213.35446 206.36535
 200.20824 195.15513 191.74603 189.79692 188.84281 188.91570 189.75959 191.07648
 192.81037 194.91426 197.18615 199.55404 202.00793 204.49682 206.59371 208.44460
 210.07949 211.23338 211.47127 211.70816 211.65405 211.36794 211.00983 210.64872
 210.27461 209.99350 209.81039 209.68328 209.62017 209.96006 210.35495 210.75284
 211.55473 212.74162 214.00051 215.79240 217.72929 219.78118 221.88508 223.97697
 226.04586 228.13875 230.24464 232.35953 234.49742 236.67831 238.94320 241.32209
 243.95198 246.21187 248.22276 249.99665 251.42254 252.55443 253.38532 253.71021
 253.75610 253.53899 252.90788 251.86477 250.47966 248.64955 246.56744 244.40933
 242.20922 240.02211 237.85100 235.69889 233.56778 231.44367 229.47856 227.64445
 225.93634 224.41723 223.05613 221.83702 220.72791 219.69680 218.80969 217.95958
 217.21047 216.39936 215.50625 214.87914 214.33803 215.00046 216.56551 217.54749
 218.74216 220.05905 220.88489 220.12598 218.84593 218.69836 221.00537 224.19176
 228.31662 232.68896 237.36913 241.93169 246.42834 250.65123 254.37093 257.67328
 260.66861 263.41241 265.93417 268.30182 270.54059 272.68680 274.70190 276.38965
 277.50873 278.13983 278.45593 278.68472 279.09497 279.78836 280.70993 281.57913
 282.35648 283.06317 283.68054 284.46729
 354.97500 345.04800 334.58700 324.11500 313.32600 302.53700 291.65000 280.76700
 269.93100 259.19300 248.62200 238.61700 229.08700 220.35500 212.54000 205.53500
 199.46400 194.49300 191.14300 189.19000 188.08900 188.01400 188.72400 189.90600
 191.46900 193.38200 195.40300 197.55600 199.80700 202.06000 204.28800 206.47900
 208.55200 210.37800 212.02500 213.65900 214.99800 216.11800 217.17200 218.25900
 219.49400 220.64500 221.67900 222.61400 223.54500 224.98200 226.57100 228.19000
 229.79700 231.81100 233.86500 235.97200 238.24200 240.55300 242.89900 245.25300
 247.48800 249.53500 251.36600 252.84800 254.09800 255.16700 256.02700 256.25300
 256.09500 255.54300 253.93500 252.56600 251.38400 250.24500 249.05200 247.70100
 246.01600 243.99600 241.78400 239.39300 236.81300 234.22300 231.65800 229.14400
 226.74000 224.47300 222.33500 220.32500 218.44000 216.67700 214.96200 213.47200
 212.20000 211.10800 210.26000 209.63900 209.24400 209.03100 209.05800 209.33300
 209.78400 210.62600 211.33100 212.39100 213.62500 214.84668 217.72949 219.47640
 220.32566 220.86828 220.88710 220.27371 219.43733 218.84250 219.04934 220.86203
 222.60583 225.72206 229.03064 232.61777 236.12270 239.51333 242.70767 245.68587
 248.41061 250.90679 253.19353 254.91714 256.48655 257.94920 259.39966 260.69384
 261.81714 262.77997 263.71679 264.54570 265.26305 265.89772 266.47676 267.00133
 267.47312 267.89325 268.26027 268.72800
