|-------------------------------------------------------------------------|
|   File Name : in_temp.dat
|   Subject   : temperature profiles used for initial guess atmosphere
|   File Type : input of gmtr
|   Data Type : atmospherical data
|   Author/s  : WRF-Chem
|   Date      : Fri Jul 26 15:39:24 2024
|-------------------------------------------------------------------------|

 WRF-Chem temperature
#
 values of T (K)    (8f10.5)
#
 354.97500 345.04800 334.58700 324.11500 313.32600 302.53700 291.65000 280.76700
 269.93100 259.19300 248.62200 238.61700 229.08700 220.35500 212.54000 205.53500
 199.46400 194.49300 191.14300 189.19000 188.08900 188.01400 188.72400 189.90600
 191.46900 193.38200 195.40300 197.55600 199.80700 202.06000 204.28800 206.47900
 208.55200 210.37800 212.02500 213.65900 214.99800 216.11800 217.17200 218.25900
 219.49400 220.64500 221.67900 222.61400 223.54500 224.98200 226.57100 228.19000
 229.79700 231.81100 233.86500 235.97200 238.24200 240.55300 242.89900 245.25300
 247.48800 249.53500 251.36600 252.84800 254.09800 255.16700 256.02700 256.25300
 256.09500 255.54300 253.93500 252.56600 251.38400 250.24500 249.05200 247.70100
 246.01600 243.99600 241.78400 239.39300 236.81300 234.22300 231.65800 229.14400
 226.74000 224.47300 222.33500 220.32500 218.44000 216.67700 214.96200 213.47200
 212.20000 211.10800 210.26000 209.63900 209.24400 209.03100 209.05800 209.33300
 209.78400 210.62600 211.33100 212.39100 213.62500 214.84668 217.72949 219.47640
 220.32566 220.86828 220.88710 220.27371 219.43733 218.84250 219.04934 220.86203
 222.60583 225.72206 229.03064 232.61777 236.12270 239.51333 242.70767 245.68587
 248.41061 250.90679 253.19353 254.91714 256.48655 257.94920 259.39966 260.69384
 261.81714 262.77997 263.71679 264.54570 265.26305 265.89772 266.47676 267.00133
 267.47312 267.89325 268.26027 268.72800
 366.78100 356.33500 345.76700 334.63300 323.03600 311.23000 299.10000 286.90300
 274.61500 262.51200 250.52100 239.82200 229.94400 221.04800 213.23000 206.23200
 200.06600 195.00400 191.58600 189.62800 188.66500 188.72900 189.56400 190.87200
 192.59700 194.69200 196.95500 199.31400 201.75900 204.23900 206.32700 208.16900
 209.79500 210.94000 211.16900 211.39700 211.33400 211.03900 210.67200 210.30200
 209.91900 209.62900 209.43700 209.30100 209.22900 209.56000 209.94600 210.33500
 211.12800 212.30600 213.55600 215.33900 217.26700 219.31000 221.40500 223.48800
 225.54800 227.63200 229.72900 231.83500 233.96400 236.13600 238.39200 240.76200
 243.38300 245.63400 247.63600 249.40100 250.81800 251.94100 252.76300 253.07900
 253.11600 252.89000 252.25000 251.19800 249.80400 247.96500 245.87400 243.70700
 241.49800 239.30200 237.12200 234.96100 232.82100 230.68800 228.71400 226.87100
 225.15400 223.62600 222.25600 221.02800 219.91000 218.87000 217.97400 217.11500
 216.35700 215.53700 214.63500 213.99900 213.44900 212.85855 212.01316 212.61654
 214.26826 216.08686 218.14273 220.53346 223.40855 226.78828 231.49734 235.90155
 239.42278 243.28576 247.23140 251.11907 254.80144 258.23331 261.38913 264.27520
 266.89312 269.26852 271.44504 273.08845 274.58484 275.98591 277.39845 278.65879
 279.75272 280.69038 281.56708 282.34086 283.01050 283.60295 284.14348 284.63317
 285.07358 285.46577 285.80838 286.24500
 381.81900 372.39900 361.20600 349.77600 337.62200 324.85300 311.81000 298.35300
 284.86000 271.32400 258.56100 246.30400 236.08700 226.79600 218.44800 211.29000
 205.52200 200.89400 197.38100 194.84800 193.01500 192.31500 192.25000 192.43100
 192.91200 193.53700 194.13600 194.71200 195.26200 195.83100 196.39300 196.97600
 197.60400 198.14900 198.58400 199.05700 199.69500 200.37800 201.05400 201.70800
 202.31300 202.85700 203.35500 203.86200 204.56900 205.29700 206.02600 206.98700
 208.19300 209.44100 210.96900 212.57600 214.46200 216.51300 218.63000 220.85300
 223.34100 225.96200 228.73900 231.69700 234.70600 237.70600 240.69200 243.65700
 246.73700 249.69900 252.52100 255.06300 257.29000 259.23300 260.63300 261.68000
 262.46100 262.79800 262.69100 262.22400 261.06900 259.52500 257.70700 255.50700
 253.00100 250.30200 247.39800 244.45200 241.65400 239.05400 236.73300 234.59000
 232.59500 230.72500 228.83400 226.82600 224.66600 222.38700 220.10400 217.71500
 215.45900 213.06600 210.54600 208.09300 205.35400 202.08130 196.05959 200.71215
 209.01611 216.90438 223.84126 229.78593 235.00632 240.20838 245.98943 250.68668
 254.32982 257.93487 261.55666 264.96801 268.15192 271.06452 273.76717 276.25691
 278.57680 280.74479 282.77456 284.60533 286.27232 287.81705 289.31715 290.65561
 291.81734 292.81312 293.70701 294.49387 295.17482 295.77730 296.32696 296.82492
 297.27278 297.67160 298.02000 298.46400
 399.33000 389.90700 379.81300 368.66800 357.52200 345.30100 333.07400 320.22700
 307.21600 293.84800 280.37600 267.29600 254.61000 242.98700 232.15100 221.97700
 212.67200 204.28600 197.66900 192.82100 189.48600 187.45200 186.81400 187.08900
 187.78100 189.05400 190.64800 192.54200 194.63000 196.75200 198.67100 200.15800
 201.53500 202.48700 202.97500 203.34000 203.53900 203.49700 203.38500 203.24700
 203.00500 202.78600 202.60300 202.43700 202.42600 202.88800 203.42000 203.95100
 204.89500 205.99200 207.30100 208.95800 210.73800 213.10000 215.56400 218.18000
 220.96600 223.91800 226.96100 230.09200 233.29300 236.55700 239.95500 243.53700
 246.84500 249.39000 251.54200 253.47400 255.19500 256.48400 257.43100 258.05900
 258.21200 258.04000 257.58200 256.64300 255.23900 253.50700 251.40800 249.05600
 246.57600 243.99400 241.38900 238.83000 236.34400 233.98600 231.96900 230.11800
 228.42300 226.89900 225.54800 224.29700 223.10500 221.96500 220.95800 220.11300
 219.49000 218.92000 218.32500 217.88100 217.42300 216.96366 216.35568 216.80261
 217.73415 218.28582 218.64258 219.10077 220.44626 222.53987 226.38451 230.35736
 233.59734 237.39164 241.29814 245.22796 248.98002 252.51130 255.78595 258.80109
 261.54781 264.05210 266.34239 268.04198 269.58951 271.01303 272.35754 273.55718
 274.59842 275.49092 276.28989 276.99307 277.60161 278.14001 278.63122 279.07623
 279.47646 279.83287 280.14422 280.54100
 399.73800 389.78500 379.66200 368.15100 356.64100 344.35000 331.79200 318.88800
 305.72600 292.49300 279.20900 266.73800 254.69600 244.21100 234.45700 225.43300
 217.56900 210.45100 204.30000 199.30600 195.45800 192.57600 191.02700 190.38600
 190.23900 190.53400 191.16600 191.92500 192.79500 193.76600 194.73200 195.31200
 195.80000 196.05200 196.11500 196.11500 196.03900 195.72300 195.34000 194.98900
 194.75100 194.79200 195.13300 195.59800 196.50600 198.13600 199.85800 201.56600
 204.17900 206.82300 209.89300 213.28400 216.82800 220.60500 224.38700 228.20900
 232.03200 235.82500 239.56000 243.25800 246.84500 250.20100 253.70900 257.46800
 261.53000 264.22100 266.60100 268.68100 270.32900 271.74100 272.83600 273.47400
 273.89800 274.00200 273.75700 273.28800 272.37100 271.10000 269.58900 267.77900
 265.81600 263.72100 261.39300 258.91600 256.29800 253.42300 250.33100 247.11400
 243.83700 240.52900 237.24900 233.99900 230.72800 227.51500 224.25400 220.95200
 217.62700 213.65600 210.12100 206.78900 204.01000 201.99491 199.07309 198.76551
 199.40006 200.48994 201.46112 202.31912 203.45100 204.96110 207.47502 210.85391
 213.70530 217.29629 220.99574 224.72316 228.28753 231.64854 234.68024 237.40893
 239.70644 241.60899 243.46854 245.67368 247.68154 249.52395 251.24767 252.78566
 254.12057 255.26479 256.23740 257.09036 257.82852 258.48160 259.07744 259.61723
 260.10271 260.53504 260.91270 261.39400
 399.73800 389.78500 379.66200 368.15100 356.64100 344.35000 331.79200 318.88800
 305.72600 292.49300 279.20900 266.73800 254.69600 244.21100 234.45700 225.43300
 217.56900 210.45100 204.30000 199.30600 195.45800 192.57600 191.02700 190.38600
 190.23900 190.53400 191.16600 191.92500 192.79500 193.76600 194.73200 195.31200
 195.80000 196.05200 196.11500 196.11500 196.03900 195.72300 195.34000 194.98900
 194.75100 194.79200 195.13300 195.59800 196.50600 198.13600 199.85800 201.56600
 204.17900 206.82300 209.89300 213.28400 216.82800 220.60500 224.38700 228.20900
 232.03200 235.82500 239.56000 243.25800 246.84500 250.20100 253.70900 257.46800
 261.53000 264.22100 266.60100 268.68100 270.32900 271.74100 272.83600 273.47400
 273.89800 274.00200 273.75700 273.28800 272.37100 271.10000 269.58900 267.77900
 265.81600 263.72100 261.39300 258.91600 256.29800 253.42300 250.33100 247.11400
 243.83700 240.52900 237.24900 233.99900 230.72800 227.51500 224.25400 220.95200
 217.62700 213.65600 210.12100 206.78900 204.01000 201.99491 199.07309 198.76551
 199.40006 200.48994 201.46112 202.31912 203.45100 204.96110 207.47502 210.85391
 213.70530 217.29629 220.99574 224.72316 228.28753 231.64854 234.68024 237.40893
 239.70644 241.60899 243.46854 245.67368 247.68154 249.52395 251.24767 252.78566
 254.12057 255.26479 256.23740 257.09036 257.82852 258.48160 259.07744 259.61723
 260.10271 260.53504 260.91270 261.39400
 399.33000 389.90700 379.81300 368.66800 357.52200 345.30100 333.07400 320.22700
 307.21600 293.84800 280.37600 267.29600 254.61000 242.98700 232.15100 221.97700
 212.67200 204.28600 197.66900 192.82100 189.48600 187.45200 186.81400 187.08900
 187.78100 189.05400 190.64800 192.54200 194.63000 196.75200 198.67100 200.15800
 201.53500 202.48700 202.97500 203.34000 203.53900 203.49700 203.38500 203.24700
 203.00500 202.78600 202.60300 202.43700 202.42600 202.88800 203.42000 203.95100
 204.89500 205.99200 207.30100 208.95800 210.73800 213.10000 215.56400 218.18000
 220.96600 223.91800 226.96100 230.09200 233.29300 236.55700 239.95500 243.53700
 246.84500 249.39000 251.54200 253.47400 255.19500 256.48400 257.43100 258.05900
 258.21200 258.04000 257.58200 256.64300 255.23900 253.50700 251.40800 249.05600
 246.57600 243.99400 241.38900 238.83000 236.34400 233.98600 231.96900 230.11800
 228.42300 226.89900 225.54800 224.29700 223.10500 221.96500 220.95800 220.11300
 219.49000 218.92000 218.32500 217.88100 217.42300 216.96366 216.35568 216.80261
 217.73415 218.28582 218.64258 219.10077 220.44626 222.53987 226.38451 230.35736
 233.59734 237.39164 241.29814 245.22796 248.98002 252.51130 255.78595 258.80109
 261.54781 264.05210 266.34239 268.04198 269.58951 271.01303 272.35754 273.55718
 274.59842 275.49092 276.28989 276.99307 277.60161 278.14001 278.63122 279.07623
 279.47646 279.83287 280.14422 280.54100
 381.81900 372.39900 361.20600 349.77600 337.62200 324.85300 311.81000 298.35300
 284.86000 271.32400 258.56100 246.30400 236.08700 226.79600 218.44800 211.29000
 205.52200 200.89400 197.38100 194.84800 193.01500 192.31500 192.25000 192.43100
 192.91200 193.53700 194.13600 194.71200 195.26200 195.83100 196.39300 196.97600
 197.60400 198.14900 198.58400 199.05700 199.69500 200.37800 201.05400 201.70800
 202.31300 202.85700 203.35500 203.86200 204.56900 205.29700 206.02600 206.98700
 208.19300 209.44100 210.96900 212.57600 214.46200 216.51300 218.63000 220.85300
 223.34100 225.96200 228.73900 231.69700 234.70600 237.70600 240.69200 243.65700
 246.73700 249.69900 252.52100 255.06300 257.29000 259.23300 260.63300 261.68000
 262.46100 262.79800 262.69100 262.22400 261.06900 259.52500 257.70700 255.50700
 253.00100 250.30200 247.39800 244.45200 241.65400 239.05400 236.73300 234.59000
 232.59500 230.72500 228.83400 226.82600 224.66600 222.38700 220.10400 217.71500
 215.45900 213.06600 210.54600 208.09300 205.35400 202.08130 196.05959 200.71215
 209.01611 216.90438 223.84126 229.78593 235.00632 240.20838 245.98943 250.68668
 254.32982 257.93487 261.55666 264.96801 268.15192 271.06452 273.76717 276.25691
 278.57680 280.74479 282.77456 284.60533 286.27232 287.81705 289.31715 290.65561
 291.81734 292.81312 293.70701 294.49387 295.17482 295.77730 296.32696 296.82492
 297.27278 297.67160 298.02000 298.46400
 366.78100 356.33663 345.77025 334.63788 323.04251 311.23813 299.10976 286.91439
 274.62801 262.52664 250.53727 239.83989 229.96352 221.06915 213.25277 206.25640
 200.09203 195.03165 191.61528 189.65891 188.69753 188.76316 189.59979 190.90941
 192.63604 194.73267 196.99729 199.35792 201.80455 204.28617 206.37580 208.21943
 209.84705 210.99368 211.22431 211.45393 211.39256 211.09919 210.73381 210.36544
 209.98407 209.69569 209.50532 209.37095 209.30057 209.63320 210.02083 210.41145
 211.20608 212.38571 213.63733 215.42196 217.35159 219.39621 221.49284 223.57747
 225.63909 227.72472 229.82335 231.93097 234.06160 236.23522 238.49285 240.86448
 243.48710 245.73973 247.74336 249.50998 250.92861 252.05324 252.87686 253.19449
 253.23312 253.00874 252.37037 251.32000 249.92762 248.09025 246.00088 243.83550
 241.62813 239.43376 237.25538 235.09601 232.95764 230.82626 228.85389 227.01252
 225.29714 223.77077 222.40240 221.17602 220.05965 219.02128 218.12690 217.26953
 216.51316 215.69478 214.79441 214.16004 213.61166 212.76077 210.75824 210.29572
 210.66356 211.46461 213.10318 215.55779 219.22357 223.89926 229.66304 234.81328
 238.72685 242.65648 246.74268 250.85265 254.67384 258.42639 261.24750 262.98483
 265.64618 268.48013 270.92581 272.81607 274.81897 276.81219 278.32510 279.81058
 281.44525 282.98322 284.45004 285.80768 286.98810 288.03461 288.98810 289.85544
 290.64087 291.34601 291.96390 292.78537
 366.78100 356.33727 345.77154 334.63981 323.04509 311.24136 299.11363 286.91890
 274.63317 262.53244 250.54371 239.84698 229.97126 221.07753 213.26180 206.26607
 200.10234 195.04261 191.62688 189.67116 188.71043 188.77670 189.61397 190.92424
 192.65151 194.74878 197.01405 199.37533 201.82260 204.30487 206.39514 208.23941
 209.86768 211.01495 211.24622 211.47650 211.41577 211.12304 210.75831 210.39058
 210.00985 209.72212 209.53240 209.39867 209.32894 209.66221 210.05048 210.44175
 211.23702 212.41729 213.66957 215.45484 217.38511 219.43038 221.52765 223.61292
 225.67519 227.76147 229.86074 231.96901 234.10028 236.27455 238.53282 240.90509
 243.52836 245.78164 247.78591 249.55318 250.97245 252.09772 252.92199 253.24026
 253.27954 253.05581 252.41808 251.36835 249.97662 248.13989 246.05116 243.88643
 241.67971 239.48598 237.30825 235.14952 233.01179 230.88106 228.90933 227.06861
 225.35388 223.82815 222.46042 221.23469 220.11896 219.08123 218.18750 217.33078
 216.57505 215.75732 214.85759 214.22386 213.67613 212.82649 210.82671 210.42010
 210.65300 211.55267 213.17726 215.52399 219.10497 223.83321 229.61327 234.75958
 238.66335 242.57683 246.65530 250.77348 254.61406 258.36932 261.19354 262.94260
 265.61182 268.45358 270.89420 272.73788 274.72714 276.73923 278.24002 279.70889
 281.35330 282.90002 284.36707 285.72476 286.90533 287.95068 288.90604 289.77295
 290.55734 291.26270 291.88312 292.70596
 366.78100 356.33744 345.77189 334.64033 323.04577 311.24221 299.11466 286.92010
 274.63454 262.53399 250.54543 239.84887 229.97332 221.07976 213.26420 206.26864
 200.10509 195.04553 191.62997 189.67442 188.71386 188.78030 189.61775 190.92819
 192.65563 194.75307 197.01852 199.37996 201.82740 204.30985 206.40029 208.24473
 209.87318 211.02062 211.25206 211.48250 211.42195 211.12939 210.76483 210.39728
 210.01672 209.72916 209.53961 209.40605 209.33649 209.66993 210.05838 210.44982
 211.24526 212.42571 213.67815 215.46359 217.39404 219.43948 221.53692 223.62236
 225.68481 227.77125 229.87069 231.97914 234.11058 236.28502 238.54346 240.91591
 243.53935 245.79279 247.79724 249.56468 250.98412 252.10957 252.93401 253.25245
 253.29189 253.06834 252.43078 251.38122 249.98967 248.15311 246.06455 243.90000
 241.69344 239.49988 237.32232 235.16377 233.02621 230.89565 228.92410 227.08354
 225.36898 223.84343 222.47587 221.25031 220.13475 219.09720 218.20364 217.34708
 216.59153 215.77397 214.87441 214.24086 213.69330 212.86818 210.92538 210.51857
 210.66077 211.63374 213.23344 215.50591 219.00635 223.75359 229.56549 234.70421
 238.59578 242.49478 246.56657 250.69403 254.55719 258.31549 261.14359 262.90494
 265.57483 268.42206 270.85837 272.65897 274.63388 276.66391 278.15518 279.60873
 281.26193 282.81699 284.28592 285.64258 286.82367 287.86929 288.82300 289.69028
 290.47845 291.18268 291.80377 292.62741
 366.78100 356.33723 345.77147 334.63970 323.04494 311.24117 299.11341 286.91864
 274.63288 262.53211 250.54335 239.84658 229.97082 221.07705 213.26129 206.26552
 200.10176 195.04199 191.62623 189.67046 188.70970 188.77593 189.61317 190.92340
 192.65064 194.74787 197.01311 199.37434 201.82158 204.30381 206.39405 208.23828
 209.86652 211.01375 211.24499 211.47522 211.41445 211.12169 210.75692 210.38916
 210.00839 209.72063 209.53086 209.39710 209.32733 209.66057 210.04880 210.44004
 211.23527 212.41551 213.66774 215.45298 217.38321 219.42845 221.52568 223.61092
 225.67315 227.75939 229.85862 231.96686 234.09809 236.27233 238.53056 240.90280
 243.52603 245.77927 247.78350 249.55074 250.96997 252.09520 252.91944 253.23767
 253.27691 253.05314 252.41538 251.36561 249.97385 248.13708 246.04832 243.88355
 241.67679 239.48302 237.30526 235.14649 233.00873 230.87796 228.90620 227.06543
 225.35067 223.82490 222.45714 221.23137 220.11561 219.07784 218.18408 217.32731
 216.57155 215.75378 214.85402 214.22025 213.67249 212.89050 211.04825 210.60173
 210.68663 211.70007 213.27631 215.49666 218.92892 223.67087 229.51494 234.64421
 238.52538 242.41222 246.47905 250.61638 254.50351 258.26340 261.09317 262.86517
 265.53238 268.38242 270.81592 272.57974 274.54352 276.59030 278.07483 279.51248
 281.17218 282.73630 284.20566 285.56345 286.74405 287.78964 288.74524 289.61102
 290.39886 291.10428 291.72589 292.55096
 366.78100 356.33694 345.77089 334.63883 323.04377 311.23972 299.11166 286.91661
 274.63055 262.52949 250.54044 239.84338 229.96732 221.07327 213.25721 206.26116
 200.09710 195.03704 191.62099 189.66493 188.70387 188.76982 189.60676 190.91671
 192.64365 194.74059 197.00554 199.36648 201.81342 204.29537 206.38531 208.22926
 209.85720 211.00414 211.23509 211.46503 211.40397 211.11092 210.74586 210.37780
 209.99675 209.70869 209.51864 209.38458 209.31452 209.64747 210.03541 210.42635
 211.22130 212.40124 213.65319 215.43813 217.36807 219.41302 221.50996 223.59490
 225.65685 227.74279 229.84174 231.94968 234.08062 236.25457 238.51251 240.88445
 243.50740 245.76034 247.76429 249.53123 250.95017 252.07512 252.89906 253.21700
 253.25595 253.03189 252.39383 251.34378 249.95172 248.11467 246.02561 243.86055
 241.65350 239.45944 237.28138 235.12233 232.98427 230.85322 228.88116 227.04010
 225.32505 223.79899 222.43093 221.20488 220.08882 219.05077 218.15671 217.29965
 216.54360 215.72554 214.82548 214.19143 213.64337 212.90752 211.17310 210.68797
 210.72661 211.74365 213.31415 215.50089 218.86143 223.58798 229.46182 234.58031
 238.45242 242.32933 246.39206 250.53923 254.45222 258.21219 261.04056 262.82288
 265.48306 268.33438 270.76727 272.50116 274.45425 276.51733 278.00012 279.42456
 281.08673 282.65585 284.12799 285.48532 286.66489 287.71149 288.66632 289.53329
 290.32294 291.02557 291.65091 292.47610
 366.78100 356.33665 345.77030 334.63795 323.04260 311.23825 299.10989 286.91454
 274.62819 262.52684 250.53749 239.84014 229.96379 221.06944 213.25309 206.25674
 200.09239 195.03203 191.61568 189.65933 188.69798 188.76363 189.60028 190.90993
 192.63658 194.73323 196.99788 199.35852 201.80517 204.28682 206.37647 208.22012
 209.84777 210.99442 211.22507 211.45472 211.39337 211.10002 210.73466 210.36631
 209.98496 209.69661 209.50626 209.37191 209.30156 209.63421 210.02186 210.41251
 211.20716 212.38680 213.63845 215.42310 217.35275 219.39740 221.49405 223.57870
 225.64035 227.72600 229.82465 231.93230 234.06294 236.23659 238.49424 240.86589
 243.48854 245.74119 247.74484 249.51149 250.93014 252.05479 252.87843 253.19608
 253.23473 253.01038 252.37203 251.32168 249.92933 248.09198 246.00263 243.83728
 241.62993 239.43557 237.25722 235.09787 232.95952 230.82817 228.85582 227.01447
 225.29912 223.77277 222.40442 221.17807 220.06171 219.02336 218.12901 217.27166
 216.51531 215.69696 214.79661 214.16226 213.61391 212.92320 211.29453 210.78436
 210.77606 211.77005 213.34589 215.51205 218.80566 223.50427 229.40642 234.51346
 238.37750 242.24623 246.30507 250.46207 254.40353 258.16342 260.98907 262.78070
 265.42801 268.27698 270.70987 272.41959 274.36542 276.44443 277.92975 279.34335
 281.00558 282.57507 284.05222 285.40894 286.58850 287.63474 288.58957 289.45779
 290.24545 290.95233 291.57315 292.39935
 366.78100 356.33627 345.76954 334.63681 323.04108 311.23635 299.10763 286.91190
 274.62517 262.52344 250.53371 239.83598 229.95925 221.06452 213.24779 206.25106
 200.08634 195.02561 191.60888 189.65215 188.69042 188.75569 189.59196 190.90123
 192.62750 194.72377 196.98804 199.34832 201.79459 204.27586 206.36513 208.20840
 209.83567 210.98194 211.21221 211.44148 211.37975 211.08603 210.72030 210.35157
 209.96984 209.68111 209.49038 209.35565 209.28492 209.61719 210.00446 210.39473
 211.18901 212.36828 213.61955 215.40382 217.33309 219.37736 221.47363 223.55790
 225.61917 227.70444 229.80272 231.90999 234.04026 236.21353 238.47080 240.84207
 243.46434 245.71661 247.71988 249.48615 250.90442 252.02870 252.85197 253.16924
 253.20751 252.98278 252.34405 251.29332 249.90059 248.06286 245.97313 243.80741
 241.59968 239.40495 237.22622 235.06649 232.92776 230.79603 228.82330 226.98157
 225.26584 223.73912 222.37039 221.14366 220.02693 218.98820 218.09347 217.23574
 216.47901 215.66028 214.75955 214.12482 213.57610 212.93333 211.41707 210.88722
 210.83043 211.79018 213.37012 215.52425 218.75841 223.42278 229.34726 234.44534
 238.30159 242.16263 246.21779 250.38539 254.35753 258.11725 260.93973 262.74084
 265.36853 268.20920 270.64246 272.33340 274.27631 276.36868 277.86240 279.27103
 280.93018 282.50000 283.97678 285.33307 286.51337 287.55829 288.51465 289.38232
 290.17023 290.87561 291.49921 292.32587
 366.78100 356.33601 345.76901 334.63602 323.04003 311.23503 299.10604 286.91004
 274.62305 262.52106 250.53106 239.83307 229.95608 221.06108 213.24409 206.24710
 200.08210 195.02111 191.60411 189.64712 188.68513 188.75013 189.58614 190.89515
 192.62115 194.71716 196.98117 199.34117 201.78718 204.26818 206.35719 208.20020
 209.82720 210.97321 211.20322 211.43222 211.37023 211.07624 210.71024 210.34125
 209.95925 209.67026 209.47927 209.34427 209.27328 209.60529 209.99229 210.38230
 211.17631 212.35531 213.60632 215.39032 217.31933 219.36334 221.45934 223.54335
 225.60436 227.68936 229.78737 231.89438 234.02438 236.19739 238.45439 240.82540
 243.44741 245.69941 247.70242 249.46843 250.88643 252.01044 252.83345 253.15045
 253.18846 252.96346 252.32447 251.27348 249.88048 248.04249 245.95250 243.78650
 241.57851 239.38352 237.20452 235.04453 232.90553 230.77354 228.80055 226.95855
 225.24256 223.71557 222.34657 221.11958 220.00259 218.96359 218.06860 217.21060
 216.45361 215.63462 214.73362 214.09863 213.54964 212.94826 211.52921 211.00143
 210.89201 211.79932 213.39427 215.54013 218.71060 223.34871 229.28720 234.37219
 238.22006 242.07466 246.12717 250.30743 254.31448 258.07428 260.89310 262.70612
 265.30658 268.13293 270.56659 272.24371 274.18518 276.29001 277.79910 279.20691
 280.85907 282.42651 283.90063 285.25677 286.43692 287.48270 288.43716 289.30603
 290.09344 290.80276 291.42352 292.25507
 366.78100 356.33557 345.76815 334.63472 323.03829 311.23286 299.10344 286.90701
 274.61958 262.51715 250.52673 239.82830 229.95087 221.05545 213.23802 206.24059
 200.07516 195.01374 191.59631 189.63888 188.67645 188.74103 189.57660 190.88517
 192.61075 194.70632 196.96989 199.32946 201.77504 204.25561 206.34418 208.18675
 209.81333 210.95890 211.18847 211.41704 211.35462 211.06019 210.69376 210.32434
 209.94191 209.65248 209.46105 209.32563 209.25420 209.58577 209.97234 210.36192
 211.15549 212.33406 213.58464 215.36821 217.29678 219.34035 221.43593 223.51950
 225.58007 227.66464 229.76222 231.86879 233.99836 236.17094 238.42751 240.79808
 243.41965 245.67123 247.67380 249.43937 250.85694 251.98052 252.80309 253.11966
 253.15724 252.93181 252.29238 251.24095 249.84753 248.00910 245.91867 243.75224
 241.54382 239.34839 237.16896 235.00854 232.86911 230.73668 228.76325 226.92083
 225.20440 223.67697 222.30754 221.08012 219.96269 218.92326 218.02784 217.16941
 216.41198 215.59255 214.69113 214.05570 213.50627 212.95444 211.65187 211.11011
 210.95607 211.82106 213.41032 215.55353 218.67369 223.27785 229.22182 234.29370
 238.13300 241.98259 246.03487 250.23050 254.27715 258.03680 260.85159 262.67932
 265.24274 268.04825 270.48087 272.14902 274.09210 276.20752 277.73685 279.15060
 280.79333 282.35574 283.82437 285.18018 286.36041 287.40625 288.36163 289.23114
 290.01834 290.72769 291.34805 292.18179
 366.78100 356.33534 345.76767 334.63401 323.03734 311.23168 299.10202 286.90535
 274.61769 262.51502 250.52436 239.82569 229.94803 221.05237 213.23470 206.23704
 200.07137 195.00971 191.59205 189.63438 188.67172 188.73605 189.57139 190.87973
 192.60506 194.70040 196.96373 199.32307 201.76841 204.24874 206.33708 208.17941
 209.80575 210.95108 211.18042 211.40876 211.34609 211.05143 210.68476 210.31510
 209.93244 209.64277 209.45111 209.31544 209.24378 209.57512 209.96145 210.35079
 211.14412 212.32246 213.57279 215.35613 217.28447 219.32780 221.42314 223.50647
 225.56681 227.65115 229.74848 231.85482 233.98415 236.15649 238.41283 240.78316
 243.40450 245.65583 247.65817 249.42351 250.84084 251.96418 252.78651 253.10285
 253.14018 252.91452 252.27486 251.22319 249.82953 247.99086 245.90020 243.73354
 241.52487 239.32921 237.14954 234.98888 232.84922 230.71655 228.74289 226.90022
 225.18356 223.65589 222.28623 221.05857 219.94090 218.90124 218.00557 217.14691
 216.38925 215.56958 214.66792 214.03225 213.48259 212.96878 211.75577 211.24535
 211.02348 211.81815 213.44691 215.56584 218.60864 223.21286 229.16280 234.21661
 238.04532 241.88850 245.94058 250.15320 254.24257 258.00024 260.80789 262.65387
 265.17551 267.95547 270.38898 272.05383 273.99890 276.12631 277.68112 279.10565
 280.73428 282.28638 283.74750 285.10312 286.28287 287.33020 288.28592 289.15479
 289.94318 290.65076 291.27563 292.10770
 366.78100 356.33509 345.76717 334.63326 323.03634 311.23043 299.10052 286.90360
 274.61569 262.51277 250.52186 239.82295 229.94503 221.04912 213.23121 206.23329
 200.06738 195.00546 191.58755 189.62964 188.66672 188.73081 189.56589 190.87398
 192.59907 194.69415 196.95724 199.31632 201.76141 204.24150 206.32958 208.17167
 209.79776 210.94284 211.17193 211.40001 211.33710 211.04219 210.67527 210.30536
 209.92244 209.63253 209.44062 209.30470 209.23279 209.56387 209.94996 210.33905
 211.13213 212.31022 213.56031 215.34339 217.27148 219.31456 221.40965 223.49274
 225.55282 227.63691 229.73399 231.84008 233.96917 236.14125 238.39734 240.76742
 243.38851 245.63960 247.64168 249.40677 250.82386 251.94694 252.76903 253.08511
 253.12220 252.89629 252.25637 251.20446 249.81054 247.97163 245.88072 243.71380
 241.50489 239.30897 237.12906 234.96815 232.82823 230.69532 228.72141 226.87849
 225.16158 223.63366 222.26375 221.03584 219.91792 218.87801 217.98209 217.12318
 216.36527 215.54535 214.64344 214.00752 213.45761 212.98143 211.85706 211.38129
 211.12582 211.82845 213.41451 215.58083 218.59982 223.15125 229.09842 234.12199
 237.93489 241.77469 245.83388 250.06967 254.20932 257.96494 260.76590 262.63873
 265.11298 267.86313 270.29910 271.96689 273.91180 276.04886 277.63492 279.07156
 280.68112 282.22147 283.67017 285.02560 286.20624 287.25235 288.20932 289.07852
 289.86725 290.57529 291.20059 292.03043
 366.78100 356.33453 345.76606 334.63159 323.03411 311.22764 299.09717 286.89970
 274.61123 262.50776 250.51629 239.81682 229.93834 221.04187 213.22340 206.22493
 200.05846 194.99599 191.57752 189.61905 188.65557 188.71910 189.55363 190.86116
 192.58569 194.68022 196.94275 199.30128 201.74580 204.22533 206.31286 208.15439
 209.77992 210.92445 211.15298 211.38050 211.31703 211.02156 210.65409 210.28362
 209.90015 209.60968 209.41721 209.28073 209.20826 209.53879 209.92432 210.31285
 211.10538 212.28291 213.53244 215.31496 217.24249 219.28502 221.37955 223.46208
 225.52161 227.60514 229.70167 231.80719 233.93572 236.10725 238.36278 240.73231
 243.35284 245.60337 247.60489 249.36942 250.78595 251.90848 252.73001 253.04554
 253.08207 252.85560 252.21512 251.16265 249.76818 247.92871 245.83724 243.66977
 241.46030 239.26383 237.08335 234.92188 232.78141 230.64794 228.67347 226.83000
 225.11253 223.58405 222.21358 220.98511 219.86664 218.82617 217.92970 217.07023
 216.31176 215.49128 214.58881 213.95234 213.40187 212.97652 211.97197 211.52658
 211.20879 211.86253 213.49016 215.54942 218.48421 223.05621 229.01331 234.01443
 237.82062 241.66284 245.73265 249.99519 254.18896 257.94446 260.74158 262.64487
 265.05966 267.76978 270.20639 271.87851 273.82269 275.96567 277.58255 279.03552
 280.63052 282.15836 283.59412 284.94910 286.12897 287.17615 288.13263 289.00317
 289.79236 290.50211 291.12656 291.95978
 366.78100 356.33473 345.76645 334.63218 323.03490 311.22863 299.09835 286.90108
 274.61280 262.50953 250.51825 239.81898 229.94070 221.04443 213.22615 206.22788
 200.06160 194.99933 191.58105 189.62278 188.65950 188.72323 189.55795 190.86568
 192.59040 194.68513 196.94785 199.30658 201.75130 204.23103 206.31875 208.16048
 209.78620 210.93093 211.15965 211.38738 211.32410 211.02883 210.66155 210.29128
 209.90800 209.61773 209.42545 209.28918 209.21690 209.54763 209.93335 210.32208
 211.11480 212.29253 213.54225 215.32498 217.25270 219.29543 221.39015 223.47288
 225.53260 227.61633 229.71306 231.81878 233.94751 236.11923 238.37496 240.74468
 243.36541 245.61613 247.61786 249.38258 250.79931 251.92203 252.74376 253.05948
 253.09621 252.86993 252.22966 251.17738 249.78311 247.94383 245.85256 243.68528
 241.47601 239.27973 237.09946 234.93818 232.79791 230.66463 228.69036 226.84708
 225.12981 223.60153 222.23126 221.00298 219.88471 218.84443 217.94816 217.08888
 216.33061 215.51033 214.60806 213.97178 213.42151 213.01169 212.04369 211.63310
 211.43312 211.92459 213.42624 215.45453 218.35553 222.97386 228.95172 233.93469
 237.73376 241.57433 245.64786 249.93158 254.17885 257.93158 260.72018 262.65042
 265.00290 267.66830 270.10056 271.77670 273.72504 275.87512 277.52069 278.99466
 280.57791 282.09467 283.51941 284.87350 286.05594 287.10086 288.05872 288.93030
 289.71857 290.42892 291.05231 291.88950
 366.78100 356.33415 345.76531 334.63046 323.03261 311.22577 299.09492 286.89708
 274.60823 262.50438 250.51254 239.81269 229.93384 221.03700 213.21815 206.21930
 200.05246 194.98961 191.57077 189.61192 188.64807 188.71123 189.54538 190.85253
 192.57669 194.67084 196.93299 199.29115 201.73530 204.21446 206.30161 208.14276
 209.76792 210.91207 211.14022 211.36738 211.30353 211.00768 210.63984 210.26899
 209.88515 209.59430 209.40145 209.26461 209.19176 209.52191 209.90707 210.29522
 211.08738 212.26453 213.51368 215.29584 217.22299 219.26514 221.35930 223.44145
 225.50060 227.58376 229.67991 231.78507 233.91322 236.08437 238.33953 240.70868
 243.32883 245.57899 247.58014 249.34429 250.76045 251.88260 252.70376 253.01891
 253.05506 252.82822 252.18737 251.13452 249.73968 247.89983 245.80798 243.64014
 241.43029 239.23345 237.05260 234.89075 232.74991 230.61606 228.64121 226.79737
 225.07952 223.55067 222.17983 220.95098 219.83214 218.79129 217.89444 217.03460
 216.27575 215.45490 214.55206 213.91521 213.36436 213.01122 212.17690 211.69722
 211.50752 212.01376 213.38010 215.42583 218.35626 222.92870 228.91557 233.86923
 237.64825 241.48450 245.56042 249.86646 254.16573 257.90927 260.68463 262.64035
 264.93671 267.55786 269.98627 271.67044 273.62665 275.78427 277.46136 278.95850
 280.52982 282.03192 283.44800 284.80151 285.98343 287.02875 287.98828 288.85794
 289.64828 290.35727 290.98285 291.82141
 366.78100 356.33333 345.76366 334.62800 323.02933 311.22166 299.08999 286.89132
 274.60165 262.49699 250.50432 239.80365 229.92398 221.02631 213.20665 206.20698
 200.03931 194.97564 191.55597 189.59630 188.63164 188.69397 189.52730 190.83363
 192.55696 194.65030 196.91163 199.26896 201.71229 204.19062 206.27695 208.11729
 209.74162 210.88495 211.11228 211.33861 211.27395 210.97728 210.60861 210.23694
 209.85227 209.56060 209.36694 209.22927 209.15560 209.48493 209.86926 210.25659
 211.04793 212.22426 213.47259 215.25392 217.18025 219.22159 221.31492 223.39625
 225.45458 227.53691 229.63224 231.73658 233.86391 236.03424 238.28857 240.65690
 243.27624 245.52557 247.52590 249.28923 250.70456 251.82589 252.64623 252.96056
 252.99589 252.76822 252.12655 251.07289 249.67722 247.83655 245.74388 243.57521
 241.36454 239.16688 236.98521 234.82254 232.68087 230.54620 228.57054 226.72587
 225.00720 223.47753 222.10586 220.87619 219.75653 218.71486 217.81719 216.95652
 216.19685 215.37519 214.47152 213.83385 213.28218 212.99670 212.32225 211.79791
 211.50520 212.05341 213.39845 215.47488 218.40356 222.87071 228.86166 233.78203
 237.54460 241.38065 245.46568 249.79707 254.14972 257.87982 260.63907 262.62161
 264.86786 267.44595 269.87289 271.57135 273.53510 275.69962 277.40869 278.92780
 280.48630 281.97308 283.37802 284.73212 285.91434 286.96072 287.91785 288.79065
 289.57922 290.29150 290.91464 291.75632
 366.78100 356.33292 345.76284 334.62675 323.02767 311.21959 299.08751 286.88843
 274.59835 262.49326 250.50018 239.79910 229.91902 221.02094 213.20085 206.20077
 200.03269 194.96861 191.54853 189.58844 188.62336 188.68528 189.51820 190.82412
 192.54704 194.63995 196.90087 199.25779 201.70071 204.17863 206.26454 208.10446
 209.72838 210.87130 211.09822 211.32413 211.25905 210.96197 210.59289 210.22081
 209.83573 209.54364 209.34956 209.21148 209.13740 209.46632 209.85023 210.23715
 211.02807 212.20399 213.45191 215.23283 217.15874 219.19966 221.29258 223.37350
 225.43142 227.51333 229.60825 231.71217 233.83909 236.00901 238.26292 240.63084
 243.24976 245.49868 247.49860 249.26152 250.67643 251.79735 252.61727 252.93119
 252.96611 252.73802 252.09594 251.04186 249.64578 247.80470 245.71162 243.54253
 241.33145 239.13337 236.95129 234.78821 232.64612 230.51104 228.53496 226.68988
 224.97080 223.44071 222.06863 220.83855 219.71847 218.67639 217.77831 216.91722
 216.15714 215.33506 214.43098 213.79290 213.24081 213.00273 212.44026 211.91667
 211.51385 212.07664 213.44669 215.53630 218.43089 222.80074 228.79092 233.68747
 237.43948 241.27838 245.37392 249.73126 254.13487 257.84802 260.58896 262.59830
 264.79901 267.33572 269.76276 271.47836 273.44934 275.61798 277.35709 278.89609
 280.44382 281.91537 283.31326 284.66708 285.84839 286.89569 287.85403 288.72681
 289.51685 290.22662 290.85379 291.69330
 366.78100 356.33285 345.76271 334.62656 323.02741 311.21926 299.08712 286.88797
 274.59782 262.49268 250.49953 239.79838 229.91824 221.02009 213.19994 206.19979
 200.03165 194.96750 191.54735 189.58721 188.62206 188.68391 189.51677 190.82262
 192.54547 194.63832 196.89918 199.25603 201.69888 204.17674 206.26259 208.10244
 209.72630 210.86915 211.09600 211.32185 211.25671 210.95956 210.59041 210.21827
 209.83312 209.54097 209.34683 209.20868 209.13453 209.46338 209.84724 210.23409
 211.02494 212.20080 213.44865 215.22950 217.15536 219.19621 221.28906 223.36991
 225.42777 227.50962 229.60447 231.70833 233.83518 236.00503 238.25889 240.62674
 243.24559 245.49444 247.49430 249.25715 250.67200 251.79286 252.61271 252.92656
 252.96142 252.73327 252.09112 251.03697 249.64083 247.79968 245.70653 243.53739
 241.32624 239.12809 236.94594 234.78280 232.64065 230.50550 228.52936 226.68421
 224.96506 223.43492 222.06277 220.83262 219.71247 218.67033 217.77218 216.91103
 216.15089 215.32874 214.42459 213.78645 213.23430 213.02658 212.53581 212.03758
 211.54489 212.09456 213.50140 215.59261 218.43289 222.73776 228.72224 233.59770
 237.33853 241.18030 245.28688 249.66919 254.11853 257.81226 260.53165 262.56699
 264.72833 267.22644 269.65274 271.38901 273.36673 275.53912 277.30334 278.86261
 280.40317 281.86005 283.25162 284.60608 285.78815 286.83444 287.79367 288.66571
 289.45865 290.16708 290.79477 291.63565
 366.78100 356.33292 345.76284 334.62676 323.02768 311.21960 299.08752 286.88845
 274.59837 262.49329 250.50021 239.79913 229.91905 221.02097 213.20089 206.20081
 200.03273 194.96865 191.54857 189.58849 188.62341 188.68534 189.51826 190.82418
 192.54710 194.64002 196.90094 199.25786 201.70078 204.17870 206.26462 208.10454
 209.72846 210.87138 211.09831 211.32423 211.25915 210.96207 210.59299 210.22091
 209.83583 209.54375 209.34967 209.21159 209.13751 209.46643 209.85035 210.23727
 211.02820 212.20412 213.45204 215.23296 217.15888 219.19980 221.29272 223.37364
 225.43156 227.51348 229.60840 231.71232 233.83924 236.00916 238.26309 240.63101
 243.24993 245.49885 247.49877 249.26169 250.67661 251.79753 252.61745 252.93137
 252.96629 252.73821 252.09613 251.04206 249.64598 247.80490 245.71182 243.54274
 241.33166 239.13358 236.95150 234.78842 232.64634 230.51126 228.53518 226.69010
 224.97102 223.44095 222.06887 220.83879 219.71871 218.67663 217.77855 216.91747
 216.15739 215.33531 214.43123 213.79315 213.24107 213.05739 212.62341 212.15424
 211.59235 212.11172 213.55521 215.64311 218.42609 222.68503 228.66225 233.51070
 237.23613 241.08022 245.20135 249.61031 254.09978 257.77142 260.46671 262.52652
 264.65503 267.11783 269.54398 271.30188 273.28830 275.46317 277.24823 278.82571
 280.36310 281.80984 283.19501 284.54938 285.73151 286.77930 287.73914 288.61209
 289.40402 290.11172 290.74033 291.57983
 366.78100 356.33304 345.76309 334.62713 323.02818 311.22022 299.08827 286.88931
 274.59935 262.49440 250.50144 239.80049 229.92053 221.02257 213.20262 206.20266
 200.03471 194.97075 191.55080 189.59084 188.62588 188.68793 189.52097 190.82702
 192.55006 194.64310 196.90415 199.26119 201.70424 204.18228 206.26833 208.10837
 209.73241 210.87546 211.10250 211.32855 211.26359 210.96663 210.59768 210.22572
 209.84077 209.54881 209.35486 209.21690 209.14294 209.47199 209.85603 210.24308
 211.03412 212.21016 213.45821 215.23925 217.16530 219.20634 221.29939 223.38043
 225.43847 227.52052 229.61556 231.71961 233.84665 236.01669 238.27074 240.63878
 243.25783 245.50687 247.50692 249.26996 250.68500 251.80605 252.62609 252.94014
 252.97518 252.74723 252.10527 251.05131 249.65536 247.81440 245.72145 243.55249
 241.34153 239.14358 236.96162 234.79867 232.65671 230.52176 228.54580 226.70084
 224.98189 223.45193 222.07998 220.85002 219.73006 218.68811 217.79015 216.92920
 216.16924 215.34729 214.44333 213.80537 213.25342 213.09113 212.70770 212.26448
 211.65181 212.13255 213.60466 215.68904 218.42323 222.63928 228.60773 233.42299
 237.13034 240.97899 245.11862 249.55489 254.07748 257.72437 260.39359 262.47476
 264.57739 267.01022 269.43735 271.21915 273.21619 275.39209 277.19458 278.78629
 280.32306 281.76141 283.14703 284.50116 285.68341 286.73215 287.69116 288.56363
 289.35602 290.06528 290.69333 291.53857
 366.78100 356.33323 345.76346 334.62768 323.02891 311.22114 299.08937 286.89060
 274.60082 262.49605 250.50328 239.80251 229.92273 221.02496 213.20519 206.20542
 200.03765 194.97387 191.55410 189.59433 188.62956 188.69179 189.52501 190.83124
 192.55447 194.64770 196.90893 199.26615 201.70938 204.18761 206.27384 208.11406
 209.73829 210.88152 211.10875 211.33498 211.27020 210.97343 210.60466 210.23289
 209.84812 209.55634 209.36257 209.22480 209.15103 209.48026 209.86448 210.25171
 211.04294 212.21917 213.46739 215.24862 217.17485 219.21608 221.30931 223.39053
 225.44876 227.53099 229.62622 231.73045 233.85767 236.02790 238.28213 240.65036
 243.26959 245.51881 247.51904 249.28227 250.69750 251.81872 252.63895 252.95318
 252.98841 252.76064 252.11886 251.06509 249.66932 247.82855 245.73578 243.56700
 241.35623 239.15846 236.97669 234.81392 232.67214 230.53737 228.56160 226.71683
 224.99805 223.46828 222.09651 220.86674 219.74697 218.70519 217.80742 216.94665
 216.18688 215.36511 214.46133 213.82356 213.27179 213.12798 212.78821 212.36969
 211.71902 212.15845 213.64824 215.73312 218.43100 222.59724 228.55116 233.33499
 237.02504 240.88095 245.04025 249.50314 254.05115 257.66919 260.31073 262.40829
 264.49408 266.90506 269.33359 271.14227 273.15036 275.32816 277.14163 278.74344
 280.28094 281.71210 283.10544 284.46082 285.64249 286.69070 287.65106 288.52518
 289.31537 290.02802 290.65463 291.49884
 366.78100 356.33352 345.76404 334.62856 323.03008 311.22260 299.09112 286.89263
 274.60315 262.49867 250.50619 239.80571 229.92623 221.02875 213.20927 206.20979
 200.04231 194.97883 191.55935 189.59986 188.63538 188.69790 189.53142 190.83794
 192.56146 194.65498 196.91650 199.27402 201.71754 204.19606 206.28258 208.12309
 209.74761 210.89113 211.11865 211.34517 211.28069 210.98421 210.61573 210.24425
 209.85977 209.56829 209.37481 209.23732 209.16384 209.49336 209.87788 210.26540
 211.05692 212.23344 213.48196 215.26348 217.19000 219.23152 221.32504 223.40656
 225.46507 227.54759 229.64311 231.74763 233.87515 236.04567 238.30019 240.66871
 243.28823 245.53775 247.53827 249.30179 250.71730 251.83882 252.65934 252.97386
 253.00938 252.78190 252.14042 251.08694 249.69146 247.85098 245.75850 243.59002
 241.37953 239.18205 237.00057 234.83809 232.69661 230.56213 228.58665 226.74217
 225.02369 223.49421 222.12273 220.89325 219.77377 218.73228 217.83480 216.97432
 216.21484 215.39336 214.48988 213.85240 213.30092 213.17012 212.86110 212.47229
 211.79570 212.18353 213.68640 215.78165 218.44771 222.55925 228.49211 233.24667
 236.92336 240.78806 244.96915 249.45718 254.02040 257.60672 260.21594 262.32318
 264.40234 266.80014 269.23181 271.06915 273.09186 275.27158 277.09164 278.69901
 280.24088 281.66809 283.07147 284.42737 285.60983 286.65820 287.61780 288.49432
 289.28473 289.99368 290.62463 291.46768
 366.78100 356.33392 345.76483 334.62975 323.03167 311.22458 299.09350 286.89542
 274.60633 262.50225 250.51017 239.81009 229.93100 221.03392 213.21484 206.21575
 200.04867 194.98559 191.56650 189.60742 188.64334 188.70625 189.54017 190.84709
 192.57100 194.66492 196.92684 199.28475 201.72867 204.20759 206.29450 208.13542
 209.76034 210.90426 211.13217 211.35909 211.29501 210.99892 210.63084 210.25976
 209.87567 209.58459 209.39151 209.25442 209.18134 209.51126 209.89617 210.28409
 211.07601 212.25292 213.50184 215.28376 217.21068 219.25259 221.34651 223.42843
 225.48734 227.57026 229.66618 231.77109 233.89901 236.06993 238.32484 240.69376
 243.31368 245.56359 247.56451 249.32843 250.74434 251.86626 252.68718 253.00209
 253.03801 252.81093 252.16985 251.11676 249.72168 247.88160 245.78951 243.62143
 241.41135 239.21426 237.03318 234.87110 232.73001 230.59593 228.62085 226.77676
 225.05868 223.52960 222.15851 220.92943 219.81035 218.76927 217.87218 217.01210
 216.25302 215.43193 214.52885 213.89177 213.34068 213.21788 212.92776 212.57069
 211.88190 212.21220 213.71733 215.83333 218.47176 222.52438 228.42899 233.15750
 236.82657 240.70189 244.90578 249.41652 253.98579 257.53555 260.10800 262.21716
 264.30075 266.69595 269.13037 270.99960 273.03989 275.22241 277.04269 278.65375
 280.20374 281.63440 283.04739 284.40445 285.58633 286.63467 287.59549 288.47046
 289.26205 289.97293 290.59955 291.44727
 366.78100 356.33459 345.76618 334.63177 323.03436 311.22794 299.09753 286.90012
 274.61171 262.50830 250.51689 239.81748 229.93907 221.04265 213.22424 206.22583
 200.05942 194.99701 191.57860 189.62019 188.65678 188.72037 189.55495 190.86254
 192.58713 194.68172 196.94431 199.30290 201.74749 204.22708 206.31466 208.15625
 209.78184 210.92643 211.15502 211.38261 211.31920 211.02379 210.65638 210.28596
 209.90255 209.61214 209.41973 209.28332 209.21091 209.54150 209.92709 210.31567
 211.10826 212.28585 213.53544 215.31803 217.24562 219.28821 221.38280 223.46539
 225.52497 227.60856 229.70515 231.81074 233.93933 236.11092 238.36651 240.73610
 243.35668 245.60727 247.60886 249.37345 250.79004 251.91263 252.73422 253.04981
 253.08640 252.85998 252.21957 251.16716 249.77275 247.93334 245.84193 243.67452
 241.46511 239.26869 237.08828 234.92687 232.78646 230.65305 228.67864 226.83523
 225.11782 223.58941 222.21899 220.99058 219.87217 218.83176 217.93535 217.07594
 216.31753 215.49712 214.59471 213.95829 213.40788 213.27925 212.97534 212.67619
 211.97241 212.23352 213.75459 215.89059 218.49245 222.49170 228.36977 233.07062
 236.73119 240.61852 244.84900 249.38121 253.94655 257.45673 259.98819 262.09305
 264.19156 266.59109 269.02853 270.93207 272.99393 275.17786 276.99387 278.60571
 280.17093 281.61066 283.03400 284.39099 285.57208 286.62155 287.58249 288.45718
 289.24829 289.96036 290.58856 291.43146
 366.78100 356.33516 345.76732 334.63348 323.03664 311.23080 299.10096 286.90411
 274.61627 262.51343 250.52259 239.82375 229.94591 221.05007 213.23223 206.23439
 200.06855 195.00671 191.58887 189.63102 188.66818 188.73234 189.56750 190.87566
 192.60082 194.69598 196.95914 199.31830 201.76346 204.24362 206.33178 208.17394
 209.80009 210.94525 211.17441 211.40257 211.33973 211.04489 210.67805 210.30821
 209.92537 209.63553 209.44369 209.30785 209.23600 209.56716 209.95332 210.34248
 211.13564 212.31380 213.56396 215.34712 217.27528 219.31844 221.41360 223.49676
 225.55692 227.64107 229.73823 231.84439 233.97355 236.14571 238.40187 240.77203
 243.39319 245.64435 247.64651 249.41167 250.82883 251.95198 252.77414 253.09030
 253.12746 252.90162 252.26178 251.20994 249.81610 247.97726 245.88642 243.71958
 241.51074 239.31490 237.13505 234.97421 232.83437 230.70153 228.72769 226.88485
 225.16801 223.64017 222.27033 221.04249 219.92465 218.88481 217.98896 217.13012
 216.37228 215.55244 214.65060 214.01476 213.46492 213.33604 213.03156 212.75716
 212.07794 212.26997 213.79245 215.94815 218.51421 222.45821 228.30617 232.98007
 236.63490 240.53748 244.79819 249.35095 253.90346 257.37103 259.85971 261.95221
 264.07510 266.48605 268.92709 270.86722 272.95419 275.13901 276.94656 278.55771
 280.14182 281.59552 283.02853 284.38599 285.56836 286.61765 287.57858 288.45352
 289.24582 289.95697 290.58563 291.43011
 366.78100 356.33639 345.76978 334.63717 323.04156 311.23694 299.10833 286.91272
 274.62611 262.52450 250.53489 239.83728 229.96067 221.06605 213.24944 206.25283
 200.08822 195.02761 191.61100 189.65439 188.69278 188.75816 189.59455 190.90394
 192.63033 194.72672 196.99111 199.35150 201.79789 204.27927 206.36866 208.21205
 209.83944 210.98583 211.21622 211.44561 211.38400 211.09038 210.72477 210.35616
 209.97455 209.68594 209.49533 209.36072 209.29011 209.62249 210.00988 210.40027
 211.19466 212.37405 213.62544 215.40983 217.33922 219.38360 221.47999 223.56438
 225.62577 227.71116 229.80955 231.91694 234.04733 236.22071 238.47810 240.84949
 243.47188 245.72427 247.72766 249.49405 250.91244 252.03682 252.86021 253.17760
 253.21599 252.99138 252.35277 251.30216 249.90955 248.07193 245.98232 243.81671
 241.60910 239.41449 237.23588 235.07627 232.93766 230.80604 228.83343 226.99182
 225.27621 223.74960 222.38099 221.15438 220.03777 218.99915 218.10454 217.24693
 216.49032 215.67171 214.77110 214.13649 213.58788 213.42603 213.04362 212.86238
 212.18759 212.31049 213.82681 216.00700 218.54297 222.42184 228.24205 232.89070
 236.54060 240.45935 244.75258 249.32457 253.85461 257.27573 259.71857 261.79321
 263.95142 266.38159 268.82629 270.80743 272.92197 275.10837 276.90604 278.51294
 280.11749 281.58740 283.03271 284.39096 285.57309 286.62195 287.58353 288.45776
 289.25006 289.96014 290.58762 291.43671
 366.78100 356.33761 345.77222 334.64083 323.04644 311.24305 299.11566 286.92127
 274.63588 262.53549 250.54710 239.85071 229.97532 221.08192 213.26653 206.27114
 200.10775 195.04836 191.63297 189.67758 188.71719 188.78380 189.62141 190.93202
 192.65963 194.75724 197.02285 199.38446 201.83207 204.31468 206.40529 208.24990
 209.87851 211.02612 211.25773 211.48834 211.42795 211.13556 210.77117 210.40377
 210.02338 209.73599 209.54660 209.41321 209.34382 209.67743 210.06604 210.45765
 211.25326 212.43387 213.68648 215.47209 217.40270 219.44831 221.54592 223.63153
 225.69414 227.78075 229.88036 231.98897 234.12058 236.29519 238.55380 240.92641
 243.55002 245.80362 247.80823 249.57584 250.99545 252.12106 252.94567 253.26428
 253.30389 253.08050 252.44311 251.39372 250.00233 248.16594 246.07755 243.91316
 241.70677 239.51338 237.33599 235.17760 233.04021 230.90982 228.93843 227.09804
 225.38365 223.85826 222.49086 221.26547 220.15008 219.11269 218.21930 217.36291
 216.60752 215.79013 214.89074 214.25735 213.70996 213.51659 213.05969 212.93671
 212.33427 212.34477 213.89627 216.07022 218.54045 222.38448 228.17580 232.79355
 236.44241 240.38049 244.70877 249.29947 253.79709 257.16891 259.56656 261.62180
 263.82553 266.28076 268.73077 270.75659 272.89966 275.08664 276.87143 278.47137
 280.09702 281.58569 283.04233 284.40158 285.58389 286.63254 287.59338 288.46832
 289.26138 289.97198 290.60001 291.44650
 366.78100 356.33832 345.77363 334.64295 323.04927 311.24658 299.11990 286.92622
 274.64153 262.54185 250.55417 239.85849 229.98380 221.09112 213.27644 206.28175
 200.11907 195.06039 191.64570 189.69102 188.73134 188.79865 189.63697 190.94829
 192.67660 194.77492 197.04124 199.40356 201.85187 204.33519 206.42651 208.27182
 209.90114 211.04946 211.28177 211.51309 211.45341 211.16172 210.79804 210.43136
 210.05167 209.76499 209.57631 209.44362 209.37494 209.70926 210.09858 210.49089
 211.28721 212.46853 213.72184 215.50816 217.43948 219.48579 221.58411 223.67043
 225.73374 227.82106 229.92138 232.03069 234.16301 236.33833 238.59764 240.97096
 243.59528 245.84960 247.85491 249.62323 251.04355 252.16986 252.99518 253.31450
 253.35481 253.13213 252.49545 251.44676 250.05608 248.22040 246.13271 243.96903
 241.76335 239.57067 237.39398 235.23630 233.09962 230.96993 228.99925 227.15957
 225.44588 223.92120 222.55452 221.32983 220.21515 219.17847 218.28578 217.43010
 216.67542 215.85873 214.96005 214.32737 213.78069 213.58328 213.11690 212.92902
 212.50769 212.53435 213.88345 216.05956 218.58197 222.32367 228.09749 232.69026
 236.33946 240.30284 244.66943 249.27658 253.73578 257.05994 259.41544 261.44827
 263.70163 266.18555 268.63898 270.71097 272.88177 275.06860 276.83618 278.42661
 280.07657 281.58453 283.05844 284.41718 285.60068 286.64798 287.60815 288.48413
 289.27625 289.98795 290.61526 291.46219
 366.78100 356.33915 345.77529 334.64544 323.05258 311.25073 299.12487 286.93202
 274.64816 262.54931 250.56246 239.86760 229.99375 221.10189 213.28804 206.29418
 200.13233 195.07447 191.66062 189.70677 188.74791 188.81606 189.65520 190.96735
 192.69649 194.79564 197.06278 199.42593 201.87508 204.35922 206.45137 208.29751
 209.92766 211.07680 211.30995 211.54209 211.48324 211.19239 210.82953 210.46368
 210.08482 209.79897 209.61111 209.47926 209.41140 209.74655 210.13670 210.52984
 211.32699 212.50913 213.76328 215.55042 217.48257 219.52971 221.62886 223.71601
 225.78015 227.86830 229.96944 232.07959 234.21273 236.38888 238.64902 241.02317
 243.64832 245.90346 247.90961 249.67875 251.09990 252.22704 253.05319 253.37333
 253.41448 253.19263 252.55677 251.50892 250.11906 248.28421 246.19735 244.03450
 241.82964 239.63779 237.46194 235.30508 233.16923 231.04037 229.07052 227.23166
 225.51881 223.99495 222.62910 221.40525 220.29139 219.25554 218.36368 217.50883
 216.75497 215.93912 215.04126 214.40941 213.86356 213.65643 213.16710 212.95497
 212.58208 212.69537 213.90063 216.09200 218.65694 222.28096 228.02251 232.59093
 236.24251 240.23264 244.63741 249.25755 253.67319 256.95148 259.26541 261.27194
 263.57709 266.09012 268.54547 270.66348 272.86292 275.04901 276.79642 278.37823
 280.05569 281.58258 283.07800 284.43768 285.61987 286.66800 287.62820 288.50278
 289.29495 290.00537 290.63416 291.47946
 366.78100 356.34041 345.77782 334.64923 323.05764 311.25705 299.13246 286.94087
 274.65828 262.56069 250.57509 239.88150 230.00891 221.11832 213.30573 206.31314
 200.15255 195.09596 191.68337 189.73078 188.77319 188.84260 189.68301 190.99642
 192.72683 194.82724 197.09565 199.46006 201.91046 204.39587 206.48928 208.33669
 209.96810 211.11851 211.35292 211.58633 211.52874 211.23915 210.87756 210.51297
 210.13538 209.85079 209.66420 209.53361 209.46702 209.80343 210.19483 210.58924
 211.38765 212.57106 213.82647 215.61488 217.54829 219.59670 221.69711 223.78552
 225.85093 227.94034 230.04275 232.15416 234.28857 236.46598 238.72739 241.10280
 243.72920 245.98561 247.99302 249.76343 251.18584 252.31425 253.14166 253.46307
 253.50548 253.28489 252.65030 251.60371 250.21512 248.38153 246.29594 244.13435
 241.93076 239.74017 237.56557 235.40998 233.27539 231.14780 229.17921 227.34162
 225.63003 224.10744 222.74285 221.52026 220.40767 219.37308 218.48249 217.62890
 216.87631 216.06172 215.16513 214.53454 213.98994 213.75037 213.18436 213.02930
 212.59993 212.81248 214.00009 216.15282 218.71210 222.23923 227.94748 232.49159
 236.14949 240.16808 244.61008 249.23909 253.60597 256.83731 259.10944 261.08838
 263.44940 265.99399 268.45029 270.61478 272.84445 275.02930 276.75555 278.32928
 280.03506 281.57849 283.09991 284.45865 285.64066 286.68875 287.64853 288.52295
 289.31454 290.02524 290.65042 291.49738
 366.78100 356.34143 345.77986 334.65229 323.06172 311.26215 299.13858 286.94801
 274.66644 262.56987 250.58530 239.89273 230.02116 221.13159 213.32002 206.32845
 200.16888 195.11331 191.70174 189.75017 188.79360 188.86403 189.70546 191.01989
 192.75132 194.85275 197.12218 199.48761 201.93904 204.42547 206.51990 208.36833
 210.00076 211.15219 211.38762 211.62205 211.56548 211.27691 210.91634 210.55277
 210.17620 209.89263 209.70706 209.57749 209.51192 209.84935 210.24178 210.63721
 211.43665 212.62108 213.87751 215.66694 217.60137 219.65080 221.75223 223.84166
 225.90809 227.99852 230.10195 232.21438 234.34981 236.52824 238.79067 241.16710
 243.79453 246.05196 248.06039 249.83182 251.25525 252.38468 253.21311 253.53554
 253.57897 253.35940 252.72583 251.68026 250.29269 248.46012 246.37555 244.21498
 242.01241 239.82284 237.64927 235.49470 233.36113 231.23456 229.26699 227.43042
 225.71985 224.19828 222.83471 221.61314 220.50157 219.46800 218.57843 217.72586
 216.97429 216.16072 215.26515 214.63558 214.09201 213.83177 213.21695 213.08603
 212.62932 212.91045 214.13525 216.21852 218.74767 222.18886 227.86639 232.39365
 236.06245 240.11108 244.58701 249.22054 253.53297 256.71573 258.94702 260.90152
 263.32187 265.90042 268.35745 270.56897 272.82910 275.01221 276.71677 278.28113
 280.01477 281.57819 283.11752 284.47906 285.66116 286.70831 287.66751 288.54132
 289.33179 290.04453 290.66785 291.51462
 366.78100 356.34207 345.78114 334.65421 323.06428 311.26536 299.14243 286.95250
 274.67157 262.57564 250.59171 239.89978 230.02885 221.13992 213.32900 206.33807
 200.17914 195.12421 191.71328 189.76235 188.80642 188.87749 189.71956 191.03464
 192.76671 194.86878 197.13885 199.50492 201.95699 204.44406 206.53913 208.38820
 210.02128 211.17335 211.40942 211.64449 211.58856 211.30063 210.94070 210.57777
 210.20185 209.91892 209.73399 209.60506 209.54013 209.87820 210.27127 210.66734
 211.46741 212.65249 213.90956 215.69963 217.63470 219.68477 221.78684 223.87691
 225.94398 228.03505 230.13913 232.25220 234.38827 236.56734 238.83041 241.20748
 243.83555 246.09362 248.10269 249.87477 251.29884 252.42891 253.25798 253.58105
 253.62512 253.40619 252.77326 251.72833 250.34141 248.50948 246.42555 244.26562
 242.06369 239.87476 237.70183 235.54790 233.41497 231.28905 229.32212 227.48619
 225.77626 224.25533 222.89240 221.67147 220.56054 219.52761 218.63869 217.78676
 217.03583 216.22290 215.32797 214.69904 214.15611 213.89372 213.27379 213.10941
 212.68361 213.00546 214.26634 216.29247 218.77313 222.13879 227.78391 232.30045
 235.98346 240.06114 244.56764 249.19946 253.45224 256.58545 258.77930 260.71555
 263.19724 265.80975 268.26883 270.52631 272.81393 274.99554 276.67871 278.23376
 279.99454 281.58673 283.12982 284.49326 285.67453 286.72260 287.68335 288.55609
 289.34695 290.05664 290.68390 291.52591
 366.78100 356.34271 345.78241 334.65612 323.06682 311.26853 299.14623 286.95694
 274.67664 262.58135 250.59805 239.90676 230.03646 221.14817 213.33787 206.34758
 200.18928 195.13499 191.72469 189.77440 188.81910 188.89081 189.73351 191.04922
 192.78192 194.88463 197.15533 199.52204 201.97474 204.46245 206.55815 208.40786
 210.04156 211.19427 211.43097 211.66668 211.61138 211.32409 210.96479 210.60250
 210.22721 209.94491 209.76062 209.63232 209.56803 209.90673 210.30044 210.69714
 211.49785 212.68355 213.94126 215.73196 217.66767 219.71837 221.82108 223.91178
 225.97949 228.07119 230.17590 232.28960 234.42631 236.60601 238.86972 241.24742
 243.87613 246.13483 248.14454 249.91724 251.34195 252.47265 253.30236 253.62606
 253.67077 253.45247 252.82018 251.77588 250.38959 248.55829 246.47500 244.31571
 242.11441 239.92612 237.75382 235.60053 233.46823 231.34294 229.37664 227.54135
 225.83205 224.31176 222.94946 221.72917 220.61887 219.58658 218.69828 217.84699
 217.09669 216.28440 215.39010 214.76181 214.21951 213.95471 213.32907 213.12477
 212.75072 213.10086 214.38644 216.37271 218.78787 222.09341 227.70779 232.21266
 235.90981 240.01572 244.54926 249.17322 253.36160 256.44522 258.60770 260.53348
 263.07657 265.72308 268.18518 270.48715 272.79929 274.97852 276.63846 278.18701
 279.97144 281.59427 283.13843 284.50043 285.68301 286.73233 287.68976 288.56461
 289.35608 290.06641 290.69431 291.53412
 366.78100 356.34353 345.78406 334.65859 323.07011 311.27264 299.15117 286.96270
 274.68323 262.58876 250.60628 239.91581 230.04634 221.15887 213.34940 206.35993
 200.20246 195.14898 191.73951 189.79004 188.83557 188.90810 189.75163 191.06816
 192.80168 194.90521 197.17674 199.54427 201.99780 204.48633 206.58285 208.43338
 210.06791 211.22144 211.45897 211.69550 211.64103 211.35455 210.99608 210.63461
 210.26014 209.97867 209.79520 209.66773 209.60425 209.94378 210.33831 210.73584
 211.53737 212.72390 213.98242 215.77395 217.71048 219.76201 221.86554 223.95707
 226.02560 228.11812 230.22365 232.33818 234.47571 236.65624 238.92077 241.29930
 243.92882 246.18835 248.19888 249.97241 251.39794 252.52947 253.35999 253.68452
 253.73005 253.51258 252.88111 251.83764 250.45217 248.62169 246.53922 244.38075
 242.18028 239.99281 237.82134 235.66886 233.53739 231.41292 229.44745 227.61298
 225.90451 224.38504 223.02356 221.80409 220.69462 219.66315 218.77568 217.92521
 217.17574 216.36426 215.47079 214.84332 214.30185 214.02449 213.36920 213.14676
 212.82607 213.19185 214.49898 216.45404 218.79637 222.05341 227.63687 232.12595
 235.83815 239.97412 244.53015 249.13994 253.26096 256.29675 258.43518 260.35971
 262.96204 265.64029 268.10764 270.45090 272.78427 274.96109 276.60028 278.14105
 279.94531 281.59393 283.13959 284.50266 285.68454 286.73291 287.69244 288.56601
 289.35645 290.06866 290.69333 291.53516
 366.78100 356.34445 345.78591 334.66136 323.07381 311.27727 299.15672 286.96917
 274.69063 262.59708 250.61553 239.92599 230.05744 221.17090 213.36235 206.37380
 200.21726 195.16471 191.75616 189.80762 188.85407 188.92752 189.77198 191.08943
 192.82388 194.92834 197.20079 199.56924 202.02370 204.51315 206.61060 208.46206
 210.09751 211.25196 211.49042 211.72787 211.67433 211.38878 211.03123 210.67069
 210.29714 210.01659 209.83405 209.70750 209.64495 209.98541 210.38086 210.77931
 211.58177 212.76922 214.02867 215.82113 217.75858 219.81103 221.91549 224.00794
 226.07739 228.17085 230.27730 232.39276 234.53121 236.71266 238.97812 241.35757
 243.98802 246.24848 248.25993 250.03438 251.46084 252.59329 253.42474 253.75020
 253.79665 253.58010 252.94956 251.90701 250.52246 248.69292 246.61137 244.45383
 242.25428 240.06773 237.89719 235.74564 233.61509 231.49155 229.52700 227.69345
 225.98591 224.46736 223.10681 221.88827 220.77972 219.74917 218.86263 218.01308
 217.26453 216.45399 215.56144 214.93489 214.39435 214.09834 213.39899 213.17294
 212.91011 213.28119 214.60472 216.52943 218.80353 222.01892 227.56686 232.04045
 235.77211 239.93732 244.50945 249.09782 253.15079 256.14130 258.26364 260.19727
 262.85397 265.56223 268.03604 270.41681 272.76947 274.94360 276.56662 278.10159
 279.91791 281.58627 283.13199 284.49481 285.67593 286.72543 287.68396 288.55728
 289.34827 290.05789 290.68524 291.52448
 366.78100 356.34537 345.78775 334.66412 323.07750 311.28187 299.16225 286.97562
 274.69800 262.60537 250.62475 239.93612 230.06850 221.18287 213.37525 206.38762
 200.23200 195.18037 191.77275 189.82512 188.87250 188.94687 189.79225 191.11062
 192.84600 194.95137 197.22474 199.59412 202.04949 204.53987 206.63824 208.49062
 210.12699 211.28237 211.52174 211.76012 211.70749 211.42287 211.06624 210.70662
 210.33399 210.05437 209.87274 209.74712 209.68549 210.02687 210.42324 210.82262
 211.62599 212.81437 214.07474 215.86812 217.80649 219.85986 221.96524 224.05861
 226.12899 228.22336 230.33074 232.44711 234.58649 236.76886 239.03524 241.41561
 244.04699 246.30836 248.32074 250.09611 251.52349 252.65686 253.48924 253.81561
 253.86299 253.64736 253.01774 251.97611 250.59249 248.76386 246.68323 244.52661
 242.32798 240.14236 237.97273 235.82211 233.69248 231.56986 229.60623 227.77361
 226.06698 224.54936 223.18973 221.97211 220.86448 219.83486 218.94923 218.10061
 217.35298 216.54336 215.65173 215.02611 214.48648 214.17053 213.42403 213.19969
 213.00298 213.36490 214.70679 216.59956 218.80434 221.98793 227.49681 231.95645
 235.71111 239.90590 244.48764 249.04607 253.02945 255.97769 258.09210 260.04681
 262.75412 265.49011 267.97244 270.38626 272.75571 274.92740 276.53571 278.06454
 279.88715 281.56683 283.11414 284.47617 285.65784 286.70572 287.66431 288.53772
 289.32898 290.03824 290.66223 291.50101
 366.78100 356.34625 345.78949 334.66674 323.08099 311.28623 299.16748 286.98173
 274.70498 262.61322 250.63347 239.94572 230.07896 221.19421 213.38746 206.40070
 200.24595 195.19520 191.78845 189.84169 188.88994 188.96519 189.81143 191.13068
 192.86693 194.97317 197.24742 199.61767 202.07392 204.56516 206.66441 208.51766
 210.15490 211.31115 211.55140 211.79064 211.73889 211.45514 211.09939 210.74063
 210.36888 210.09013 209.90937 209.78462 209.72387 210.06611 210.46336 210.86361
 211.66786 212.85710 214.11835 215.91260 217.85184 219.90609 222.01234 224.10658
 226.17783 228.27308 230.38133 232.49857 234.63882 236.82207 239.08931 241.47056
 244.10281 246.36505 248.37830 250.15455 251.58280 252.71704 253.55029 253.87754
 253.92578 253.71103 253.08228 252.04152 250.65877 248.83102 246.75127 244.59551
 242.39776 240.21301 238.04425 235.89450 233.76575 231.64399 229.68124 227.84949
 226.14374 224.62698 223.26823 222.05148 220.94472 219.91597 219.03122 218.18346
 217.43671 216.62796 215.73721 215.11245 214.57370 214.23872 213.44733 213.23015
 213.09879 213.44719 214.80356 216.66336 218.80753 221.95636 227.42218 231.87592
 235.65881 239.88222 244.46471 248.98416 252.89737 255.80406 257.91830 259.90784
 262.66238 265.42447 267.92026 270.36264 272.74496 274.91495 276.51022 278.02994
 279.84991 281.53745 283.08463 284.44650 285.62830 286.67581 287.63574 288.50778
 289.29788 290.00925 290.63266 291.46994
 366.78100 356.34707 345.79113 334.66920 323.08427 311.29034 299.17240 286.98747
 274.71154 262.62060 250.64167 239.95474 230.08880 221.20487 213.39894 206.41301
 200.25907 195.20914 191.80321 189.85727 188.90634 188.98241 189.82947 191.14954
 192.88661 194.99368 197.26874 199.63981 202.09688 204.58894 206.68901 208.54308
 210.18114 211.33821 211.57928 211.81935 211.76841 211.48548 211.13055 210.77261
 210.40168 210.12375 209.94381 209.81988 209.75995 210.10302 210.50108 210.90215
 211.70722 212.89728 214.15935 215.95442 217.89448 219.94955 222.05662 224.15169
 226.22375 228.31982 230.42889 232.54695 234.68802 236.87209 239.14015 241.52222
 244.15529 246.41836 248.43242 250.20949 251.63856 252.77362 253.60769 253.93576
 253.98482 253.77089 253.14296 252.10303 250.72109 248.89416 246.81523 244.66029
 242.46336 240.27943 238.11149 235.96256 233.83463 231.71370 229.75176 227.92083
 226.21590 224.69996 223.34203 222.12610 221.02016 219.99223 219.10830 218.26137
 217.51543 216.70750 215.81757 215.19363 214.65570 214.30263 213.46848 213.26431
 213.20050 213.52420 214.90068 216.71727 218.79221 221.92467 227.35368 231.80273
 235.61472 239.86485 244.44008 248.91110 252.75261 255.61818 257.74002 259.77933
 262.57809 265.36624 267.87988 270.34689 272.74081 274.90988 276.49329 277.99820
 279.80695 281.49612 283.04297 284.40524 285.58728 286.63437 287.59308 288.46591
 289.25635 289.96545 290.59027 291.42868
 366.78100 356.34787 345.79273 334.67160 323.08746 311.29433 299.17720 286.99306
 274.71793 262.62779 250.64966 239.96353 230.09839 221.21526 213.41013 206.42499
 200.27186 195.22272 191.81759 189.87246 188.92232 188.99919 189.84705 191.16792
 192.90579 195.01365 197.28952 199.66138 202.11925 204.61212 206.71298 208.56785
 210.20672 211.36458 211.60645 211.84731 211.79718 211.51505 211.16091 210.80378
 210.43364 210.15651 209.97738 209.85424 209.79511 210.13897 210.53784 210.93971
 211.74557 212.93644 214.19931 215.99517 217.93604 219.99190 222.09977 224.19564
 226.26850 228.36537 230.47523 232.59410 234.73597 236.92083 239.18970 241.57256
 244.20643 246.47030 248.48516 250.26303 251.69290 252.82876 253.66363 253.99249
 254.04236 253.82923 253.20209 252.16296 250.78182 248.95569 246.87756 244.72342
 242.52729 240.34415 238.17702 236.02889 233.90175 231.78162 229.82049 227.99035
 226.28622 224.77108 223.41395 222.19882 221.09368 220.06655 219.18341 218.33728
 217.59215 216.78501 215.89588 215.27274 214.73561 214.36424 213.48683 213.30464
 213.31166 213.59125 214.97752 216.76682 218.80054 221.89429 227.27322 231.73073
 235.57767 239.85367 244.41307 248.82805 252.59938 255.42532 257.56226 259.66190
 262.50027 265.31345 267.84818 270.33694 272.73969 274.90967 276.48172 277.96985
 279.75961 281.44403 282.98874 284.35162 285.53317 286.58160 287.53955 288.41138
 289.20239 289.91022 290.53735 291.37363
 366.78100 356.34884 345.79468 334.67452 323.09136 311.29920 299.18304 286.99988
 274.72572 262.63656 250.65939 239.97423 230.11007 221.22791 213.42375 206.43959
 200.28743 195.23927 191.83511 189.89095 188.94179 189.01963 189.86847 191.19031
 192.92915 195.03799 197.31483 199.68767 202.14651 204.64034 206.74218 208.59802
 210.23786 211.39670 211.63954 211.88138 211.83222 211.55106 211.19790 210.84174
 210.47258 210.19642 210.01826 209.89610 209.83794 210.18278 210.58262 210.98545
 211.79229 212.98413 214.24797 216.04481 217.98665 220.04349 222.15233 224.24917
 226.32301 228.42085 230.53169 232.65153 234.79437 236.98021 239.25005 241.63389
 244.26873 246.53357 248.54940 250.32824 251.75908 252.89592 253.73176 254.06160
 254.11244 253.90028 253.27412 252.23596 250.85580 249.03064 246.95348 244.80032
 242.60516 240.42300 238.25684 236.10968 233.98352 231.86435 229.90419 228.07503
 226.37187 224.85771 223.50155 222.28739 221.18323 220.15707 219.27491 218.42975
 217.68559 216.87943 215.99127 215.36911 214.83295 214.43341 213.48947 213.36565
 213.40933 213.66418 215.06871 216.81261 218.76924 221.85120 227.20839 231.67735
 235.55367 239.85001 244.38531 248.73444 252.43407 255.22052 257.37778 259.55045
 262.42664 265.26337 267.82468 270.33127 272.74402 274.91580 276.48206 277.94928
 279.71353 281.38269 282.92581 284.28839 285.47037 286.51840 287.47586 288.34888
 289.14081 289.84668 290.47488 291.30963
 366.78100 356.34934 345.79568 334.67602 323.09336 311.30170 299.18604 287.00338
 274.72972 262.64106 250.66440 239.97974 230.11608 221.23442 213.43076 206.44710
 200.29544 195.24778 191.84412 189.90046 188.95180 189.03014 189.87948 191.20182
 192.94116 195.05050 197.32783 199.70117 202.16051 204.65485 206.75719 208.61353
 210.25387 211.41321 211.65655 211.89889 211.85023 211.56957 211.21691 210.86125
 210.49259 210.21693 210.03927 209.91761 209.85995 210.20529 210.60563 211.00897
 211.81631 213.00865 214.27299 216.07033 218.01267 220.07001 222.17935 224.27669
 226.35103 228.44937 230.56071 232.68105 234.82439 237.01073 239.28107 241.66541
 244.30075 246.56609 248.58243 250.36177 251.79311 252.93045 253.76679 254.09713
 254.14847 253.93681 253.31115 252.27349 250.89383 249.06916 246.99250 244.83984
 242.64518 240.46352 238.29786 236.15120 234.02554 231.90688 229.94722 228.11856
 226.41590 224.90224 223.54658 222.33292 221.22926 220.20360 219.32194 218.47728
 217.73362 216.92796 216.04030 215.41864 214.88298 214.47845 213.52272 213.38474
 213.55319 213.73354 215.14336 216.84332 218.76375 221.82758 227.12778 231.61118
 235.52605 239.84328 244.34738 248.62383 252.25240 255.00224 257.19095 259.44876
 262.36182 265.22415 267.81500 270.33820 272.75851 274.93637 276.50369 277.94559
 279.67001 281.31631 282.85599 284.21970 285.40128 286.44870 287.40845 288.27936
 289.07043 289.77881 290.40399 291.24222
 366.78100 356.34898 345.79496 334.67494 323.09192 311.29990 299.18388 287.00086
 274.72684 262.63782 250.66080 239.97578 230.11176 221.22974 213.42572 206.44170
 200.28968 195.24167 191.83765 189.89363 188.94461 189.02259 189.87157 191.19355
 192.93253 195.04151 197.31849 199.69147 202.15045 204.64443 206.74641 208.60239
 210.24237 211.40135 211.64433 211.88631 211.83729 211.55627 211.20325 210.84723
 210.47821 210.20219 210.02417 209.90215 209.84413 210.18911 210.58909 210.99207
 211.79905 212.99104 214.25502 216.05200 217.99398 220.05096 222.15994 224.25692
 226.33090 228.42888 230.53986 232.65984 234.80282 236.98880 239.25878 241.64276
 244.27774 246.54272 248.55870 250.33768 251.76866 252.90564 253.74162 254.07160
 254.12258 253.91056 253.28454 252.24652 250.86650 249.04148 246.96446 244.81144
 242.61642 240.43440 238.26839 236.12137 233.99535 231.87633 229.91631 228.08729
 226.38427 224.87025 223.51423 222.30021 221.19619 220.17017 219.28815 218.44313
 217.69911 216.89309 216.00507 215.38305 214.84703 214.47958 213.61142 213.36519
 213.66757 213.83522 215.17801 216.91901 218.77977 221.75328 227.03719 231.55086
 235.50491 239.84224 244.30865 248.50963 252.07341 254.79358 257.02032 259.36612
 262.30875 265.19495 267.81641 270.35144 272.77881 274.96353 276.53448 277.95062
 279.62979 281.24600 282.78336 284.14661 285.32809 286.37585 287.33514 288.20633
 288.99634 289.70618 290.33115 291.16736
 366.78100 356.34898 345.79496 334.67494 323.09192 311.29990 299.18388 287.00086
 274.72684 262.63782 250.66080 239.97578 230.11176 221.22974 213.42572 206.44170
 200.28968 195.24166 191.83764 189.89362 188.94460 189.02258 189.87156 191.19354
 192.93252 195.04150 197.31848 199.69146 202.15044 204.64442 206.74640 208.60238
 210.24236 211.40135 211.64433 211.88631 211.83729 211.55627 211.20325 210.84723
 210.47821 210.20219 210.02417 209.90215 209.84413 210.18911 210.58909 210.99207
 211.79905 212.99103 214.25501 216.05199 217.99397 220.05095 222.15993 224.25691
 226.33089 228.42887 230.53985 232.65983 234.80281 236.98879 239.25877 241.64275
 244.27773 246.54271 248.55869 250.33767 251.76865 252.90563 253.74161 254.07159
 254.12257 253.91055 253.28453 252.24651 250.86649 249.04147 246.96445 244.81143
 242.61641 240.43439 238.26837 236.12135 233.99533 231.87631 229.91629 228.08727
 226.38425 224.87023 223.51421 222.30019 221.19617 220.17015 219.28813 218.44311
 217.69909 216.89307 216.00506 215.38304 214.84702 214.49622 213.66742 213.40343
 213.74173 213.93245 215.18182 216.97609 218.80211 221.67874 226.95804 231.51088
 235.50038 239.85155 244.27434 248.39696 251.89970 254.59114 256.85577 259.29135
 262.25797 265.16443 267.81531 270.36078 272.79514 274.98456 276.55914 277.95395
 279.58960 281.17499 282.70865 284.07214 285.25449 286.30118 287.26019 288.13315
 288.92249 289.63254 290.25842 291.09415
 366.78100 356.34929 345.79558 334.67588 323.09317 311.30146 299.18575 287.00304
 274.72934 262.64063 250.66392 239.97921 230.11550 221.23380 213.43009 206.44638
 200.29467 195.24696 191.84326 189.89955 188.95084 189.02913 189.87842 191.20072
 192.94001 195.04930 197.32659 199.69989 202.15918 204.65347 206.75576 208.61205
 210.25235 211.41164 211.65493 211.89722 211.84851 211.56781 211.21510 210.85939
 210.49068 210.21497 210.03727 209.91556 209.85785 210.20314 210.60343 211.00673
 211.81402 213.00631 214.27060 216.06789 218.01019 220.06748 222.17677 224.27406
 226.34835 228.44665 230.55794 232.67823 234.82152 237.00781 239.27811 241.66240
 244.29769 246.56298 248.57927 250.35857 251.78986 252.92715 253.76344 254.09374
 254.14503 253.93332 253.30761 252.26990 250.89020 249.06549 246.98878 244.83607
 242.64136 240.45966 238.29395 236.14724 234.02153 231.90282 229.94312 228.11441
 226.41170 224.89799 223.54228 222.32858 221.22487 220.19916 219.31745 218.47274
 217.72904 216.92333 216.03562 215.41391 214.87820 214.52605 213.69405 213.48172
 213.79225 214.01912 215.19270 217.01700 218.81303 221.61639 226.89789 231.48726
 235.50586 239.86584 244.23875 248.27892 251.72050 254.38324 256.68710 259.21567
 262.20502 265.12958 267.81018 270.36533 272.80579 275.00302 276.58081 277.95874
 279.55273 281.10736 282.63608 283.99884 285.18042 286.22800 287.18613 288.06085
 288.85065 289.55978 290.18637 291.02063
 366.78100 356.34943 345.79586 334.67629 323.09372 311.30215 299.18658 287.00401
 274.73043 262.64186 250.66529 239.98072 230.11715 221.23558 213.43201 206.44844
 200.29687 195.24930 191.84573 189.90216 188.95359 189.03202 189.88145 191.20388
 192.94330 195.05273 197.33016 199.70359 202.16302 204.65745 206.75988 208.61631
 210.25674 211.41617 211.65960 211.90203 211.85346 211.57289 211.22032 210.86475
 210.49617 210.22060 210.04303 209.92146 209.86389 210.20932 210.60975 211.01318
 211.82061 213.01304 214.27747 216.07490 218.01733 220.07476 222.18419 224.28162
 226.35604 228.45447 230.56590 232.68633 234.82976 237.01619 239.28662 241.67105
 244.30648 246.57191 248.58834 250.36777 251.79920 252.93663 253.77306 254.10349
 254.15491 253.94334 253.31777 252.28020 250.90063 249.07606 246.99949 244.84692
 242.65235 240.47078 238.30521 236.15864 234.03307 231.91450 229.95493 228.12636
 226.42378 224.91021 223.55464 222.34107 221.23750 220.21193 219.33036 218.48579
 217.74222 216.93665 216.04908 215.42751 214.89194 214.54538 213.72658 213.56168
 213.84280 214.09564 215.22479 217.04837 218.79971 221.56569 226.85138 231.47029
 235.51237 239.87704 244.19548 248.15070 251.53331 254.16925 256.51678 259.14093
 262.15143 265.09268 267.80328 270.36868 272.81650 275.02222 276.60709 277.97205
 279.52292 281.04440 282.56598 283.92932 285.11081 286.15839 287.11795 287.99100
 288.77982 289.49039 290.11517 290.95227
 366.78100 356.34934 345.79568 334.67602 323.09336 311.30169 299.18603 287.00337
 274.72971 262.64105 250.66439 239.97973 230.11607 221.23441 213.43074 206.44708
 200.29542 195.24776 191.84410 189.90044 188.95178 189.03012 189.87946 191.20179
 192.94113 195.05047 197.32781 199.70115 202.16049 204.65483 206.75717 208.61351
 210.25384 211.41318 211.65652 211.89886 211.85020 211.56954 211.21688 210.86122
 210.49256 210.21689 210.03923 209.91757 209.85991 210.20525 210.60559 211.00893
 211.81627 213.00861 214.27294 216.07028 218.01262 220.06996 222.17930 224.27664
 226.35098 228.44932 230.56066 232.68099 234.82433 237.01067 239.28101 241.66535
 244.30069 246.56603 248.58237 250.36171 251.79304 252.93038 253.76672 254.09706
 254.14840 253.93674 253.31108 252.27342 250.89376 249.06909 246.99243 244.83977
 242.64511 240.46345 238.29779 236.15113 234.02547 231.90681 229.94714 228.11848
 226.41582 224.90216 223.54650 222.33284 221.22918 220.20352 219.32186 218.47719
 217.73353 216.92787 216.04021 215.41855 214.88289 214.55174 213.76935 213.63361
 213.90408 214.16576 215.26683 217.07050 218.77443 221.52771 226.80969 231.45361
 235.51790 239.88376 244.14432 248.01456 251.34102 253.95428 256.34787 259.06787
 262.09778 265.05402 267.79309 270.36920 272.82547 275.04102 276.63644 277.99142
 279.50177 280.99188 282.50232 283.86520 285.04715 286.09494 287.05432 287.92752
 288.71930 289.42691 290.05219 290.88461
 366.78100 356.34919 345.79537 334.67556 323.09275 311.30093 299.18512 287.00231
 274.72849 262.63968 250.66286 239.97805 230.11424 221.23242 213.42861 206.44480
 200.29298 195.24517 191.84136 189.89754 188.94873 189.02692 189.87610 191.19829
 192.93747 195.04666 197.32385 199.69703 202.15622 204.65041 206.75259 208.60878
 210.24897 211.40815 211.65134 211.89353 211.84471 211.56390 211.21109 210.85527
 210.48646 210.21064 210.03283 209.91102 209.85320 210.19839 210.59858 211.00176
 211.80895 213.00114 214.26532 216.06251 218.00470 220.06188 222.17107 224.26825
 226.34244 228.44063 230.55181 232.67200 234.81519 237.00137 239.27156 241.65575
 244.29093 246.55612 248.57231 250.35149 251.78268 252.91987 253.75605 254.08624
 254.13742 253.92561 253.29980 252.26198 250.88217 249.05736 246.98054 244.82773
 242.63292 240.45110 238.28529 236.13848 234.01266 231.89385 229.93403 228.10522
 226.40241 224.88859 223.53278 222.31897 221.21515 220.18934 219.30753 218.46271
 217.71890 216.91309 216.02527 215.40346 214.86765 214.55374 213.81213 213.70308
 213.97511 214.23540 215.30450 217.08487 218.75066 221.50101 226.76833 231.43706
 235.52246 239.88524 244.08569 247.87204 251.14578 253.74019 256.18292 258.99475
 262.04239 265.01233 267.77817 270.36462 272.82968 275.05618 276.66278 278.01230
 279.48889 280.94916 282.44785 283.80963 284.99155 286.04025 286.99902 287.87222
 288.66229 289.37018 289.99710 290.82907
 366.78100 356.34907 345.79513 334.67520 323.09226 311.30033 299.18440 287.00146
 274.72753 262.63859 250.66166 239.97673 230.11279 221.23086 213.42692 206.44299
 200.29106 195.24312 191.83919 189.89526 188.94632 189.02439 189.87345 191.19552
 192.93459 195.04365 197.32072 199.69378 202.15285 204.64692 206.74898 208.60505
 210.24511 211.40418 211.64725 211.88931 211.84038 211.55944 211.20651 210.85058
 210.48164 210.20571 210.02777 209.90584 209.84791 210.19297 210.59304 210.99610
 211.80317 212.99524 214.25930 216.05637 217.99844 220.05550 222.16457 224.26163
 226.33570 228.43377 230.54483 232.66490 234.80796 236.99403 239.26410 241.64816
 244.28323 246.54829 248.56436 250.34343 251.77449 252.91156 253.74762 254.07769
 254.12876 253.91682 253.29089 252.25295 250.87302 249.04809 246.97115 244.81822
 242.62328 240.44135 238.27542 236.12848 234.00255 231.88362 229.92368 228.09475
 226.39181 224.87788 223.52195 222.30801 221.20408 220.17814 219.29621 218.45128
 217.70734 216.90141 216.01347 215.39154 214.85561 214.55627 213.84906 213.77458
 214.05347 214.30965 215.33972 217.09325 218.73407 221.47942 226.72508 231.42241
 235.52632 239.88029 244.01868 247.72307 250.94810 253.52899 256.02353 258.92145
 261.98526 264.96680 267.75647 270.35297 272.82816 275.06482 276.68222 278.03076
 279.47931 280.91586 282.40259 283.76425 284.94623 285.99356 286.95432 287.82547
 288.61731 289.32449 289.95193 290.78281
 366.78100 356.34899 345.79497 334.67496 323.09195 311.29994 299.18392 287.00091
 274.72690 262.63788 250.66087 239.97586 230.11184 221.22983 213.42582 206.44181
 200.28979 195.24178 191.83777 189.89375 188.94474 189.02273 189.87171 191.19370
 192.93269 195.04168 197.31866 199.69165 202.15064 204.64462 206.74661 208.60260
 210.24258 211.40157 211.64456 211.88655 211.83753 211.55652 211.20351 210.84749
 210.47848 210.20247 210.02445 209.90244 209.84443 210.18942 210.58940 210.99239
 211.79938 212.99136 214.25535 216.05234 217.99433 220.05131 222.16030 224.25729
 226.33127 228.42926 230.54025 232.66023 234.80322 236.98921 239.25920 241.64318
 244.27817 246.54316 248.55914 250.33813 251.76912 252.90610 253.74209 254.07208
 254.12307 253.91105 253.28504 252.24703 250.86701 249.04200 246.96499 244.81197
 242.61696 240.43495 238.26894 236.12192 233.99591 231.87690 229.91688 228.08787
 226.38486 224.87084 223.51483 222.30082 221.19681 220.17079 219.28878 218.44377
 217.69975 216.89374 216.00573 215.38372 214.84770 214.55951 213.87860 213.84564
 214.14244 214.38788 215.37515 217.10193 218.72177 221.45982 226.68393 231.41026
 235.52911 239.86751 243.94026 247.56606 250.74702 253.32162 255.87108 258.84836
 261.92697 264.91794 267.72647 270.33267 272.81952 275.06564 276.69254 278.04636
 279.47626 280.89542 282.36926 283.73026 284.91309 285.96042 286.91891 287.79358
 288.58151 289.29050 289.91461 290.74899
 366.78100 356.34893 345.79486 334.67479 323.09172 311.29965 299.18358 287.00051
 274.72644 262.63737 250.66030 239.97523 230.11116 221.22909 213.42502 206.44095
 200.28888 195.24081 191.83674 189.89267 188.94361 189.02154 189.87047 191.19240
 192.93133 195.04026 197.31719 199.69012 202.14905 204.64298 206.74491 208.60084
 210.24077 211.39970 211.64263 211.88456 211.83549 211.55442 211.20135 210.84528
 210.47621 210.20014 210.02207 209.90000 209.84193 210.18686 210.58679 210.98972
 211.79665 212.98858 214.25251 216.04944 217.99137 220.04830 222.15723 224.25416
 226.32809 228.42602 230.53695 232.65689 234.79982 236.98575 239.25568 241.63961
 244.27454 246.53947 248.55540 250.33433 251.76526 252.90219 253.73812 254.06805
 254.11898 253.90691 253.28084 252.24277 250.86270 249.03763 246.96056 244.80749
 242.61242 240.43035 238.26428 236.11721 233.99114 231.87207 229.91200 228.08293
 226.37986 224.86579 223.50972 222.29565 221.19158 220.16551 219.28344 218.43837
 217.69430 216.88823 216.00017 215.37810 214.84203 214.56247 213.90199 213.91563
 214.23988 214.47195 215.41333 217.11481 218.71848 221.44138 226.64540 231.40047
 235.52921 239.84506 243.85100 247.40096 250.54280 253.11847 255.72514 258.77402
 261.86603 264.86417 267.68716 270.30411 272.80276 275.05850 276.69638 278.05728
 279.47797 280.88629 282.35074 283.71188 284.89514 285.94308 286.90283 287.77838
 288.57211 289.28497 289.91632 290.74701
 366.78100 356.34890 345.79479 334.67469 323.09158 311.29948 299.18338 287.00027
 274.72617 262.63706 250.65996 239.97486 230.11075 221.22865 213.42454 206.44044
 200.28833 195.24023 191.83613 189.89202 188.94292 189.02081 189.86971 191.19161
 192.93050 195.03940 197.31629 199.68919 202.14809 204.64198 206.74388 208.59977
 210.23967 211.39857 211.64146 211.88336 211.83425 211.55315 211.20005 210.84394
 210.47484 210.19873 210.02063 209.89852 209.84042 210.18532 210.58521 210.98811
 211.79500 212.98690 214.25080 216.04769 217.98959 220.04648 222.15538 224.25228
 226.32617 228.42407 230.53496 232.65486 234.79776 236.98365 239.25355 241.63744
 244.27234 246.53724 248.55313 250.33203 251.76292 252.89982 253.73571 254.06561
 254.11651 253.90440 253.27830 252.24019 250.86009 249.03499 246.95788 244.80478
 242.60967 240.42757 238.26147 236.11436 233.98826 231.86915 229.90905 228.07995
 226.37684 224.86274 223.50663 222.29253 221.18843 220.16232 219.28022 218.43511
 217.69101 216.88490 215.99680 215.37470 214.83859 214.56534 213.91974 213.98482
 214.34435 214.55858 215.46356 217.13428 218.71155 221.42853 226.61427 231.39395
 235.52724 239.81404 243.74965 247.22635 250.33211 252.91594 255.58345 258.69647
 261.80087 264.80432 267.63745 270.26700 272.77991 275.04712 276.69705 278.07083
 279.48804 280.88943 282.34814 283.70865 284.89175 285.94180 286.90149 287.77911
 288.57394 289.29163 289.92490 290.75635
 366.78100 356.34894 345.79488 334.67482 323.09177 311.29971 299.18365 287.00059
 274.72653 262.63747 250.66041 239.97536 230.11130 221.22924 213.42518 206.44112
 200.28906 195.24100 191.83695 189.89289 188.94383 189.02177 189.87071 191.19265
 192.93159 195.04053 197.31748 199.69042 202.14936 204.64330 206.74524 208.60118
 210.24112 211.40007 211.64301 211.88495 211.83589 211.55483 211.20177 210.84571
 210.47666 210.20060 210.02254 209.90048 209.84242 210.18736 210.58730 210.99025
 211.79719 212.98913 214.25307 216.05001 217.99195 220.04889 222.15784 224.25478
 226.32872 228.42666 230.53760 232.65754 234.80048 236.98643 239.25637 241.64031
 244.27525 246.54019 248.55613 250.33507 251.76601 252.90296 253.73890 254.06884
 254.11978 253.90772 253.28166 252.24360 250.86355 249.03849 246.96143 244.80837
 242.61331 240.43125 238.26519 236.11814 233.99208 231.87302 229.91296 228.08390
 226.38084 224.86678 223.51073 222.29667 221.19261 220.16655 219.28449 218.43943
 217.69537 216.88932 216.00126 215.37920 214.84314 214.57172 213.93047 214.05307
 214.45488 214.65384 215.50967 217.16228 218.72362 221.41789 226.58334 231.38730
 235.52074 239.77197 243.63651 247.04349 250.11778 252.71899 255.44949 258.61844
 261.73367 264.73969 267.57968 270.22238 272.75009 275.02505 276.68509 278.07614
 279.50082 280.90204 282.35818 283.71835 284.90219 285.95197 286.91309 287.78983
 288.58841 289.30716 289.93719 290.77838
 366.78100 356.34909 345.79517 334.67526 323.09235 311.30043 299.18452 287.00161
 274.72769 262.63878 250.66187 239.97695 230.11304 221.23113 213.42721 206.44330
 200.29139 195.24347 191.83956 189.89565 188.94673 189.02482 189.87391 191.19599
 192.93508 195.04417 197.32125 199.69434 202.15343 204.64751 206.74960 208.60569
 210.24577 211.40486 211.64795 211.89003 211.84112 211.56021 211.20729 210.85138
 210.48247 210.20655 210.02864 209.90673 209.84881 210.19390 210.59399 210.99707
 211.80416 212.99625 214.26033 216.05742 217.99951 220.05659 222.16568 224.26277
 226.33685 228.43494 230.54603 232.66611 234.80920 236.99529 239.26537 241.64946
 244.28455 246.54963 248.56572 250.34481 251.77589 252.91298 253.74907 254.07915
 254.13024 253.91833 253.29241 252.25450 250.87459 249.04967 246.97276 244.81985
 242.62493 240.44302 238.27711 236.13019 234.00428 231.88537 229.92545 228.09654
 226.39363 224.87971 223.52380 222.30989 221.20597 220.18006 219.29815 218.45323
 217.70932 216.90341 216.01549 215.39358 214.85767 214.58342 213.93547 214.12173
 214.55460 214.75706 215.58682 217.19731 218.71359 221.41035 226.56172 231.38628
 235.51399 239.72467 243.51624 246.85542 249.90125 252.52571 255.32158 258.53784
 261.66220 264.66852 267.51208 270.16931 272.71225 274.98938 276.65894 278.07040
 279.50964 280.91772 282.38055 283.74133 284.92337 285.97446 286.93552 287.81134
 288.61038 289.32986 289.96198 290.79617
 366.78100 356.34904 345.79509 334.67513 323.09218 311.30022 299.18426 287.00131
 274.72735 262.63839 250.66144 239.97648 230.11253 221.23057 213.42661 206.44266
 200.29070 195.24274 191.83879 189.89483 188.94588 189.02392 189.87296 191.19501
 192.93405 195.04309 197.32014 199.69318 202.15223 204.64627 206.74831 208.60436
 210.24440 211.40344 211.64649 211.88853 211.83958 211.55862 211.20566 210.84971
 210.48075 210.20480 210.02684 209.90488 209.84693 210.19197 210.59201 210.99506
 211.80210 212.99415 214.25819 216.05523 217.99728 220.05432 222.16336 224.26041
 226.33445 228.43250 230.54354 232.66358 234.80663 236.99267 239.26271 241.64676
 244.28180 246.54685 248.56289 250.34193 251.77298 252.91002 253.74606 254.07611
 254.12715 253.91520 253.28924 252.25128 250.87133 249.04637 246.96942 244.81646
 242.62150 240.43955 238.27359 236.12663 234.00068 231.88172 229.92177 228.09281
 226.38985 224.87590 223.51994 222.30598 221.20203 220.17607 219.29412 218.44916
 217.70520 216.89925 216.01129 215.38933 214.85338 214.58638 213.95554 214.16246
 214.67136 214.86594 215.64693 217.25551 218.74991 221.41269 226.54329 231.38286
 235.49835 239.65929 243.37431 246.64944 249.67145 252.33084 255.19621 258.45557
 261.58905 264.59497 267.44275 270.11673 272.67419 274.95166 276.63477 278.06857
 279.52414 280.93866 282.40796 283.76837 284.95218 286.00046 286.96048 287.83688
 288.63635 289.35742 289.98883 290.82114
 366.78100 356.34875 345.79450 334.67424 323.09099 311.29874 299.18249 286.99924
 274.72499 262.63573 250.65848 239.97323 230.10898 221.22673 213.42248 206.43822
 200.28597 195.23772 191.83347 189.88922 188.93996 189.01771 189.86646 191.18821
 192.92696 195.03571 197.31245 199.68520 202.14395 204.63770 206.73945 208.59519
 210.23494 211.39369 211.63644 211.87819 211.82894 211.54768 211.19443 210.83818
 210.46893 210.19268 210.01443 209.89217 209.83392 210.17867 210.57842 210.98117
 211.78791 212.97966 214.24341 216.04016 217.98191 220.03866 222.14740 224.24415
 226.31790 228.41565 230.52640 232.64614 234.78889 236.97464 239.24439 241.62814
 244.26289 246.52763 248.54338 250.32213 251.75288 252.88963 253.72538 254.05512
 254.10587 253.89362 253.26737 252.22912 250.84886 249.02361 246.94636 244.79311
 242.59786 240.41561 238.24935 236.10210 233.97585 231.85660 229.89635 228.06710
 226.36384 224.84959 223.49334 222.27909 221.17484 220.14858 219.26633 218.42108
 217.67683 216.87058 215.98233 215.36007 214.82382 214.57619 213.99110 214.18094
 214.76265 215.02396 215.76707 217.30104 218.75185 221.39957 226.51460 231.36682
 235.46985 239.57660 243.21718 246.43710 249.44673 252.15331 255.08936 258.38522
 261.52786 264.53333 267.38174 270.07092 272.63953 274.91727 276.61539 278.07236
 279.54459 280.97012 282.43658 283.79709 284.97891 286.02762 286.98752 287.86230
 288.66153 289.38388 290.01489 290.84586
 366.78100 356.34866 345.79432 334.67398 323.09065 311.29831 299.18197 286.99863
 274.72429 262.63495 250.65762 239.97228 230.10794 221.22560 213.42126 206.43692
 200.28458 195.23625 191.83191 189.88757 188.93823 189.01589 189.86455 191.18622
 192.92488 195.03354 197.31020 199.68286 202.14152 204.63518 206.73685 208.59251
 210.23217 211.39083 211.63349 211.87515 211.82582 211.54448 211.19114 210.83480
 210.46546 210.18912 210.01079 209.88845 209.83011 210.17477 210.57443 210.97709
 211.78375 212.97542 214.23908 216.03574 217.97740 220.03406 222.14272 224.23939
 226.31305 228.41071 230.52137 232.64103 234.78369 236.96935 239.23902 241.62268
 244.25734 246.52200 248.53766 250.31632 251.74699 252.88365 253.71931 254.04897
 254.09963 253.88729 253.26095 252.22262 250.84228 249.01694 246.93960 244.78626
 242.59092 240.40859 238.24225 236.09491 233.96857 231.84923 229.88889 228.05955
 226.35622 224.84188 223.48554 222.27120 221.16686 220.14052 219.25819 218.41285
 217.66851 216.86217 215.97383 215.35149 214.81516 214.57465 214.00642 214.22464
 214.81766 215.16718 215.91202 217.34166 218.74016 221.38565 226.48991 231.35307
 235.44147 239.49393 243.06728 246.24171 249.24986 252.00888 255.00644 258.32776
 261.47577 264.47610 267.32193 270.02191 272.59821 274.87140 276.58099 278.06534
 279.55786 281.00107 282.46732 283.82611 285.00763 286.05652 287.01541 287.89066
 288.69128 289.41266 290.04745 290.87524
 366.78100 356.34885 345.79469 334.67454 323.09139 311.29924 299.18308 286.99993
 274.72578 262.63662 250.65947 239.97432 230.11017 221.22801 213.42386 206.43971
 200.28755 195.23940 191.83525 189.89109 188.94194 189.01979 189.86864 191.19048
 192.92933 195.03818 197.31502 199.68787 202.14672 204.64057 206.74241 208.59826
 210.23811 211.39695 211.63980 211.88165 211.83250 211.55134 211.19819 210.84204
 210.47288 210.19673 210.01858 209.89643 209.83827 210.18312 210.58297 210.98581
 211.79266 212.98451 214.24835 216.04520 217.98705 220.04390 222.15274 224.24959
 226.32344 228.42128 230.53213 232.65198 234.79483 236.98067 239.25052 241.63437
 244.26921 246.53406 248.54991 250.32876 251.75960 252.89645 253.73230 254.06214
 254.11299 253.90084 253.27469 252.23653 250.85638 249.03123 246.95407 244.80092
 242.60577 240.42361 238.25746 236.11031 233.98416 231.86500 229.90485 228.07570
 226.37254 224.85839 223.50224 222.28809 221.18393 220.15778 219.27563 218.43047
 217.68632 216.88017 215.99202 215.36986 214.83371 214.58482 213.99683 214.29109
 214.87361 215.27679 216.04840 217.38286 218.73726 221.38545 226.47592 231.34654
 235.41559 239.41493 242.92477 246.05861 249.06775 251.88023 254.93413 258.27402
 261.42438 264.41562 267.25504 269.96365 272.54465 274.80359 276.52380 278.04260
 279.56433 281.03149 282.49460 283.85266 285.03262 286.08078 287.03659 287.91052
 288.70923 289.42953 290.05533 290.86658
 366.78100 356.34889 345.79477 334.67466 323.09154 311.29943 299.18331 287.00020
 274.72608 262.63697 250.65985 239.97474 230.11062 221.22851 213.42439 206.44028
 200.28816 195.24005 191.83593 189.89182 188.94270 189.02059 189.86948 191.19136
 192.93025 195.03913 197.31602 199.68890 202.14779 204.64167 206.74356 208.59944
 210.23933 211.39821 211.64110 211.88298 211.83387 211.55275 211.19964 210.84352
 210.47441 210.19830 210.02018 209.89807 209.83995 210.18484 210.58472 210.98761
 211.79449 212.98638 214.25026 216.04715 217.98903 220.04592 222.15480 224.25169
 226.32557 228.42346 230.53434 232.65423 234.79711 236.98300 239.25289 241.63677
 244.27166 246.53654 248.55243 250.33131 251.76220 252.89908 253.73497 254.06485
 254.11574 253.90362 253.27751 252.23939 250.85928 249.03416 246.95705 244.80393
 242.60882 240.42670 238.26059 236.11348 233.98736 231.86825 229.90813 228.07902
 226.37590 224.86179 223.50567 222.29156 221.18744 220.16133 219.27921 218.43410
 217.68998 216.88387 215.99575 215.37364 214.83752 214.58545 213.98987 214.35324
 214.94000 215.37022 216.16357 217.42874 218.75394 221.40202 226.47067 231.34363
 235.38872 239.33150 242.78055 245.88019 248.89561 251.76309 254.86685 258.21744
 261.36731 264.34790 267.18082 269.90118 272.48407 274.72794 276.46033 278.01477
 279.56525 281.05765 282.51508 283.87024 285.05069 286.09711 287.05042 287.92377
 288.71973 289.43814 290.06323 290.86758
 366.78100 356.34880 345.79461 334.67441 323.09121 311.29901 299.18282 286.99962
 274.72542 262.63622 250.65903 239.97383 230.10963 221.22743 213.42324 206.43904
 200.28684 195.23864 191.83445 189.89025 188.94105 189.01885 189.86766 191.18946
 192.92826 195.03706 197.31387 199.68667 202.14547 204.63927 206.74108 208.59688
 210.23668 211.39548 211.63829 211.88009 211.83089 211.54969 211.19650 210.84030
 210.47110 210.19490 210.01671 209.89451 209.83631 210.18111 210.58092 210.98372
 211.79052 212.98232 214.24613 216.04293 217.98473 220.04153 222.15034 224.24714
 226.32094 228.41874 230.52955 232.64935 234.79215 236.97796 239.24776 241.63156
 244.26636 246.53117 248.54697 250.32577 251.75657 252.89338 253.72918 254.05898
 254.10978 253.89759 253.27139 252.23319 250.85299 249.02780 246.95060 244.79740
 242.60220 240.42001 238.25381 236.10661 233.98041 231.86122 229.90102 228.07182
 226.36862 224.85443 223.49823 222.28403 221.17983 220.15364 219.27144 218.42624
 217.68204 216.87585 215.98765 215.36545 214.82925 214.57829 213.98535 214.41034
 215.02362 215.46954 216.25420 217.46313 218.77452 221.42075 226.46608 231.33951
 235.35875 239.24464 242.63683 245.70630 248.73274 251.65538 254.80576 258.16528
 261.31342 264.28366 267.10809 269.83612 272.41528 274.64218 276.38943 277.98380
 279.57043 281.08011 282.53250 283.88339 285.06171 286.10699 287.05878 287.92993
 288.72699 289.44617 290.06583 290.87073
 366.78100 356.34851 345.79401 334.67352 323.09002 311.29753 299.18103 286.99754
 274.72304 262.63355 250.65605 239.97056 230.10607 221.22357 213.41908 206.43458
 200.28209 195.23359 191.82910 189.88460 188.93511 189.01261 189.86112 191.18263
 192.92113 195.02964 197.30614 199.67865 202.13715 204.63066 206.73216 208.58767
 210.22717 211.38568 211.62819 211.86969 211.82020 211.53870 211.18521 210.82871
 210.45922 210.18272 210.00423 209.88173 209.82324 210.16775 210.56725 210.96976
 211.77626 212.96777 214.23127 216.02778 217.96928 220.02579 222.13429 224.23080
 226.30431 228.40181 230.51232 232.63182 234.77433 236.95983 239.22934 241.61284
 244.24735 246.51185 248.52736 250.30587 251.73637 252.87288 253.70838 254.03789
 254.08839 253.87590 253.24940 252.21091 250.83041 249.00492 246.92743 244.77393
 242.57844 240.39594 238.22945 236.08195 233.95546 231.83596 229.87547 228.04597
 226.34248 224.82799 223.47149 222.25700 221.15250 220.12601 219.24351 218.39802
 217.65352 216.84703 215.95853 215.33604 214.79955 214.55743 213.98544 214.46492
 215.12250 215.58463 216.34099 217.49370 218.79045 221.43217 226.45598 231.32841
 235.31735 239.14241 242.48116 245.53285 248.57852 251.56021 254.75346 258.11646
 261.26099 264.22095 267.04245 269.77835 272.35391 274.56674 276.32483 277.94977
 279.55780 281.09058 282.53967 283.88428 285.06186 286.10410 287.05521 287.92566
 288.72476 289.44400 290.05789 290.86130
 366.78100 356.34793 345.79285 334.67178 323.08771 311.29463 299.17756 286.99349
 274.71841 262.62834 250.65027 239.96419 230.09912 221.21605 213.41097 206.42590
 200.27283 195.22375 191.81868 189.87361 188.92353 189.00046 189.84839 191.16931
 192.90724 195.01517 197.29109 199.66302 202.12095 204.61387 206.71480 208.56973
 210.20865 211.36658 211.60851 211.84943 211.79936 211.51729 211.16321 210.80614
 210.43607 210.15899 209.97992 209.85685 209.79777 210.14170 210.54063 210.94255
 211.74848 212.93941 214.20233 215.99826 217.93919 219.99511 222.10304 224.19897
 226.27189 228.36882 230.47875 232.59767 234.73960 236.92453 239.19345 241.57638
 244.21031 246.47423 248.48916 250.26709 251.69701 252.83294 253.66787 253.99679
 254.04672 253.83365 253.20657 252.16750 250.78643 248.96035 246.88228 244.72821
 242.53213 240.34906 238.18199 236.03392 233.90684 231.78677 229.82570 227.99562
 226.29155 224.77648 223.41940 222.20433 221.09926 220.07218 219.18911 218.34304
 217.59796 216.79089 215.90182 215.27874 214.74167 214.51910 213.99330 214.52733
 215.22337 215.69865 216.42535 217.52301 218.80173 221.44591 226.45134 231.32057
 235.27962 239.04980 242.34328 245.37836 248.44444 251.47888 254.70528 258.06592
 261.20468 264.15179 266.96561 269.70801 272.27353 274.47379 276.26251 277.92764
 279.56766 281.10059 282.54193 283.86874 285.04117 286.08151 287.03079 287.90140
 288.69882 289.42096 290.03125 290.83307
 366.78100 356.34801 345.79301 334.67202 323.08803 311.29503 299.17804 286.99405
 274.71905 262.62906 250.65107 239.96507 230.10008 221.21709 213.41210 206.42710
 200.27411 195.22512 191.82012 189.87513 188.92514 189.00214 189.85015 191.17116
 192.90916 195.01717 197.29318 199.66518 202.12319 204.61620 206.71720 208.57221
 210.21122 211.36922 211.61123 211.85224 211.80224 211.52025 211.16626 210.80927
 210.43927 210.16228 209.98329 209.86029 209.80130 210.14531 210.54431 210.94632
 211.75233 212.94333 214.20634 216.00235 217.94335 219.99936 222.10737 224.20337
 226.27638 228.37339 230.48339 232.60240 234.74441 236.92941 239.19842 241.58143
 244.21543 246.47944 248.49445 250.27246 251.70246 252.83847 253.67348 254.00248
 254.05249 253.83950 253.21250 252.17351 250.79252 248.96652 246.88853 244.73454
 242.53854 240.35555 238.18856 236.04056 233.91357 231.79358 229.83258 228.00259
 226.29860 224.78360 223.42661 222.21162 221.10663 220.07963 219.19664 218.35065
 217.60565 216.79866 215.90967 215.28667 214.74968 214.51781 213.96997 214.58722
 215.35654 215.82382 216.51852 217.55122 218.78732 221.44029 226.43617 231.29926
 235.22282 238.93571 242.19237 245.22910 248.32295 251.41418 254.67023 258.02393
 261.15079 264.08463 266.89709 269.63986 272.18741 274.35690 276.14343 277.84671
 279.52441 281.09158 282.52948 283.84717 285.01453 286.05368 287.00098 287.87109
 288.66995 289.38602 289.99545 290.79498
 366.78100 356.34695 345.79090 334.66886 323.08381 311.28976 299.17171 286.98666
 274.71062 262.61957 250.64052 239.95347 230.08742 221.20338 213.39733 206.41128
 200.25723 195.20718 191.80114 189.85509 188.90404 188.97999 189.82694 191.14689
 192.88385 194.99080 197.26575 199.63670 202.09365 204.58561 206.68556 208.53951
 210.17746 211.33441 211.57537 211.81532 211.76427 211.48122 211.12617 210.76813
 210.39708 210.11903 209.93898 209.81493 209.75489 210.09784 210.49579 210.89674
 211.70169 212.89165 214.15360 215.94855 217.88850 219.94345 222.05041 224.14536
 226.21731 228.31326 230.42221 232.54017 234.68112 236.86507 239.13302 241.51497
 244.14793 246.41088 248.42483 250.20178 251.63073 252.76568 253.59964 253.92759
 253.97654 253.76249 253.13444 252.09440 250.71235 248.88530 246.80625 244.65120
 242.45416 240.27011 238.10206 235.95301 233.82496 231.70392 229.74187 227.91082
 226.20577 224.68972 223.33168 222.11563 221.00958 219.98153 219.09748 218.25044
 217.50439 216.69634 215.80629 215.18224 214.64420 214.45840 214.01942 214.62128
 215.43680 215.94458 216.62428 217.60599 218.79654 221.44975 226.42999 231.28169
 235.16823 238.81958 242.03406 245.06894 248.19841 251.34055 254.62234 257.97177
 261.09543 264.02231 266.82663 269.57181 272.11334 274.28860 276.11526 277.85153
 279.51706 281.05478 282.48248 283.78445 284.94305 285.97940 286.92526 287.79077
 288.58878 289.30371 289.91129 290.71094
 366.78100 356.34489 345.78679 334.66268 323.07557 311.27947 299.15936 286.97225
 274.69415 262.60104 250.61993 239.93083 230.06272 221.17661 213.36851 206.38040
 200.22429 195.17219 191.76408 189.81597 188.86287 188.93676 189.78165 191.09955
 192.83444 194.93933 197.21223 199.58112 202.03601 204.52591 206.62380 208.47570
 210.11159 211.26648 211.50538 211.74327 211.69016 211.40506 211.04795 210.68784
 210.31474 210.03463 209.85252 209.72642 209.66431 210.00520 210.40110 210.79999
 211.60288 212.79078 214.05067 215.84356 217.78146 219.83435 221.93924 224.03214
 226.10203 228.19592 230.30282 232.41871 234.55760 236.73950 239.00539 241.38528
 244.01618 246.27707 248.28896 250.06386 251.49075 252.62364 253.45554 253.78143
 253.82832 253.61222 252.98211 251.94000 250.55590 248.72679 246.64568 244.48858
 242.28947 240.10336 237.93326 235.78215 233.65204 231.52894 229.56483 227.73173
 226.02462 224.50651 223.14641 221.92830 220.82019 219.79009 218.90398 218.05487
 217.30677 216.49666 215.60455 214.97845 214.43834 214.34740 214.13254 214.72723
 215.45090 215.95636 216.67256 217.64299 218.81067 221.48071 226.44507 231.28517
 235.14522 238.76111 241.96448 245.01390 248.17583 251.35645 254.63539 257.96362
 261.06372 263.96585 266.76233 269.49377 272.00150 274.13113 275.95752 277.71082
 279.43781 281.02164 282.44183 283.73196 284.87488 285.89087 286.82535 287.68936
 288.48340 289.19296 289.80023 290.59860
 366.78100 356.34367 345.78433 334.65900 323.07066 311.27333 299.15199 286.96366
 274.68432 262.58999 250.60766 239.91732 230.04799 221.16065 213.35132 206.36198
 200.20465 195.15131 191.74198 189.79264 188.83831 188.91098 189.75464 191.07131
 192.80497 194.90864 197.18030 199.54797 202.00163 204.49030 206.58697 208.43763
 210.07230 211.22596 211.46363 211.70029 211.64596 211.35962 211.00129 210.63996
 210.26562 209.98429 209.80095 209.67362 209.61028 209.94995 210.34461 210.74228
 211.54394 212.73061 213.98928 215.78094 217.71761 219.76927 221.87294 223.96460
 226.03327 228.12593 230.23160 232.34627 234.48393 236.66460 238.92926 241.30793
 243.93759 246.19726 248.20792 249.98159 251.40726 252.53892 253.36959 253.69425
 253.73992 253.52258 252.89125 251.84791 250.46258 248.63224 246.54991 244.39158
 242.19124 240.00391 237.83257 235.68024 233.54890 231.42457 229.45923 227.62490
 225.91657 224.39723 223.03590 221.81656 220.70723 219.67589 218.78856 217.93822
 217.18889 216.37756 215.48422 214.85689 214.31555 214.27565 214.18137 214.82140
 215.58830 216.04636 216.67950 217.59352 218.72083 221.43178 226.42191 231.26639
 235.09769 238.67232 241.86815 244.95605 248.17804 251.41780 254.68533 257.97662
 261.05469 263.92749 266.70059 269.42474 271.91159 274.00830 275.87546 277.58289
 279.28839 280.90079 282.33853 283.60501 284.70975 285.69885 286.62259 287.48727
 288.27921 288.98825 289.60382 290.40152
 366.78100 356.34461 345.78623 334.66184 323.07446 311.27807 299.15769 286.97030
 274.69192 262.59853 250.61715 239.92776 230.05938 221.17299 213.36461 206.37622
 200.21984 195.16745 191.75907 189.81068 188.85730 188.93091 189.77553 191.09314
 192.82776 194.93237 197.20499 199.57360 202.02822 204.51783 206.61545 208.46706
 210.10268 211.25729 211.49591 211.73352 211.68014 211.39475 211.03737 210.67698
 210.30360 210.02321 209.84083 209.71444 209.65206 209.99267 210.38829 210.78690
 211.58952 212.77713 214.03675 215.82936 217.76698 219.81959 221.92421 224.01682
 226.08644 228.18005 230.28667 232.40228 234.54090 236.72251 238.98813 241.36774
 243.99835 246.25897 248.27058 250.04520 251.47181 252.60443 253.43604 253.76166
 253.80827 253.59189 252.96150 251.91912 250.53473 248.70535 246.62396 244.46658
 242.26719 240.08081 237.91042 235.75904 233.62865 231.50527 229.54088 227.70750
 226.00011 224.48173 223.12134 221.90296 220.79457 219.76419 218.87780 218.02842
 217.28003 216.46965 215.57726 214.95088 214.41049 214.30695 214.06230 214.91937
 215.82704 216.25333 216.75365 217.52948 218.57285 221.33977 226.37701 231.20757
 234.99792 238.50247 241.68880 244.83928 248.16254 251.48526 254.73647 257.98447
 261.04626 263.90390 266.66208 269.36453 271.83029 273.88773 275.60892 277.63800
 279.22531 280.81793 282.24811 283.50616 284.60013 285.58380 286.50885 287.37119
 288.16064 288.86169 289.47726 290.26663
 366.78100 356.34696 345.79092 334.66888 323.08384 311.28980 299.17176 286.98672
 274.71068 262.61964 250.64060 239.95356 230.08752 221.20348 213.39744 206.41140
 200.25736 195.20732 191.80128 189.85524 188.90420 188.98016 189.82712 191.14708
 192.88404 194.99100 197.26597 199.63693 202.09389 204.58585 206.68581 208.53977
 210.17773 211.33469 211.57565 211.81561 211.76457 211.48153 211.12649 210.76845
 210.39741 210.11937 209.93933 209.81529 209.75525 210.09821 210.49617 210.89713
 211.70209 212.89205 214.15401 215.94897 217.88893 219.94389 222.05085 224.14581
 226.21777 228.31373 230.42269 232.54065 234.68161 236.86557 239.13353 241.51549
 244.14845 246.41141 248.42537 250.20233 251.63129 252.76625 253.60021 253.92817
 253.97713 253.76309 253.13505 252.09501 250.71297 248.88594 246.80690 244.65186
 242.45482 240.27078 238.10274 235.95370 233.82566 231.70462 229.74258 227.91154
 226.20650 224.69046 223.33242 222.11638 221.01034 219.98230 219.09826 218.25122
 217.50518 216.69714 215.80710 215.18306 214.64502 214.41551 213.87328 215.00351
 216.10805 216.47906 216.87500 217.53264 218.51283 221.28654 226.33545 231.12987
 234.85812 238.27153 241.44191 244.66200 248.09396 251.49605 254.74019 257.95834
 261.00046 263.83856 266.58545 269.27222 271.69910 273.76871 275.71991 277.53793
 279.19672 280.68152 282.07080 283.29660 284.38510 285.38058 286.31494 287.18063
 287.97256 288.68088 289.31335 290.12146
 366.78100 356.34871 345.79442 334.67413 323.09084 311.29855 299.18226 286.99897
 274.72468 262.63539 250.65809 239.97280 230.10851 221.22622 213.42193 206.43764
 200.28535 195.23706 191.83277 189.88848 188.93919 189.01690 189.86561 191.18732
 192.92603 195.03474 197.31145 199.68416 202.14286 204.63657 206.73828 208.59399
 210.23370 211.39241 211.63512 211.87683 211.82754 211.54625 211.19296 210.83667
 210.46738 210.19109 210.01280 209.89051 209.83222 210.17693 210.57664 210.97934
 211.78605 212.97776 214.24147 216.03818 217.97989 220.03660 222.14531 224.24202
 226.31573 228.41344 230.52415 232.64386 234.78657 236.97228 239.24199 241.62570
 244.26041 246.52512 248.54082 250.31953 251.75024 252.88695 253.72266 254.05237
 254.10308 253.89079 253.26450 252.22621 250.84592 249.02063 246.94334 244.79005
 242.59476 240.41247 238.24618 236.09889 233.97259 231.85330 229.89301 228.06372
 226.36043 224.84614 223.48985 222.27556 221.17127 220.14498 219.26269 218.41740
 217.67311 216.86682 215.97853 215.35624 214.81995 214.50545 213.76239 214.99260
 216.35976 216.77159 217.11940 217.62256 218.52888 221.29182 226.32126 231.04042
 234.68260 238.02275 241.19293 244.48831 248.00813 251.46497 254.69844 257.88593
 260.89270 263.72754 266.49594 269.20041 271.60919 273.61237 275.76468 277.46277
 279.15570 280.59100 281.95389 283.12924 284.17169 285.12158 286.02573 286.88727
 287.67624 288.38040 288.99490 289.79272
 366.78100 356.34936 345.79572 334.67608 323.09344 311.30180 299.18616 287.00352
 274.72988 262.64124 250.66460 239.97996 230.11632 221.23468 213.43104 206.44740
 200.29576 195.24812 191.84448 189.90084 188.95220 189.03056 189.87992 191.20228
 192.94164 195.05099 197.32835 199.70171 202.16107 204.65543 206.75779 208.61415
 210.25451 211.41387 211.65723 211.89959 211.85095 211.57031 211.21767 210.86203
 210.49339 210.21775 210.04011 209.91847 209.86083 210.20619 210.60655 211.00991
 211.81727 213.00963 214.27399 216.07135 218.01371 220.07107 222.18043 224.27779
 226.35215 228.45051 230.56187 232.68223 234.82559 237.01195 239.28231 241.66667
 244.30203 246.56739 248.58375 250.36311 251.79447 252.93183 253.76819 254.09855
 254.14991 253.93826 253.31262 252.27498 250.89534 249.07070 246.99406 244.84142
 242.64678 240.46514 238.29950 236.15286 234.02722 231.90858 229.94894 228.12030
 226.41766 224.90402 223.54838 222.33474 221.23110 220.20546 219.32382 218.47918
 217.73554 216.92990 216.04226 215.42062 214.88498 214.54295 213.73488 214.93076
 216.51483 217.03864 217.36386 217.73624 218.57164 221.29868 226.30553 230.95233
 234.51836 237.80603 240.98900 244.36272 247.96240 251.42792 254.63885 257.79663
 260.77719 263.62720 266.42990 269.14514 271.54556 273.53220 275.69913 277.42874
 279.08374 280.56717 281.89191 283.02527 284.01233 284.90787 285.77237 286.62372
 287.39886 288.08649 288.68338 289.47296
 366.78100 356.34938 345.79577 334.67615 323.09353 311.30191 299.18630 287.00368
 274.73006 262.64144 250.66483 239.98021 230.11659 221.23497 213.43136 206.44774
 200.29612 195.24850 191.84489 189.90127 188.95265 189.03103 189.88042 191.20280
 192.94218 195.05156 197.32895 199.70233 202.16171 204.65609 206.75848 208.61486
 210.25524 211.41462 211.65801 211.90039 211.85177 211.57115 211.21854 210.86292
 210.49430 210.21868 210.04107 209.91945 209.86183 210.20721 210.60760 211.01098
 211.81836 213.01074 214.27513 216.07251 218.01489 220.07227 222.18166 224.27904
 226.35342 228.45180 230.56319 232.68357 234.82695 237.01333 239.28372 241.66810
 244.30348 246.56886 248.58525 250.36463 251.79601 252.93339 253.76978 254.10016
 254.15154 253.93992 253.31431 252.27669 250.89707 249.07245 246.99584 244.84322
 242.64860 240.46698 238.30137 236.15475 234.02913 231.91051 229.95090 228.12228
 226.41966 224.90604 223.55043 222.33681 221.23319 220.20758 219.32596 218.48134
 217.73772 216.93211 216.04449 215.42287 214.88725 214.54422 213.73378 214.89175
 216.58977 217.21442 217.54445 217.81999 218.58582 221.28540 226.27759 230.86755
 234.37363 237.60866 240.80225 244.24757 247.94498 251.46056 254.62880 257.78275
 260.75562 263.61993 266.42886 269.13742 271.53729 273.50879 275.66629 277.38977
 279.01010 280.47913 281.75027 282.82220 283.72342 284.53745 285.33728 286.15094
 286.87939 287.40567 287.70905 287.90851
 366.78100 356.34947 345.79593 334.67640 323.09386 311.30233 299.18680 287.00426
 274.73073 262.64220 250.66566 239.98113 230.11759 221.23606 213.43253 206.44899
 200.29746 195.24992 191.84639 189.90286 188.95432 189.03279 189.88226 191.20472
 192.94419 195.05365 197.33112 199.70459 202.16405 204.65852 206.76098 208.61745
 210.25792 211.41738 211.66085 211.90332 211.85478 211.57425 211.22171 210.86618
 210.49765 210.22211 210.04458 209.92304 209.86551 210.21098 210.61144 211.01491
 211.82238 213.01484 214.27931 216.07677 218.01924 220.07671 222.18617 224.28364
 226.35810 228.45657 230.56804 232.68850 234.83197 237.01843 239.28890 241.67337
 244.30883 246.57430 248.59077 250.37023 251.80170 252.93916 253.77563 254.10610
 254.15756 253.94603 253.32049 252.28296 250.90343 249.07889 247.00236 244.84983
 242.65529 240.47376 238.30822 236.16169 234.03616 231.91762 229.95809 228.12955
 226.42702 224.91349 223.55795 222.34442 221.24089 220.21535 219.33382 218.48928
 217.74575 216.94022 216.05268 215.43115 214.89561 214.54771 213.72578 214.88107
 216.66853 217.36305 217.69562 217.88953 218.60480 221.28036 226.25208 230.78232
 234.22824 237.41277 240.61630 244.12633 247.90964 251.48288 254.62086 257.77002
 260.74121 263.61435 266.41864 269.10397 271.45465 273.47403 275.65530 277.38892
 278.94391 280.39276 281.64444 282.68402 283.53305 284.28403 285.00348 285.76590
 286.47705 286.93240 287.04837 286.97339
 366.78100 356.34976 345.79652 334.67728 323.09505 311.30381 299.18857 287.00633
 274.73309 262.64485 250.66861 239.98438 230.12114 221.23990 213.43666 206.45342
 200.30218 195.25494 191.85171 189.90847 188.96023 189.03899 189.88875 191.21151
 192.95127 195.06104 197.33880 199.71256 202.17232 204.66708 206.76984 208.62660
 210.26736 211.42713 211.67089 211.91365 211.86541 211.58517 211.23293 210.87769
 210.50946 210.23422 210.05698 209.93574 209.87850 210.22426 210.62502 211.02879
 211.83655 213.02931 214.29407 216.09183 218.03459 220.09235 222.20212 224.29988
 226.37464 228.47340 230.58516 232.70592 234.84968 237.03645 239.30721 241.69197
 244.32773 246.59349 248.61025 250.39001 251.82178 252.95954 253.79630 254.12706
 254.17882 253.96758 253.34234 252.30511 250.92587 249.10163 247.02539 244.87315
 242.67891 240.49767 238.33244 236.18620 234.06096 231.94272 229.98348 228.15524
 226.45300 224.93976 223.58453 222.37129 221.26805 220.24281 219.36157 218.51733
 217.77409 216.96886 216.08162 215.46038 214.92514 214.56700 213.72089 214.86523
 216.76074 217.52725 217.85448 217.97115 218.64143 221.28879 226.23358 230.70303
 234.08849 237.22672 240.44583 244.01617 247.82648 251.49054 254.62306 257.73315
 260.68335 263.55411 266.35861 269.03604 271.38254 273.45279 275.56870 277.35843
 278.89349 280.33386 281.57352 282.58685 283.40414 284.12006 284.78168 285.46646
 286.15964 286.61691 286.72775 286.41235
 366.78100 356.34976 345.79653 334.67729 323.09506 311.30382 299.18859 287.00635
 274.73311 262.64488 250.66864 239.98441 230.12117 221.23994 213.43670 206.45346
 200.30223 195.25499 191.85176 189.90852 188.96029 189.03905 189.88881 191.21158
 192.95134 195.06111 197.33887 199.71264 202.17240 204.66716 206.76993 208.62669
 210.26746 211.42722 211.67099 211.91375 211.86551 211.58528 211.23304 210.87781
 210.50957 210.23434 210.05710 209.93587 209.87863 210.22439 210.62516 211.02892
 211.83669 213.02945 214.29422 216.09198 218.03474 220.09251 222.20227 224.30004
 226.37480 228.47357 230.58533 232.70609 234.84986 237.03662 239.30739 241.69215
 244.32792 246.59368 248.61044 250.39021 251.82197 252.95974 253.79650 254.12727
 254.17903 253.96779 253.34256 252.30532 250.92609 249.10185 247.02562 244.87338
 242.67914 240.49791 238.33267 236.18644 234.06120 231.94297 229.98373 228.15549
 226.45326 224.94002 223.58479 222.37155 221.26832 220.24308 219.36184 218.51761
 217.77437 216.96914 216.08190 215.46067 214.92543 214.57077 213.73283 214.87006
 216.84550 217.67726 217.99402 218.04053 218.66782 221.29602 226.21974 230.63570
 233.96916 237.07527 240.32475 243.96179 247.79465 251.48874 254.58807 257.66879
 260.59854 263.47006 266.30814 269.01511 271.28229 273.47601 275.50717 277.35342
 278.90500 280.32404 281.52789 282.48911 283.25650 283.92810 284.54642 285.18494
 285.87091 286.27914 286.58487 287.35425
 366.78100 356.34933 345.79565 334.67598 323.09330 311.30163 299.18596 287.00328
 274.72961 262.64093 250.66426 239.97959 230.11591 221.23424 213.43056 206.44689
 200.29522 195.24754 191.84387 189.90020 188.95152 189.02985 189.87917 191.20150
 192.94083 195.05015 197.32748 199.70080 202.16013 204.65446 206.75678 208.61311
 210.25343 211.41276 211.65609 211.89841 211.84974 211.56906 211.21639 210.86072
 210.49204 210.21637 210.03869 209.91702 209.85935 210.20467 210.60500 211.00833
 211.81565 213.00798 214.27230 216.06963 218.01196 220.06928 222.17861 224.27593
 226.35026 228.44859 230.55991 232.68024 234.82356 237.00989 239.28022 241.66454
 244.29987 246.56519 248.58152 250.36085 251.79217 252.92950 253.76582 254.09615
 254.14748 253.93580 253.31013 252.27246 250.89278 249.06811 246.99143 244.83876
 242.64409 240.46241 238.29674 236.15006 234.02439 231.90572 229.94604 228.11737
 226.41469 224.90102 223.54535 222.33167 221.22800 220.20232 219.32065 218.47598
 217.73230 216.92663 216.03895 215.41728 214.88161 214.54573 213.75217 214.90347
 216.92317 217.79759 218.09599 218.07385 218.65398 221.27614 226.19049 230.55257
 233.83553 236.91522 240.21147 243.93663 247.80115 251.52800 254.62083 257.65100
 260.56406 263.43112 266.29355 269.02240 271.21283 273.35306 275.43646 277.28857
 278.86365 280.27142 281.43271 282.34476 283.07626 283.70560 284.29147 284.90683
 285.57047 285.93851 286.41034 287.21063
 366.78100 356.34878 345.79455 334.67433 323.09110 311.29888 299.18266 286.99943
 274.72521 262.63598 250.65876 239.97353 230.10931 221.22709 213.42286 206.43864
 200.28641 195.23819 191.83397 189.88974 188.94052 189.01829 189.86707 191.18884
 192.92762 195.03640 197.31317 199.68595 202.14472 204.63850 206.74028 208.59605
 210.23583 211.39460 211.63738 211.87915 211.82993 211.54871 211.19548 210.83926
 210.47003 210.19381 210.01559 209.89336 209.83514 210.17991 210.57969 210.98246
 211.78924 212.98102 214.24479 216.04157 217.98334 220.04012 222.14890 224.24567
 226.31945 228.41722 230.52800 232.64777 234.79055 236.97633 239.24610 241.62988
 244.26465 246.52943 248.54521 250.32398 251.75476 252.89153 253.72731 254.05708
 254.10786 253.89564 253.26941 252.23119 250.85096 249.02574 246.94852 244.79529
 242.60007 240.41784 238.25162 236.10439 233.97817 231.85895 229.89872 228.06950
 226.36627 224.85205 223.49583 222.28160 221.17738 220.15115 219.26893 218.42370
 217.67948 216.87326 215.98503 215.36281 214.82658 214.51660 213.78427 214.92848
 216.99283 217.91817 218.20261 218.11978 218.64949 221.25569 226.14984 230.44482
 233.66989 236.72478 240.07568 243.88101 247.81041 251.60333 254.62440 257.64423
 260.54678 263.39236 266.25568 268.97086 271.17862 273.23965 275.32990 277.16193
 278.76672 280.15857 281.28009 282.16232 282.87567 283.47867 284.05261 284.65417
 285.26541 285.63486 286.14908 286.97278
 366.78100 356.34838 345.79376 334.67314 323.08952 311.29691 299.18029 286.99667
 274.72205 262.63243 250.65481 239.96919 230.10457 221.22195 213.41734 206.43272
 200.28010 195.23148 191.82686 189.88224 188.93262 189.01000 189.85838 191.17977
 192.91815 195.02653 197.30291 199.67529 202.13367 204.62705 206.72843 208.58381
 210.22319 211.38158 211.62396 211.86534 211.81572 211.53410 211.18048 210.82386
 210.45424 210.17762 209.99901 209.87639 209.81777 210.16215 210.56153 210.96391
 211.77029 212.96167 214.22505 216.02144 217.96282 220.01920 222.12758 224.22396
 226.29734 228.39472 230.50510 232.62448 234.76687 236.95225 239.22163 241.60501
 244.23939 246.50377 248.51915 250.29753 251.72791 252.86430 253.69968 254.02906
 254.07944 253.86682 253.24020 252.20158 250.82096 248.99534 246.91773 244.76411
 242.56849 240.38587 238.21925 236.07163 233.94501 231.82539 229.86477 228.03516
 226.33154 224.81692 223.46030 222.24568 221.14106 220.11444 219.23182 218.38620
 217.64158 216.83497 215.94635 215.32373 214.78711 214.49481 213.80423 214.93788
 217.06808 218.04694 218.32500 218.18735 218.66713 221.24969 226.11615 230.34360
 233.50851 236.53358 239.92784 243.79524 247.79791 251.62367 254.65198 257.58063
 260.45581 263.30960 266.18716 268.89117 271.20691 273.29172 275.31622 277.06088
 278.68179 280.04883 281.14035 282.00677 282.71033 283.29568 283.83209 284.42020
 285.04300 285.43027 285.95465 286.79532
 366.78100 356.34861 345.79423 334.67384 323.09046 311.29807 299.18169 286.99830
 274.72392 262.63453 250.65715 239.97176 230.10738 221.22499 213.42061 206.43622
 200.28384 195.23545 191.83106 189.88668 188.93729 189.01491 189.86352 191.18514
 192.92375 195.03237 197.30898 199.68160 202.14021 204.63383 206.73544 208.59106
 210.23067 211.38929 211.63190 211.87351 211.82413 211.54274 211.18936 210.83297
 210.46359 210.18720 210.00882 209.88643 209.82805 210.17266 210.57228 210.97489
 211.78151 212.97312 214.23674 216.03335 217.97496 220.03158 222.14019 224.23681
 226.31042 228.40804 230.51865 232.63827 234.78088 236.96650 239.23611 241.61973
 244.25434 246.51896 248.53457 250.31319 251.74380 252.88041 253.71603 254.04564
 254.09626 253.88387 253.25749 252.21910 250.83872 249.01333 246.93595 244.78256
 242.58718 240.40479 238.23841 236.09102 233.96464 231.84525 229.88486 228.05548
 226.35209 224.83771 223.48132 222.26694 221.16255 220.13617 219.25378 218.40840
 217.66401 216.85763 215.96924 215.34686 214.81047 214.51013 213.80055 214.94736
 217.15808 218.19044 218.45168 218.25287 218.68599 221.24297 226.07608 230.23071
 233.33485 236.34061 239.78857 243.71306 247.81685 251.65041 254.56789 257.53430
 260.43256 263.30270 266.16611 268.86832 271.25427 273.38785 275.28082 276.98294
 278.59872 279.92920 280.99808 281.85434 282.54483 283.12924 283.75555 284.40247
 284.98541 285.33618 285.86487 286.71701
 366.78100 356.34907 345.79514 334.67521 323.09228 311.30035 299.18442 287.00149
 274.72756 262.63863 250.66170 239.97677 230.11284 221.23091 213.42698 206.44305
 200.29112 195.24319 191.83926 189.89533 188.94640 189.02447 189.87354 191.19561
 192.93468 195.04375 197.32082 199.69389 202.15296 204.64703 206.74910 208.60517
 210.24524 211.40431 211.64738 211.88945 211.84052 211.55959 211.20666 210.85073
 210.48180 210.20587 210.02794 209.90601 209.84808 210.19315 210.59322 210.99629
 211.80336 212.99543 214.25950 216.05657 217.99864 220.05571 222.16478 224.26185
 226.33592 228.43399 230.54506 232.66513 234.80820 236.99427 239.26434 241.64841
 244.28348 246.54855 248.56462 250.34369 251.77476 252.91183 253.74790 254.07797
 254.12904 253.91711 253.29118 252.25325 250.87332 249.04839 246.97146 244.81853
 242.62360 240.44167 238.27574 236.12881 234.00288 231.88395 229.92402 228.09509
 226.39216 224.87823 223.52230 222.30837 221.20444 220.17851 219.29658 218.45165
 217.70772 216.90179 216.01386 215.39193 214.85600 214.54124 213.79756 214.93362
 217.22139 218.34593 218.62595 218.37036 218.73732 221.25110 226.04280 230.12212
 233.16096 236.14479 239.63054 243.59845 247.82291 251.62865 254.55869 257.44424
 260.34470 263.23315 266.07962 268.76352 271.18146 273.33072 275.23438 276.91077
 278.44437 279.76355 280.84277 281.71909 282.42599 283.02542 283.68073 284.36475
 284.95575 285.28455 285.74991 286.59949
 366.78100 356.34848 345.79395 334.67343 323.08990 311.29738 299.18085 286.99733
 274.72281 262.63328 250.65576 239.97023 230.10571 221.22318 213.41866 206.43414
 200.28161 195.23309 191.82856 189.88404 188.93451 189.01199 189.86047 191.18194
 192.92042 195.02889 197.30537 199.67784 202.13632 204.62980 206.73127 208.58675
 210.22622 211.38470 211.62717 211.86865 211.81913 211.53760 211.18408 210.82755
 210.45803 210.18150 210.00298 209.88046 209.82193 210.16641 210.56588 210.96836
 211.77483 212.96631 214.22978 216.02626 217.96774 220.02421 222.13269 224.22916
 226.30264 228.40011 230.51059 232.63007 234.77254 236.95802 239.22749 241.61097
 244.24544 246.50992 248.52540 250.30387 251.73435 252.87082 253.70630 254.03577
 254.08625 253.87373 253.24720 252.20868 250.82815 249.00263 246.92510 244.77158
 242.57606 240.39353 238.22701 236.07948 233.95296 231.83343 229.87291 228.04339
 226.33986 224.82534 223.46881 222.25429 221.14976 220.12324 219.24072 218.39519
 217.65067 216.84414 215.95562 215.33309 214.79657 214.52072 213.86902 214.90782
 217.20317 218.43936 218.76103 218.48471 218.80026 221.26862 226.02524 230.05101
 233.03915 235.99365 239.49992 243.51819 247.84058 251.62883 254.62410 257.34546
 260.22922 263.13745 265.99609 268.66901 271.10703 273.38269 275.32565 277.00363
 278.47778 279.76608 280.83829 281.71585 282.41510 283.00516 283.67352 284.36368
 284.95157 285.24969 285.79089 286.63498
 366.78100 356.34693 345.79087 334.66880 323.08374 311.28967 299.17160 286.98654
 274.71047 262.61941 250.64034 239.95327 230.08721 221.20314 213.39708 206.41101
 200.25694 195.20688 191.80081 189.85475 188.90368 188.97961 189.82655 191.14648
 192.88341 194.99035 197.26528 199.63622 202.09315 204.58508 206.68502 208.53895
 210.17689 211.33382 211.57475 211.81469 211.76362 211.48056 211.12549 210.76742
 210.39636 210.11829 209.93823 209.81416 209.75409 210.09703 210.49496 210.89590
 211.70083 212.89076 214.15270 215.94763 217.88757 219.94250 222.04943 224.14437
 226.21630 228.31224 230.42117 232.53910 234.68004 236.86397 239.13190 241.51384
 244.14677 246.40971 248.42364 250.20057 251.62951 252.76444 253.59838 253.92631
 253.97524 253.76118 253.13311 252.09305 250.71098 248.88391 246.80485 244.64978
 242.45272 240.26865 238.10058 235.95152 233.82345 231.70239 229.74032 227.90925
 226.20419 224.68812 223.33006 222.11399 221.00792 219.97986 219.09579 218.24873
 217.50266 216.69459 215.80453 215.18046 214.64240 214.44611 213.98233 214.93292
 217.14650 218.44948 218.83173 218.54611 218.81645 221.26543 226.00528 229.99368
 232.94997 235.89334 239.42262 243.51202 247.87378 251.63812 254.66319 257.31815
 260.21591 263.15268 266.04007 268.61340 271.02203 273.39117 275.40375 277.09659
 278.53256 279.76913 280.80109 281.64548 282.31458 282.88159 283.54092 284.25656
 284.77109 285.03497 285.21548 285.66409
 366.78100 356.34582 345.78864 334.66546 323.07928 311.28410 299.16492 286.97874
 274.70156 262.60938 250.62920 239.94102 230.07384 221.18865 213.38147 206.39429
 200.23911 195.18793 191.78075 189.83357 188.88139 188.95621 189.80203 191.12085
 192.85667 194.96249 197.23631 199.60613 202.06195 204.55277 206.65159 208.50441
 210.14123 211.29705 211.53687 211.77569 211.72351 211.43933 211.08314 210.72396
 210.35178 210.07260 209.89142 209.76624 209.70506 210.04688 210.44370 210.84352
 211.64734 212.83616 214.09698 215.89080 217.82962 219.88344 221.98926 224.08308
 226.15390 228.24872 230.35654 232.47336 234.61318 236.79600 239.06282 241.44363
 244.07545 246.33727 248.35009 250.12591 251.55373 252.68755 253.52037 253.84719
 253.89501 253.67983 253.05065 252.00947 250.62629 248.79811 246.71793 244.56175
 242.36357 240.17839 238.00921 235.85903 233.72985 231.60767 229.64449 227.81231
 226.10612 224.58894 223.22976 222.01258 220.90540 219.87622 218.99104 218.14286
 217.39568 216.58650 215.69532 215.07014 214.53096 214.39308 214.06735 214.99100
 217.14372 218.43288 218.81194 218.55287 218.82111 221.25340 225.97246 229.91003
 232.84082 235.79135 239.36012 243.52899 247.88684 251.60718 254.68015 257.35739
 260.27472 263.24039 266.13409 268.60776 270.94617 273.32074 275.33749 277.02072
 278.42047 279.62256 280.62604 281.45584 282.12183 282.69705 283.35529 284.08463
 284.56235 284.83429 284.93668 285.22412
 366.78100 356.34464 345.78627 334.66191 323.07454 311.27818 299.15782 286.97045
 274.69209 262.59872 250.61736 239.92800 230.05963 221.17327 213.36490 206.37654
 200.22018 195.16781 191.75945 189.81108 188.85772 188.93136 189.77599 191.09363
 192.82826 194.93290 197.20554 199.57417 202.02881 204.51844 206.61608 208.46772
 210.10335 211.25799 211.49662 211.73426 211.68090 211.39553 211.03817 210.67780
 210.30444 210.02408 209.84171 209.71535 209.65298 209.99362 210.38925 210.78789
 211.59053 212.77816 214.03780 215.83043 217.76807 219.82071 221.92534 224.01798
 226.08761 228.18125 230.28789 232.40352 234.54216 236.72379 238.98943 241.36907
 243.99970 246.26034 248.27197 250.04661 251.47325 252.60588 253.43752 253.76315
 253.80979 253.59343 252.96306 251.92070 250.53633 248.70697 246.62561 244.46824
 242.26888 240.08251 237.91215 235.76079 233.63042 231.50706 229.54269 227.70933
 226.00197 224.48360 223.12324 221.90487 220.79651 219.76615 218.87978 218.03042
 217.28205 216.47169 215.57933 214.95296 214.41260 214.34009 214.16878 215.02452
 217.13960 218.48111 218.84366 218.51974 218.76794 221.22144 225.92969 229.82124
 232.72604 235.69720 239.31029 243.55005 247.89120 251.56418 254.66736 257.36862
 260.28232 263.25864 266.15723 268.63763 270.99814 273.27295 275.23352 276.92328
 278.29953 279.48334 280.47238 281.29871 281.96545 282.54709 283.20410 283.95230
 284.39517 284.72531 285.25177 286.10678
 366.78100 356.34300 345.78300 334.65700 323.06800 311.27000 299.14799 286.95899
 274.67899 262.58399 250.60099 239.90999 230.03999 221.15199 213.34199 206.35199
 200.19399 195.13999 191.72998 189.77998 188.82498 188.89698 189.73998 191.05598
 192.78898 194.89198 197.16298 199.52998 201.98298 204.47098 206.56697 208.41697
 210.05097 211.20397 211.44097 211.67697 211.62197 211.33497 210.97597 210.61397
 210.23897 209.95697 209.77296 209.64496 209.58096 209.91996 210.31396 210.71096
 211.51196 212.69796 213.95596 215.74696 217.68296 219.73396 221.83695 223.92795
 225.99595 228.08795 230.19295 232.30695 234.44395 236.62395 238.88795 241.26595
 243.89495 246.15395 248.16394 249.93694 251.36194 252.49294 253.32294 253.64694
 253.69194 253.47394 252.84194 251.79794 250.41194 248.58094 246.49793 244.33893
 242.13793 239.94993 237.77793 235.62493 233.49293 231.36793 229.40193 227.56693
 225.85793 224.33793 222.97592 221.75592 220.64592 219.61392 218.72592 217.87492
 217.12492 216.31292 215.41892 214.79092 214.24892 214.26283 214.29573 215.06987
 217.08281 218.52264 218.89986 218.50552 218.73691 221.20656 225.89861 229.75050
 232.63321 235.63368 239.28043 243.57990 247.89285 251.52203 254.62807 257.34738
 260.23642 263.20712 266.09711 268.63202 271.02017 273.21371 275.14975 276.86685
 278.23245 279.39682 280.37344 281.19977 281.86447 282.44299 283.13217 283.96075
 284.37048 284.61725 285.19989 286.07907
 366.78100 356.34172 345.78045 334.65317 323.06289 311.26362 299.14034 286.95006
 274.66878 262.57251 250.58823 239.89595 230.02468 221.13540 213.32412 206.33285
 200.17357 195.11829 191.70702 189.75574 188.79946 188.87018 189.71191 191.02663
 192.75835 194.86008 197.12980 199.49552 201.94725 204.43397 206.52869 208.37742
 210.01014 211.16186 211.39758 211.63231 211.57603 211.28775 210.92748 210.56420
 210.18792 209.90465 209.71937 209.59009 209.52482 209.86254 210.25526 210.65098
 211.45071 212.63543 213.89215 215.68188 217.61660 219.66632 221.76805 223.85777
 225.92449 228.01522 230.11894 232.23166 234.36738 236.54611 238.80883 241.18555
 243.81328 246.07100 248.07972 249.85145 251.27517 252.40489 253.23362 253.55634
 253.60006 253.38078 252.74751 251.70223 250.31495 248.48268 246.39840 244.23812
 242.03585 239.84657 237.67329 235.51902 233.38574 231.25946 229.29218 227.45591
 225.74563 224.22435 222.86108 221.63980 220.52852 219.49525 218.60597 217.75369
 217.00242 216.18914 215.29386 214.66458 214.12131 214.20525 214.40355 215.14552
 217.00941 218.52147 218.93732 218.48566 218.69183 221.18108 225.86749 229.68668
 232.55325 235.58315 239.26860 243.62204 247.91147 251.50978 254.61020 257.35913
 260.23599 263.17349 266.03317 268.60181 270.99545 273.20004 275.12497 276.84930
 278.22092 279.35135 280.29318 281.09860 281.74252 282.32660 283.18018 283.84338
 284.08395 284.66443 285.28510 286.17667
 366.78100 356.34136 345.77973 334.65209 323.06146 311.26182 299.13819 286.94755
 274.66592 262.56928 250.58464 239.89201 230.02037 221.13074 213.31910 206.32747
 200.16783 195.11220 191.70056 189.74893 188.79229 188.86265 189.70402 191.01838
 192.74975 194.85111 197.12048 199.48584 201.93721 204.42357 206.51793 208.36630
 209.99866 211.15003 211.38539 211.61976 211.56312 211.27449 210.91385 210.55022
 210.17358 209.88994 209.70431 209.57467 209.50904 209.84640 210.23877 210.63413
 211.43350 212.61786 213.87422 215.66359 217.59795 219.64732 221.74868 223.83805
 225.90441 227.99478 230.09814 232.21051 234.34587 236.52423 238.78660 241.16296
 243.79033 246.04769 248.05606 249.82742 251.25079 252.38015 253.20851 253.53088
 253.57424 253.35461 252.72097 251.67534 250.28770 248.45507 246.37043 244.20979
 242.00716 239.81752 237.64389 235.48925 233.35562 231.22898 229.26135 227.42471
 225.71408 224.19244 222.82880 221.60717 220.49553 219.46190 218.57226 217.71963
 216.96799 216.15436 215.25872 214.62908 214.08545 214.19893 214.46703 215.22253
 216.98793 218.50551 218.91711 218.41827 218.62360 221.13789 225.82690 229.61230
 232.46060 235.51834 239.25848 243.66660 247.93739 251.51608 254.61682 257.42413
 260.31458 263.22131 266.04053 268.60733 270.98492 273.20157 275.13068 276.85672
 278.23218 279.33868 280.24768 281.02838 281.63528 282.22678 283.13037 283.74173
 283.97418 284.56863 285.17981 286.06186
 366.78100 356.34252 345.78203 334.65555 323.06606 311.26758 299.14510 286.95561
 274.67513 262.57964 250.59616 239.90468 230.03419 221.14571 213.33523 206.34474
 200.18626 195.13177 191.72129 189.77081 188.81532 188.88684 189.72935 191.04487
 192.77739 194.87990 197.15042 199.51693 201.96945 204.45697 206.55248 208.40200
 210.03551 211.18803 211.42455 211.66006 211.60458 211.31709 210.95761 210.59513
 210.21964 209.93716 209.75268 209.62419 209.55971 209.89822 210.29174 210.68826
 211.48877 212.67429 213.93180 215.72232 217.65784 219.70835 221.81087 223.90138
 225.96890 228.06042 230.16493 232.27845 234.41496 236.59448 238.85800 241.23551
 243.86403 246.12254 248.13206 249.90458 251.32909 252.45961 253.28913 253.61264
 253.65716 253.43867 252.80619 251.76171 250.37522 248.54374 246.46025 244.30077
 242.09929 239.91080 237.73832 235.58483 233.45235 231.32687 229.36038 227.52490
 225.81541 224.29493 222.93245 221.71196 220.60148 219.56899 218.68051 217.82903
 217.07854 216.26606 215.37158 214.74309 214.20061 214.27679 214.45680 215.27916
 217.04198 218.53926 218.91571 218.30849 218.49040 221.05666 225.75104 229.47658
 232.30754 235.40295 239.23721 243.70219 247.95178 251.50697 254.62300 257.49173
 260.39578 263.28296 266.06747 268.62042 270.97812 273.17999 275.10989 276.85355
 278.23563 279.32593 280.20886 280.97263 281.57629 282.19263 283.10031 283.74789
 284.04028 284.63071 285.25964 286.15320
 366.78100 356.34362 345.78425 334.65887 323.07049 311.27311 299.15174 286.96336
 274.68398 262.58961 250.60723 239.91685 230.04747 221.16010 213.35072 206.36134
 200.20396 195.15059 191.74121 189.79183 188.83746 188.91008 189.75370 191.07032
 192.80395 194.90757 197.17919 199.54682 202.00044 204.48906 206.58568 208.43631
 210.07093 211.22455 211.46217 211.69880 211.64442 211.35804 210.99967 210.63829
 210.26391 209.98253 209.79916 209.67178 209.60840 209.94803 210.34265 210.74027
 211.54189 212.72852 213.98714 215.77876 217.71539 219.76701 221.87063 223.96225
 226.03088 228.12350 230.22912 232.34374 234.48137 236.66199 238.92661 241.30524
 243.93486 246.19448 248.20510 249.97873 251.40435 252.53597 253.36660 253.69122
 253.73684 253.51946 252.88809 251.84471 250.45933 248.62896 246.54658 244.38820
 242.18782 240.00045 237.82907 235.67669 233.54531 231.42094 229.45556 227.62118
 225.91281 224.39343 223.03205 221.81267 220.70330 219.67192 218.78454 217.93417
 217.18479 216.37341 215.48003 214.85266 214.31128 214.35526 214.45914 215.31375
 217.05515 218.54848 218.93954 218.23003 218.35258 220.96609 225.66637 229.32272
 232.14276 235.27614 239.21791 243.74184 247.97348 251.50157 254.61716 257.53659
 260.46939 263.33917 266.08762 268.61200 270.96567 273.14066 275.06207 276.81848
 278.20511 279.27686 280.14685 280.88510 281.46820 282.15121 283.05685 283.62711
 283.92313 284.39713 284.96561 285.72070
 366.78100 356.34131 345.77961 334.65192 323.06122 311.26153 299.13784 286.94714
 274.66545 262.56876 250.58406 239.89137 230.01967 221.12998 213.31829 206.32659
 200.16690 195.11121 191.69951 189.74782 188.79112 188.86143 189.70274 191.01704
 192.74835 194.84966 197.11896 199.48427 201.93557 204.42188 206.51619 208.36449
 209.99680 211.14810 211.38341 211.61772 211.56102 211.27233 210.91164 210.54794
 210.17125 209.88755 209.70186 209.57217 209.50647 209.84378 210.23609 210.63139
 211.43070 212.61500 213.87131 215.66062 217.59492 219.64423 221.74553 223.83484
 225.90115 227.99145 230.09476 232.20707 234.34237 236.52068 238.78298 241.15929
 243.78660 246.04390 248.05221 249.82352 251.24682 252.37613 253.20443 253.52674
 253.57005 253.35035 252.71666 251.67097 250.28327 248.45058 246.36588 244.20519
 242.00250 239.81280 237.63911 235.48441 233.35072 231.22403 229.25633 227.41964
 225.70895 224.18725 222.82356 221.60186 220.49017 219.45648 218.56678 217.71409
 216.96240 216.14870 215.25301 214.62331 214.07962 214.24989 214.65219 215.33771
 216.90378 218.50180 218.94368 218.23700 218.36400 220.97108 225.63390 229.23898
 232.05045 235.25125 239.25699 243.78600 247.97856 251.49146 254.63423 257.60992
 260.52097 263.36420 266.07474 268.57071 270.90689 273.08041 274.95187 276.74661
 278.12323 279.20398 280.08121 280.84280 281.47314 282.13171 282.98157 283.54764
 283.89957 284.30273 284.83762 285.59360
 366.78100 356.33888 345.77476 334.64465 323.05153 311.24941 299.12329 286.93018
 274.64606 262.54694 250.55982 239.86470 229.99059 221.09847 213.28435 206.29023
 200.12812 195.07000 191.65588 189.70176 188.74264 188.81053 189.64941 190.96129
 192.69017 194.78905 197.05594 199.41882 201.86770 204.35158 206.44347 208.28935
 209.91923 211.06811 211.30099 211.53288 211.47376 211.18264 210.81952 210.45341
 210.07429 209.78817 209.60005 209.46793 209.39982 209.73470 210.12458 210.51746
 211.31435 212.49623 213.75011 215.53699 217.46887 219.51576 221.61464 223.70152
 225.76540 227.85328 229.95417 232.06405 234.19693 236.37281 238.63270 241.00658
 243.63146 245.88634 247.89222 249.66111 251.08199 252.20887 253.03475 253.35464
 253.39552 253.17340 252.53728 251.48916 250.09905 248.26393 246.17681 244.01369
 241.80858 239.61646 237.44034 235.28322 233.14710 231.01799 229.04787 227.20875
 225.49563 223.97152 222.60540 221.38128 220.26716 219.23104 218.33893 217.48381
 216.72969 215.91357 215.01545 214.38334 213.83722 214.13657 214.84378 215.39793
 216.73204 218.37329 218.89888 218.28755 218.42448 220.99164 225.61234 229.17200
 231.98386 235.22343 239.28200 243.81902 247.97156 251.46397 254.60451 257.62341
 260.55447 263.39099 266.07782 268.54318 270.85043 272.99030 274.85449 276.67749
 278.08029 279.17441 280.06265 280.82382 281.44455 282.16083 283.07214 283.52512
 283.93124 284.35147 284.86673 285.61688
 366.78100 356.34078 345.77855 334.65033 323.05910 311.25888 299.13465 286.94343
 274.66120 262.56398 250.57875 239.88553 230.01330 221.12308 213.31085 206.31863
 200.15840 195.10218 191.68995 189.73773 188.78050 188.85028 189.69105 191.00483
 192.73560 194.83638 197.10516 199.46993 201.92071 204.40648 206.50026 208.34803
 209.97981 211.13058 211.36536 211.59913 211.54191 211.25268 210.89146 210.52723
 210.15001 209.86578 209.67956 209.54933 209.48311 209.81988 210.21166 210.60643
 211.40521 212.58898 213.84476 215.63354 217.56731 219.61609 221.71686 223.80564
 225.87141 227.96119 230.06396 232.17574 234.31051 236.48829 238.75006 241.12584
 243.75261 246.00939 248.01716 249.78794 251.21071 252.33949 253.16726 253.48904
 253.53181 253.31159 252.67736 251.63114 250.24292 248.40969 246.32447 244.16324
 241.96002 239.76979 237.59557 235.44034 233.30612 231.17889 229.21067 227.37344
 225.66222 224.13999 222.77577 221.55354 220.44132 219.40709 218.51687 217.66364
 216.91142 216.09719 215.20097 214.57074 214.02652 214.26074 214.81413 215.43628
 216.76773 218.35667 218.82504 218.16902 218.26462 220.87553 225.52896 229.06787
 231.81677 235.10941 239.24417 243.85077 247.98442 251.43172 254.57628 257.63971
 260.59164 263.43063 266.10843 268.55768 270.84030 272.95334 274.82410 276.62473
 278.09671 279.25186 280.17908 280.95465 281.67947 282.45044 283.09296 283.61908
 284.08463 284.65811 285.21930 285.93448
 366.78100 356.34426 345.78552 334.66077 323.07303 311.27629 299.15555 286.96780
 274.68906 262.59532 250.61358 239.92383 230.05509 221.16835 213.35961 206.37086
 200.21412 195.16138 191.75264 189.80389 188.85015 188.92341 189.76767 191.08492
 192.81918 194.92344 197.19570 199.56395 202.01821 204.50747 206.60473 208.45598
 210.09124 211.24550 211.48376 211.72101 211.66727 211.38153 211.02379 210.66304
 210.28930 210.00856 209.82582 209.69908 209.63633 209.97659 210.37185 210.77011
 211.57236 212.75962 214.01888 215.81114 217.74839 219.80065 221.90491 223.99717
 226.06642 228.15968 230.26594 232.38120 234.51945 236.70071 238.96597 241.34523
 243.97548 246.23574 248.24700 250.02126 251.44751 252.57977 253.41103 253.73629
 253.78254 253.56580 252.93506 251.89232 250.50757 248.67783 246.59609 244.43835
 242.23860 240.05186 237.88112 235.72938 233.59863 231.47489 229.51015 227.67641
 225.96867 224.44992 223.08918 221.87044 220.76170 219.73095 218.84421 217.99447
 217.24573 216.43498 215.54224 214.91550 214.37476 214.47652 214.74060 215.53738
 216.76956 218.05089 218.54372 218.06256 218.28952 220.83173 225.36369 229.05058
 231.71774 235.12195 239.29385 243.81616 247.89584 251.37849 254.58511 257.67871
 260.64319 263.47491 266.13293 268.57141 270.85022 272.89081 274.75241 276.52798
 278.03149 279.23074 280.17599 280.96060 281.78299 282.48376 283.26883 284.07019
 284.79095 285.43277 285.99347 286.70801
 366.78100 356.34480 345.78660 334.66240 323.07520 311.27900 299.15880 286.97160
 274.69340 262.60020 250.61900 239.92981 230.06161 221.17541 213.36721 206.37901
 200.22281 195.17061 191.76241 189.81421 188.86101 188.93481 189.77961 191.09741
 192.83221 194.93701 197.20981 199.57861 202.03341 204.52321 206.62101 208.47281
 210.10861 211.26342 211.50222 211.74002 211.68682 211.40162 211.04442 210.68422
 210.31102 210.03082 209.84862 209.72242 209.66022 210.00102 210.39682 210.79562
 211.59842 212.78622 214.04602 215.83882 217.77662 219.82942 221.93423 224.02703
 226.09683 228.19063 230.29743 232.41323 234.55203 236.73383 238.99963 241.37943
 244.01023 246.27103 248.28283 250.05763 251.48443 252.61723 253.44903 253.77483
 253.82163 253.60543 252.97523 251.93303 250.54884 248.71964 246.63844 244.48124
 242.28204 240.09584 237.92564 235.77444 233.64424 231.52104 229.55684 227.72364
 226.01644 224.49824 223.13804 221.91984 220.81164 219.78144 218.89524 218.04604
 217.29784 216.48765 215.59545 214.96925 214.42905 214.54597 214.86832 215.59697
 216.77841 217.97038 218.48944 218.18913 218.64383 221.05687 225.39545 229.00308
 231.73396 235.14111 239.34967 243.86491 247.89857 251.35260 254.57889 257.69141
 260.66318 263.49173 266.13763 268.57886 270.80869 272.77255 274.55728 276.29202
 277.78607 278.92712 279.95044 281.21780 282.41785 283.47955 284.44821 285.32574
 286.11499 286.81781 287.43179 288.21423
 366.78100 356.34149 345.77999 334.65248 323.06197 311.26247 299.13896 286.94846
 274.66695 262.57044 250.58594 239.89343 230.02192 221.13242 213.32091 206.32941
 200.16990 195.11439 191.70289 189.75138 188.79487 188.86537 189.70686 191.02136
 192.75285 194.85434 197.12384 199.48933 201.94082 204.42732 206.52181 208.37031
 210.00280 211.15429 211.38979 211.62428 211.56777 211.27927 210.91876 210.55526
 210.17875 209.89524 209.70974 209.58023 209.51472 209.85222 210.24471 210.64021
 211.43970 212.62419 213.88069 215.67018 217.60467 219.65417 221.75566 223.84516
 225.91165 228.00214 230.10564 232.21813 234.35362 236.53212 238.79461 241.17111
 243.79860 246.05609 248.06459 249.83608 251.25957 252.38907 253.21756 253.54006
 253.58355 253.36404 252.73054 251.68503 250.29752 248.46502 246.38051 244.22000
 242.01750 239.82799 237.65449 235.49998 233.36647 231.23997 229.27246 227.43595
 225.72545 224.20394 222.84044 221.61893 220.50742 219.47392 218.58441 217.73190
 216.98040 216.16689 215.27139 214.64188 214.09837 214.43233 215.15404 215.55673
 216.60583 217.93777 218.55144 218.27037 218.70325 221.12553 225.55907 228.99261
 231.77185 235.18747 239.36769 243.80545 247.78867 251.28415 254.55489 257.68954
 260.68167 263.52216 266.17722 268.62445 270.79355 272.67670 274.35358 276.08707
 277.62665 279.50928 281.22064 282.72333 284.02380 285.17438 286.22409 287.17505
 288.03036 288.79199 289.45737 290.30530
 366.78100 356.33854 345.77409 334.64363 323.05017 311.24771 299.12126 286.92780
 274.64334 262.54388 250.55643 239.86097 229.98651 221.09405 213.27960 206.28514
 200.12268 195.06422 191.64977 189.69531 188.73585 188.80339 189.64194 190.95348
 192.68202 194.78056 197.04711 199.40965 201.85819 204.34173 206.43328 208.27882
 209.90836 211.05690 211.28945 211.52099 211.46153 211.17007 210.80662 210.44016
 210.06070 209.77424 209.58579 209.45333 209.38487 209.71941 210.10896 210.50150
 211.29804 212.47958 213.73313 215.51967 217.45121 219.49775 221.59630 223.68284
 225.74638 227.83392 229.93447 232.04401 234.17655 236.35209 238.61164 240.98518
 243.60972 245.86426 247.86981 249.63835 251.05889 252.18543 253.01098 253.33052
 253.37106 253.14860 252.51215 251.46369 250.07323 248.23777 246.15032 243.98686
 241.78140 239.58895 237.41249 235.25503 233.11857 230.98912 229.01866 227.17920
 225.46574 223.94129 222.57483 221.35037 220.23591 219.19946 218.30700 217.45154
 216.69708 215.88063 214.98217 214.34971 213.80325 214.32623 215.37508 215.52809
 216.31718 217.80754 218.63673 218.39563 218.74088 221.10579 225.56602 229.01389
 231.79683 235.21999 239.40488 243.82896 247.78496 251.27202 254.56635 257.72992
 260.74310 263.59598 266.25330 268.67719 270.80359 272.66763 274.29169 276.18985
 278.34756 280.38007 282.13882 283.68317 285.01965 286.20209 287.28091 288.25824
 289.13721 289.91998 290.60376 291.47519
 366.78100 356.33754 345.77208 334.64062 323.04616 311.24270 299.11524 286.92077
 274.63531 262.53485 250.54639 239.84993 229.97447 221.08101 213.26555 206.27009
 200.10663 195.04717 191.63171 189.67625 188.71579 188.78232 189.61986 190.93040
 192.65794 194.75548 197.02102 199.38256 201.83010 204.31264 206.40318 208.24772
 209.87626 211.02380 211.25534 211.48587 211.42541 211.13295 210.76849 210.40103
 210.02057 209.73311 209.54365 209.41019 209.34073 209.67427 210.06281 210.45435
 211.24988 212.43042 213.68296 215.46850 217.39904 219.44458 221.54212 223.62766
 225.69020 227.77674 229.87628 231.98482 234.11636 236.29090 238.54943 240.92197
 243.54551 245.79905 247.80359 249.57113 250.99067 252.11621 252.94075 253.25929
 253.29883 253.07537 252.43791 251.38844 249.99698 248.16052 246.07206 243.90760
 241.70114 239.50768 237.33022 235.17176 233.03430 230.90384 228.93238 227.09192
 225.37746 223.85199 222.48453 221.25907 220.14361 219.10615 218.21269 217.35623
 216.60077 215.78331 214.88385 214.25039 213.70293 214.30536 215.51501 215.58253
 216.11328 217.64180 218.63649 218.48584 218.84578 221.07437 225.58342 228.99765
 231.73657 235.15187 239.37901 243.83865 247.78311 251.27036 254.57384 257.75516
 260.77878 263.63031 266.26956 268.63788 270.71448 272.57010 274.16232 276.23343
 278.50586 280.52997 282.28149 283.81946 285.15042 286.32800 287.40234 288.37564
 289.25101 290.03052 290.71152 291.57932
 366.78100 356.33644 345.76987 334.63731 323.04175 311.23718 299.10862 286.91306
 274.62650 262.52493 250.53537 239.83781 229.96124 221.06668 213.25012 206.25355
 200.08899 195.02843 191.61187 189.65530 188.69374 188.75918 189.59561 190.90505
 192.63149 194.72792 196.99236 199.35280 201.79924 204.28067 206.37011 208.21355
 209.84098 210.98742 211.21786 211.44729 211.38573 211.09217 210.72660 210.35804
 209.97648 209.68792 209.49735 209.36279 209.29223 209.62466 210.01210 210.40254
 211.19697 212.37641 213.62785 215.41229 217.34172 219.38616 221.48260 223.56703
 225.62847 227.71391 229.81234 231.91978 234.05022 236.22366 238.48109 240.85253
 243.47497 245.72740 247.73084 249.49728 250.91571 252.04015 252.86359 253.18102
 253.21946 252.99490 252.35634 251.30577 249.91321 248.07565 245.98608 243.82052
 241.61296 239.41839 237.23983 235.08027 232.94171 230.81014 228.83758 226.99602
 225.28045 223.75389 222.38533 221.15876 220.04220 219.00364 218.10908 217.25151
 216.49495 215.67639 214.77582 214.14126 213.59270 214.29440 215.65276 215.61198
 215.89267 217.49504 218.56418 218.46556 218.96043 221.22185 225.49338 228.88132
 231.58670 235.02184 239.35837 243.80630 247.74341 251.29489 254.66046 257.86777
 260.88870 263.72321 266.33679 268.64542 270.74841 272.59970 274.24002 276.29044
 278.39017 280.18994 281.74738 283.11490 284.29837 285.34546 286.30075 287.16617
 287.94455 288.63766 289.24319 290.01483
 366.78100 356.33700 345.77100 334.63900 323.04399 311.23999 299.11199 286.91699
 274.63099 262.52999 250.54099 239.84399 229.96798 221.07398 213.25798 206.26198
 200.09798 195.03798 191.62198 189.66597 188.70497 188.77097 189.60797 190.91797
 192.64497 194.74197 197.00696 199.36796 201.81496 204.29696 206.38696 208.23096
 209.85896 211.00596 211.23695 211.46695 211.40595 211.11295 210.74795 210.37995
 209.99895 209.71094 209.52094 209.38694 209.31694 209.64994 210.03794 210.42894
 211.22394 212.40393 213.65593 215.44093 217.37093 219.41593 221.51293 223.59793
 225.65992 227.74592 229.84492 231.95292 234.08392 236.25792 238.51592 240.88791
 243.51091 245.76391 247.76791 249.53491 250.95391 252.07891 252.90291 253.22090
 253.25990 253.03590 252.39790 251.34790 249.95590 248.11890 246.02989 243.86489
 241.65789 239.46389 237.28589 235.12689 232.98889 230.85789 228.88588 227.04488
 225.32988 223.80388 222.43588 221.20988 220.09388 219.05587 218.16187 217.30487
 216.54887 215.73087 214.83087 214.19687 213.64886 214.34909 215.72859 215.70837
 215.60005 217.12746 218.37328 218.38599 218.96863 221.32770 225.57022 228.96773
 231.64519 235.10614 239.44156 243.89725 247.87756 251.44504 254.81480 258.02966
 261.04922 263.88934 266.53809 268.86905 270.91211 272.67966 274.21112 275.91595
 277.39572 278.66409 279.76166 280.72540 281.55942 282.29733 282.97058 283.58047
 284.12900 284.61749 285.04419 285.58801
 366.78100 356.33824 345.77348 334.64273 323.04897 311.24621 299.11945 286.92569
 274.64094 262.54118 250.55342 239.85766 229.98291 221.09015 213.27539 206.28063
 200.11787 195.05912 191.64436 189.68960 188.72984 188.79708 189.63533 190.94657
 192.67481 194.77305 197.03929 199.40154 201.84978 204.33302 206.42426 208.26950
 209.89875 211.04699 211.27923 211.51047 211.45072 211.15896 210.79520 210.42844
 210.04868 209.76193 209.57317 209.44041 209.37165 209.70589 210.09514 210.48738
 211.28362 212.46486 213.71810 215.50435 217.43559 219.48183 221.58007 223.66631
 225.72956 227.81680 229.91704 232.02628 234.15853 236.33377 238.59301 240.96625
 243.59049 245.84474 247.84998 249.61822 251.03846 252.16470 252.98995 253.30919
 253.34943 253.12667 252.48991 251.44116 250.05040 248.21464 246.12688 243.96312
 241.75737 239.56461 237.38785 235.23009 233.09334 230.96358 228.99282 227.15306
 225.43930 223.91455 222.54779 221.32303 220.20827 219.17151 218.27876 217.42300
 216.66824 215.85148 214.95272 214.31997 213.77321 214.42352 215.76906 215.85788
 215.58871 216.84464 218.21196 218.32600 218.95451 221.31760 225.60579 229.01466
 231.70203 235.15118 239.47934 243.94124 247.90271 251.44466 254.80394 258.01617
 261.03207 263.88257 266.55597 268.93796 271.03714 272.84784 274.36365 276.99335
 279.52368 281.69257 283.56937 285.21732 286.64349 287.90530 289.05652 290.09943
 291.03741 291.87268 292.60236 293.53226
 366.78100 356.33718 345.77137 334.63955 323.04474 311.24092 299.11311 286.91829
 274.63248 262.53166 250.54284 239.84603 229.97021 221.07640 213.26058 206.26477
 200.10095 195.04114 191.62532 189.66951 188.70869 188.77487 189.61206 190.92224
 192.64943 194.74661 197.01180 199.37298 201.82017 204.30235 206.39253 208.23672
 209.86490 211.01209 211.24327 211.47346 211.41264 211.11983 210.75501 210.38720
 210.00638 209.71856 209.52875 209.39493 209.32512 209.65830 210.04649 210.43767
 211.23286 212.41304 213.66522 215.45041 217.38059 219.42578 221.52296 223.60815
 225.67033 227.75652 229.85570 231.96389 234.09507 236.26925 238.52744 240.89962
 243.52281 245.77599 247.78018 249.54736 250.96655 252.09173 252.91591 253.23410
 253.27328 253.04947 252.41165 251.36184 249.97002 248.13321 246.04439 243.87958
 241.67276 239.47894 237.30113 235.14231 233.00450 230.87368 228.90187 227.06105
 225.34624 223.82042 222.45260 221.22679 220.11097 219.07316 218.17934 217.32253
 216.56671 215.74890 214.84908 214.21527 213.66745 214.40231 215.89270 215.85376
 215.56155 216.77914 218.17709 218.33922 218.93874 221.26715 225.53668 228.93159
 231.62874 235.13176 239.47691 243.92114 247.84290 251.37590 254.75577 257.98175
 260.99503 263.83817 266.47403 268.81082 270.92294 272.73492 274.42538 277.12872
 279.77466 282.04260 284.00513 285.72839 287.21973 288.53915 289.74295 290.83350
 291.81433 292.68777 293.45078 294.42316
 366.78100 356.33718 345.77137 334.63955 323.04473 311.24092 299.11310 286.91828
 274.63247 262.53165 250.54283 239.84602 229.97020 221.07638 213.26057 206.26475
 200.10093 195.04112 191.62530 189.66948 188.70867 188.77485 189.61203 190.92222
 192.64940 194.74658 197.01177 199.37295 201.82013 204.30232 206.39250 208.23668
 209.86486 211.01205 211.24323 211.47341 211.41260 211.11978 210.75496 210.38715
 210.00633 209.71851 209.52870 209.39488 209.32506 209.65825 210.04643 210.43761
 211.23280 212.41298 213.66516 215.45035 217.38053 219.42571 221.52290 223.60808
 225.67026 227.75645 229.85563 231.96381 234.09500 236.26918 238.52736 240.89955
 243.52273 245.77591 247.78010 249.54728 250.96646 252.09165 252.91583 253.23401
 253.27320 253.04938 252.41156 251.36175 249.96993 248.13311 246.04430 243.87948
 241.67266 239.47885 237.30103 235.14221 233.00440 230.87358 228.90176 227.06095
 225.34613 223.82031 222.45250 221.22668 220.11086 219.07304 218.17923 217.32241
 216.56659 215.74878 214.84896 214.21514 213.66733 214.43050 215.98775 215.84491
 215.35997 216.60654 218.03160 218.30269 218.97482 221.27596 225.51129 228.90532
 231.59468 235.12486 239.50716 243.95193 247.91322 251.49026 254.90553 258.15689
 261.16919 263.99115 266.60010 268.89801 270.99344 272.78525 274.57312 277.37738
 279.95483 282.16409 284.07587 285.75452 287.20724 288.49255 289.66519 290.72754
 291.68298 292.53381 293.27710 294.22430
 366.78100 356.34053 345.77806 334.64959 323.05812 311.25765 299.13318 286.94172
 274.65925 262.56178 250.57631 239.88284 230.01037 221.11990 213.30743 206.31496
 200.15449 195.09802 191.68555 189.73308 188.77562 188.84515 189.68568 190.99921
 192.72974 194.83027 197.09880 199.46333 201.91386 204.39939 206.49292 208.34045
 209.97198 211.12251 211.35705 211.59058 211.53311 211.24364 210.88217 210.51770
 210.14023 209.85576 209.66929 209.53882 209.47235 209.80888 210.20041 210.59495
 211.39348 212.57701 213.83254 215.62107 217.55460 219.60313 221.70366 223.79219
 225.85772 227.94725 230.04978 232.16131 234.29585 236.47338 238.73491 241.11044
 243.73697 245.99350 248.00103 249.77156 251.19409 252.32262 253.15015 253.47168
 253.51421 253.29374 252.65928 251.61281 250.22434 248.39087 246.30540 244.14393
 241.94046 239.74999 237.57552 235.42005 233.28558 231.15811 229.18964 227.35218
 225.64071 224.11824 222.75377 221.53130 220.41883 219.38436 218.49389 217.64042
 216.88795 216.07348 215.17701 214.54654 214.00208 214.59827 215.93988 216.02211
 215.30989 216.30788 217.66406 218.01740 218.90376 221.33650 225.57063 228.98506
 231.71881 235.28308 239.63142 244.09624 248.07468 251.64015 255.06535 258.31256
 261.32599 264.14645 266.75540 269.06723 271.16635 273.02054 274.85202 277.27252
 279.78931 281.95432 283.82776 285.47281 286.89642 288.15598 289.30515 290.34619
 291.28250 292.11627 292.84467 293.77289
 366.78100 356.34156 345.78012 334.65267 323.06223 311.26279 299.13935 286.94891
 274.66747 262.57102 250.58658 239.89414 230.02270 221.13326 213.32182 206.33037
 200.17093 195.11549 191.70405 189.75261 188.79617 188.86672 189.70828 191.02284
 192.75440 194.85596 197.12552 199.49107 201.94263 204.42919 206.52375 208.37231
 210.00486 211.15642 211.39198 211.62654 211.57010 211.28166 210.92121 210.55777
 210.18133 209.89789 209.71245 209.58301 209.51756 209.85512 210.24768 210.64324
 211.44280 212.62736 213.88391 215.67347 217.60803 219.65759 221.75915 223.84871
 225.91526 228.00582 230.10938 232.22194 234.35750 236.53606 238.79861 241.17517
 243.80273 246.06029 248.06885 249.84040 251.26396 252.39352 253.22208 253.54464
 253.58820 253.36875 252.73531 251.68987 250.30243 248.46999 246.38555 244.22510
 242.02266 239.83322 237.65978 235.50534 233.37190 231.24545 229.27801 227.44157
 225.73113 224.20969 222.84625 221.62480 220.51336 219.47992 218.59048 217.73804
 216.98659 216.17315 215.27771 214.64827 214.10483 214.66261 215.94292 216.20448
 215.43248 216.04907 217.18806 217.66443 218.85249 221.57359 225.56038 229.06856
 231.80119 235.34560 239.62393 244.02301 248.02373 251.64302 255.05820 258.29599
 261.29984 264.07764 266.66367 268.99991 271.12442 273.11642 275.02017 276.97583
 278.94186 280.76813 282.39441 283.82242 285.05823 286.15161 287.14917 288.05289
 288.86566 289.58945 290.22174 291.02753
 366.78100 356.34028 345.77756 334.64885 323.05713 311.25641 299.13169 286.93997
 274.65725 262.55954 250.57382 239.88010 230.00738 221.11666 213.30394 206.31123
 200.15051 195.09379 191.68107 189.72835 188.77063 188.83992 189.68020 190.99348
 192.72376 194.82404 197.09232 199.45661 201.90689 204.39217 206.48545 208.33273
 209.96402 211.11430 211.34858 211.58186 211.52414 211.23442 210.87271 210.50799
 210.13027 209.84555 209.65883 209.52811 209.46140 209.79768 210.18896 210.58324
 211.38152 212.56480 213.82009 215.60837 217.54165 219.58993 221.69021 223.77850
 225.84378 227.93306 230.03534 232.14662 234.28090 236.45819 238.71947 241.09475
 243.72103 245.97731 247.98459 249.75488 251.17716 252.30544 253.13272 253.45400
 253.49628 253.27557 252.64085 251.59413 250.20541 248.37169 246.28597 244.12426
 241.92054 239.72982 237.55510 235.39938 233.26467 231.13695 229.16823 227.33051
 225.61879 224.09607 222.73136 221.50864 220.39592 219.36120 218.47048 217.61676
 216.86405 216.04933 215.15261 214.52189 213.97717 214.62625 216.07118 216.23529
 215.41544 215.95403 217.06839 217.49419 218.79782 221.59547 225.58617 229.01534
 231.70375 235.28665 239.60989 244.00415 248.00577 251.64133 255.07249 258.32355
 261.31061 264.06036 266.64105 268.93973 271.05389 273.06497 275.00778 276.87637
 278.37274 280.15921 281.84244 283.32040 284.59946 285.73111 286.76355 287.69888
 288.54013 289.28925 289.94363 290.77762
 366.78100 356.33978 345.77656 334.64734 323.05512 311.25390 299.12868 286.93646
 274.65324 262.55502 250.56880 239.87458 230.00136 221.11014 213.29692 206.30370
 200.14248 195.08526 191.67204 189.71882 188.76060 188.82938 189.66916 190.98194
 192.71172 194.81150 197.07928 199.44306 201.89284 204.37762 206.47040 208.31718
 209.94796 211.09774 211.33152 211.56430 211.50608 211.21586 210.85363 210.48841
 210.11019 209.82497 209.63775 209.50653 209.43931 209.77509 210.16587 210.55965
 211.35743 212.54021 213.79499 215.58277 217.51555 219.56333 221.66311 223.75089
 225.81567 227.90445 230.00623 232.11701 234.25079 236.42757 238.68835 241.06313
 243.68891 245.94469 247.95147 249.72125 251.14303 252.27081 253.09759 253.41837
 253.46015 253.23893 252.60371 251.55649 250.16727 248.33305 246.24683 244.08461
 241.88039 239.68917 237.51395 235.35773 233.22251 231.09429 229.12507 227.28685
 225.57463 224.05141 222.68619 221.46297 220.34975 219.31453 218.42331 217.56909
 216.81587 216.00065 215.10343 214.47221 213.92699 214.62657 216.16582 216.25139
 215.28883 215.78372 216.93781 217.32030 218.71611 221.58752 225.68842 229.01572
 231.72488 235.33604 239.66943 244.06763 248.11148 251.80153 255.26566 258.53424
 261.50793 264.24341 266.79932 269.06860 271.15796 273.14731 275.09348 276.86890
 278.14322 280.06946 281.82721 283.37064 284.70633 285.88809 286.96625 287.94299
 288.82147 289.60376 290.28717 291.15805
 366.78100 356.34088 345.77875 334.65063 323.05951 311.25938 299.13526 286.94414
 274.66201 262.56489 250.57977 239.88665 230.01452 221.12440 213.31228 206.32015
 200.16003 195.10391 191.69178 189.73966 188.78254 188.85241 189.69329 191.00717
 192.73804 194.83892 197.10780 199.47267 201.92355 204.40943 206.50330 208.35118
 209.98306 211.13394 211.36881 211.60269 211.54557 211.25644 210.89532 210.53120
 210.15407 209.86995 209.68383 209.55370 209.48758 209.82446 210.21633 210.61121
 211.41009 212.59396 213.84984 215.63872 217.57259 219.62147 221.72235 223.81123
 225.87710 227.96698 230.06986 232.18173 234.31661 236.49449 238.75636 241.13224
 243.75912 246.01599 248.02387 249.79475 251.21762 252.34650 253.17438 253.49625
 253.53913 253.31901 252.68488 251.63876 250.25064 248.41752 246.33239 244.17127
 241.96815 239.77802 237.60390 235.44878 233.31465 231.18753 229.21941 227.38228
 225.67116 224.14904 222.78491 221.56279 220.45067 219.41654 218.52642 217.67330
 216.92117 216.10705 215.21093 214.58081 214.03668 214.69554 216.17537 216.35826
 215.27721 215.56895 216.68213 217.08121 218.57503 221.56187 225.71280 229.00208
 231.72037 235.37445 239.73700 244.15271 248.23163 251.95370 255.44092 258.72250
 261.70688 264.43912 266.98602 269.24127 271.31549 273.30515 275.24811 276.94952
 278.15753 280.10767 281.90762 283.48813 284.85593 286.06607 287.17014 288.17035
 289.06992 289.87100 290.57083 291.46265
 366.78100 356.34182 345.78065 334.65347 323.06330 311.26412 299.14095 286.95077
 274.66960 262.57342 250.58925 239.89707 230.02589 221.13672 213.32554 206.33437
 200.17519 195.12002 191.70884 189.75767 188.80149 188.87232 189.71414 191.02896
 192.76079 194.86261 197.13244 199.49826 201.95009 204.43691 206.53174 208.38056
 210.01339 211.16521 211.40103 211.63586 211.57968 211.29151 210.93133 210.56816
 210.19198 209.90881 209.72363 209.59446 209.52928 209.86710 210.25993 210.65575
 211.45558 212.64040 213.89723 215.68705 217.62188 219.67170 221.77353 223.86335
 225.93017 228.02100 230.12482 232.23765 234.37347 236.55230 238.81512 241.19195
 243.81977 246.07760 248.08642 249.85824 251.28207 252.41189 253.24072 253.56354
 253.60737 253.38819 252.75502 251.70984 250.32267 248.49049 246.40631 244.24614
 242.04396 239.85479 237.68161 235.52744 233.39426 231.26809 229.30091 227.46474
 225.75456 224.23338 222.87021 221.64903 220.53786 219.50468 218.61551 217.76333
 217.01216 216.19898 215.30381 214.67463 214.13145 214.75465 216.17273 216.45459
 215.37709 215.40660 216.40315 216.88499 218.44420 221.53479 225.64136 228.94646
 231.66978 235.38924 239.79160 244.21706 248.29726 252.01419 255.49449 258.76395
 261.76389 264.51913 267.09915 269.40353 271.51791 273.55170 275.52454 277.21240
 278.29196 280.01605 281.81766 283.39960 284.76865 285.97989 287.08496 288.08609
 288.98648 289.78830 290.48874 291.38138
 366.78100 356.34200 345.78099 334.65399 323.06398 311.26498 299.14197 286.95197
 274.67096 262.57496 250.59095 239.89895 230.02794 221.13894 213.32793 206.33693
 200.17792 195.12292 191.71192 189.76091 188.80491 188.87590 189.71790 191.03289
 192.76489 194.86688 197.13688 199.50287 201.95487 204.44186 206.53686 208.38585
 210.01885 211.17084 211.40684 211.64184 211.58583 211.29783 210.93782 210.57482
 210.19881 209.91581 209.73080 209.60180 209.53679 209.87479 210.26778 210.66378
 211.46377 212.64877 213.90576 215.69576 217.63076 219.68075 221.78275 223.87274
 225.93974 228.03073 230.13473 232.24772 234.38372 236.56271 238.82571 241.20270
 243.83070 246.08869 248.09769 249.86968 251.29368 252.42368 253.25267 253.57567
 253.61966 253.40066 252.76765 251.72265 250.33564 248.50364 246.41963 244.25963
 242.05762 239.86862 237.69561 235.54161 233.40860 231.28260 229.31559 227.47959
 225.76959 224.24858 222.88558 221.66457 220.55357 219.52056 218.63156 217.77955
 217.02855 216.21554 215.32054 214.69153 214.14853 214.77438 216.19504 216.50226
 215.48082 215.29312 216.15213 216.70404 218.32013 221.48080 225.56488 228.90404
 231.63258 235.42976 239.87338 244.30916 248.37959 252.07257 255.51797 258.74194
 261.72336 264.50128 267.12579 269.50650 271.69168 273.77933 275.73694 277.40546
 278.55960 279.98035 281.68964 283.27744 284.65152 285.86725 286.97641 287.98123
 288.88495 289.68973 290.39276 291.28870
 366.78100 356.34260 345.78219 334.65579 323.06639 311.26798 299.14558 286.95618
 274.67577 262.58037 250.59697 239.90556 230.03516 221.14676 213.33636 206.34595
 200.18755 195.13315 191.72274 189.77234 188.81694 188.88853 189.73113 191.04673
 192.77932 194.88192 197.15252 199.51911 201.97171 204.45931 206.55490 208.40450
 210.03810 211.19069 211.42729 211.66289 211.60748 211.32008 210.96068 210.59827
 210.22287 209.94047 209.75607 209.62766 209.56326 209.90186 210.29545 210.69205
 211.49265 212.67824 213.93584 215.72644 217.66203 219.71263 221.81523 223.90582
 225.97342 228.06502 230.16961 232.28321 234.41981 236.59940 238.86300 241.24060
 243.86919 246.12779 248.13739 249.90999 251.33458 252.46518 253.29478 253.61837
 253.66297 253.44457 252.81216 251.76776 250.38136 248.54995 246.46655 244.30715
 242.10574 239.91734 237.74494 235.59153 233.45913 231.33373 229.36732 227.53192
 225.82252 224.30211 222.93971 221.71931 220.60890 219.57650 218.68810 217.83670
 217.08629 216.27389 215.37949 214.75108 214.20868 214.81494 216.19475 216.54192
 215.60960 215.26698 215.95155 216.50485 218.15193 221.36623 225.46410 228.81186
 231.60558 235.48097 239.94902 244.39194 248.47159 252.17259 255.61813 258.81454
 261.76538 264.53006 267.16644 269.58554 271.81192 273.91006 275.81964 277.41580
 278.54254 280.04230 281.72943 283.28799 284.63681 285.83017 286.91891 287.90527
 288.79236 289.58234 290.27243 291.15189
 366.78100 356.34375 345.78451 334.65926 323.07101 311.27376 299.15252 286.96427
 274.68502 262.59077 250.60853 239.91828 230.04903 221.16178 213.35254 206.36329
 200.20604 195.15279 191.74355 189.79430 188.84005 188.91281 189.75656 191.07331
 192.80706 194.91082 197.18257 199.55032 202.00407 204.49283 206.58958 208.44033
 210.07508 211.22884 211.46659 211.70334 211.64910 211.36285 211.00460 210.64335
 210.26911 209.98786 209.80461 209.67736 209.61412 209.95387 210.34862 210.74637
 211.54813 212.73488 213.99363 215.78538 217.72214 219.77389 221.87764 223.96940
 226.03815 228.13090 230.23665 232.35141 234.48916 236.66991 238.93466 241.31342
 243.94317 246.20292 248.21367 249.98743 251.41318 252.54493 253.37569 253.70044
 253.74619 253.52894 252.89770 251.85445 250.46920 248.63895 246.55671 244.39846
 242.19821 240.01096 237.83972 235.68747 233.55622 231.43197 229.46673 227.63248
 225.92423 224.40499 223.04374 221.82449 220.71524 219.68400 218.79675 217.94650
 217.19725 216.38601 215.49276 214.86551 214.32426 214.88322 216.16385 216.56033
 215.77528 215.36617 215.82120 216.20871 217.93231 221.22153 225.38054 228.73814
 231.60001 235.53206 240.01817 244.47292 248.56345 252.28386 255.73920 258.92111
 261.84952 264.61090 267.26254 269.70367 271.93768 274.01968 275.85010 277.36850
 278.56757 280.19266 281.92398 283.48367 284.83344 286.02765 287.11719 288.10422
 288.99197 289.78250 290.47308 291.35318
 366.78100 356.34496 345.78691 334.66287 323.07582 311.27978 299.15973 286.97269
 274.69465 262.60160 250.62056 239.93151 230.06347 221.17743 213.36938 206.38134
 200.22529 195.17325 191.76520 189.81716 188.86412 188.93807 189.78303 191.10098
 192.83594 194.94090 197.21385 199.58281 202.03776 204.52772 206.62567 208.47763
 210.11359 211.26854 211.50750 211.74545 211.69241 211.40736 211.05032 210.69028
 210.31723 210.03719 209.85514 209.72910 209.66706 210.00801 210.40397 210.80292
 211.60588 212.79383 214.05379 215.84675 217.78470 219.83766 221.94261 224.03557
 226.10552 228.19948 230.30644 232.42239 234.56135 236.74330 239.00926 241.38922
 244.02017 246.28113 248.29308 250.06804 251.49499 252.62795 253.45991 253.78586
 253.83282 253.61677 252.98673 251.94469 250.56064 248.73160 246.65055 244.49351
 242.29446 240.10842 237.93838 235.78733 233.65729 231.53424 229.57020 227.73715
 226.03011 224.51207 223.15202 221.93398 220.82593 219.79589 218.90985 218.06080
 217.31276 216.50271 215.61067 214.98462 214.44458 214.95641 216.13036 216.52852
 215.92023 215.56711 215.79987 215.92886 217.69846 221.04614 225.29341 228.63011
 231.59152 235.56546 240.06534 244.52020 248.62097 252.36832 255.83531 259.00540
 261.90610 264.67569 267.34897 269.81717 272.06665 274.11969 275.83832 277.29733
 278.68439 280.54684 282.32114 283.87906 285.22733 286.42020 287.50851 288.49445
 289.38120 290.17084 290.86066 291.73975
 366.78100 356.34533 345.78766 334.66400 323.07733 311.28166 299.16199 286.97533
 274.69766 262.60499 250.62432 239.93566 230.06799 221.18232 213.37465 206.38699
 200.23132 195.17965 191.77198 189.82432 188.87165 188.94598 189.79131 191.10964
 192.84498 194.95031 197.22364 199.59297 202.04831 204.53864 206.63697 208.48930
 210.12564 211.28097 211.52030 211.75863 211.70597 211.42130 211.06463 210.70496
 210.33230 210.05263 209.87096 209.74529 209.68363 210.02496 210.42129 210.82062
 211.62395 212.81229 214.07262 215.86595 217.80428 219.85762 221.96295 224.05628
 226.12661 228.22095 230.32828 232.44461 234.58394 236.76628 239.03261 241.41294
 244.04427 246.30561 248.31794 250.09327 251.52060 252.65393 253.48627 253.81260
 253.85993 253.64426 253.01460 251.97293 250.58926 248.76059 246.67993 244.52326
 242.32459 240.13892 237.96926 235.81859 233.68892 231.56625 229.60259 227.76992
 226.06325 224.54558 223.18591 221.96825 220.86058 219.83091 218.94524 218.09658
 217.34891 216.53924 215.64757 215.02191 214.48224 214.98843 216.12769 216.45059
 215.96309 215.73660 215.90933 215.76788 217.52246 220.89452 225.19107 228.51512
 231.54344 235.56871 240.10376 244.57413 248.67593 252.43265 255.90353 259.04776
 261.91983 264.69043 267.39551 269.90918 272.20853 274.31055 276.01056 277.37683
 279.05850 281.06305 282.85245 284.42368 285.78345 286.98648 288.08408 289.07843
 289.97272 290.76910 291.46481 292.35141
 366.78100 356.34533 345.78766 334.66398 323.07731 311.28164 299.16197 286.97529
 274.69762 262.60495 250.62428 239.93561 230.06793 221.18226 213.37459 206.38692
 200.23124 195.17957 191.77190 189.82423 188.87156 188.94588 189.79121 191.10954
 192.84487 194.95020 197.22352 199.59285 202.04818 204.53851 206.63683 208.48916
 210.12549 211.28082 211.52015 211.75847 211.70580 211.42113 211.06446 210.70478
 210.33211 210.05244 209.87077 209.74510 209.68342 210.02475 210.42108 210.82041
 211.62373 212.81206 214.07239 215.86572 217.80405 219.85737 221.96270 224.05603
 226.12636 228.22069 230.32801 232.44434 234.58367 236.76600 239.03232 241.41265
 244.04398 246.30531 248.31764 250.09296 251.52029 252.65362 253.48595 253.81227
 253.85960 253.64393 253.01426 251.97259 250.58891 248.76024 246.67957 244.52290
 242.32422 240.13855 237.96888 235.81821 233.68854 231.56586 229.60219 227.76952
 226.06285 224.54518 223.18550 221.96783 220.86016 219.83049 218.94481 218.09614
 217.34847 216.53880 215.64713 215.02145 214.48178 214.98618 216.12381 216.44058
 215.97969 215.75250 215.85515 215.76868 217.49660 220.88580 225.10075 228.48586
 231.50008 235.58183 240.16919 244.65317 248.75002 252.46919 255.89058 259.00211
 261.86664 264.65692 267.40909 269.98288 272.34250 274.45224 276.12573 277.57080
 279.23438 281.04898 282.76828 284.27798 285.58447 286.74042 287.79501 288.75040
 289.60968 290.37488 291.04333 291.89520
 366.78100 356.34504 345.78708 334.66312 323.07616 311.28019 299.16023 286.97327
 274.69531 262.60235 250.62139 239.93243 230.06447 221.17850 213.37054 206.38258
 200.22662 195.17466 191.76670 189.81874 188.86578 188.93981 189.78485 191.10289
 192.83793 194.94297 197.21601 199.58505 202.04009 204.53013 206.62816 208.48020
 210.11624 211.27128 211.51032 211.74836 211.69540 211.41044 211.05347 210.69351
 210.32055 210.04059 209.85863 209.73267 209.67071 210.01175 210.40779 210.80682
 211.60986 212.79790 214.05794 215.85098 217.78902 219.84206 221.94710 224.04013
 226.11017 228.20421 230.31125 232.42729 234.56633 236.74837 239.01441 241.39444
 244.02548 246.28652 248.29856 250.07360 251.50064 252.63368 253.46572 253.79176
 253.83879 253.62283 252.99287 251.95091 250.56695 248.73799 246.65703 244.50007
 242.30110 240.11514 237.94518 235.79422 233.66426 231.54130 229.57734 227.74438
 226.03742 224.51945 223.15949 221.94153 220.83357 219.80361 218.91765 218.06869
 217.32073 216.51076 215.61880 214.99284 214.45288 214.96400 216.12003 216.45399
 216.08197 215.74382 215.70618 215.68143 217.35941 220.77527 224.92722 228.38531
 231.44116 235.59369 240.24478 244.75926 248.85825 252.55270 255.93546 259.02533
 261.89020 264.67337 267.42981 270.04544 272.43710 274.55298 276.17847 277.47748
 278.87857 280.46707 282.03537 283.53149 284.82626 285.97183 287.01697 287.96378
 288.81534 289.57367 290.23611 291.08032
 366.78100 356.34478 345.78655 334.66233 323.07511 311.27888 299.15866 286.97144
 274.69321 262.59999 250.61877 239.92954 230.06132 221.17510 213.36687 206.37865
 200.22243 195.17020 191.76198 189.81376 188.86053 188.93431 189.77909 191.09686
 192.83164 194.93642 197.20919 199.57797 202.03275 204.52252 206.62030 208.47208
 210.10785 211.26263 211.50141 211.73918 211.68596 211.40074 211.04351 210.68329
 210.31007 210.02984 209.84762 209.72140 209.65917 209.99995 210.39573 210.79450
 211.59728 212.78506 214.04483 215.83761 217.77539 219.82816 221.93294 224.02572
 226.09549 228.18927 230.29605 232.41182 234.55060 236.73238 238.99815 241.37793
 244.00871 246.26948 248.28126 250.05604 251.48281 252.61559 253.44737 253.77314
 253.81992 253.60370 252.97347 251.93125 250.54703 248.71780 246.63658 244.47936
 242.28013 240.09391 237.92369 235.77246 233.64224 231.51902 229.55479 227.72157
 226.01435 224.49612 223.13590 221.91768 220.80945 219.77923 218.89301 218.04378
 217.29556 216.48534 215.59311 214.96689 214.42667 214.94556 216.11703 216.42522
 216.13411 215.84450 215.69722 215.57169 217.17586 220.61671 224.75127 228.24165
 231.39476 235.61400 240.29568 244.84834 248.96587 252.65810 256.02859 259.10806
 261.95892 264.73337 267.49960 270.15768 272.60913 274.76590 276.41769 277.63800
 278.84619 280.02347 281.44745 282.92886 284.24335 285.40631 286.46735 287.42859
 288.29312 289.06296 289.73550 290.59256
 366.78100 356.34632 345.78964 334.66697 323.08129 311.28661 299.16793 286.98225
 274.70558 262.61390 250.63422 239.94654 230.07986 221.19519 213.38851 206.40183
 200.24715 195.19648 191.78980 189.84312 188.89144 188.96676 189.81309 191.13241
 192.86873 194.97505 197.24937 199.61970 202.07602 204.56734 206.66666 208.51998
 210.15731 211.31363 211.55395 211.79327 211.74159 211.45792 211.10224 210.74356
 210.37188 210.09320 209.91253 209.78785 209.72717 210.06949 210.46682 210.86714
 211.67146 212.86078 214.12210 215.91643 217.85575 219.91007 222.01639 224.11071
 226.18204 228.27736 230.38568 232.50300 234.64332 236.82665 239.09397 241.47529
 244.10761 246.36993 248.38326 250.15958 251.58790 252.72222 253.55555 253.88287
 253.93119 253.71651 253.08783 252.04716 250.66448 248.83680 246.75712 244.60144
 242.40377 240.21909 238.05041 235.90073 233.77205 231.65038 229.68770 227.85602
 226.15034 224.63366 223.27499 222.05831 220.95163 219.92295 219.03827 218.19060
 217.44392 216.63524 215.74456 215.11989 214.58121 215.00906 216.00887 216.50606
 216.18526 215.80013 215.61650 215.51857 217.06604 220.52133 224.66190 228.18147
 231.42140 235.65808 240.35451 244.91890 249.04456 252.72472 256.05249 259.09302
 261.93524 264.73157 267.53653 270.23318 272.72458 274.89328 276.59528 277.89819
 279.02783 280.09689 281.16672 282.51736 283.81296 284.96658 286.01913 286.97263
 287.83023 288.59390 289.26105 290.11124
 366.78100 356.34829 345.79359 334.67288 323.08917 311.29647 299.17976 286.99605
 274.72134 262.63164 250.65393 239.96822 230.10352 221.22081 213.41610 206.43140
 200.27869 195.22998 191.82527 189.88057 188.93086 189.00815 189.85645 191.17774
 192.91603 195.02433 197.30062 199.67291 202.13121 204.62450 206.72579 208.58108
 210.22038 211.37867 211.62096 211.86226 211.81255 211.53084 211.17714 210.82043
 210.45072 210.17402 209.99531 209.87260 209.81389 210.15819 210.55748 210.95977
 211.76607 212.95736 214.22065 216.01695 217.95824 220.01453 222.12282 224.21912
 226.29241 228.38970 230.50000 232.61929 234.76158 236.94688 239.21617 241.59946
 244.23376 246.49805 248.51334 250.29163 251.72193 252.85822 253.69351 254.02281
 254.07310 253.86039 253.23369 252.19498 250.81427 248.98856 246.91086 244.75715
 242.56144 240.37874 238.21203 236.06432 233.93762 231.81791 229.85720 228.02750
 226.32379 224.80908 223.45237 222.23767 221.13296 220.10625 219.22355 218.37784
 217.63313 216.82643 215.93772 215.31501 214.77831 215.10345 215.89064 216.52571
 216.39241 215.88330 215.51958 215.37605 216.97003 220.40849 224.54678 228.06999
 231.35561 235.67741 240.41672 245.01924 249.15651 252.82350 256.13654 259.16144
 261.96567 264.71176 267.49271 270.21704 272.74783 274.88873 276.50174 277.72946
 278.86823 279.87473 281.06201 282.49838 283.85867 285.06216 286.16019 287.15491
 288.04953 288.84622 289.54218 290.42911
 366.78100 356.34736 345.79171 334.67007 323.08542 311.29178 299.17414 286.98949
 274.71385 262.62320 250.64456 239.95791 230.09227 221.20863 213.40298 206.41734
 200.26369 195.21405 191.80841 189.86276 188.91212 188.98847 189.83583 191.15618
 192.89354 195.00090 197.27625 199.64761 202.10496 204.59732 206.69768 208.55203
 210.19039 211.34774 211.58910 211.82945 211.77881 211.49617 211.14152 210.78388
 210.41323 210.13559 209.95595 209.83230 209.77266 210.11601 210.51437 210.91573
 211.72108 212.91144 214.17379 215.96915 217.90950 219.96486 222.07222 224.16757
 226.23993 228.33628 230.44564 232.56400 234.70535 236.88971 239.15806 241.54042
 244.17377 246.43713 248.45149 250.22884 251.65820 252.79355 253.62791 253.95627
 254.00562 253.79198 253.16433 252.12469 250.74305 248.91640 246.83776 244.68311
 242.48647 240.30282 238.13518 235.98654 233.85889 231.73825 229.77660 227.94596
 226.24132 224.72567 223.36803 222.15238 221.04674 220.01909 219.13545 218.28881
 217.54316 216.73552 215.84587 215.22223 214.68459 215.07072 215.94359 216.33148
 216.49391 216.15439 215.65627 215.31039 216.89595 220.27936 224.37328 227.89233
 231.20111 235.66020 240.45288 245.06105 249.20337 252.89796 256.24893 259.30975
 262.13571 264.86707 267.61264 270.31357 272.81018 274.91559 276.50275 277.70386
 278.74683 279.84937 281.51465 283.09360 284.46002 285.66898 286.77194 287.77118
 288.66986 289.47015 290.16928 291.06021
 366.78100 356.34502 345.78705 334.66307 323.07610 311.28012 299.16015 286.97317
 274.69519 262.60222 250.62124 239.93227 230.06429 221.17832 213.37034 206.38236
 200.22639 195.17441 191.76644 189.81846 188.86549 188.93951 189.78453 191.10256
 192.83758 194.94261 197.21563 199.58466 202.03968 204.52971 206.62773 208.47975
 210.11578 211.27080 211.50983 211.74785 211.69488 211.40990 211.05292 210.69295
 210.31997 210.04000 209.85802 209.73205 209.67007 210.01109 210.40712 210.80614
 211.60917 212.79719 214.05722 215.85024 217.78826 219.84129 221.94631 224.03934
 226.10936 228.20339 230.31041 232.42643 234.56546 236.74748 239.01351 241.39353
 244.02456 246.28558 248.29760 250.07263 251.49965 252.63268 253.46470 253.79073
 253.83775 253.62177 252.99180 251.94982 250.56585 248.73687 246.65590 244.49892
 242.29995 240.11397 237.94399 235.79302 233.66304 231.54007 229.57609 227.74312
 226.03614 224.51816 223.15819 221.94021 220.83224 219.80226 218.91629 218.06731
 217.31933 216.50936 215.61738 214.99141 214.45143 214.95157 216.04547 216.16862
 216.38174 216.35226 215.81619 215.38708 216.82858 220.18993 224.21581 227.76601
 231.19879 235.68567 240.51384 245.12521 249.21892 252.85201 256.16040 259.22659
 262.10956 264.91992 267.71735 270.47153 273.07385 275.32062 276.99823 278.22757
 279.26248 280.14835 281.48782 282.93280 284.21756 285.35422 286.39124 287.33072
 288.17569 288.92813 289.58542 290.42310
 366.78100 356.34519 345.78738 334.66358 323.07677 311.28096 299.16115 286.97435
 274.69654 262.60373 250.62292 239.93412 230.06631 221.18050 213.37269 206.38488
 200.22908 195.17727 191.76946 189.82165 188.86885 188.94304 189.78823 191.10642
 192.84162 194.94681 197.22000 199.58919 202.04438 204.53458 206.63277 208.48496
 210.12115 211.27635 211.51554 211.75373 211.70092 211.41612 211.05931 210.69950
 210.32669 210.04688 209.86508 209.73927 209.67746 210.01865 210.41485 210.81404
 211.61723 212.80542 214.06562 215.85881 217.79700 219.85019 221.95538 224.04858
 226.11877 228.21296 230.32015 232.43635 234.57554 236.75773 239.02392 241.40412
 244.03531 246.29650 248.30869 250.08388 251.51108 252.64427 253.47646 253.80265
 253.84985 253.63404 253.00423 251.96242 250.57862 248.74981 246.66900 244.51219
 242.31338 240.12758 237.95777 235.80696 233.67715 231.55435 229.59054 227.75773
 226.05092 224.53312 223.17331 221.95550 220.84769 219.81789 218.93208 218.08327
 217.33546 216.52565 215.63385 215.00804 214.46823 214.93602 216.00926 216.25574
 216.27684 216.29033 215.74799 215.29987 216.63135 220.02599 224.19502 227.68866
 231.26947 235.70244 240.51294 245.07683 249.14815 252.75584 256.02200 259.05386
 261.94608 264.81067 267.67554 270.46967 273.07864 275.35272 277.13770 278.47855
 279.58972 280.54803 281.42371 282.38971 283.45908 284.50531 285.49319 286.38812
 287.19302 287.90979 288.53595 289.33389
 366.78100 356.34695 345.79090 334.66885 323.08380 311.28975 299.17170 286.98666
 274.71061 262.61956 250.64051 239.95346 230.08741 221.20336 213.39731 206.41126
 200.25721 195.20716 191.80111 189.85506 188.90401 188.97997 189.82692 191.14687
 192.88382 194.99077 197.26572 199.63667 202.09362 204.58557 206.68552 208.53947
 210.17742 211.33437 211.57532 211.81528 211.76423 211.48118 211.12613 210.76808
 210.39703 210.11898 209.93893 209.81488 209.75483 210.09778 210.49573 210.89668
 211.70164 212.89159 214.15354 215.94849 217.88844 219.94339 222.05034 224.14529
 226.21724 228.31319 230.42214 232.54009 234.68104 236.86499 239.13295 241.51490
 244.14785 246.41080 248.42475 250.20170 251.63065 252.76560 253.59955 253.92750
 253.97645 253.76240 253.13435 252.09431 250.71226 248.88521 246.80616 244.65111
 242.45406 240.27001 238.10196 235.95291 233.82486 231.70381 229.74176 227.91071
 226.20566 224.68962 223.33157 222.11552 221.00947 219.98142 219.09737 218.25032
 217.50427 216.69622 215.80617 215.18212 214.64407 215.00824 215.86598 216.38737
 216.34250 216.24864 215.67885 215.09834 216.42793 219.90762 224.14105 227.53720
 231.23242 235.70911 240.56178 245.13310 249.20270 252.81639 256.08734 259.10172
 261.95248 264.77478 267.62268 270.42911 273.09079 275.42181 277.19409 278.51706
 279.64688 280.62936 281.47183 282.21469 282.96271 283.70978 284.65311 285.54431
 286.34583 287.05960 287.68314 288.47775
 366.78100 356.34720 345.79140 334.66959 323.08479 311.29099 299.17319 286.98838
 274.71258 262.62178 250.64298 239.95617 230.09037 221.20657 213.40077 206.41496
 200.26116 195.21136 191.80556 189.85975 188.90895 188.98515 189.83235 191.15255
 192.88974 194.99694 197.27214 199.64334 202.10053 204.59273 206.69293 208.54713
 210.18532 211.34252 211.58372 211.82392 211.77311 211.49031 211.13551 210.77771
 210.40690 210.12910 209.94930 209.82550 209.76570 210.10889 210.50709 210.90829
 211.71349 212.90368 214.16588 215.96108 217.90128 219.95647 222.06367 224.15887
 226.23107 228.32726 230.43646 232.55466 234.69586 236.88005 239.14825 241.53045
 244.16365 246.42685 248.44104 250.21824 251.64744 252.78264 253.61683 253.94503
 253.99423 253.78043 253.15262 252.11282 250.73102 248.90422 246.82541 244.67061
 242.47381 240.29001 238.12221 235.97340 233.84560 231.72480 229.76300 227.93219
 226.22739 224.71159 223.35379 222.13798 221.03218 220.00438 219.12058 218.27377
 217.52797 216.72017 215.83037 215.20656 214.66876 215.01227 215.82361 216.38332
 216.40305 216.25870 215.73137 215.04642 216.34619 219.86530 224.11507 227.45357
 231.21115 235.73262 240.62157 245.20262 249.27419 252.89711 256.17935 259.18515
 261.99921 264.76700 267.57657 270.38248 273.09128 275.49573 277.29013 278.60474
 279.75629 280.78668 281.63168 282.26590 282.79837 283.37262 284.15771 285.02527
 285.81607 286.52026 287.13544 287.91943
 366.78100 356.34667 345.79034 334.66801 323.08268 311.28835 299.17002 286.98469
 274.70836 262.61703 250.63770 239.95037 230.08404 221.19971 213.39338 206.40705
 200.25272 195.20239 191.79606 189.84973 188.89840 188.97407 189.82074 191.14041
 192.87708 194.98375 197.25842 199.62909 202.08576 204.57743 206.67710 208.53077
 210.16844 211.32511 211.56578 211.80545 211.75412 211.47079 211.11546 210.75713
 210.38581 210.10748 209.92715 209.80282 209.74249 210.08516 210.48283 210.88350
 211.68817 212.87784 214.13951 215.93418 217.87385 219.92852 222.03519 224.12986
 226.20153 228.29720 230.40587 232.52354 234.66421 236.84788 239.11555 241.49722
 244.12989 246.39256 248.40623 250.18290 251.61157 252.74624 253.57991 253.90758
 253.95625 253.74192 253.11359 252.07326 250.69093 248.86360 246.78427 244.62894
 242.43161 240.24728 238.07895 235.92962 233.80129 231.67996 229.71763 227.88630
 226.18097 224.66464 223.30631 222.08998 220.98365 219.95532 219.07099 218.22366
 217.47733 216.66900 215.77867 215.15434 214.61601 214.97739 215.83035 216.35640
 216.52339 216.32985 215.76279 214.93204 216.22299 219.82347 224.06842 227.31595
 231.17679 235.74402 240.66783 245.25124 249.31859 252.93889 256.22430 259.22137
 262.01114 264.73636 267.50421 270.30231 273.04715 275.48807 277.32098 278.67792
 279.88535 280.94150 281.76648 282.34329 282.80316 283.25436 283.87469 284.55811
 285.28470 285.93997 286.51242 287.24191
 366.78100 356.34667 345.79034 334.66801 323.08268 311.28835 299.17002 286.98470
 274.70837 262.61704 250.63771 239.95038 230.08405 221.19972 213.39339 206.40706
 200.25273 195.20240 191.79607 189.84974 188.89841 188.97409 189.82076 191.14043
 192.87710 194.98377 197.25844 199.62911 202.08578 204.57745 206.67712 208.53079
 210.16846 211.32513 211.56581 211.80548 211.75415 211.47082 211.11549 210.75716
 210.38583 210.10750 209.92717 209.80284 209.74251 210.08518 210.48285 210.88352
 211.68820 212.87787 214.13954 215.93421 217.87388 219.92855 222.03522 224.12989
 226.20156 228.29723 230.40590 232.52357 234.66424 236.84791 239.11559 241.49726
 244.12993 246.39260 248.40627 250.18294 251.61161 252.74628 253.57995 253.90762
 253.95629 253.74196 253.11363 252.07331 250.69098 248.86365 246.78432 244.62899
 242.43166 240.24733 238.07900 235.92967 233.80134 231.68001 229.71768 227.88635
 226.18102 224.66470 223.30637 222.09004 220.98371 219.95538 219.07105 218.22372
 217.47739 216.66906 215.77873 215.15440 214.61607 214.97263 215.81500 216.32152
 216.65253 216.44446 215.78418 214.86972 216.11003 219.69228 223.93390 227.16109
 231.12825 235.75026 240.70140 245.28680 249.35286 252.97778 256.27930 259.28467
 262.05707 264.72852 267.42819 270.20340 272.98148 275.49353 277.38104 278.76096
 279.99063 281.06180 281.87979 282.38263 282.76932 283.20615 283.78906 284.31781
 284.95917 285.59863 286.15723 286.86914
 366.78100 356.34660 345.79020 334.66780 323.08241 311.28801 299.16961 286.98421
 274.70781 262.61641 250.63701 239.94961 230.08322 221.19882 213.39242 206.40602
 200.25162 195.20122 191.79482 189.84842 188.89703 188.97263 189.81923 191.13883
 192.87543 194.98203 197.25663 199.62724 202.08384 204.57544 206.67504 208.52864
 210.16624 211.32284 211.56344 211.80305 211.75165 211.46825 211.11285 210.75445
 210.38305 210.10465 209.92425 209.79986 209.73946 210.08206 210.47966 210.88026
 211.68486 212.87446 214.13607 215.93067 217.87027 219.92487 222.03147 224.12607
 226.19767 228.29327 230.40188 232.51948 234.66008 236.84368 239.11128 241.49288
 244.12548 246.38809 248.40169 250.17829 251.60689 252.74149 253.57509 253.90269
 253.95129 253.73690 253.10850 252.06810 250.68570 248.85830 246.77890 244.62350
 242.42610 240.24171 238.07331 235.92391 233.79551 231.67411 229.71171 227.88031
 226.17492 224.65852 223.30012 222.08372 220.97732 219.94892 219.06452 218.21712
 217.47073 216.66233 215.77193 215.14753 214.60913 214.96652 215.81088 216.29778
 216.68840 216.51636 215.83437 214.89546 216.09750 219.57272 223.78477 227.05998
 231.09225 235.76447 240.73219 245.31628 249.38203 253.01508 256.33649 259.35736
 262.12741 264.75858 267.37875 270.09875 272.90250 275.51358 277.46298 278.86359
 280.10446 281.18576 281.95233 282.38763 282.70218 283.08536 283.68396 284.21738
 284.76758 285.37555 285.91742 286.60797
 366.78100 356.34633 345.78966 334.66699 323.08132 311.28665 299.16798 286.98231
 274.70564 262.61398 250.63431 239.94664 230.07997 221.19530 213.38863 206.40196
 200.24729 195.19662 191.78995 189.84328 188.89161 188.96694 189.81327 191.13260
 192.86893 194.97527 197.24960 199.61993 202.07626 204.56759 206.66692 208.52025
 210.15758 211.31391 211.55424 211.79357 211.74190 211.45823 211.10256 210.74389
 210.37222 210.09356 209.91289 209.78822 209.72755 210.06988 210.46721 210.86754
 211.67187 212.86120 214.12253 215.91686 217.85619 219.91052 222.01685 224.11118
 226.18251 228.27785 230.38618 232.50351 234.64384 236.82717 239.09450 241.47583
 244.10816 246.37049 248.38382 250.16015 251.58848 252.72281 253.55614 253.88347
 253.93180 253.71714 253.08847 252.04780 250.66513 248.83746 246.75779 244.60212
 242.40445 240.21978 238.05111 235.90144 233.77277 231.65110 229.68843 227.85676
 226.15109 224.63442 223.27576 222.05909 220.95242 219.92375 219.03908 218.19141
 217.44474 216.63607 215.74540 215.12073 214.58206 214.94980 215.81860 216.30746
 216.68858 216.53250 215.86075 214.94458 216.10515 219.47397 223.65424 227.02048
 231.06886 235.77899 240.76196 245.33751 249.39783 253.04051 256.38263 259.41995
 262.19031 264.78467 267.33002 269.99026 272.82404 275.52905 277.54053 278.96414
 280.22287 281.31351 282.05103 282.42209 282.67593 283.01556 283.57013 284.13461
 284.64047 285.20175 285.73117 286.40588
 366.78100 356.34578 345.78855 334.66533 323.07911 311.28389 299.16466 286.97844
 274.70122 262.60899 250.62877 239.94055 230.07333 221.18810 213.38088 206.39366
 200.23843 195.18721 191.77999 189.83277 188.88054 188.95532 189.80110 191.11988
 192.85565 194.96143 197.23521 199.60498 202.06076 204.55154 206.65032 208.50309
 210.13987 211.29565 211.53542 211.77420 211.72198 211.43776 211.08153 210.72231
 210.35009 210.07086 209.88964 209.76442 209.70320 210.04497 210.44175 210.84153
 211.64530 212.83408 214.09486 215.88864 217.82741 219.88119 221.98697 224.08074
 226.15152 228.24630 230.35408 232.47085 234.61063 236.79341 239.06019 241.44096
 244.07274 246.33452 248.34729 250.12307 251.55085 252.68463 253.51740 253.84418
 253.89196 253.67673 253.04751 252.00629 250.62307 248.79484 246.71462 244.55840
 242.36017 240.17495 238.00573 235.85551 233.72628 231.60406 229.64084 227.80861
 226.10239 224.58517 223.22595 222.00872 220.90150 219.87228 218.98706 218.13883
 217.39161 216.58239 215.69116 215.06594 214.52672 214.92026 215.85005 216.31044
 216.70030 216.52344 215.85648 214.96210 216.09398 219.38211 223.51372 226.98997
 231.05771 235.80228 240.77927 245.34030 249.39980 253.06656 256.43808 259.49243
 262.27100 264.83292 267.29791 269.86780 272.70609 275.52286 277.58871 279.03677
 280.34186 281.44232 282.15692 282.44440 282.64862 282.96814 283.48114 284.05228
 284.56464 285.07056 285.58142 286.23242
 366.78100 356.34529 345.78759 334.66388 323.07717 311.28146 299.16176 286.97505
 274.69734 262.60463 250.62393 239.93522 230.06751 221.18180 213.37410 206.38639
 200.23068 195.17897 191.77127 189.82356 188.87085 188.94514 189.79044 191.10873
 192.84402 194.94931 197.22261 199.59190 202.04719 204.53748 206.63578 208.48807
 210.12436 211.27965 211.51895 211.75724 211.70453 211.41982 211.06312 210.70341
 210.33070 210.05100 209.86929 209.74358 209.68187 210.02317 210.41946 210.81875
 211.62204 212.81034 214.07063 215.86392 217.80221 219.85551 221.96080 224.05409
 226.12438 228.21868 230.32597 232.44226 234.58155 236.76385 239.03014 241.41043
 244.04172 246.30302 248.31531 250.09060 251.51789 252.65119 253.48348 253.80977
 253.85706 253.64136 253.01165 251.96994 250.58623 248.75753 246.67682 244.52011
 242.32140 240.13570 237.96599 235.81528 233.68558 231.56287 229.59916 227.76645
 226.05975 224.54204 223.18233 221.96462 220.85692 219.82721 218.94150 218.09279
 217.34509 216.53538 215.64367 215.01796 214.47826 214.89493 215.87935 216.33545
 216.70851 216.47609 215.78249 214.91170 216.04649 219.30534 223.42261 226.95969
 231.05258 235.82008 240.80544 245.36711 249.43781 253.13121 256.52579 259.58759
 262.36353 264.89752 267.29907 269.78738 272.60397 275.48325 277.57880 279.03860
 280.36649 281.45688 282.14365 282.40057 282.60141 282.92181 283.39404 283.94791
 284.47809 284.99246 285.50098 286.14905
 354.97500 345.04800 334.58700 324.11500 313.32600 302.53700 291.65000 280.76700
 269.93100 259.19300 248.62200 238.61700 229.08700 220.35500 212.54000 205.53500
 199.46400 194.49300 191.14300 189.19000 188.08900 188.01400 188.72400 189.90600
 191.46900 193.38200 195.40300 197.55600 199.80700 202.06000 204.28800 206.47900
 208.55200 210.37800 212.02500 213.65900 214.99800 216.11800 217.17200 218.25900
 219.49400 220.64500 221.67900 222.61400 223.54500 224.98200 226.57100 228.19000
 229.79700 231.81100 233.86500 235.97200 238.24200 240.55300 242.89900 245.25300
 247.48800 249.53500 251.36600 252.84800 254.09800 255.16700 256.02700 256.25300
 256.09500 255.54300 253.93500 252.56600 251.38400 250.24500 249.05200 247.70100
 246.01600 243.99600 241.78400 239.39300 236.81300 234.22300 231.65800 229.14400
 226.74000 224.47300 222.33500 220.32500 218.44000 216.67700 214.96200 213.47200
 212.20000 211.10800 210.26000 209.63900 209.24400 209.03100 209.05800 209.33300
 209.78400 210.62600 211.33100 212.39100 213.62500 214.84668 217.72949 219.47640
 220.32566 220.86828 220.88710 220.27371 219.43733 218.84250 219.04934 220.86203
 222.60583 225.72206 229.03064 232.61777 236.12270 239.51333 242.70767 245.68587
 248.41061 250.90679 253.19353 254.91714 256.48655 257.94920 259.39966 260.69384
 261.81714 262.77997 263.71679 264.54570 265.26305 265.89772 266.47676 267.00133
 267.47312 267.89325 268.26027 268.72800
