|-------------------------------------------------------------------------|
|   File Name : in_temp.dat
|   Subject   : temperature profiles used for initial guess atmosphere
|   File Type : input of gmtr
|   Data Type : atmospherical data
|   Author/s  : WRF-Chem
|   Date      : Fri Jul 26 15:39:24 2024
|-------------------------------------------------------------------------|

 WRF-Chem temperature
#
 values of T (K)    (8f10.5)
#
 354.97500 345.04800 334.58700 324.11500 313.32600 302.53700 291.65000 280.76700
 269.93100 259.19300 248.62200 238.61700 229.08700 220.35500 212.54000 205.53500
 199.46400 194.49300 191.14300 189.19000 188.08900 188.01400 188.72400 189.90600
 191.46900 193.38200 195.40300 197.55600 199.80700 202.06000 204.28800 206.47900
 208.55200 210.37800 212.02500 213.65900 214.99800 216.11800 217.17200 218.25900
 219.49400 220.64500 221.67900 222.61400 223.54500 224.98200 226.57100 228.19000
 229.79700 231.81100 233.86500 235.97200 238.24200 240.55300 242.89900 245.25300
 247.48800 249.53500 251.36600 252.84800 254.09800 255.16700 256.02700 256.25300
 256.09500 255.54300 253.93500 252.56600 251.38400 250.24500 249.05200 247.70100
 246.01600 243.99600 241.78400 239.39300 236.81300 234.22300 231.65800 229.14400
 226.74000 224.47300 222.33500 220.32500 218.44000 216.67700 214.96200 213.47200
 212.20000 211.10800 210.26000 209.63900 209.24400 209.03100 209.05800 209.33300
 209.78400 210.62600 211.33100 212.39100 213.62500 214.84668 217.72949 219.47640
 220.32566 220.86828 220.88710 220.27371 219.43733 218.84250 219.04934 220.86203
 222.60583 225.72206 229.03064 232.61777 236.12270 239.51333 242.70767 245.68587
 248.41061 250.90679 253.19353 254.91714 256.48655 257.94920 259.39966 260.69384
 261.81714 262.77997 263.71679 264.54570 265.26305 265.89772 266.47676 267.00133
 267.47312 267.89325 268.26027 268.72800
 366.78100 356.33500 345.76700 334.63300 323.03600 311.23000 299.10000 286.90300
 274.61500 262.51200 250.52100 239.82200 229.94400 221.04800 213.23000 206.23200
 200.06600 195.00400 191.58600 189.62800 188.66500 188.72900 189.56400 190.87200
 192.59700 194.69200 196.95500 199.31400 201.75900 204.23900 206.32700 208.16900
 209.79500 210.94000 211.16900 211.39700 211.33400 211.03900 210.67200 210.30200
 209.91900 209.62900 209.43700 209.30100 209.22900 209.56000 209.94600 210.33500
 211.12800 212.30600 213.55600 215.33900 217.26700 219.31000 221.40500 223.48800
 225.54800 227.63200 229.72900 231.83500 233.96400 236.13600 238.39200 240.76200
 243.38300 245.63400 247.63600 249.40100 250.81800 251.94100 252.76300 253.07900
 253.11600 252.89000 252.25000 251.19800 249.80400 247.96500 245.87400 243.70700
 241.49800 239.30200 237.12200 234.96100 232.82100 230.68800 228.71400 226.87100
 225.15400 223.62600 222.25600 221.02800 219.91000 218.87000 217.97400 217.11500
 216.35700 215.53700 214.63500 213.99900 213.44900 212.85855 212.01316 212.61654
 214.26826 216.08686 218.14273 220.53346 223.40855 226.78828 231.49734 235.90155
 239.42278 243.28576 247.23140 251.11907 254.80144 258.23331 261.38913 264.27520
 266.89312 269.26852 271.44504 273.08845 274.58484 275.98591 277.39845 278.65879
 279.75272 280.69038 281.56708 282.34086 283.01050 283.60295 284.14348 284.63317
 285.07358 285.46577 285.80838 286.24500
 381.81900 372.39900 361.20600 349.77600 337.62200 324.85300 311.81000 298.35300
 284.86000 271.32400 258.56100 246.30400 236.08700 226.79600 218.44800 211.29000
 205.52200 200.89400 197.38100 194.84800 193.01500 192.31500 192.25000 192.43100
 192.91200 193.53700 194.13600 194.71200 195.26200 195.83100 196.39300 196.97600
 197.60400 198.14900 198.58400 199.05700 199.69500 200.37800 201.05400 201.70800
 202.31300 202.85700 203.35500 203.86200 204.56900 205.29700 206.02600 206.98700
 208.19300 209.44100 210.96900 212.57600 214.46200 216.51300 218.63000 220.85300
 223.34100 225.96200 228.73900 231.69700 234.70600 237.70600 240.69200 243.65700
 246.73700 249.69900 252.52100 255.06300 257.29000 259.23300 260.63300 261.68000
 262.46100 262.79800 262.69100 262.22400 261.06900 259.52500 257.70700 255.50700
 253.00100 250.30200 247.39800 244.45200 241.65400 239.05400 236.73300 234.59000
 232.59500 230.72500 228.83400 226.82600 224.66600 222.38700 220.10400 217.71500
 215.45900 213.06600 210.54600 208.09300 205.35400 202.08130 196.05959 200.71215
 209.01611 216.90438 223.84126 229.78593 235.00632 240.20838 245.98943 250.68668
 254.32982 257.93487 261.55666 264.96801 268.15192 271.06452 273.76717 276.25691
 278.57680 280.74479 282.77456 284.60533 286.27232 287.81705 289.31715 290.65561
 291.81734 292.81312 293.70701 294.49387 295.17482 295.77730 296.32696 296.82492
 297.27278 297.67160 298.02000 298.46400
 399.33000 389.90700 379.81300 368.66800 357.52200 345.30100 333.07400 320.22700
 307.21600 293.84800 280.37600 267.29600 254.61000 242.98700 232.15100 221.97700
 212.67200 204.28600 197.66900 192.82100 189.48600 187.45200 186.81400 187.08900
 187.78100 189.05400 190.64800 192.54200 194.63000 196.75200 198.67100 200.15800
 201.53500 202.48700 202.97500 203.34000 203.53900 203.49700 203.38500 203.24700
 203.00500 202.78600 202.60300 202.43700 202.42600 202.88800 203.42000 203.95100
 204.89500 205.99200 207.30100 208.95800 210.73800 213.10000 215.56400 218.18000
 220.96600 223.91800 226.96100 230.09200 233.29300 236.55700 239.95500 243.53700
 246.84500 249.39000 251.54200 253.47400 255.19500 256.48400 257.43100 258.05900
 258.21200 258.04000 257.58200 256.64300 255.23900 253.50700 251.40800 249.05600
 246.57600 243.99400 241.38900 238.83000 236.34400 233.98600 231.96900 230.11800
 228.42300 226.89900 225.54800 224.29700 223.10500 221.96500 220.95800 220.11300
 219.49000 218.92000 218.32500 217.88100 217.42300 216.96366 216.35568 216.80261
 217.73415 218.28582 218.64258 219.10077 220.44626 222.53987 226.38451 230.35736
 233.59734 237.39164 241.29814 245.22796 248.98002 252.51130 255.78595 258.80109
 261.54781 264.05210 266.34239 268.04198 269.58951 271.01303 272.35754 273.55718
 274.59842 275.49092 276.28989 276.99307 277.60161 278.14001 278.63122 279.07623
 279.47646 279.83287 280.14422 280.54100
 399.73800 389.78500 379.66200 368.15100 356.64100 344.35000 331.79200 318.88800
 305.72600 292.49300 279.20900 266.73800 254.69600 244.21100 234.45700 225.43300
 217.56900 210.45100 204.30000 199.30600 195.45800 192.57600 191.02700 190.38600
 190.23900 190.53400 191.16600 191.92500 192.79500 193.76600 194.73200 195.31200
 195.80000 196.05200 196.11500 196.11500 196.03900 195.72300 195.34000 194.98900
 194.75100 194.79200 195.13300 195.59800 196.50600 198.13600 199.85800 201.56600
 204.17900 206.82300 209.89300 213.28400 216.82800 220.60500 224.38700 228.20900
 232.03200 235.82500 239.56000 243.25800 246.84500 250.20100 253.70900 257.46800
 261.53000 264.22100 266.60100 268.68100 270.32900 271.74100 272.83600 273.47400
 273.89800 274.00200 273.75700 273.28800 272.37100 271.10000 269.58900 267.77900
 265.81600 263.72100 261.39300 258.91600 256.29800 253.42300 250.33100 247.11400
 243.83700 240.52900 237.24900 233.99900 230.72800 227.51500 224.25400 220.95200
 217.62700 213.65600 210.12100 206.78900 204.01000 201.99491 199.07309 198.76551
 199.40006 200.48994 201.46112 202.31912 203.45100 204.96110 207.47502 210.85391
 213.70530 217.29629 220.99574 224.72316 228.28753 231.64854 234.68024 237.40893
 239.70644 241.60899 243.46854 245.67368 247.68154 249.52395 251.24767 252.78566
 254.12057 255.26479 256.23740 257.09036 257.82852 258.48160 259.07744 259.61723
 260.10271 260.53504 260.91270 261.39400
 399.73800 389.78500 379.66200 368.15100 356.64100 344.35000 331.79200 318.88800
 305.72600 292.49300 279.20900 266.73800 254.69600 244.21100 234.45700 225.43300
 217.56900 210.45100 204.30000 199.30600 195.45800 192.57600 191.02700 190.38600
 190.23900 190.53400 191.16600 191.92500 192.79500 193.76600 194.73200 195.31200
 195.80000 196.05200 196.11500 196.11500 196.03900 195.72300 195.34000 194.98900
 194.75100 194.79200 195.13300 195.59800 196.50600 198.13600 199.85800 201.56600
 204.17900 206.82300 209.89300 213.28400 216.82800 220.60500 224.38700 228.20900
 232.03200 235.82500 239.56000 243.25800 246.84500 250.20100 253.70900 257.46800
 261.53000 264.22100 266.60100 268.68100 270.32900 271.74100 272.83600 273.47400
 273.89800 274.00200 273.75700 273.28800 272.37100 271.10000 269.58900 267.77900
 265.81600 263.72100 261.39300 258.91600 256.29800 253.42300 250.33100 247.11400
 243.83700 240.52900 237.24900 233.99900 230.72800 227.51500 224.25400 220.95200
 217.62700 213.65600 210.12100 206.78900 204.01000 201.99491 199.07309 198.76551
 199.40006 200.48994 201.46112 202.31912 203.45100 204.96110 207.47502 210.85391
 213.70530 217.29629 220.99574 224.72316 228.28753 231.64854 234.68024 237.40893
 239.70644 241.60899 243.46854 245.67368 247.68154 249.52395 251.24767 252.78566
 254.12057 255.26479 256.23740 257.09036 257.82852 258.48160 259.07744 259.61723
 260.10271 260.53504 260.91270 261.39400
 399.33000 389.90700 379.81300 368.66800 357.52200 345.30100 333.07400 320.22700
 307.21600 293.84800 280.37600 267.29600 254.61000 242.98700 232.15100 221.97700
 212.67200 204.28600 197.66900 192.82100 189.48600 187.45200 186.81400 187.08900
 187.78100 189.05400 190.64800 192.54200 194.63000 196.75200 198.67100 200.15800
 201.53500 202.48700 202.97500 203.34000 203.53900 203.49700 203.38500 203.24700
 203.00500 202.78600 202.60300 202.43700 202.42600 202.88800 203.42000 203.95100
 204.89500 205.99200 207.30100 208.95800 210.73800 213.10000 215.56400 218.18000
 220.96600 223.91800 226.96100 230.09200 233.29300 236.55700 239.95500 243.53700
 246.84500 249.39000 251.54200 253.47400 255.19500 256.48400 257.43100 258.05900
 258.21200 258.04000 257.58200 256.64300 255.23900 253.50700 251.40800 249.05600
 246.57600 243.99400 241.38900 238.83000 236.34400 233.98600 231.96900 230.11800
 228.42300 226.89900 225.54800 224.29700 223.10500 221.96500 220.95800 220.11300
 219.49000 218.92000 218.32500 217.88100 217.42300 216.96366 216.35568 216.80261
 217.73415 218.28582 218.64258 219.10077 220.44626 222.53987 226.38451 230.35736
 233.59734 237.39164 241.29814 245.22796 248.98002 252.51130 255.78595 258.80109
 261.54781 264.05210 266.34239 268.04198 269.58951 271.01303 272.35754 273.55718
 274.59842 275.49092 276.28989 276.99307 277.60161 278.14001 278.63122 279.07623
 279.47646 279.83287 280.14422 280.54100
 381.81900 372.39900 361.20600 349.77600 337.62200 324.85300 311.81000 298.35300
 284.86000 271.32400 258.56100 246.30400 236.08700 226.79600 218.44800 211.29000
 205.52200 200.89400 197.38100 194.84800 193.01500 192.31500 192.25000 192.43100
 192.91200 193.53700 194.13600 194.71200 195.26200 195.83100 196.39300 196.97600
 197.60400 198.14900 198.58400 199.05700 199.69500 200.37800 201.05400 201.70800
 202.31300 202.85700 203.35500 203.86200 204.56900 205.29700 206.02600 206.98700
 208.19300 209.44100 210.96900 212.57600 214.46200 216.51300 218.63000 220.85300
 223.34100 225.96200 228.73900 231.69700 234.70600 237.70600 240.69200 243.65700
 246.73700 249.69900 252.52100 255.06300 257.29000 259.23300 260.63300 261.68000
 262.46100 262.79800 262.69100 262.22400 261.06900 259.52500 257.70700 255.50700
 253.00100 250.30200 247.39800 244.45200 241.65400 239.05400 236.73300 234.59000
 232.59500 230.72500 228.83400 226.82600 224.66600 222.38700 220.10400 217.71500
 215.45900 213.06600 210.54600 208.09300 205.35400 202.08130 196.05959 200.71215
 209.01611 216.90438 223.84126 229.78593 235.00632 240.20838 245.98943 250.68668
 254.32982 257.93487 261.55666 264.96801 268.15192 271.06452 273.76717 276.25691
 278.57680 280.74479 282.77456 284.60533 286.27232 287.81705 289.31715 290.65561
 291.81734 292.81312 293.70701 294.49387 295.17482 295.77730 296.32696 296.82492
 297.27278 297.67160 298.02000 298.46400
 366.78100 356.33363 345.76427 334.62890 323.03053 311.22317 299.09180 286.89343
 274.60407 262.49970 250.50733 239.80696 229.92760 221.03023 213.21086 206.21150
 200.04413 194.98076 191.56140 189.60203 188.63766 188.70030 189.53393 190.84056
 192.56420 194.65783 196.91946 199.27710 201.72073 204.19936 206.28600 208.12663
 209.75126 210.89489 211.12253 211.34916 211.28479 210.98843 210.62006 210.24869
 209.86433 209.57296 209.37959 209.24223 209.16886 209.49849 209.88313 210.27076
 211.06239 212.23903 213.48766 215.26929 217.19592 219.23756 221.33119 223.41282
 225.47146 227.55409 229.64972 231.75436 233.88199 236.05262 238.30726 240.67589
 243.29552 245.54516 247.54579 249.30942 250.72506 251.84669 252.66732 252.98195
 253.01759 252.79022 252.14885 251.09549 249.70012 247.85975 245.76739 243.59902
 241.38865 239.19129 237.00992 234.84755 232.70619 230.57182 228.59645 226.75209
 225.03372 223.50435 222.13299 220.90362 219.78425 218.74288 217.84552 216.98515
 216.22578 215.40442 214.50105 213.86368 213.31232 212.88525 211.88007 211.99374
 213.03299 214.95007 216.54060 217.16081 218.63551 222.65060 228.69221 233.61891
 237.41602 241.16025 244.92137 248.69267 252.39702 255.54250 258.14023 260.60190
 263.30371 265.93195 268.32550 270.43851 272.42313 274.31760 275.97394 277.59033
 279.25528 280.88840 282.39233 283.74911 284.92889 285.97903 286.93808 287.81131
 288.60181 289.31088 289.93521 290.77219
 366.78100 356.33202 345.76104 334.62406 323.02408 311.21509 299.08211 286.88213
 274.59115 262.48517 250.49119 239.78921 229.90823 221.00924 213.18826 206.18728
 200.01830 194.95332 191.53234 189.57136 188.60538 188.66639 189.49841 190.80343
 192.52545 194.61747 196.87749 199.23351 201.67553 204.15254 206.23756 208.07658
 209.69960 210.84162 211.06764 211.29266 211.22668 210.92870 210.55871 210.18573
 209.79975 209.50677 209.31179 209.17281 209.09783 209.42585 209.80886 210.19488
 210.98490 212.15992 213.40694 215.18696 217.11198 219.15200 221.24401 223.32403
 225.38105 227.46207 229.55609 231.65911 233.78513 235.95415 238.20716 240.57418
 243.19220 245.44022 247.43924 249.20126 250.61528 251.73530 252.55432 252.86733
 252.90135 252.67237 252.02939 250.97441 249.57743 247.73545 245.64147 243.47148
 241.25950 239.06052 236.87754 234.71356 232.57058 230.43460 228.45762 226.61163
 224.89165 223.36067 221.98769 220.75671 219.63573 218.59275 217.69377 216.83178
 216.07080 215.24782 214.34284 213.70386 213.15088 212.80495 211.99043 212.13329
 213.13261 215.02618 216.56131 217.25444 218.58679 222.60472 228.64369 233.53897
 237.32889 241.08723 244.87221 248.63744 252.27959 255.40059 258.01303 260.49173
 263.14124 265.76489 268.20569 270.33371 272.30753 274.18839 275.83945 277.45447
 279.12305 280.76807 282.27802 283.63498 284.81702 285.86572 286.82556 287.70007
 288.49112 289.20090 289.82654 290.66187
 366.78100 356.33054 345.75808 334.61962 323.01816 311.20770 299.07324 286.87178
 274.57931 262.47185 250.47639 239.77293 229.89047 220.99001 213.16755 206.16509
 199.99463 194.92817 191.50571 189.54325 188.57579 188.63533 189.46586 190.76940
 192.48994 194.58048 196.83902 199.19356 201.63410 204.10964 206.19318 208.03072
 209.65226 210.79280 211.01734 211.24088 211.17341 210.87395 210.50249 210.12803
 209.74057 209.44611 209.24965 209.10919 209.03273 209.35927 209.74081 210.12535
 210.91389 212.08743 213.33296 215.11150 217.03504 219.07358 221.16412 223.24266
 225.29820 227.37774 229.47028 231.57182 233.69636 235.86390 238.11544 240.48098
 243.09752 245.34405 247.34159 249.10213 250.51467 251.63321 252.45075 252.76229
 252.79483 252.56437 251.91991 250.86345 249.46499 247.62153 245.52607 243.35460
 241.14114 238.94068 236.75622 234.59076 232.44630 230.30884 228.33038 226.48292
 224.76146 223.22900 221.85454 220.62208 219.49962 218.45515 217.55469 216.69123
 215.92877 215.10431 214.19785 213.55739 213.00293 212.73137 212.09184 212.27179
 213.23192 215.10590 216.58765 217.33421 218.55353 222.59273 228.58757 233.45775
 237.24033 241.00922 244.81480 248.57288 252.15051 255.25104 257.88925 260.39236
 262.98697 265.59744 268.07956 270.22202 272.18774 274.05853 275.70584 277.32233
 279.00098 280.65253 282.16876 283.52777 284.70987 285.75900 286.71973 287.59515
 288.38721 289.09680 289.72278 290.55774
 366.78100 356.32916 345.75533 334.61549 323.01266 311.20082 299.06499 286.86215
 274.56832 262.45948 250.46265 239.75781 229.87398 220.97214 213.14831 206.14447
 199.97264 194.90480 191.48097 189.51713 188.54830 188.60646 189.43563 190.73779
 192.45696 194.54612 196.80329 199.15645 201.59562 204.06978 206.15195 207.98811
 209.60828 210.74744 210.97061 211.19277 211.12394 210.82310 210.45027 210.07443
 209.68560 209.38976 209.19193 209.05009 208.97226 209.29742 209.67759 210.06075
 210.84792 212.02008 213.26425 215.04141 216.96358 219.00074 221.08991 223.16707
 225.22124 227.29940 229.39057 231.49073 233.61390 235.78006 238.03023 240.39439
 243.00956 245.25472 247.25089 249.01005 250.42122 251.53838 252.35455 252.66471
 252.69588 252.46404 251.81821 250.76037 249.36054 247.51570 245.41887 243.24603
 241.03120 238.82936 236.64352 234.47669 232.33085 230.19202 228.21218 226.36335
 224.64051 223.10668 221.73084 220.49701 219.37317 218.32734 217.42550 216.56067
 215.79683 214.97100 214.06316 213.42133 212.86549 212.66324 212.18684 212.40479
 213.33737 215.18394 216.62909 217.39053 218.56052 222.60574 228.52895 233.37520
 237.15057 240.92923 244.75301 248.50351 252.01537 255.09668 257.76718 260.29843
 262.83698 265.42587 267.94302 270.10034 272.06479 273.92920 275.57681 277.19739
 278.89178 280.54379 282.06787 283.42688 284.61075 285.65979 286.62112 287.49731
 288.28867 288.99887 289.62640 290.46237
 366.78100 356.32792 345.75285 334.61177 323.00769 311.19461 299.05754 286.85346
 274.55838 262.44831 250.45023 239.74415 229.85907 220.95600 213.13092 206.12584
 199.95277 194.88369 191.45861 189.49353 188.52346 188.58038 189.40830 190.70923
 192.42715 194.51507 196.77099 199.12292 201.56084 204.03376 206.11469 207.94961
 209.56853 210.70645 210.92838 211.14930 211.07922 210.77715 210.40307 210.02599
 209.63591 209.33884 209.13976 208.99668 208.91761 209.24153 209.62045 210.00237
 210.78830 211.95922 213.20214 214.97807 216.89899 218.93491 221.02284 223.09876
 225.15168 227.22860 229.31853 231.41745 233.53937 235.70430 237.95322 240.31614
 242.93006 245.17399 247.16891 248.92683 250.33676 251.45268 252.26760 252.57652
 252.60645 252.37337 251.72629 250.66722 249.26614 247.42006 245.32198 243.14791
 240.93183 238.72875 236.54168 234.37360 232.22652 230.08644 228.10537 226.25529
 224.53121 222.99614 221.61906 220.38398 219.25890 218.21183 217.30875 216.44267
 215.67760 214.85052 213.94144 213.29836 212.74129 212.60226 212.27478 212.53375
 213.44563 215.26041 216.68169 217.42632 218.59985 222.62695 228.47469 233.29340
 237.06070 240.84705 244.68629 248.42900 251.87341 254.93549 257.64127 260.20432
 262.68845 265.25079 267.79596 269.97281 271.94330 273.81012 275.45642 277.08008
 278.78015 280.44296 281.97369 283.33505 284.51733 285.56763 286.52936 287.40524
 288.19626 288.90796 289.53403 290.37460
 366.78100 356.32686 345.75071 334.60857 323.00342 311.18928 299.05113 286.84599
 274.54984 262.43870 250.43955 239.73241 229.84626 220.94212 213.11598 206.10983
 199.93569 194.86554 191.43940 189.47325 188.50211 188.55796 189.38482 190.68467
 192.40153 194.48838 196.74324 199.09409 201.53095 204.00281 206.08266 207.91652
 209.53437 210.67123 210.89208 211.11194 211.04079 210.73765 210.36250 209.98436
 209.59321 209.29507 209.09493 208.95078 208.87064 209.19349 209.57135 209.95220
 210.73706 211.90691 213.14877 214.92362 216.84348 218.87833 220.96519 223.04005
 225.09190 227.16776 229.25661 231.35447 233.47532 235.63918 237.88703 240.24889
 242.86174 245.10460 247.09845 248.85531 250.26416 251.37902 252.19288 252.50073
 252.52959 252.29544 251.64730 250.58715 249.18501 247.33786 245.23872 243.06357
 240.84643 238.64228 236.45414 234.28500 232.13685 229.99571 228.01356 226.16242
 224.43727 222.90113 221.52298 220.28684 219.16069 218.11255 217.20840 216.34126
 215.57512 214.74697 213.83683 213.19268 212.63454 212.55043 212.35237 212.66423
 213.55756 215.33382 216.73375 217.45422 218.66544 222.64722 228.43120 233.21854
 236.97467 240.76637 244.61662 248.34990 251.72667 254.76822 257.51166 260.10809
 262.54111 265.07220 267.63702 269.82925 271.81500 273.69424 275.35623 276.99084
 278.69196 280.35464 281.88461 283.24692 284.43021 285.47903 286.44159 287.31723
 288.11139 288.82138 289.44836 290.28964
 366.78100 356.32593 345.74886 334.60579 322.99972 311.18465 299.04557 286.83950
 274.54243 262.43036 250.43029 239.72222 229.83515 220.93008 213.10301 206.09594
 199.92087 194.84980 191.42272 189.45565 188.48358 188.53851 189.36444 190.66337
 192.37930 194.46523 196.71916 199.06909 201.50502 203.97595 206.05487 207.88780
 209.50473 210.64066 210.86059 211.07952 211.00745 210.70338 210.32731 209.94824
 209.55617 209.25710 209.05602 208.91095 208.82988 209.15181 209.52874 209.90867
 210.69260 211.86153 213.10246 214.87639 216.79532 218.82925 220.91517 222.98910
 225.04003 227.11496 229.20289 231.29982 233.41975 235.58268 237.82961 240.19054
 242.80247 245.04440 247.03732 248.79325 250.20118 251.31511 252.12804 252.43497
 252.46290 252.22783 251.57876 250.51769 249.11462 247.26655 245.16647 242.99040
 240.77233 238.56726 236.37819 234.20812 232.05905 229.91698 227.93391 226.08184
 224.35577 222.81870 221.43962 220.20255 219.07548 218.02641 217.12134 216.25327
 215.48620 214.65713 213.74606 213.10099 212.54192 212.50615 212.42198 212.79752
 213.67595 215.40663 216.77560 217.48433 218.74405 222.66446 228.39699 233.15149
 236.89122 240.68752 244.54424 248.26613 251.57472 254.59349 257.37543 260.00751
 262.39996 264.89563 267.46826 269.67276 271.67429 273.56900 275.24969 276.91110
 278.62213 280.28436 281.81796 283.17969 284.36426 285.41440 286.37714 287.25201
 288.04736 288.75751 289.38672 290.23044
 366.78100 356.32507 345.74714 334.60321 322.99628 311.18035 299.04042 286.83349
 274.53556 262.42263 250.42170 239.71277 229.82484 220.91891 213.09098 206.08305
 199.90712 194.83519 191.40726 189.43933 188.46640 188.52047 189.34554 190.64361
 192.35868 194.44375 196.69682 199.04589 201.48096 203.95103 206.02910 207.86117
 209.47724 210.61231 210.83138 211.04945 210.97652 210.67159 210.29466 209.91473
 209.52180 209.22187 209.01994 208.87401 208.79208 209.11315 209.48922 209.86829
 210.65136 211.81943 213.05950 214.83257 216.75064 218.78371 220.86878 222.94185
 224.99192 227.06600 229.15307 231.24914 233.36821 235.53028 237.77635 240.13642
 242.74749 244.98856 246.98063 248.73570 250.14277 251.25584 252.06791 252.37398
 252.40105 252.16512 251.51519 250.45326 249.04933 247.20040 245.09947 242.92254
 240.70361 238.49768 236.30775 234.13682 231.98689 229.84396 227.86003 226.00710
 224.28017 222.74224 221.36231 220.12438 218.99645 217.94652 217.04059 216.17166
 215.40373 214.57380 213.66187 213.01594 212.45601 212.46590 212.48935 212.93166
 213.79840 215.47952 216.81496 217.51669 218.83034 222.68279 228.36627 233.08844
 236.81145 240.61102 244.47415 248.17996 251.41911 254.40930 257.22690 259.89609
 262.26245 264.72272 267.29492 269.50937 271.52982 273.43576 275.12744 276.80789
 278.53482 280.24893 281.79285 283.15942 284.34448 285.39774 286.36514 287.24640
 288.04962 288.77023 289.40323 290.24792
 366.78100 356.32430 345.74561 334.60091 322.99321 311.17651 299.03582 286.82812
 274.52942 262.41573 250.41403 239.70433 229.81563 220.90894 213.08024 206.07154
 199.89485 194.82215 191.39345 189.42475 188.45106 188.50436 189.32866 190.62597
 192.34027 194.42457 196.67687 199.02518 201.45948 203.92878 206.00609 207.83739
 209.45269 210.58699 210.80530 211.02260 210.94890 210.64321 210.26551 209.88481
 209.49112 209.19042 208.98772 208.84102 208.75833 209.07863 209.45393 209.83224
 210.61454 211.78184 213.02114 214.79345 216.71075 218.74305 220.82736 222.89966
 224.94896 227.02226 229.10857 231.20387 233.32217 235.48348 237.72878 240.08808
 242.69838 244.93869 246.92999 248.68429 250.09060 251.20290 252.01420 252.31950
 252.34581 252.10911 251.45841 250.39572 248.99102 247.14132 245.03962 242.86193
 240.64223 238.43553 236.24484 234.07314 231.92244 229.77874 227.79405 225.94035
 224.21265 222.67396 221.29326 220.05456 218.92586 217.87517 216.96847 216.09877
 215.33008 214.49938 213.58668 212.93998 212.37929 212.43086 212.55270 213.06844
 213.91881 215.55702 216.85780 217.54735 218.91653 222.70955 228.33998 233.02394
 236.73083 240.53568 244.40581 248.09132 251.26059 254.21823 257.06799 259.77615
 262.12732 264.55640 267.11957 269.34692 271.39417 273.32098 275.02701 276.72131
 278.46619 280.20718 281.75571 283.12186 284.30896 285.36261 286.32953 287.21310
 288.01758 288.73865 289.37311 290.22025
 366.78100 356.32366 345.74431 334.59897 322.99062 311.17328 299.03193 286.82359
 274.52424 262.40990 250.40755 239.69721 229.80786 220.90052 213.07117 206.06183
 199.88448 194.81114 191.38179 189.41245 188.43810 188.49076 189.31441 190.61107
 192.32472 194.40838 196.66003 199.00769 201.44134 203.91000 205.98665 207.81731
 209.43196 210.56562 210.78327 210.99993 210.92559 210.61924 210.24090 209.85955
 209.46521 209.16386 208.96052 208.81317 208.72983 209.04948 209.42414 209.80179
 210.58345 211.75010 212.98876 214.76041 216.67707 218.70872 220.79238 222.86403
 224.91269 226.98534 229.07100 231.16565 233.28331 235.44396 237.68862 240.04727
 242.65693 244.89658 246.88724 248.64089 250.04655 251.15820 251.96886 252.27352
 252.29917 252.06183 251.41048 250.34714 248.94179 247.09145 244.98910 242.81076
 240.59041 238.38307 236.19172 234.01938 231.86803 229.72369 227.73834 225.88400
 224.15565 222.61631 221.23496 219.99562 218.86627 217.81493 216.90758 216.03724
 215.26789 214.43655 213.52320 212.87586 212.31451 212.40303 212.61214 213.20201
 214.04372 215.63536 216.91202 217.58090 219.00507 222.74063 228.31021 232.95586
 236.65108 240.46355 244.33817 247.99855 251.09653 254.01906 256.89679 259.64417
 261.98947 264.39374 266.94409 269.18643 271.26874 273.22214 274.94183 276.64450
 278.41632 280.16815 281.71924 283.08554 284.27356 285.32922 286.29477 287.18146
 287.98550 288.70770 289.34521 290.19232
 366.78100 356.32304 345.74308 334.59711 322.98815 311.17019 299.02823 286.81927
 274.51930 262.40434 250.40138 239.69042 229.80046 220.89249 213.06253 206.05257
 199.87461 194.80064 191.37068 189.40072 188.42576 188.47780 189.30083 190.59687
 192.30991 194.39295 196.64399 198.99102 201.42406 203.89210 205.96814 207.79818
 209.41221 210.54525 210.76229 210.97833 210.90337 210.59640 210.21744 209.83548
 209.44052 209.13855 208.93459 208.78663 208.70267 209.02171 209.39574 209.77278
 210.55382 211.71986 212.95790 214.72893 216.64497 218.67601 220.75905 222.83009
 224.87812 226.95016 229.03520 231.12924 233.24628 235.40631 237.65035 240.00839
 242.61743 244.85647 246.84650 248.59954 250.00458 251.11562 251.92565 252.22969
 252.25473 252.01677 251.36481 250.30084 248.89488 247.04392 244.94096 242.76200
 240.54103 238.33307 236.14111 233.96815 231.81619 229.67122 227.68526 225.83030
 224.10134 222.56138 221.17941 219.93945 218.80949 217.75753 216.84956 215.97860
 215.20864 214.37668 213.46272 212.81475 212.25279 212.37852 212.67560 213.32909
 214.16302 215.72386 216.97394 217.62422 219.10982 222.77643 228.28217 232.88922
 236.57106 240.39130 244.26678 247.89566 250.92055 253.80580 256.70944 259.49457
 261.84656 264.23563 266.77423 269.03625 271.15900 273.14447 274.87421 276.58029
 278.37131 280.13162 281.68402 283.05103 284.23862 285.29416 286.26193 287.14780
 287.95514 288.67810 289.31445 290.16617
 366.78100 356.32237 345.74173 334.59510 322.98546 311.16683 299.02419 286.81456
 274.51393 262.39829 250.39466 239.68302 229.79239 220.88376 213.05312 206.04249
 199.86385 194.78922 191.35858 189.38795 188.41232 188.46368 189.28605 190.58141
 192.29378 194.37614 196.62651 198.97288 201.40524 203.87261 205.94797 207.77734
 209.39070 210.52307 210.73944 210.95480 210.87917 210.57153 210.19190 209.80927
 209.41363 209.11100 208.90636 208.75773 208.67309 208.99146 209.36483 209.74119
 210.52156 211.68692 212.92429 214.69465 216.61002 218.64039 220.72275 222.79312
 224.84048 226.91185 228.99621 231.08958 233.20595 235.36531 237.60868 239.96604
 242.57441 244.81278 246.80214 248.55451 249.95887 251.06924 251.87860 252.18197
 252.20634 251.96770 251.31507 250.25043 248.84380 246.99216 244.88853 242.70890
 240.48726 238.27863 236.08599 233.91236 231.75973 229.61409 227.62746 225.77182
 224.04219 222.50155 221.11892 219.87829 218.74765 217.69502 216.78638 215.91475
 215.14411 214.31148 213.39685 212.74821 212.18558 212.35208 212.74548 213.46298
 214.24542 215.81647 217.10023 217.68401 219.21526 222.81277 228.26207 232.81535
 236.47891 240.30803 244.18198 247.77615 250.72745 253.57764 256.50824 259.33279
 261.70493 264.08722 266.61328 268.89795 271.06232 273.08563 274.83362 276.54547
 278.32877 280.09003 281.64246 283.01047 284.19864 285.25464 286.22366 287.10977
 287.91818 288.64346 289.27997 290.13156
 366.78100 356.32241 345.74181 334.59522 322.98563 311.16704 299.02444 286.81485
 274.51426 262.39866 250.39507 239.68348 229.79289 220.88429 213.05370 206.04311
 199.86451 194.78992 191.35933 189.38874 188.41314 188.46455 189.28696 190.58236
 192.29477 194.37718 196.62759 198.97399 201.40640 203.87381 205.94921 207.77862
 209.39203 210.52444 210.74084 210.95625 210.88066 210.57306 210.19347 209.81088
 209.41529 209.11269 208.90810 208.75951 208.67491 208.99332 209.36673 209.74313
 210.52354 211.68895 212.92636 214.69676 216.61217 218.64258 220.72498 222.79539
 224.84280 226.91421 228.99861 231.09202 233.20843 235.36783 237.61124 239.96865
 242.57706 244.81546 246.80487 248.55728 249.96168 251.07209 251.88150 252.18491
 252.20931 251.97072 251.31813 250.25353 248.84694 246.99535 244.89176 242.71216
 240.49057 238.28198 236.08938 233.91579 231.76320 229.61761 227.63101 225.77542
 224.04583 222.50523 221.12264 219.88205 218.75146 217.69886 216.79027 215.91868
 215.14808 214.31549 213.40090 212.75231 212.18971 212.36292 212.77208 213.61797
 214.38467 215.80652 217.27640 217.88837 219.31114 222.79947 228.19157 232.70413
 236.36560 240.21162 244.08752 247.64786 250.53027 253.34732 256.30478 259.16901
 261.57507 263.95459 266.46225 268.76892 270.97607 273.04156 274.81271 276.53091
 278.28970 280.04990 281.60162 282.96979 284.15918 285.21451 286.18454 287.07181
 287.88135 288.60773 289.24496 290.10056
 366.78100 356.32269 345.74237 334.59606 322.98675 311.16843 299.02612 286.81681
 274.51649 262.40118 250.39787 239.68656 229.79624 220.88793 213.05762 206.04730
 199.86899 194.79468 191.36436 189.39405 188.41874 188.47042 189.29311 190.58880
 192.30148 194.38417 196.63486 198.98154 201.41423 203.88192 205.95760 207.78729
 209.40098 210.53367 210.75035 210.96604 210.89073 210.58341 210.20410 209.82179
 209.42647 209.12416 208.91985 208.77153 208.68722 209.00591 209.37959 209.75628
 210.53697 211.70265 212.94034 214.71103 216.62671 218.65740 220.74009 222.81078
 224.85846 226.93015 229.01484 231.10852 233.22521 235.38490 237.62858 239.98627
 242.59496 244.83364 246.82333 248.57602 249.98070 251.09139 251.90108 252.20476
 252.22945 251.99114 251.33882 250.27451 248.86820 247.01689 244.91357 242.73426
 240.51295 238.30463 236.11232 233.93901 231.78669 229.64138 227.65507 225.79975
 224.07044 222.53013 221.14781 219.90750 218.77719 217.72487 216.81656 215.94525
 215.17493 214.34262 213.42831 212.78000 212.21768 212.38818 212.79102 213.75519
 214.57838 215.84082 217.34015 218.03563 219.41295 222.78349 228.12840 232.61330
 236.27122 240.13002 244.00038 247.52156 250.33690 253.12025 256.10092 259.00153
 261.44836 263.83057 266.31934 268.64993 270.89859 273.00656 274.80222 276.53070
 278.27820 280.00815 281.55670 282.92386 284.11166 285.16785 286.13647 287.02625
 287.83542 288.56631 289.20468 290.06021
 366.78100 356.32252 345.74204 334.59555 322.98607 311.16759 299.02511 286.81563
 274.51514 262.39966 250.39618 239.68470 229.79422 220.88573 213.05525 206.04477
 199.86629 194.79181 191.36133 189.39084 188.41536 188.46688 189.28940 190.58492
 192.29743 194.37995 196.63047 198.97699 201.40951 203.87702 205.95254 207.78206
 209.39558 210.52810 210.74461 210.96013 210.88465 210.57717 210.19769 209.81520
 209.41972 209.11724 208.91276 208.76428 208.67979 208.99831 209.37183 209.74835
 210.52887 211.69438 212.93190 214.70242 216.61794 218.64846 220.73098 222.80149
 224.84901 226.92053 229.00505 231.09857 233.21508 235.37460 237.61812 239.97564
 242.58416 244.82267 246.81219 248.56471 249.96923 251.07975 251.88926 252.19278
 252.21730 251.97882 251.32634 250.26185 248.85537 247.00389 244.90041 242.72093
 240.49944 238.29096 236.09848 233.92500 231.77252 229.62703 227.64055 225.78507
 224.05559 222.51511 221.13263 219.89214 218.76166 217.70918 216.80070 215.92922
 215.15873 214.32625 213.41177 212.76329 212.20081 212.39311 212.84747 213.86464
 214.74704 215.92850 217.33739 218.15083 219.56607 222.78809 228.10597 232.55388
 236.18916 240.05330 243.90987 247.38580 250.13686 252.88852 255.88712 258.81784
 261.30887 263.69995 266.17349 268.53265 270.82773 272.98007 274.79758 276.52188
 278.25772 279.96964 281.51663 282.88217 284.06952 285.12625 286.09317 286.98087
 287.79193 288.52066 289.15741 290.01212
 366.78100 356.32275 345.74249 334.59624 322.98699 311.16873 299.02648 286.81723
 274.51698 262.40172 250.39847 239.68722 229.79696 220.88871 213.05846 206.04820
 199.86995 194.79570 191.36544 189.39519 188.41994 188.47169 189.29443 190.59018
 192.30293 194.38567 196.63642 198.98317 201.41591 203.88366 205.95941 207.78916
 209.40290 210.53565 210.75240 210.96814 210.89289 210.58564 210.20638 209.82413
 209.42888 209.12662 208.92237 208.77412 208.68987 209.00861 209.38236 209.75911
 210.53985 211.70560 212.94335 214.71409 216.62984 218.66059 220.74333 222.81408
 224.86183 226.93358 229.01832 231.11207 233.22882 235.38856 237.63231 239.99006
 242.59880 244.83755 246.82730 248.58004 249.98479 251.09554 251.90529 252.20903
 252.23378 251.99553 251.34327 250.27902 248.87277 247.02151 244.91826 242.73901
 240.51776 238.30950 236.11725 233.94400 231.79174 229.64649 227.66024 225.80498
 224.07573 222.53548 221.15322 219.91297 218.78272 217.73047 216.82221 215.95096
 215.18071 214.34845 213.43420 212.78595 212.22369 212.42328 212.89482 213.93672
 214.90562 216.05858 217.34909 218.28432 219.76501 222.81390 228.09755 232.49301
 236.09941 239.96558 243.80472 247.23184 249.92227 252.64584 255.65991 258.61856
 261.15634 263.56256 266.02438 268.41531 270.75641 272.95227 274.80603 276.54565
 278.30450 279.92999 281.46918 282.83490 284.02286 285.07687 286.04520 286.93298
 287.74487 288.47479 289.11142 289.96686
 366.78100 356.32397 345.74494 334.59991 322.99188 311.17485 299.03382 286.82579
 274.52676 262.41273 250.41070 239.70067 229.81164 220.90461 213.07558 206.06655
 199.88952 194.81649 191.38746 189.41843 188.44440 188.49737 189.32134 190.61830
 192.33227 194.41624 196.66821 199.01618 201.45015 203.91912 205.99609 207.82706
 209.44203 210.57600 210.79397 211.01094 210.93691 210.63088 210.25285 209.87182
 209.47779 209.17676 208.97373 208.82670 208.74367 209.06364 209.43861 209.81658
 210.59855 211.76552 213.00449 214.77646 216.69343 218.72540 220.80937 222.88134
 224.93031 227.00328 229.08925 231.18422 233.30219 235.46316 237.70813 240.06710
 242.67707 244.91704 246.90801 248.66198 250.06794 251.17991 251.99088 252.29585
 252.32182 252.08479 251.43376 250.37073 248.96570 247.11567 245.01364 242.83561
 240.61558 238.40855 236.21752 234.04549 231.89446 229.75043 227.76540 225.91137
 224.18334 222.64431 221.26328 220.02425 218.89522 217.84419 216.93716 216.06713
 215.29810 214.46707 213.55404 212.90701 212.34598 212.51274 212.90675 213.95528
 215.08025 216.22551 217.41554 218.45906 219.98247 222.87332 228.07451 232.41582
 235.99858 239.86589 243.67999 247.04887 249.68008 252.38661 255.41780 258.40338
 260.99530 263.42868 265.88690 268.30917 270.69012 272.92392 274.81540 276.57715
 278.35501 279.93945 281.43762 282.79562 283.97922 285.03036 285.99677 286.87930
 287.68982 288.41699 289.03873 289.88025
 366.78100 356.32528 345.74756 334.60384 322.99712 311.18140 299.04168 286.83496
 274.53724 262.42452 250.42381 239.71509 229.82737 220.92165 213.09393 206.08621
 199.91049 194.83877 191.41105 189.44333 188.47061 188.52489 189.35017 190.64845
 192.36373 194.44901 196.70229 199.05157 201.48685 203.95713 206.03542 207.86770
 209.48398 210.61926 210.83854 211.05682 210.98410 210.67938 210.30266 209.92294
 209.53022 209.23050 209.02878 208.88306 208.80134 209.12262 209.49890 209.87818
 210.66146 211.82974 213.07003 214.84331 216.76159 218.79487 220.88015 222.95343
 225.00371 227.07799 229.16527 231.26155 233.38083 235.54311 237.78939 240.14967
 242.76095 245.00223 246.99451 248.74979 250.15707 251.27036 252.08264 252.38892
 252.41620 252.18048 251.53076 250.46904 249.06532 247.21660 245.11588 242.93916
 240.72044 238.51472 236.32500 234.15428 232.00456 229.86184 227.87812 226.02540
 224.29868 222.76097 221.38125 220.14353 219.01581 217.96609 217.06037 216.19165
 215.42393 214.59421 213.68249 213.03677 212.47705 212.61143 212.92892 213.96469
 215.24283 216.38098 217.51904 218.64201 220.17551 222.96286 228.03456 232.33809
 235.89653 239.76208 243.53995 246.83984 249.41919 252.11667 255.16696 258.17780
 260.82855 263.29968 265.76678 268.22589 270.64355 272.91251 274.83566 276.60901
 278.37582 279.94620 281.42035 282.77554 283.95959 285.01123 285.97623 286.86029
 287.67136 288.39432 289.01822 289.85855
 366.78100 356.32556 345.74811 334.60467 322.99822 311.18278 299.04333 286.83689
 274.53944 262.42700 250.42655 239.71811 229.83066 220.92522 213.09777 206.09033
 199.91489 194.84344 191.41600 189.44855 188.47611 188.53066 189.35622 190.65477
 192.37033 194.45588 196.70944 199.05899 201.49455 203.96510 206.04366 207.87621
 209.49277 210.62833 210.84788 211.06644 210.99399 210.68955 210.31310 209.93366
 209.54121 209.24177 209.04032 208.89488 208.81343 209.13499 209.51154 209.89110
 210.67466 211.84321 213.08377 214.85732 216.77588 218.80943 220.89499 222.96854
 225.01910 227.09365 229.18121 231.27776 233.39732 235.55987 237.80643 240.16699
 242.77854 245.02010 247.01265 248.76821 250.17576 251.28932 252.10187 252.40843
 252.43598 252.20054 251.55109 250.48965 249.08620 247.23776 245.13731 242.96087
 240.74243 238.53698 236.34754 234.17709 232.02765 229.88520 227.90176 226.04931
 224.32287 222.78542 221.40598 220.16853 219.04109 217.99164 217.08620 216.21776
 215.45031 214.62087 213.70942 213.06398 212.50453 212.65112 212.99745 214.05988
 215.32365 216.46338 217.64180 218.79633 220.32468 223.06227 227.99104 232.26923
 235.80530 239.66376 243.39749 246.62598 249.17886 251.86569 254.92963 257.96335
 260.66956 263.17972 265.66458 268.16019 270.60428 272.88678 274.83536 276.62250
 278.39648 279.98529 281.40442 282.75629 283.94009 284.99060 285.95544 286.83795
 287.64783 288.37329 288.99356 289.83334
 366.78100 356.32492 345.74685 334.60277 322.99570 311.17962 299.03955 286.83247
 274.53440 262.42132 250.42025 239.71117 229.82310 220.91702 213.08895 206.08087
 199.90480 194.83272 191.40465 189.43657 188.46350 188.51742 189.34235 190.64027
 192.35520 194.44012 196.69305 199.04197 201.47690 203.94682 206.02475 207.85667
 209.47260 210.60752 210.82645 211.04437 210.97130 210.66622 210.28915 209.90907
 209.51600 209.21592 209.01385 208.86777 208.78570 209.10662 209.48255 209.86147
 210.64440 211.81232 213.05225 214.82517 216.74310 218.77602 220.86095 222.93387
 224.98380 227.05772 229.14465 231.24057 233.35950 235.52142 237.76735 240.12727
 242.73820 244.97912 246.97105 248.72597 250.13290 251.24582 252.05775 252.36367
 252.39060 252.15452 251.50445 250.44237 249.03830 247.18922 245.08815 242.91107
 240.69200 238.48592 236.29585 234.12477 231.97470 229.83162 227.84755 225.99447
 224.26740 222.72932 221.34925 220.11117 218.98310 217.93302 217.02695 216.15787
 215.38980 214.55972 213.64765 213.00157 212.44150 212.63651 213.09723 214.23500
 215.33165 216.50200 217.77975 218.92897 220.45155 223.16348 227.95184 232.19731
 235.72087 239.56161 243.24368 246.40674 248.96016 251.64107 254.71057 257.76740
 260.53235 263.08627 265.59042 268.10678 270.55963 272.84293 274.81546 276.63196
 278.41916 280.01144 281.39883 282.74683 283.92981 284.97986 285.94312 286.82712
 287.63657 288.36374 288.98218 289.81998
 366.78100 356.32509 345.74718 334.60326 322.99635 311.18044 299.04053 286.83362
 274.53570 262.42279 250.42188 239.71297 229.82506 220.91914 213.09123 206.08332
 199.90741 194.83550 191.40758 189.43967 188.46676 188.52085 189.34593 190.64402
 192.35911 194.44420 196.69729 199.04637 201.48146 203.95155 206.02964 207.86173
 209.47781 210.61290 210.83199 211.05008 210.97717 210.67225 210.29534 209.91543
 209.52252 209.22261 209.02069 208.87478 208.79287 209.11396 209.49005 209.86913
 210.65222 211.82031 213.06040 214.83349 216.75157 218.78466 220.86975 222.94284
 224.99292 227.06701 229.15410 231.25019 233.36928 235.53136 237.77745 240.13754
 242.74863 244.98972 246.98180 248.73689 250.14398 251.25707 252.06916 252.37524
 252.40233 252.16642 251.51651 250.45460 249.05068 247.20177 245.10086 242.92395
 240.70504 238.49912 236.30921 234.13830 231.98839 229.84548 227.86156 226.00865
 224.28174 222.74383 221.36391 220.12600 218.99809 217.94818 217.04227 216.17335
 215.40544 214.57553 213.66362 213.01771 212.45779 212.66420 213.15187 214.39639
 215.37222 216.58801 217.89432 219.05191 220.60947 223.25821 227.92960 232.12923
 235.64212 239.44574 243.06100 246.15671 248.71307 251.40059 254.48027 257.57019
 260.40549 263.01636 265.54419 268.07129 270.53476 272.83209 274.83206 276.66119
 278.43527 280.01578 281.38681 282.72879 283.90979 284.95721 285.91620 286.80048
 287.61304 288.33099 288.94595 289.78552
 366.78100 356.32608 345.74915 334.60623 323.00030 311.18538 299.04645 286.84053
 274.54360 262.43168 250.43175 239.72383 229.83690 220.93198 213.10505 206.09813
 199.92320 194.85228 191.42535 189.45843 188.48650 188.54158 189.36765 190.66673
 192.38280 194.46888 196.72295 199.07303 201.50910 203.98018 206.05925 207.89233
 209.50940 210.64548 210.86555 211.08463 211.01270 210.70878 210.33285 209.95393
 209.56200 209.26308 209.06215 208.91723 208.83630 209.15838 209.53545 209.91553
 210.69960 211.86868 213.10975 214.88383 216.80290 218.83698 220.92305 222.99713
 225.04820 227.12328 229.21135 231.30843 233.42850 235.59158 237.83865 240.19973
 242.81180 245.05388 247.04695 248.80303 250.21110 251.32518 252.13825 252.44533
 252.47340 252.23848 251.58955 250.52863 249.12570 247.27778 245.17785 243.00193
 240.78400 238.57908 236.39015 234.22023 232.07130 229.92938 227.94645 226.09453
 224.36860 222.83168 221.45275 220.21583 219.08890 218.03998 217.13505 216.26713
 215.50020 214.67128 213.76035 213.11543 212.55650 212.73819 213.16743 214.51295
 215.49284 216.71370 217.97534 219.15994 220.78622 223.37343 227.92802 232.06863
 235.56610 239.31546 242.84634 245.86337 248.41394 251.12276 254.22792 257.36411
 260.27524 262.95163 265.51401 268.05896 270.53506 272.84662 274.86215 276.68863
 278.44907 280.02338 281.36078 282.69537 283.87054 284.91461 285.87015 286.75339
 287.57098 288.28265 288.89673 289.73120
 366.78100 356.32686 345.75072 334.60858 323.00344 311.18930 299.05116 286.84602
 274.54988 262.43874 250.43960 239.73246 229.84632 220.94218 213.11604 206.10990
 199.93576 194.86562 191.43948 189.47334 188.50221 188.55807 189.38493 190.68479
 192.40165 194.48851 196.74337 199.09423 201.53109 204.00295 206.08281 207.91667
 209.53453 210.67139 210.89225 211.11211 211.04097 210.73783 210.36269 209.98455
 209.59341 209.29527 209.09513 208.95099 208.87085 209.19371 209.57157 209.95243
 210.73729 211.90715 213.14901 214.92387 216.84373 218.87859 220.96545 223.04031
 225.09217 227.16803 229.25689 231.35475 233.47562 235.63948 237.88734 240.24920
 242.86206 245.10492 247.09878 248.85564 250.26450 251.37936 252.19322 252.50108
 252.52994 252.29580 251.64766 250.58752 249.18538 247.33824 245.23910 243.06396
 240.84682 238.64268 236.45454 234.28540 232.13726 229.99612 228.01398 226.16284
 224.43770 222.90156 221.52342 220.28728 219.16114 218.11300 217.20886 216.34172
 215.57558 214.74744 213.83730 213.19316 212.63503 212.80293 213.19963 214.60246
 215.61734 216.85585 218.08235 219.26733 220.94481 223.48846 227.93761 232.02103
 235.49579 239.18182 242.61638 245.54942 248.09457 250.83788 253.97839 257.16360
 260.14542 262.88626 265.48923 268.05728 270.53870 272.84866 274.87009 276.70490
 278.46896 280.05286 281.41611 282.63782 283.80402 284.84811 285.80453 286.68985
 287.50635 288.20630 288.82129 289.65131
 366.78100 356.32773 345.75247 334.61120 323.00693 311.19367 299.05640 286.85213
 274.55686 262.44660 250.44833 239.74206 229.85680 220.95353 213.12826 206.12300
 199.94973 194.88046 191.45519 189.48993 188.51966 188.57639 189.40413 190.70486
 192.42259 194.51033 196.76606 199.11779 201.55553 204.02826 206.10899 207.94372
 209.56246 210.70019 210.92192 211.14266 211.07239 210.77012 210.39586 210.01859
 209.62832 209.33106 209.13179 208.98852 208.90925 209.23299 209.61172 209.99345
 210.77919 211.94992 213.19265 214.96839 216.88912 218.92485 221.01258 223.08832
 225.14105 227.21778 229.30752 231.40625 233.52798 235.69272 237.94145 240.30418
 242.91792 245.16165 247.15638 248.91411 250.32385 251.43958 252.25431 252.56305
 252.59278 252.35951 251.71225 250.65298 249.25171 247.40545 245.30718 243.13291
 240.91664 238.71338 236.52611 234.35784 232.21058 230.07031 228.08904 226.23878
 224.51451 222.97924 221.60197 220.36671 219.24144 218.19417 217.29091 216.42464
 215.65937 214.83211 213.92284 213.27957 212.72231 212.87448 213.23402 214.65727
 215.74321 217.00774 218.22719 219.39514 221.11121 223.59425 227.95596 231.99612
 235.43109 239.04832 242.37650 245.22307 247.77106 250.55807 253.73665 256.96603
 260.00629 262.80505 265.45480 268.05563 270.54001 272.84323 274.87241 276.72083
 278.48834 280.07465 281.45694 282.61227 283.75540 284.79852 285.76654 286.64542
 287.42688 288.11975 288.73257 289.56210
 366.78100 356.32885 345.75470 334.61456 323.01141 311.19926 299.06311 286.85997
 274.56582 262.45667 250.45952 239.75438 229.87023 220.96808 213.14393 206.13979
 199.96764 194.89949 191.47534 189.51120 188.54205 188.59990 189.42875 190.73061
 192.44946 194.53831 196.79516 199.14802 201.58687 204.06072 206.14257 207.97843
 209.59828 210.73713 210.95998 211.18184 211.11269 210.81154 210.43839 210.06225
 209.67310 209.37695 209.17880 209.03665 208.95851 209.28336 209.66321 210.04606
 210.83292 212.00477 213.24862 215.02547 216.94733 218.98418 221.07303 223.14988
 225.20374 227.28159 229.37244 231.47229 233.59515 235.76100 238.01085 240.37470
 242.98956 245.23441 247.23026 248.98911 250.39997 251.51682 252.33267 252.64252
 252.67338 252.44123 251.79508 250.73693 249.33679 247.49164 245.39449 243.22134
 241.00620 238.80405 236.61790 234.45075 232.30460 230.16546 228.18531 226.33616
 224.61301 223.07887 221.70272 220.46857 219.34442 218.29828 217.39613 216.53098
 215.76683 214.94069 214.03254 213.39039 212.83424 212.96544 213.27539 214.60608
 215.90157 217.25183 218.38940 219.55202 221.29533 223.71173 227.97543 231.98282
 235.36865 238.91081 242.12253 244.87198 247.41576 250.24910 253.46962 256.73816
 259.83054 262.69876 265.41980 268.06570 270.55524 272.85315 274.89343 276.75623
 278.52045 280.10202 281.48157 282.67795 283.66092 284.68625 285.64981 286.52628
 287.30222 287.99481 288.60794 289.45404
 366.78100 356.33133 345.75965 334.62198 323.02130 311.21163 299.07796 286.87728
 274.58561 262.47893 250.48426 239.78159 229.89991 221.00024 213.17856 206.17689
 200.00722 194.94154 191.51987 189.55819 188.59152 188.65185 189.48317 190.78750
 192.50882 194.60015 196.85948 199.21480 201.65613 204.13246 206.21678 208.05511
 209.67743 210.81876 211.04409 211.26841 211.20174 210.90306 210.53239 210.15872
 209.77204 209.47837 209.28269 209.14302 209.06735 209.39467 209.77700 210.16232
 210.95165 212.12598 213.37230 215.15163 217.07595 219.11528 221.20661 223.28593
 225.34226 227.42258 229.51591 231.61824 233.74356 235.91189 238.16421 240.53054
 243.14787 245.39519 247.39352 249.15484 250.56817 251.68750 252.50582 252.81815
 252.85147 252.62180 251.97813 250.92245 249.52478 247.68211 245.58743 243.41676
 241.20408 239.00441 236.82074 234.65606 232.51239 230.37571 228.39804 226.55137
 224.83069 223.29902 221.92534 220.69367 219.57200 218.52832 217.62865 216.76597
 216.00430 215.18063 214.27495 213.63528 213.08160 213.12944 213.24243 214.57675
 216.05054 217.49910 218.58090 219.69031 221.50389 223.82251 228.01767 232.01993
 235.33379 238.77866 241.84558 244.48013 247.02039 249.90753 253.17636 256.48935
 259.64792 262.60464 265.40140 268.08109 270.56668 272.85382 274.90668 276.78738
 278.55792 280.13733 281.51010 282.70499 283.66611 284.63721 285.57114 286.41101
 287.16418 287.84723 288.46634 289.33340
 366.78100 356.33299 345.76298 334.62698 323.02797 311.21996 299.08795 286.88894
 274.59894 262.49393 250.50092 239.79991 229.91990 221.02190 213.20189 206.20188
 200.03387 194.96986 191.54986 189.58985 188.62484 188.68683 189.51982 190.82582
 192.54881 194.64180 196.90279 199.25978 201.70278 204.18077 206.26676 208.10675
 209.73074 210.87374 211.10073 211.32672 211.26171 210.96470 210.59570 210.22369
 209.83868 209.54667 209.35266 209.21466 209.14065 209.46964 209.85363 210.24062
 211.03162 212.20761 213.45560 215.23659 217.16258 219.20358 221.29657 223.37756
 225.43555 227.51754 229.61254 231.71653 233.84352 236.01351 238.26750 240.63550
 243.25449 245.50348 247.50347 249.26646 250.68146 251.80245 252.62244 252.93643
 252.97142 252.74342 252.10141 251.04740 249.65139 247.81038 245.71738 243.54837
 241.33736 239.13935 236.95734 234.79434 232.65233 230.51732 228.54131 226.69630
 224.97730 223.44729 222.07528 220.84527 219.72526 218.68326 217.78525 216.92424
 216.16423 215.34222 214.43822 213.80021 213.24820 213.24844 213.24901 214.59935
 216.13443 217.61368 218.73917 219.86624 221.70357 224.04874 228.08888 232.05479
 235.31757 238.65814 241.56285 244.06853 246.61096 249.56783 252.90340 256.27667
 259.50739 262.53830 265.38171 268.06775 270.53839 272.81366 274.88348 276.79224
 278.57941 280.16113 281.53204 282.71661 283.72974 284.67178 285.62631 286.32880
 287.01294 287.70279 288.32886 289.21255
 366.78100 356.33318 345.76335 334.62753 323.02870 311.22088 299.08905 286.89023
 274.60040 262.49558 250.50275 239.80193 229.92210 221.02428 213.20445 206.20463
 200.03680 194.97298 191.55315 189.59333 188.62850 188.69068 189.52385 190.83003
 192.55320 194.64638 196.90755 199.26473 201.70790 204.18608 206.27225 208.11243
 209.73660 210.87978 211.10695 211.33313 211.26830 210.97148 210.60265 210.23083
 209.84600 209.55418 209.36035 209.22253 209.14870 209.47788 209.86205 210.24923
 211.04040 212.21658 213.46476 215.24593 217.17211 219.21328 221.30646 223.38763
 225.44581 227.52798 229.62316 231.72733 233.85451 236.02468 238.27886 240.64703
 243.26621 245.51538 247.51556 249.27873 250.69391 251.81508 252.63526 252.94943
 252.98461 252.75678 252.11496 251.06113 249.66531 247.82448 245.73166 243.56283
 241.35201 239.15418 236.97236 234.80953 232.66771 230.53288 228.55706 226.71223
 224.99341 223.46358 222.09176 220.86193 219.74211 218.70028 217.80246 216.94163
 216.18181 215.35998 214.45616 213.81833 213.26651 213.28397 213.32521 214.65331
 216.20030 217.65652 218.88646 220.11990 221.88965 224.23480 228.13760 232.05515
 235.26689 238.49835 241.25494 243.66159 246.24129 249.28191 252.68291 256.10788
 259.39444 262.47635 265.34988 268.03760 270.49902 272.76575 274.85239 276.78461
 278.58621 280.16663 281.52997 282.70154 283.68243 284.66028 285.62326 286.14090
 286.89368 287.59460 288.22879 289.10553
 366.78100 356.33487 345.76673 334.63260 323.03546 311.22933 299.09919 286.90206
 274.61392 262.51079 250.51966 239.82052 229.94239 221.04625 213.22812 206.22998
 200.06385 195.00172 191.58358 189.62545 188.66231 188.72618 189.56104 190.86891
 192.59377 194.68864 196.95151 199.31037 201.75524 204.23510 206.32297 208.16483
 209.79070 210.93557 211.16443 211.39230 211.32916 211.03403 210.66689 210.29676
 209.91362 209.62349 209.43136 209.29522 209.22309 209.55395 209.93982 210.32868
 211.12155 212.29942 213.54928 215.33215 217.26001 219.30288 221.39774 223.48061
 225.54047 227.62434 229.72121 231.82707 233.95594 236.12780 238.38367 240.75353
 243.37440 245.62527 247.62713 249.39200 250.80886 251.93173 252.75359 253.06946
 253.10632 252.88019 252.24006 251.18792 249.79379 247.95465 245.86352 243.69638
 241.48725 239.29112 237.11098 234.94985 232.80971 230.67658 228.70244 226.85931
 225.14217 223.61404 222.24391 221.01577 219.89764 218.85750 217.96137 217.10223
 216.34410 215.52397 214.62183 213.98570 213.43556 213.39690 213.30557 214.74553
 216.33855 217.70560 219.03156 220.32706 222.02695 224.37512 228.19571 232.04482
 235.18428 238.30257 240.93736 243.28485 245.92151 249.03745 252.47835 255.94229
 259.28046 262.41183 265.31888 268.01205 270.46017 272.71121 274.80200 276.74780
 278.55530 280.13727 281.50192 282.67206 283.61118 284.56543 285.52777 286.08728
 286.83859 287.53683 288.16742 289.04333
 366.78100 356.33643 345.76986 334.63728 323.04171 311.23714 299.10857 286.91299
 274.62642 262.52485 250.53528 239.83771 229.96113 221.06656 213.24999 206.25342
 200.08885 195.02827 191.61170 189.65513 188.69356 188.75898 189.59541 190.90484
 192.63127 194.72770 196.99212 199.35255 201.79898 204.28041 206.36983 208.21326
 209.84069 210.98712 211.21755 211.44697 211.38540 211.09183 210.72626 210.35768
 209.97611 209.68754 209.49697 209.36240 209.29182 209.62425 210.01168 210.40211
 211.19654 212.37596 213.62739 215.41182 217.34125 219.38567 221.48210 223.56653
 225.62796 227.71339 229.81181 231.91924 234.04967 236.22310 238.48052 240.85195
 243.47438 245.72681 247.73024 249.49666 250.91509 252.03952 252.86295 253.18037
 253.21880 252.99423 252.35566 251.30509 249.91251 248.07494 245.98537 243.81980
 241.61223 239.41765 237.23908 235.07951 232.94094 230.80936 228.83679 226.99522
 225.27965 223.75308 222.38450 221.15793 220.04136 219.00279 218.10821 217.25064
 216.49407 215.67550 214.77493 214.14035 213.59178 213.50385 213.29610 214.81464
 216.49829 217.81900 219.13957 220.42432 222.08884 224.49936 228.30190 232.07310
 235.12146 238.14362 240.66281 242.93529 245.60005 248.77493 252.26172 255.77527
 259.16864 262.34961 265.28046 267.96356 270.38611 272.62161 274.72342 276.68677
 278.50372 280.08939 281.46054 282.64059 283.58936 284.55042 285.51523 286.02509
 286.74463 287.43567 288.06656 288.93903
 366.78100 356.33676 345.77052 334.63828 323.04304 311.23880 299.11056 286.91532
 274.62908 262.52783 250.53859 239.84135 229.96511 221.07087 213.25463 206.25839
 200.09415 195.03391 191.61767 189.66143 188.70019 188.76595 189.60271 190.91247
 192.63923 194.73598 197.00074 199.36150 201.80826 204.29002 206.37978 208.22354
 209.85130 210.99806 211.22882 211.45858 211.39734 211.10410 210.73886 210.37062
 209.98938 209.70113 209.51089 209.37665 209.30641 209.63917 210.02693 210.41769
 211.21245 212.39221 213.64397 215.42873 217.35849 219.40325 221.50001 223.58477
 225.64653 227.73229 229.83104 231.93880 234.06956 236.24332 238.50108 240.87284
 243.49560 245.74836 247.75212 249.51888 250.93764 252.06240 252.88616 253.20392
 253.24268 253.01844 252.38019 251.32995 249.93771 248.10047 246.01123 243.84599
 241.63875 239.44451 237.26627 235.10703 232.96879 230.83755 228.86531 227.02407
 225.30883 223.78259 222.41435 221.18810 220.07186 219.03362 218.13938 217.28214
 216.52590 215.70766 214.80742 214.17318 213.62494 213.54697 213.36272 214.84303
 216.58170 217.96849 219.27991 220.58315 222.21182 224.64737 228.41699 232.00771
 235.05130 237.98289 240.39799 242.59161 245.26279 248.49867 252.04729 255.62479
 259.07568 262.28842 265.22256 267.88885 270.29156 272.52176 274.64279 276.62183
 278.43808 280.01654 281.37714 282.56381 283.58234 284.57327 285.45761 285.93921
 286.61798 287.31076 287.93756 288.80255
 366.78100 356.33697 345.77093 334.63890 323.04386 311.23983 299.11179 286.91676
 274.63073 262.52969 250.54066 239.84362 229.96759 221.07355 213.25752 206.26149
 200.09745 195.03742 191.62138 189.66535 188.70431 188.77028 189.60725 190.91721
 192.64418 194.74114 197.00611 199.36707 201.81404 204.29600 206.38597 208.22994
 209.85790 211.00487 211.23583 211.46580 211.40476 211.11173 210.74670 210.37866
 209.99763 209.70959 209.51956 209.38552 209.31549 209.64846 210.03642 210.42739
 211.22235 212.40232 213.65428 215.43925 217.36922 219.41418 221.51115 223.59611
 225.65808 227.74404 229.84301 231.95098 234.08194 236.25591 238.51387 240.88584
 243.50880 245.76177 247.76574 249.53270 250.95167 252.07663 252.90060 253.21856
 253.25753 253.03350 252.39546 251.34543 249.95339 248.11636 246.02732 243.86229
 241.65526 239.46122 237.28319 235.12415 232.98612 230.85508 228.88305 227.04201
 225.32698 223.80095 222.43291 221.20688 220.09084 219.05281 218.15877 217.30174
 216.54571 215.72767 214.82764 214.19360 213.64557 213.58398 213.43851 214.86212
 216.68475 218.09648 219.44812 220.78975 222.36858 224.76942 228.49762 231.93468
 234.97198 237.80481 240.13353 242.26157 244.93622 248.24174 251.86801 255.49911
 258.96893 262.18695 265.13419 267.81943 270.23013 272.46030 274.57697 276.53973
 278.34598 279.91681 281.27231 282.47113 283.45352 284.51788 285.45935 285.96005
 286.41199 287.10416 287.73080 288.56879
 366.78100 356.33841 345.77382 334.64323 323.04964 311.24705 299.12046 286.92687
 274.64228 262.54269 250.55510 239.85951 229.98492 221.09233 213.27774 206.28315
 200.12056 195.06197 191.64738 189.69279 188.73320 188.80061 189.63903 190.95044
 192.67885 194.77726 197.04367 199.40608 201.85449 204.33790 206.42931 208.27472
 209.90413 211.05254 211.28495 211.51636 211.45677 211.16518 210.80159 210.43500
 210.05541 209.76882 209.58023 209.44764 209.37905 209.71346 210.10287 210.49528
 211.29169 212.47310 213.72651 215.51292 217.44433 219.49074 221.58915 223.67556
 225.73897 227.82638 229.92679 232.03620 234.16861 236.34402 238.60343 240.97684
 243.60126 245.85567 247.86108 249.62949 251.04990 252.17631 253.00172 253.32113
 253.36154 253.13895 252.50236 251.45377 250.06318 248.22759 246.14000 243.97641
 241.77082 239.57823 237.40164 235.24405 233.10746 230.97787 229.00728 227.16769
 225.45410 223.92951 222.56292 221.33833 220.22374 219.18715 218.29456 217.43897
 216.68438 215.86779 214.96920 214.33661 213.79002 213.68073 213.42249 214.97476
 216.90608 218.23093 219.54907 220.81741 222.40314 224.82578 228.53300 231.90216
 234.89194 237.61497 239.80556 241.83437 244.53671 247.96021 251.70503 255.37263
 258.85748 262.11432 265.09723 267.80304 270.20798 272.39719 274.46310 276.40121
 278.17706 279.73706 281.10056 282.37415 283.59848 284.62820 285.34064 285.77094
 286.27554 286.92386 287.60498 288.49924
 366.78100 356.33890 345.77480 334.64469 323.05159 311.24949 299.12339 286.93028
 274.64618 262.54708 250.55998 239.86488 229.99077 221.09867 213.28457 206.29047
 200.12836 195.07026 191.65616 189.70206 188.74296 188.81085 189.64975 190.96165
 192.69055 194.78944 197.05634 199.41924 201.86814 204.35203 206.44393 208.28983
 209.91973 211.06863 211.30152 211.53342 211.47432 211.18322 210.82011 210.45401
 210.07491 209.78881 209.60071 209.46860 209.40050 209.73540 210.12530 210.51819
 211.31509 212.49699 213.75089 215.53779 217.46968 219.51658 221.61548 223.70238
 225.76627 227.85417 229.95507 232.06497 234.19787 236.37376 238.63366 241.00756
 243.63246 245.88735 247.89325 249.66215 251.08305 252.20995 253.03584 253.35574
 253.39664 253.17454 252.53843 251.49033 250.10023 248.26513 246.17802 244.01492
 241.80982 239.61772 237.44162 235.28451 233.14841 231.01931 229.04921 227.21010
 225.49700 223.97290 222.60680 221.38270 220.26859 219.23249 218.34039 217.48529
 216.73118 215.91508 215.01698 214.38488 213.83878 213.71657 213.42783 215.24342
 216.94548 218.30186 219.62248 220.83694 222.49699 224.95105 228.62305 231.94121
 234.87968 237.53314 239.54344 241.40430 244.08757 247.65704 251.47929 255.18756
 258.73370 262.05923 265.08417 267.80347 270.19458 272.33502 274.34540 276.24567
 278.00745 279.59274 281.00574 282.25415 283.25980 284.23901 285.23111 285.96997
 286.40991 286.83319 287.36890 288.17273
 366.78100 356.33917 345.77533 334.64550 323.05266 311.25083 299.12500 286.93216
 274.64833 262.54949 250.56266 239.86783 229.99399 221.10216 213.28832 206.29449
 200.13266 195.07482 191.66099 189.70715 188.74832 188.81649 189.65565 190.96782
 192.69698 194.79615 197.06332 199.42648 201.87565 204.35981 206.45198 208.29815
 209.92831 211.07748 211.31064 211.54281 211.48398 211.19314 210.83031 210.46447
 210.08564 209.79981 209.61197 209.48014 209.41230 209.74747 210.13764 210.53080
 211.32797 212.51013 213.76430 215.55147 217.48363 219.53080 221.62996 223.71713
 225.78130 227.86946 229.97063 232.08079 234.21396 236.39013 238.65029 241.02446
 243.64962 245.90479 247.91096 249.68012 251.10129 252.22845 253.05462 253.37479
 253.41595 253.19412 252.55828 251.51045 250.12062 248.28578 246.19895 244.03611
 241.83128 239.63945 237.46361 235.30678 233.17094 231.04211 229.07228 227.23344
 225.52061 223.99677 222.63094 221.40711 220.29327 219.25744 218.36560 217.51077
 216.75694 215.94110 215.04327 214.41143 213.86560 213.74350 213.45503 215.46503
 216.86604 218.19580 219.77567 221.09029 222.74832 225.11540 228.72517 231.95349
 234.88800 237.45285 239.30629 241.01411 243.67947 247.40607 251.27779 255.05013
 258.67813 262.04126 265.05066 267.73471 270.08585 272.19052 274.19794 276.12698
 277.90610 279.48843 280.87119 282.05756 283.11749 284.17236 285.15094 285.82135
 286.31915 286.93631 287.56223 288.36713
 366.78100 356.33743 345.77185 334.64028 323.04570 311.24213 299.11456 286.91998
 274.63441 262.53383 250.54526 239.84868 229.97311 221.07954 213.26396 206.26839
 200.10481 195.04524 191.62967 189.67409 188.71352 188.77994 189.61737 190.92780
 192.65522 194.75265 197.01807 199.37950 201.82693 204.30935 206.39978 208.24420
 209.87263 211.02005 211.25148 211.48191 211.42133 211.12876 210.76418 210.39661
 210.01604 209.72846 209.53889 209.40531 209.33574 209.66917 210.05759 210.44902
 211.24444 212.42487 213.67729 215.46272 217.39315 219.43857 221.53600 223.62142
 225.68385 227.77028 229.86970 231.97813 234.10955 236.28398 238.54241 240.91483
 243.53826 245.79168 247.79611 249.56353 250.98296 252.10839 252.93281 253.25124
 253.29066 253.06709 252.42952 251.37994 249.98837 248.15179 246.06322 243.89865
 241.69207 239.49850 237.32092 235.16235 233.02478 230.89420 228.92263 227.08205
 225.36748 223.84190 222.47433 221.24876 220.13318 219.09561 218.20203 217.34546
 216.58989 215.77231 214.87274 214.23916 213.69159 213.67894 213.65038 215.41977
 216.87787 218.05548 219.96391 221.49026 223.08496 225.27840 228.77290 231.91791
 234.78775 237.18646 238.97722 240.71028 243.46819 247.23453 251.16414 254.99179
 258.63065 261.95993 264.94421 267.61700 269.95926 272.06982 274.10681 276.03937
 277.79996 279.36481 280.72165 281.89905 282.99008 284.04324 285.01654 285.65305
 286.31805 287.01648 287.64841 288.45374
 366.78100 356.33536 345.76773 334.63409 323.03745 311.23182 299.10218 286.90554
 274.61791 262.51527 250.52464 239.82600 229.94836 221.05273 213.23509 206.23745
 200.07182 195.01018 191.59254 189.63491 188.67227 188.73663 189.57200 190.88036
 192.60572 194.70109 196.96445 199.32381 201.76918 204.24954 206.33791 208.18027
 209.80663 210.95200 211.18136 211.40972 211.34709 211.05245 210.68581 210.31618
 209.93354 209.64390 209.45227 209.31663 209.24499 209.57636 209.96272 210.35209
 211.14545 212.32381 213.57418 215.35754 217.28590 219.32927 221.42463 223.50799
 225.56836 227.65272 229.75008 231.85645 233.98581 236.15817 238.41454 240.78490
 243.40626 245.65763 247.65999 249.42536 250.84272 251.96608 252.78845 253.10481
 253.14217 252.91654 252.27690 251.22526 249.83163 247.99299 245.90235 243.73572
 241.52708 239.33144 237.15181 234.99117 232.85154 230.71890 228.74526 226.90263
 225.18599 223.65835 222.28872 221.06108 219.94344 218.90381 218.00817 217.14953
 216.39190 215.57226 214.67062 214.03499 213.48535 213.59846 213.86575 215.31296
 217.00189 218.12296 220.08797 221.78519 223.36838 225.42000 228.77133 231.89276
 234.58345 236.84653 238.61624 240.52042 243.39857 247.14342 251.09949 254.93436
 258.54300 261.85016 264.83472 267.51270 269.86060 271.98618 274.00931 275.91254
 277.67120 279.23038 280.61758 281.82217 282.83475 283.88870 284.88303 285.65314
 286.07315 286.76517 287.38828 288.20892
 366.78100 356.33639 345.76978 334.63717 323.04156 311.23695 299.10834 286.91273
 274.62612 262.52451 250.53490 239.83729 229.96068 221.06607 213.24946 206.25285
 200.08824 195.02763 191.61102 189.65441 188.69280 188.75819 189.59458 190.90397
 192.63036 194.72675 196.99114 199.35153 201.79792 204.27930 206.36869 208.21208
 209.83947 210.98586 211.21625 211.44564 211.38403 211.09042 210.72481 210.35620
 209.97459 209.68598 209.49537 209.36076 209.29015 209.62254 210.00993 210.40032
 211.19471 212.37410 213.62549 215.40988 217.33927 219.38366 221.48005 223.56444
 225.62583 227.71122 229.80961 231.91700 234.04739 236.22078 238.47817 240.84956
 243.47195 245.72434 247.72773 249.49412 250.91251 252.03690 252.86029 253.17768
 253.21607 252.99146 252.35285 251.30224 249.90963 248.07202 245.98241 243.81680
 241.60919 239.41458 237.23597 235.07636 232.93775 230.80613 228.83352 226.99191
 225.27630 223.74969 222.38108 221.15447 220.03786 218.99925 218.10464 217.24703
 216.49042 215.67181 214.77120 214.13659 213.58798 213.67857 213.89259 215.29364
 217.16139 218.32729 220.25519 221.95976 223.47652 225.46465 228.71332 231.85085
 234.38654 236.51776 238.22589 240.24475 243.28108 247.08318 251.04927 254.88651
 258.48260 261.77600 264.74908 267.41821 269.75912 271.88159 273.87964 275.75443
 277.50632 279.06723 280.45163 281.66736 282.74588 283.79001 284.77725 285.64423
 286.17834 286.78561 287.38620 288.19327
 366.78100 356.33890 345.77480 334.64470 323.05159 311.24949 299.12339 286.93029
 274.64619 262.54709 250.55999 239.86489 229.99078 221.09868 213.28458 206.29048
 200.12838 195.07028 191.65618 189.70207 188.74297 188.81087 189.64977 190.96167
 192.69057 194.78947 197.05637 199.41926 201.86816 204.35206 206.44396 208.28986
 209.91976 211.06866 211.30155 211.53345 211.47435 211.18325 210.82015 210.45405
 210.07495 209.78885 209.60074 209.46864 209.40054 209.73544 210.12534 210.51824
 211.31514 212.49703 213.75093 215.53783 217.46973 219.51663 221.61553 223.70243
 225.76633 227.85422 229.95512 232.06502 234.19792 236.37382 238.63372 241.00762
 243.63252 245.88741 247.89331 249.66221 251.08311 252.21001 253.03591 253.35581
 253.39670 253.17460 252.53850 251.49040 250.10030 248.26520 246.17810 244.01500
 241.80989 239.61779 237.44169 235.28459 233.14849 231.01939 229.04929 227.21018
 225.49708 223.97298 222.60688 221.38278 220.26868 219.23258 218.34048 217.48537
 216.73127 215.91517 215.01707 214.38497 213.83887 213.83929 213.84027 215.25426
 217.40347 218.53706 220.37672 222.12112 223.59685 225.52057 228.66945 231.78955
 234.20677 236.19797 237.85269 239.94781 243.13988 247.01730 251.00679 254.86018
 258.45361 261.72543 264.67029 267.31332 269.62616 271.72366 273.70184 275.57361
 277.33215 278.89996 280.29498 281.53177 282.68442 283.73233 284.71292 285.59149
 286.35461 286.89838 287.49661 288.28403
 366.78100 356.34025 345.77749 334.64874 323.05699 311.25623 299.13148 286.93973
 274.65698 262.55922 250.57347 239.87972 230.00696 221.11621 213.30346 206.31070
 200.14995 195.09320 191.68044 189.72769 188.76994 188.83919 189.67943 190.99268
 192.72293 194.82317 197.09142 199.45567 201.90591 204.39116 206.48441 208.33166
 209.96290 211.11315 211.34740 211.58064 211.52289 211.23314 210.87138 210.50663
 210.12888 209.84412 209.65737 209.52662 209.45987 209.79611 210.18736 210.58161
 211.37985 212.56310 213.81835 215.60659 217.53984 219.58809 221.68833 223.77658
 225.84183 227.93108 230.03332 232.14457 234.27882 236.45606 238.71731 241.09256
 243.71880 245.97505 247.98230 249.75254 251.17479 252.30304 253.13029 253.45153
 253.49378 253.27303 252.63827 251.59152 250.20277 248.36901 246.28326 244.12151
 241.91776 239.72700 237.55225 235.39650 233.26174 231.13399 229.16524 227.32748
 225.61573 224.09298 222.72822 221.50547 220.39272 219.35797 218.46721 217.61346
 216.86071 216.04595 215.14920 214.51845 213.97369 213.94197 213.86705 215.21518
 217.50002 218.84892 220.54532 222.22009 223.68066 225.58676 228.65729 231.71492
 234.01521 235.87199 237.50772 239.69139 242.99693 246.93378 250.95787 254.83470
 258.42755 261.67526 264.58957 267.20361 269.48288 271.54840 273.50882 275.38724
 277.15952 278.73694 280.12704 281.46252 282.63956 283.69006 284.67065 285.55167
 286.33200 286.99915 287.59863 288.38147
 366.78100 356.34082 345.77864 334.65046 323.05928 311.25910 299.13492 286.94374
 274.66157 262.56439 250.57921 239.88603 230.01385 221.12367 213.31149 206.31931
 200.15913 195.10295 191.69077 189.73859 188.78141 188.85123 189.69205 191.00588
 192.73670 194.83752 197.10634 199.47116 201.92198 204.40780 206.50162 208.34944
 209.98126 211.13208 211.36690 211.60072 211.54354 211.25436 210.89319 210.52901
 210.15183 209.86765 209.68147 209.55129 209.48511 209.82193 210.21375 210.60857
 211.40739 212.59121 213.84703 215.63585 217.56967 219.61850 221.71932 223.80814
 225.87396 227.96378 230.06660 232.17842 234.31324 236.49106 238.75288 241.12870
 243.75552 246.01234 248.02016 249.79098 251.21381 252.34263 253.17045 253.49227
 253.53509 253.31491 252.68073 251.63455 250.24637 248.41319 246.32801 244.16683
 241.96365 239.77347 237.59929 235.44412 233.30994 231.18276 229.21458 227.37740
 225.66622 224.14404 222.77986 221.55768 220.44550 219.41132 218.52114 217.66796
 216.91578 216.10160 215.20543 214.57525 214.03107 213.99995 213.92642 215.25035
 217.51866 219.04971 220.74895 222.34599 223.76698 225.67076 228.68105 231.65424
 233.81870 235.53246 237.15710 239.44989 242.84801 246.83682 250.90216 254.80664
 258.40485 261.63635 264.52469 267.10745 269.34540 271.36707 273.29401 275.15710
 276.92230 278.54227 280.07263 281.43295 282.60870 283.65063 284.60001 285.47986
 286.29831 286.99466 287.59833 288.39072
 366.78100 356.34075 345.77851 334.65026 323.05902 311.25877 299.13452 286.94328
 274.66103 262.56379 250.57854 239.88530 230.01305 221.12280 213.31056 206.31831
 200.15807 195.10182 191.68957 189.73733 188.78008 188.84984 189.69059 191.00435
 192.73510 194.83585 197.10461 199.46936 201.92012 204.40587 206.49962 208.34738
 209.97913 211.12989 211.36464 211.59839 211.54115 211.25190 210.89066 210.52641
 210.14917 209.86492 209.67867 209.54843 209.48218 209.81894 210.21069 210.60544
 211.40420 212.58795 213.84371 215.63246 217.56622 219.61497 221.71572 223.80448
 225.87023 227.95999 230.06274 232.17449 234.30925 236.48700 238.74876 241.12451
 243.75126 246.00802 248.01577 249.78653 251.20928 252.33804 253.16579 253.48754
 253.53030 253.31005 252.67581 251.62956 250.24131 248.40807 246.32282 244.16158
 241.95833 239.76809 237.59384 235.43859 233.30435 231.17710 229.20886 227.37161
 225.66036 224.13812 222.77387 221.55163 220.43938 219.40514 218.51489 217.66164
 216.90940 216.09515 215.19891 214.56866 214.02441 214.02132 214.01398 215.31152
 217.50662 219.17802 220.95900 222.50566 223.89214 225.79565 228.74506 231.60847
 233.61716 235.17122 236.78061 239.20116 242.70111 246.73802 250.83414 254.75743
 258.35641 261.57431 264.45047 267.02600 269.24506 271.22888 273.12085 274.98285
 276.78610 278.44397 279.97046 281.32791 282.50433 283.54813 284.50122 285.38129
 286.19330 286.90604 287.51321 288.30911
 366.78100 356.34024 345.77747 334.64871 323.05695 311.25618 299.13142 286.93966
 274.65689 262.55913 250.57337 239.87960 230.00684 221.11608 213.30331 206.31055
 200.14979 195.09302 191.68026 189.72749 188.76973 188.83897 189.67920 190.99244
 192.72268 194.82291 197.09115 199.45539 201.90562 204.39086 206.48410 208.33133
 209.96257 211.11281 211.34704 211.58028 211.52252 211.23275 210.87099 210.50623
 210.12846 209.84370 209.65694 209.52617 209.45941 209.79565 210.18688 210.58112
 211.37935 212.56259 213.81783 215.60606 217.53930 219.58754 221.68777 223.77601
 225.84125 227.93048 230.03272 232.14396 234.27819 236.45543 238.71667 241.09190
 243.71814 245.97438 247.98161 249.75185 251.17409 252.30232 253.12956 253.45080
 253.49303 253.27227 252.63751 251.59074 250.20198 248.36822 246.28245 244.12069
 241.91692 239.72616 237.55140 235.39563 233.26087 231.13311 229.16434 227.32658
 225.61482 224.09205 222.72729 221.50453 220.39176 219.35700 218.46624 217.61247
 216.85971 216.04495 215.14818 214.51742 213.97266 214.01949 214.13011 215.37035
 217.48083 219.27560 221.13893 222.67570 224.04507 225.94684 228.83655 231.56761
 233.41066 234.80617 236.40807 238.96437 242.57083 246.64957 250.76112 254.69006
 258.28314 261.49146 264.36508 266.93881 269.13425 271.08441 272.96146 274.84000
 276.67358 278.37158 279.91107 281.27621 282.45969 283.50729 284.46533 285.34583
 286.15698 286.87952 287.48969 288.28873
 366.78100 356.33982 345.77665 334.64747 323.05529 311.25412 299.12894 286.93677
 274.65359 262.55541 250.56924 239.87506 230.00188 221.11071 213.29753 206.30435
 200.14318 195.08600 191.67283 189.71965 188.76147 188.83030 189.67012 190.98294
 192.71277 194.81259 197.08042 199.44424 201.89406 204.37889 206.47171 208.31853
 209.94936 211.09918 211.33300 211.56583 211.50765 211.21748 210.85530 210.49012
 210.11195 209.82677 209.63959 209.50842 209.44124 209.77706 210.16789 210.56171
 211.35954 212.54236 213.79718 215.58501 217.51783 219.56565 221.66548 223.75330
 225.81812 227.90695 230.00877 232.11960 234.25342 236.43024 238.69107 241.06589
 243.69171 245.94754 247.95436 249.72419 251.14601 252.27383 253.10066 253.42148
 253.46330 253.24213 252.60695 251.55977 250.17060 248.33642 246.25025 244.08807
 241.88389 239.69272 237.51754 235.36136 233.22619 231.09801 229.12883 227.29066
 225.57848 224.05531 222.69013 221.46695 220.35378 219.31860 218.42742 217.57325
 216.82007 216.00489 215.10772 214.47654 213.93137 214.02525 214.24709 215.42744
 217.45844 219.35867 221.28581 222.83926 224.19943 226.08276 228.92122 231.52682
 233.20503 234.45688 236.06781 238.75670 242.45654 246.56828 250.68919 254.61903
 258.20386 261.40134 264.26782 266.83444 269.01736 270.96725 272.86035 274.74591
 276.58334 278.30811 279.85278 281.21921 282.40256 283.45349 284.41354 285.29269
 286.09918 286.82034 287.43442 288.24124
 366.78100 356.33947 345.77594 334.64641 323.05388 311.25235 299.12682 286.93429
 274.65075 262.55222 250.56569 239.87116 229.99763 221.10610 213.29257 206.29904
 200.13751 195.07998 191.66645 189.71292 188.75439 188.82286 189.66233 190.97480
 192.70426 194.80373 197.07120 199.43467 201.88414 204.36861 206.46108 208.30755
 209.93802 211.08749 211.32096 211.55343 211.49490 211.20437 210.84184 210.47630
 210.09777 209.81224 209.62471 209.49318 209.42565 209.76112 210.15159 210.54506
 211.34253 212.52500 213.77947 215.56694 217.49941 219.54688 221.64634 223.73381
 225.79828 227.88675 229.98822 232.09869 234.23216 236.40863 238.66910 241.04357
 243.66904 245.92451 247.93098 249.70045 251.12192 252.24939 253.07585 253.39632
 253.43779 253.21626 252.58073 251.53320 250.14367 248.30914 246.22261 244.06008
 241.85555 239.66402 237.48849 235.33196 233.19643 231.06789 229.09836 227.25983
 225.54730 224.02377 222.65824 221.43471 220.32118 219.28565 218.39412 217.53959
 216.78606 215.97053 215.07300 214.44147 213.89594 214.03342 214.35822 215.49260
 217.44618 219.42924 221.41313 222.99796 224.35603 226.19055 228.97913 231.48959
 233.01338 234.13266 235.76183 238.57538 242.35226 246.49228 250.62274 254.55205
 258.12405 261.30426 264.15979 266.72501 268.91629 270.86569 272.72815 274.62833
 276.53110 278.25861 279.80460 281.17117 282.35583 283.40680 284.37000 285.24747
 286.05042 286.76953 287.39322 288.19785
 366.78100 356.33879 345.77458 334.64436 323.05115 311.24894 299.12273 286.92951
 274.64530 262.54609 250.55888 239.86367 229.98945 221.09724 213.28303 206.28882
 200.12660 195.06839 191.65418 189.69997 188.74075 188.80854 189.64733 190.95912
 192.68791 194.78669 197.05348 199.41627 201.86506 204.34884 206.44063 208.28642
 209.91621 211.06500 211.29778 211.52957 211.47036 211.17915 210.81593 210.44972
 210.07051 209.78430 209.59609 209.46387 209.39566 209.73045 210.12024 210.51302
 211.30981 212.49160 213.74539 215.53217 217.46396 219.51075 221.60954 223.69633
 225.76011 227.84790 229.94869 232.05848 234.19126 236.36705 238.62684 241.00063
 243.62542 245.88020 247.88599 249.65478 251.07557 252.20235 253.02814 253.34793
 253.38872 253.16651 252.53029 251.48208 250.09187 248.25666 246.16944 244.00623
 241.80102 239.60881 237.43259 235.27538 233.13917 231.00996 229.03975 227.20053
 225.48732 223.96311 222.59690 221.37268 220.25847 219.22226 218.33005 217.47484
 216.72062 215.90441 215.00620 214.37399 213.82777 214.02138 214.47876 215.57184
 217.43874 219.46947 221.51433 223.14806 224.51982 226.28574 229.01697 231.46049
 232.84523 233.83888 235.48820 238.41768 242.25980 246.42473 250.56357 254.49013
 258.04810 261.21115 264.05896 266.62335 268.78448 270.65643 272.61200 274.62766
 276.51135 278.21930 279.76309 281.12976 282.31570 283.36581 284.32758 285.20667
 286.00641 286.72153 287.34995 288.17703
 366.78100 356.33790 345.77280 334.64170 323.04760 311.24450 299.11740 286.92330
 274.63820 262.53811 250.55001 239.85391 229.97881 221.08571 213.27061 206.27551
 200.11241 195.05331 191.63821 189.68311 188.72301 188.78991 189.62781 190.93871
 192.66661 194.76451 197.03042 199.39232 201.84022 204.32312 206.41402 208.25892
 209.88782 211.03572 211.26762 211.49852 211.43842 211.14632 210.78222 210.41512
 210.03502 209.74792 209.55882 209.42573 209.35663 209.69053 210.07943 210.47133
 211.26723 212.44813 213.70103 215.48693 217.41783 219.46373 221.56163 223.64753
 225.71043 227.79733 229.89723 232.00614 234.13804 236.31294 238.57184 240.94474
 243.56864 245.82254 247.82744 249.59534 251.01524 252.14114 252.96604 253.28494
 253.32484 253.10174 252.46464 251.41554 250.02445 248.18835 246.10025 243.93615
 241.73005 239.53695 237.35985 235.20175 233.06465 230.93455 228.96345 227.12335
 225.40925 223.88415 222.51705 221.29195 220.17685 219.13976 218.24666 217.39056
 216.63546 215.81836 214.91926 214.28616 213.73906 213.99715 214.60693 215.66391
 217.43825 219.47551 221.59045 223.27757 224.66902 226.36632 229.03859 231.42458
 232.69170 233.57906 235.24928 238.28098 242.18065 246.36505 250.50710 254.42943
 257.97916 261.13602 263.98480 266.53259 268.62064 270.44080 272.69614 274.49579
 276.48087 278.17474 279.71094 281.07584 282.25961 283.30960 284.27173 285.14987
 285.94928 286.66537 287.29575 288.12433
 366.78100 356.33682 345.77065 334.63847 323.04330 311.23912 299.11094 286.91577
 274.62959 262.52842 250.53924 239.84206 229.96589 221.07171 213.25554 206.25936
 200.09519 195.03501 191.61883 189.66266 188.70148 188.76731 189.60413 190.91395
 192.64078 194.73760 197.00243 199.36325 201.81007 204.29190 206.38172 208.22555
 209.85337 211.00019 211.23102 211.46084 211.39967 211.10649 210.74132 210.37314
 209.99196 209.70379 209.51361 209.37944 209.30926 209.64208 210.02991 210.42073
 211.21556 212.39538 213.64720 215.43203 217.36185 219.40668 221.50350 223.58832
 225.65015 227.73597 229.83480 231.94262 234.07345 236.24727 238.50509 240.87692
 243.49974 245.75257 247.75639 249.52321 250.94204 252.06686 252.89069 253.20851
 253.24733 253.02316 252.38498 251.33481 249.94263 248.10545 246.01628 243.85110
 241.64393 239.44975 237.27158 235.11240 232.97422 230.84305 228.87087 227.02970
 225.31452 223.78834 222.42017 221.19399 220.07782 219.03964 218.14546 217.28829
 216.53211 215.71394 214.81376 214.17958 213.63141 213.96281 214.74580 215.75761
 217.43851 219.47403 221.65288 223.39124 224.81044 226.44455 229.04756 231.36404
 232.53015 233.33919 235.03815 238.16321 242.11894 246.31734 250.45535 254.36690
 257.90421 261.05756 263.91656 266.46713 268.52945 270.33777 272.60989 274.44522
 276.41547 278.11237 279.65085 281.01547 282.19788 283.24680 284.20572 285.08411
 285.88458 286.60144 287.22446 288.03134
 366.78100 356.33571 345.76842 334.63512 323.03883 311.23354 299.10425 286.90796
 274.62067 262.51837 250.52808 239.82979 229.95250 221.05721 213.23991 206.24262
 200.07733 195.01604 191.59875 189.64146 188.67916 188.74387 189.57958 190.88829
 192.61400 194.70971 196.97341 199.33312 201.77883 204.25954 206.34825 208.19095
 209.81766 210.96337 211.19308 211.42179 211.35950 211.06520 210.69891 210.32962
 209.94733 209.65804 209.46674 209.33145 209.26016 209.59187 209.97858 210.36829
 211.16199 212.34070 213.59141 215.37512 217.30383 219.34754 221.44324 223.52695
 225.58766 227.67237 229.77008 231.87678 234.00649 236.17920 238.43591 240.80662
 243.42833 245.68003 247.68274 249.44845 250.86616 251.98987 252.81257 253.12928
 253.16699 252.94170 252.30241 251.25112 249.85782 248.01953 245.92924 243.76295
 241.55466 239.35937 237.18007 235.01978 232.88049 230.74820 228.77491 226.93261
 225.21632 223.68903 222.31974 221.09245 219.97516 218.93586 218.04057 217.18228
 216.42499 215.60570 214.70440 214.06911 213.51982 213.92403 214.87897 215.87846
 217.43898 219.45032 221.70979 223.48128 224.91338 226.50682 229.04980 231.28938
 232.36836 233.13049 234.86894 238.07556 242.08179 246.28984 250.41803 254.31390
 257.83344 260.97635 263.83447 266.38589 268.46173 270.27100 272.49084 274.41193
 276.33517 278.03146 279.56915 280.93259 282.11328 283.15958 284.11829 284.99731
 285.80286 286.52777 287.14059 287.95047
 366.78100 356.33458 345.76616 334.63173 323.03431 311.22789 299.09747 286.90004
 274.61162 262.50820 250.51678 239.81735 229.93893 221.04251 213.22409 206.22566
 200.05924 194.99682 191.57840 189.61997 188.65655 188.72013 189.55471 190.86228
 192.58686 194.68144 196.94402 199.30259 201.74717 204.22675 206.31433 208.15590
 209.78148 210.92606 211.15464 211.38221 211.31879 211.02337 210.65595 210.28552
 209.90210 209.61168 209.41926 209.28283 209.21041 209.54099 209.92657 210.31514
 211.10772 212.28530 213.53488 215.31745 217.24503 219.28761 221.38219 223.46476
 225.52434 227.60792 229.70450 231.81007 233.93865 236.11023 238.36581 240.73538
 243.35596 245.60654 247.60812 249.37269 250.78927 251.91185 252.73343 253.04901
 253.08558 252.85916 252.21874 251.16632 249.77189 247.93247 245.84105 243.67363
 241.46420 239.26778 237.08736 234.92594 232.78551 230.65209 228.67767 226.83425
 225.11682 223.58840 222.21798 220.98956 219.87113 218.83071 217.93429 217.07487
 216.31644 215.49602 214.59360 213.95718 213.40675 213.88242 215.00620 216.01431
 217.43259 219.43777 221.78329 223.55708 224.98351 226.54814 229.02762 231.18280
 232.19060 232.93387 234.72685 238.01280 242.06253 246.27896 250.39655 254.27388
 257.77274 260.90070 263.75131 266.30029 268.39096 270.25253 272.48392 274.35107
 276.27414 277.94931 279.48050 280.84128 282.01974 283.06396 284.01840 284.89850
 285.71075 286.43100 287.04535 287.85413
 366.78100 356.33361 345.76421 334.62882 323.03042 311.22303 299.09164 286.89324
 274.60385 262.49945 250.50706 239.80666 229.92727 221.02988 213.21048 206.21109
 200.04369 194.98030 191.56091 189.60151 188.63712 188.69972 189.53333 190.83993
 192.56354 194.65715 196.91875 199.27636 201.71996 204.19857 206.28518 208.12578
 209.75039 210.89399 211.12160 211.34820 211.28381 210.98742 210.61902 210.24763
 209.86323 209.57184 209.37845 209.24105 209.16766 209.49726 209.88187 210.26948
 211.06108 212.23769 213.48629 215.26790 217.19450 219.23611 221.32972 223.41132
 225.46993 227.55253 229.64814 231.75275 233.88035 236.05096 238.30556 240.67417
 243.29377 245.54338 247.54399 249.30759 250.72320 251.84480 252.66541 252.98002
 253.01562 252.78823 252.14683 251.09344 249.69805 247.85765 245.76526 243.59686
 241.38647 239.18907 237.00768 234.84529 232.70389 230.56950 228.59410 226.74971
 225.03132 223.50192 222.13053 220.90113 219.78174 218.74034 217.84295 216.98256
 216.22316 215.40177 214.49837 213.86098 213.30959 213.84781 215.11940 216.15352
 217.48157 219.44148 221.79198 223.58847 225.04927 226.59628 229.00594 231.04820
 231.97470 232.72145 234.59669 237.96988 242.06300 246.28758 250.39549 254.25604
 257.73367 260.84650 263.69376 266.24033 268.31088 270.22949 272.42093 274.28082
 276.21082 277.87619 279.40292 280.76248 281.94196 282.99252 283.96484 284.85086
 285.65015 286.34479 286.95563 287.76410
 366.78100 356.33289 345.76278 334.62667 323.02756 311.21945 299.08734 286.88823
 274.59812 262.49301 250.49990 239.79879 229.91868 221.02056 213.20045 206.20034
 200.03223 194.96812 191.54801 189.58790 188.62279 188.68468 189.51757 190.82346
 192.54635 194.63924 196.90013 199.25702 201.69991 204.17780 206.26369 208.10358
 209.72747 210.87036 211.09725 211.32314 211.25803 210.96092 210.59181 210.21969
 209.83458 209.54247 209.34836 209.21025 209.13614 209.46503 209.84892 210.23581
 211.02670 212.20259 213.45048 215.23137 217.15726 219.19815 221.29104 223.37193
 225.42982 227.51171 229.60660 231.71049 233.83738 236.00727 238.26116 240.62905
 243.24793 245.49682 247.49671 249.25960 250.67449 251.79538 252.61527 252.92916
 252.96405 252.73594 252.09383 251.03972 249.64361 247.80250 245.70939 243.54028
 241.32917 239.13106 236.94895 234.78584 232.64373 230.50862 228.53251 226.68740
 224.96829 223.43818 222.06606 220.83595 219.71584 218.67373 217.77562 216.91451
 216.15440 215.33229 214.42818 213.79007 213.23796 213.82339 215.20654 216.30643
 217.57626 219.45923 221.77821 223.59552 225.09727 226.63509 228.96080 230.87088
 231.73390 232.50993 234.47865 237.94005 242.07491 246.30626 250.40546 254.25053
 257.70715 260.80212 263.64798 266.21036 268.28177 270.20135 272.36002 274.22388
 276.15414 277.81665 279.33929 280.69647 281.87341 282.92078 283.89780 284.78241
 285.56641 286.25809 286.86819 287.66879
 366.78100 356.33262 345.76224 334.62586 323.02648 311.21810 299.08572 286.88634
 274.59596 262.49058 250.49720 239.79582 229.91544 221.01706 213.19668 206.19630
 200.02792 194.96354 191.54316 189.58278 188.61740 188.67902 189.51164 190.81726
 192.53988 194.63250 196.89312 199.24974 201.69236 204.16998 206.25559 208.09521
 209.71883 210.86145 211.08807 211.31369 211.24831 210.95093 210.58155 210.20917
 209.82379 209.53141 209.33703 209.19865 209.12427 209.45289 209.83651 210.22313
 211.01375 212.18937 213.43699 215.21761 217.14323 219.18385 221.27647 223.35709
 225.41471 227.49633 229.59095 231.69457 233.82119 235.99081 238.24443 240.61205
 243.23067 245.47929 247.47891 249.24153 250.65615 251.77677 252.59639 252.91001
 252.94463 252.71625 252.07387 251.01949 249.62311 247.78173 245.68835 243.51897
 241.30759 239.10921 236.92683 234.76345 232.62107 230.48569 228.50931 226.66393
 224.94455 223.41417 222.04178 220.81140 219.69102 218.64864 217.75026 216.88888
 216.12850 215.30612 214.40174 213.76336 213.21098 213.82037 215.26016 216.44966
 217.71521 219.49031 221.80588 223.61098 225.09137 226.62784 228.92265 230.70781
 231.46416 232.26091 234.35168 237.91298 242.08723 246.32112 250.41240 254.24879
 257.69464 260.78064 263.63541 266.23209 268.31000 270.12637 272.26230 274.21713
 276.09058 277.75543 279.26318 280.61185 281.78546 282.83160 283.80545 284.68497
 285.46255 286.15213 286.75943 287.56393
 366.78100 356.33104 345.75908 334.62113 323.02017 311.21021 299.07625 286.87529
 274.58334 262.47638 250.48142 239.77846 229.89650 220.99654 213.17459 206.17263
 200.00267 194.93671 191.51475 189.55280 188.58584 188.64588 189.47692 190.78096
 192.50201 194.59305 196.85209 199.20713 201.64817 204.12422 206.20826 208.04630
 209.66834 210.80938 211.03443 211.25847 211.19151 210.89255 210.52159 210.14763
 209.76068 209.46672 209.27076 209.13080 209.05484 209.38189 209.76393 210.14897
 210.93801 212.11205 213.35810 215.13714 217.06118 219.10022 221.19126 223.27031
 225.32635 227.40639 229.49943 231.60147 233.72652 235.89456 238.14660 240.51264
 243.12968 245.37672 247.37477 249.13581 250.54885 251.66789 252.48593 252.79798
 252.83102 252.60106 251.95710 250.90114 249.50319 247.66023 245.56527 243.39431
 241.18135 238.98140 236.79744 234.63248 232.48852 230.35156 228.37361 226.52665
 224.80569 223.27373 221.89977 220.66781 219.54586 218.50190 217.60194 216.73898
 215.97702 215.15307 214.24711 213.60715 213.05319 213.75191 215.40269 216.54604
 217.76241 219.66153 221.83937 223.58450 225.06410 226.60754 228.85555 230.45039
 231.17154 232.08061 234.27251 237.90582 242.11484 246.34937 250.42392 254.23911
 257.66858 260.74725 263.60812 266.22079 268.31857 270.09921 272.25330 274.19330
 276.03409 277.68369 279.18399 280.51077 281.66733 282.70932 283.67917 284.54211
 285.28085 285.97098 286.58347 287.39310
 366.78100 356.32963 345.75625 334.61688 323.01451 311.20314 299.06776 286.86539
 274.57202 262.46365 250.46727 239.76290 229.87953 220.97815 213.15478 206.15141
 199.98004 194.91266 191.48929 189.52592 188.55755 188.61617 189.44580 190.74843
 192.46805 194.55768 196.81531 199.16894 201.60856 204.08319 206.16582 208.00245
 209.62307 210.76270 210.98633 211.20895 211.14058 210.84021 210.46784 210.09246
 209.70409 209.40872 209.21135 209.06997 208.99260 209.31823 209.69885 210.08248
 210.87011 212.04274 213.28736 215.06499 216.98762 219.02525 221.11487 223.19250
 225.24713 227.32575 229.41738 231.51801 233.64164 235.80826 238.05889 240.42352
 243.03915 245.28477 247.28140 249.04103 250.45265 251.57028 252.38691 252.69754
 252.72916 252.49779 251.85242 250.79505 249.39567 247.55130 245.45493 243.28256
 241.06818 238.86681 236.68144 234.51506 232.36969 230.23132 228.25195 226.40357
 224.68120 223.14783 221.77246 220.53908 219.41571 218.37034 217.46896 216.60459
 215.84122 215.01585 214.10847 213.46710 212.91173 213.68472 215.51100 216.70815
 217.82199 219.75002 221.87798 223.58070 225.04517 226.59538 228.74451 230.18411
 230.90903 231.93170 234.22421 237.91876 242.15179 246.38568 250.44151 254.22644
 257.62579 260.69345 263.55893 266.17667 268.31317 270.17972 272.23532 274.20959
 275.98355 277.63321 279.12567 280.43524 281.53955 282.57181 283.53510 284.36554
 285.08563 285.77292 286.38962 287.20493
 366.78100 356.32907 345.75514 334.61522 323.01229 311.20036 299.06443 286.86151
 274.56758 262.45865 250.46172 239.75679 229.87287 220.97094 213.14701 206.14308
 199.97115 194.90323 191.47930 189.51537 188.54644 188.60452 189.43359 190.73566
 192.45473 194.54380 196.80088 199.15395 201.59302 204.06709 206.14916 207.98524
 209.60531 210.74438 210.96745 211.18953 211.12060 210.81967 210.44674 210.07081
 209.68189 209.38596 209.18803 209.04610 208.96818 209.29325 209.67332 210.05639
 210.84346 212.01554 213.25961 215.03668 216.95875 218.99582 221.08490 223.16197
 225.21604 227.29411 229.38519 231.48526 233.60833 235.77440 238.02447 240.38855
 243.00362 245.24869 247.24476 249.00384 250.41491 251.53198 252.34805 252.65812
 252.68920 252.45727 251.81134 250.75341 249.35348 247.50856 245.41163 243.23870
 241.02377 238.82185 236.63592 234.46899 232.32306 230.18413 228.20421 226.35528
 224.63235 223.09842 221.72249 220.48857 219.36464 218.31871 217.41678 216.55186
 215.78793 214.96200 214.05407 213.41214 212.85622 213.65863 215.55441 216.88141
 217.94148 219.82217 221.94341 223.60042 225.01802 226.55852 228.59807 229.90022
 230.62720 231.76154 234.17824 237.94470 242.19608 246.42827 250.47290 254.23901
 257.61624 260.66531 263.52228 266.15070 268.31882 270.24945 272.23416 274.18420
 275.96460 277.60132 279.06290 280.33792 281.38544 282.41455 283.38495 284.21890
 284.93063 285.61810 286.23383 287.05032
 366.78100 356.32892 345.75483 334.61475 323.01166 311.19958 299.06350 286.86041
 274.56633 262.45724 250.46016 239.75508 229.87099 220.96891 213.14482 206.14074
 199.96865 194.90057 191.47649 189.51240 188.54332 188.60123 189.43015 190.73207
 192.45098 194.53990 196.79681 199.14973 201.58865 204.06256 206.14448 207.98039
 209.60031 210.73923 210.96214 211.18406 211.11497 210.81389 210.44080 210.06472
 209.67564 209.37955 209.18147 209.03938 208.96130 209.28622 209.66613 210.04905
 210.83596 212.00788 213.25180 215.02871 216.95063 218.98754 221.07646 223.15338
 225.20729 227.28521 229.37612 231.47604 233.59895 235.76487 238.01479 240.37870
 242.99362 245.23853 247.23445 248.99337 250.40428 251.52120 252.33711 252.64703
 252.67795 252.44586 251.79978 250.74169 249.34161 247.49653 245.39944 243.22636
 241.01127 238.80919 236.62310 234.45602 232.30994 230.17085 228.19077 226.34168
 224.61860 223.08452 221.70843 220.47435 219.35026 218.30418 217.40210 216.53701
 215.77293 214.94684 214.03876 213.39668 212.84059 213.65732 215.58690 217.02406
 218.09955 219.93584 222.01405 223.60576 224.96112 226.48279 228.42960 229.60941
 230.31140 231.56618 234.13155 237.97336 242.25137 246.48743 250.52173 254.27121
 257.62970 260.65710 263.50357 266.16412 268.37634 270.32315 272.18958 274.11444
 275.95029 277.56335 278.99850 280.26227 281.35095 282.37155 283.29062 284.02802
 284.73691 285.42343 286.04141 286.87650
 366.78100 356.32929 345.75557 334.61586 323.01315 311.20143 299.06572 286.86301
 274.56929 262.46058 250.46387 239.75915 229.87544 220.97373 213.15001 206.14630
 199.97459 194.90687 191.48316 189.51945 188.55073 188.60902 189.43831 190.74059
 192.45988 194.54917 196.80645 199.15974 201.59903 204.07331 206.15560 207.99189
 209.61217 210.75146 210.97475 211.19703 211.12832 210.82761 210.45489 210.07918
 209.69047 209.39475 209.19704 209.05533 208.97761 209.30290 209.68319 210.06648
 210.85376 212.02605 213.27034 215.04762 216.96991 219.00720 221.09648 223.17377
 225.22806 227.30634 229.39763 231.49792 233.62120 235.78749 238.03778 240.40206
 243.01735 245.26264 247.25892 249.01821 250.42950 251.54678 252.36307 252.67336
 252.70464 252.47293 251.82722 250.76950 249.36979 247.52508 245.42836 243.25565
 241.04094 238.83922 236.65351 234.48680 232.34108 230.20237 228.22266 226.37394
 224.65123 223.11752 221.74180 220.50809 219.38438 218.33866 217.43695 216.57224
 215.80852 214.98281 214.07510 213.43338 212.87767 213.67706 215.56573 217.16673
 218.29752 220.08664 222.10645 223.62521 224.91881 226.42596 228.28448 229.30231
 229.94608 231.31493 234.05931 237.99849 242.30368 246.54199 250.57231 254.30608
 257.64343 260.65295 263.49365 266.18280 268.40878 270.34583 272.17139 274.05569
 275.95514 277.56445 278.95874 280.19125 281.26508 282.29813 283.20224 283.87476
 284.55923 285.24777 285.86462 286.70227
 366.78100 356.33137 345.75974 334.62211 323.02148 311.21185 299.07822 286.87759
 274.58596 262.47933 250.48470 239.78206 229.90043 221.00080 213.17917 206.17754
 200.00791 194.94228 191.52065 189.55902 188.59239 188.65276 189.48413 190.78850
 192.50987 194.60124 196.86061 199.21598 201.65735 204.13372 206.21809 208.05646
 209.67882 210.82019 211.04556 211.26993 211.20330 210.90467 210.53404 210.16041
 209.77378 209.48015 209.28452 209.14489 209.06926 209.39663 209.77900 210.16437
 210.95374 212.12811 213.37448 215.15385 217.07822 219.11758 221.20895 223.28832
 225.34469 227.42506 229.51843 231.62080 233.74617 235.91454 238.16691 240.53328
 243.15065 245.39802 247.39639 249.15776 250.57113 251.69050 252.50887 252.82124
 252.85461 252.62498 251.98135 250.92571 249.52808 247.68545 245.59082 243.42019
 241.20756 239.00793 236.82430 234.65967 232.51604 230.37941 228.40178 226.55515
 224.83452 223.30289 221.92926 220.69763 219.57600 218.53237 217.63274 216.77011
 216.00847 215.18484 214.27921 213.63958 213.08595 213.78780 215.44598 217.26721
 218.61885 220.36659 222.24011 223.61136 224.79456 226.28090 228.09665 228.94121
 229.50909 231.03630 233.98996 238.04326 242.38893 246.63484 250.66309 254.39821
 257.73859 260.72989 263.53500 266.22205 268.48450 270.37503 272.16653 273.98950
 275.82535 277.54742 278.96274 280.19510 281.34662 282.22650 283.01657 283.76889
 284.52988 285.22125 285.83450 286.66376
 366.78100 356.33273 345.76247 334.62620 323.02693 311.21867 299.08640 286.88713
 274.59687 262.49160 250.49834 239.79707 229.91680 221.01854 213.19827 206.19800
 200.02974 194.96547 191.54520 189.58494 188.61967 188.68140 189.51414 190.81987
 192.54260 194.63534 196.89607 199.25280 201.69554 204.17327 206.25901 208.09874
 209.72247 210.86521 211.09194 211.31767 211.25241 210.95514 210.58587 210.21361
 209.82834 209.53607 209.34181 209.20354 209.12927 209.45801 209.84174 210.22848
 211.01921 212.19494 213.44268 215.22341 217.14914 219.18988 221.28261 223.36334
 225.42108 227.50281 229.59754 231.70128 233.82801 235.99774 238.25148 240.61921
 243.23794 245.48668 247.48641 249.24915 250.66388 251.78461 252.60435 252.91808
 252.95281 252.72455 252.08228 251.02801 249.63175 247.79048 245.69721 243.52795
 241.31668 239.11841 236.93615 234.77288 232.63061 230.49535 228.51908 226.67382
 224.95455 223.42428 222.05202 220.82175 219.70148 218.65922 217.76095 216.89968
 216.13942 215.31715 214.41288 213.77462 213.22235 213.88026 215.43883 217.21175
 218.82436 220.60547 222.38310 223.61682 224.66492 226.10664 227.80605 228.63193
 228.96439 230.61342 233.81726 238.06473 242.51744 246.80855 250.85246 254.59583
 257.94174 260.91690 263.66635 266.29413 268.55716 270.40729 272.17801 274.03772
 275.64194 277.29916 278.53564 279.76608 280.75119 281.53278 282.38599 283.26355
 284.08603 284.85138 285.51996 286.37201
 366.78100 356.33051 345.75801 334.61952 323.01802 311.20753 299.07303 286.87154
 274.57904 262.47155 250.47605 239.77256 229.89007 220.98957 213.16708 206.16458
 199.99409 194.92759 191.50510 189.54260 188.57511 188.63461 189.46512 190.76862
 192.48913 194.57964 196.83814 199.19265 201.63315 204.10866 206.19216 208.02967
 209.65117 210.79168 211.01618 211.23969 211.17220 210.87270 210.50121 210.12671
 209.73922 209.44472 209.24823 209.10773 209.03124 209.35774 209.73925 210.12375
 210.91226 212.08577 213.33127 215.10978 217.03328 219.07179 221.16229 223.24080
 225.29630 227.37581 229.46831 231.56982 233.69433 235.86183 238.11334 240.47884
 243.09535 245.34185 247.33936 249.09986 250.51237 251.63087 252.44838 252.75988
 252.79239 252.56190 251.91740 250.86091 249.46241 247.61892 245.52342 243.35193
 241.13843 238.93794 236.75344 234.58795 232.44346 230.30596 228.32747 226.47997
 224.75848 223.22598 221.85149 220.61899 219.49650 218.45200 217.55151 216.68802
 215.92552 215.10103 214.19453 213.55404 212.99954 213.78711 215.65997 217.20502
 218.76910 220.54335 222.35439 223.70053 224.82062 226.21954 227.73540 228.76509
 228.89503 230.55302 233.77112 237.99835 242.49887 246.85260 250.92409 254.63516
 257.93253 260.86212 263.59415 266.15521 268.32495 270.17694 272.22818 274.10538
 275.56763 276.77667 278.05090 279.14847 280.21539 281.29510 282.29709 283.20477
 284.02118 284.74817 285.38324 286.19260
 366.78100 356.33007 345.75714 334.61822 323.01629 311.20536 299.07043 286.86850
 274.57558 262.46765 250.47172 239.76779 229.88486 220.98394 213.16101 206.15808
 199.98715 194.92023 191.49730 189.53437 188.56644 188.62551 189.45559 190.75866
 192.47873 194.56880 196.82687 199.18095 201.62102 204.09609 206.17916 208.01623
 209.63731 210.77738 211.00145 211.22452 211.15659 210.85667 210.48474 210.10981
 209.72188 209.42695 209.23003 209.08910 209.01217 209.33824 209.71932 210.10339
 210.89146 212.06453 213.30960 215.08768 217.01075 219.04882 221.13889 223.21696
 225.27204 227.35111 229.44318 231.54425 233.66832 235.83540 238.08647 240.45154
 243.06761 245.31368 247.31076 249.07083 250.48290 251.60097 252.41805 252.72912
 252.76119 252.53026 251.88533 250.82841 249.42948 247.58555 245.48962 243.31769
 241.10377 238.90284 236.71791 234.55198 232.40705 230.26913 228.29020 226.44227
 224.72034 223.18741 221.81249 220.57956 219.45663 218.41170 217.51077 216.64685
 215.88392 215.05899 214.15206 213.51114 212.95621 213.77121 215.72337 217.36034
 218.87711 220.54623 222.41176 223.90274 225.12646 226.37657 227.93869 228.65913
 228.92673 230.54239 233.73039 237.92584 242.45132 246.84766 250.92076 254.61211
 257.88580 260.80945 263.53284 266.09787 268.18518 270.07224 272.13861 274.01358
 275.44974 276.63303 277.96100 279.42551 280.73883 281.90076 282.96085 283.92123
 284.78497 285.55417 286.22610 287.08240
 366.78100 356.33255 345.76209 334.62564 323.02619 311.21773 299.08528 286.88582
 274.59537 262.48992 250.49646 239.79501 229.91456 221.01610 213.19565 206.19519
 200.02674 194.96229 191.54183 189.58138 188.61593 188.67747 189.51002 190.81556
 192.53811 194.63066 196.89120 199.24775 201.69030 204.16784 206.25339 208.09293
 209.71648 210.85903 211.08557 211.31112 211.24567 210.94821 210.57876 210.20631
 209.82085 209.52840 209.33394 209.19549 209.12104 209.44958 209.83313 210.21968
 211.01022 212.18577 213.43331 215.21386 217.13941 219.17995 221.27250 223.35305
 225.41059 227.49214 229.58668 231.69023 233.81678 235.98632 238.23987 240.60742
 243.22596 245.47451 247.47405 249.23660 250.65115 251.77169 252.59124 252.90479
 252.93933 252.71088 252.06843 251.01397 249.61752 247.77606 245.68261 243.51316
 241.30170 239.10325 236.92080 234.75734 232.61489 230.47943 228.50298 226.65753
 224.93807 223.40762 222.03517 220.80471 219.68426 218.64180 217.74335 216.88190
 216.12144 215.29899 214.39454 213.75608 213.20363 213.89011 215.61012 217.52779
 219.09962 220.64920 222.50934 223.93811 225.09259 226.28336 227.84964 228.40215
 228.64447 230.36420 233.68755 237.93474 242.45602 246.87918 250.98676 254.70401
 258.00754 260.95557 263.67822 266.23407 268.37830 270.10736 272.07309 273.86462
 275.40631 276.72974 278.27197 279.85056 281.22324 282.43768 283.54572 284.54950
 285.45227 286.25623 286.95853 287.85355
 366.78100 356.33422 345.76544 334.63065 323.03287 311.22609 299.09531 286.89752
 274.60874 262.50496 250.51318 239.81339 229.93461 221.03783 213.21905 206.22026
 200.05348 194.99070 191.57192 189.61313 188.64935 188.71257 189.54679 190.85400
 192.57822 194.67244 196.93466 199.29287 201.73709 204.21631 206.30353 208.14474
 209.76996 210.91418 211.14240 211.36962 211.30583 211.01005 210.64227 210.27149
 209.88770 209.59692 209.40414 209.26736 209.19457 209.52479 209.91001 210.29823
 211.09044 212.26766 213.51688 215.29910 217.22631 219.26853 221.36275 223.44497
 225.50418 227.58740 229.68362 231.78884 233.91705 236.08827 238.34349 240.71271
 243.33293 245.58314 247.58436 249.34858 250.76480 251.88701 252.70823 253.02345
 253.05967 252.83288 252.19210 251.13932 249.74454 247.90475 245.81297 243.64519
 241.43541 239.23862 237.05784 234.89606 232.75528 230.62149 228.64671 226.80293
 225.08515 223.55636 222.18558 220.95680 219.83802 218.79723 217.90045 217.04067
 216.28189 215.46111 214.55832 213.92154 213.37076 213.97359 215.53380 217.62120
 219.35616 220.94080 222.63699 223.86189 224.94067 226.17249 227.62213 228.04337
 228.27277 230.10818 233.60098 237.92021 242.45033 246.88219 251.00320 254.73465
 258.06326 261.05869 263.81281 266.37152 268.58759 270.36545 271.91495 273.83670
 275.47177 277.00079 278.59253 280.21454 281.63968 282.90054 284.05090 285.09305
 286.03033 286.86499 287.59415 288.52335
 366.78100 356.33330 345.76359 334.62789 323.02918 311.22148 299.08977 286.89107
 274.60136 262.49666 250.50395 239.80325 229.92354 221.02584 213.20613 206.20643
 200.03872 194.97502 191.55531 189.59561 188.63090 188.69320 189.52649 190.83279
 192.55608 194.64938 196.91067 199.26797 201.71127 204.18956 206.27586 208.11615
 209.74045 210.88374 211.11104 211.33733 211.27263 210.97592 210.60722 210.23551
 209.85081 209.55910 209.36540 209.22769 209.15399 209.48328 209.86758 210.25487
 211.04617 212.22246 213.47076 215.25205 217.17835 219.21964 221.31294 223.39424
 225.45253 227.53483 229.63012 231.73442 233.86171 236.03201 238.28630 240.65460
 243.27389 245.52319 247.52348 249.28678 250.70207 251.82337 252.64366 252.95796
 252.99325 252.76555 252.12384 251.07014 249.67443 247.83373 245.74102 243.57232
 241.36161 239.16391 236.98221 234.81950 232.67780 230.54309 228.56739 226.72268
 225.00398 223.47427 222.10257 220.87286 219.75316 218.71145 217.81375 216.95304
 216.19334 215.37163 214.46793 213.83022 213.27852 213.93486 215.61952 217.65567
 219.42557 221.19368 222.79575 223.94104 224.99998 226.22885 227.60233 227.82512
 227.98320 229.85353 233.45798 237.83772 242.36403 246.80327 250.92274 254.65933
 257.98798 260.98917 263.76065 266.34528 268.58658 270.39984 271.90732 273.86432
 275.57050 277.17285 278.98026 280.73318 282.25018 283.59232 284.81683 285.92615
 286.92386 287.81235 288.58850 289.57761
 366.78100 356.33064 345.75828 334.61992 323.01856 311.20819 299.07383 286.87247
 274.58011 262.47275 250.47739 239.77403 229.89167 220.99130 213.16894 206.16658
 199.99622 194.92986 191.50750 189.54514 188.57778 188.63741 189.46805 190.77169
 192.49233 194.58297 196.84161 199.19625 201.63689 204.11252 206.19616 208.03380
 209.65544 210.79608 211.02072 211.24436 211.17700 210.87764 210.50627 210.13191
 209.74455 209.45019 209.25383 209.11347 209.03711 209.36375 209.74538 210.13002
 210.91866 212.09230 213.33794 215.11658 217.04022 219.07886 221.16949 223.24813
 225.30377 227.38341 229.47605 231.57769 233.70233 235.86997 238.12160 240.48724
 243.10388 245.35052 247.34816 249.10880 250.52144 251.64008 252.45771 252.76935
 252.80199 252.57163 251.92727 250.87091 249.47255 247.62919 245.53383 243.36246
 241.14910 238.94874 236.76438 234.59902 232.45466 230.31730 228.33894 226.49157
 224.77021 223.23785 221.86349 220.63113 219.50877 218.46441 217.56405 216.70068
 215.93832 215.11396 214.20760 213.56724 213.01288 213.81166 215.78380 217.67494
 219.44084 221.26683 222.85515 224.05316 225.12799 226.30327 227.68222 227.76872
 227.85541 229.67863 233.40030 237.80753 242.33157 246.75970 250.87627 254.61873
 257.95758 260.95709 263.69778 266.23874 268.45245 270.29733 271.95950 273.87723
 275.57175 277.47998 279.36490 281.01996 282.45230 283.71954 284.87570 285.92313
 286.86514 287.70401 288.43686 289.37076
 366.78100 356.33108 345.75916 334.62125 323.02033 311.21041 299.07649 286.87557
 274.58365 262.47674 250.48182 239.77890 229.89698 220.99706 213.17514 206.17323
 200.00331 194.93739 191.51547 189.55355 188.58663 188.64672 189.47780 190.78188
 192.50296 194.59404 196.85313 199.20821 201.64929 204.12537 206.20945 208.04753
 209.66962 210.81070 211.03578 211.25986 211.19294 210.89402 210.52311 210.14919
 209.76227 209.46835 209.27243 209.13252 209.05660 209.38368 209.76576 210.15084
 210.93992 212.11401 213.36009 215.13917 217.06325 219.10233 221.19341 223.27250
 225.32858 227.40866 229.50174 231.60382 233.72890 235.89699 238.14907 240.51515
 243.13223 245.37931 247.37740 249.13848 250.55156 251.67064 252.48872 252.80080
 252.83389 252.60397 251.96005 250.90413 249.50621 247.66329 245.56838 243.39746
 241.18454 238.98462 236.80070 234.63578 232.49187 230.35495 228.37703 226.53011
 224.80919 223.27728 221.90336 220.67144 219.54952 218.50560 217.60568 216.74277
 215.98085 215.15693 214.25101 213.61109 213.05717 213.83279 215.76744 217.76147
 219.61852 221.33095 222.81898 224.01228 225.12656 226.26355 227.58116 227.55199
 227.74475 229.70444 233.43690 237.86722 242.38625 246.80592 250.94980 254.69514
 258.06137 261.04401 263.75894 266.28275 268.50772 270.37097 272.10443 273.91959
 275.75626 277.65567 279.58054 281.27072 282.73340 284.02753 285.20819 286.27783
 287.23981 288.09650 288.84485 289.79855
 366.78100 356.33518 345.76736 334.63354 323.03672 311.23090 299.10109 286.90427
 274.61645 262.51363 250.52281 239.82399 229.94617 221.05035 213.23253 206.23471
 200.06889 195.00707 191.58926 189.63144 188.66862 188.73280 189.56798 190.87616
 192.60134 194.69652 196.95970 199.31888 201.76406 204.24425 206.33243 208.17461
 209.80079 210.94597 211.17515 211.40333 211.34051 211.04569 210.67887 210.30905
 209.92623 209.63642 209.44460 209.30878 209.23696 209.56814 209.95432 210.34350
 211.13668 212.31486 213.56504 215.34822 217.27641 219.31959 221.41477 223.49795
 225.55813 227.64231 229.73949 231.84567 233.97485 236.14703 238.40321 240.77339
 243.39458 245.64576 247.64794 249.41312 250.83030 251.95348 252.77566 253.09184
 253.12902 252.90320 252.26338 251.21157 249.81775 247.97893 245.88811 243.72129
 241.51247 239.31665 237.13683 234.97601 232.83619 230.70337 228.72955 226.88674
 225.16992 223.64210 222.27228 221.04446 219.92664 218.88682 217.99100 217.13218
 216.37436 215.55454 214.65273 214.01691 213.46709 214.03651 215.56575 217.86017
 219.95157 221.54927 222.85567 223.90503 224.97258 226.12344 227.25577 227.20262
 227.53673 229.71173 233.47389 237.91661 242.45642 246.86272 251.01945 254.79810
 258.15338 261.17865 263.89209 266.38806 268.60272 270.52295 272.27081 274.00980
 275.84985 277.67953 279.47394 281.19293 282.68060 283.99680 285.19763 286.28549
 287.26392 288.13519 288.89633 289.86630
 366.78100 356.33862 345.77423 334.64385 323.05046 311.24808 299.12170 286.92831
 274.64393 262.54454 250.55716 239.86178 229.98739 221.09501 213.28063 206.28624
 200.12386 195.06547 191.65109 189.69671 188.73732 188.80494 189.64355 190.95517
 192.68379 194.78240 197.04902 199.41163 201.86025 204.34387 206.43548 208.28110
 209.91071 211.05933 211.29195 211.52356 211.46418 211.17279 210.80941 210.44303
 210.06364 209.77726 209.58888 209.45649 209.38811 209.72272 210.11234 210.50496
 211.30157 212.48319 213.73680 215.52342 217.45504 219.50165 221.60027 223.68688
 225.75050 227.83812 229.93873 232.04835 234.18096 236.35658 238.61620 240.98981
 243.61443 245.86905 247.87466 249.64328 251.06389 252.19051 253.01613 253.33574
 253.37636 253.15397 252.51759 251.46921 250.07882 248.24344 246.15605 243.99267
 241.78729 239.59490 237.41852 235.26113 233.12475 230.99537 229.02498 227.18560
 225.47221 223.94783 222.58145 221.35706 220.24268 219.20630 218.31391 217.45853
 216.70414 215.88776 214.98938 214.35699 213.81061 214.22681 215.43385 217.82289
 220.20006 221.84117 223.11690 224.06767 224.96063 225.95285 226.92191 226.71802
 227.14888 229.56699 233.45737 237.93576 242.50786 246.91719 251.07794 254.85623
 258.25806 261.24576 263.99631 266.46109 268.61105 270.49396 272.24741 274.00037
 275.80798 277.64334 279.45163 281.17996 282.67569 283.99899 285.20633 286.30011
 287.28381 288.15982 288.92508 289.90033
 366.78100 356.33792 345.77283 334.64175 323.04766 311.24458 299.11749 286.92341
 274.63832 262.53824 250.55016 239.85407 229.97899 221.08590 213.27082 206.27573
 200.11265 195.05356 191.63848 189.68340 188.72331 188.79023 189.62814 190.93906
 192.66697 194.76489 197.03080 199.39272 201.84064 204.32355 206.41447 208.25938
 209.88830 211.03621 211.26813 211.49904 211.43896 211.14688 210.78279 210.41571
 210.03562 209.74854 209.55945 209.42637 209.35728 209.69120 210.08012 210.47203
 211.26795 212.44886 213.70178 215.48769 217.41861 219.46452 221.56244 223.64836
 225.71127 227.79819 229.89810 232.00702 234.13893 236.31385 238.57276 240.94568
 243.56960 245.82351 247.82843 249.59634 251.01626 252.14217 252.96709 253.28600
 253.32592 253.10284 252.46575 251.41667 250.02558 248.18950 246.10141 243.93733
 241.73124 239.53816 237.36107 235.20299 233.06591 230.93582 228.96474 227.12465
 225.41057 223.88548 222.51840 221.29331 220.17823 219.14115 218.24806 217.39198
 216.63689 215.81981 214.92072 214.28764 213.74055 214.22105 215.50661 217.66110
 220.24393 222.04195 223.45084 224.41837 225.13989 225.91628 226.60471 226.29074
 226.79674 229.38727 233.39986 237.92633 242.53352 246.97067 251.15179 254.96355
 258.36179 261.42178 264.10623 266.59985 268.75821 270.60999 272.31424 274.03708
 275.80692 277.61819 279.36340 281.09698 282.59723 283.92459 285.13559 286.23267
 287.21936 288.09802 288.86560 289.84381
 366.78100 356.33704 345.77107 334.63911 323.04415 311.24019 299.11222 286.91726
 274.63130 262.53034 250.54137 239.84441 229.96845 221.07449 213.25852 206.26256
 200.09860 195.03864 191.62267 189.66671 188.70575 188.77179 189.60882 190.91886
 192.64590 194.74294 197.00797 199.36901 201.81605 204.29808 206.38812 208.23216
 209.86020 211.00723 211.23827 211.46831 211.40735 211.11438 210.74942 210.38146
 210.00050 209.71253 209.52257 209.38861 209.31865 209.65168 210.03972 210.43076
 211.22580 212.40583 213.65787 215.44291 217.37295 219.41798 221.51502 223.60006
 225.66209 227.74813 229.84717 231.95521 234.08624 236.26028 238.51832 240.89036
 243.51339 245.76643 247.77047 249.53751 250.95654 252.08158 252.90562 253.22366
 253.26269 253.03873 252.40077 251.35081 249.95884 248.12188 246.03292 243.86795
 241.66099 239.46703 237.28907 235.13010 232.99214 230.86118 228.88922 227.04825
 225.33329 223.80733 222.43937 221.21340 220.09744 219.05948 218.16552 217.30855
 216.55259 215.73463 214.83467 214.20070 213.65274 214.19466 215.57625 217.59511
 220.19090 222.15068 223.59718 224.55829 225.25117 225.99681 226.49724 226.10921
 226.59323 229.18944 233.27928 237.84120 242.44667 246.89824 251.08150 254.90361
 258.32874 261.40475 264.18774 266.71857 268.98370 270.86670 272.51175 274.18307
 275.86826 277.61688 279.21375 280.76462 282.23935 283.54410 284.73447 285.81287
 286.78278 287.64648 288.40100 289.36255
 366.78100 356.33839 345.77378 334.64317 323.04956 311.24695 299.12033 286.92672
 274.64211 262.54250 250.55489 239.85928 229.98467 221.09206 213.27745 206.28284
 200.12022 195.06161 191.64700 189.69239 188.73278 188.80017 189.63856 190.94995
 192.67834 194.77673 197.04311 199.40550 201.85389 204.33728 206.42867 208.27406
 209.90345 211.05184 211.28423 211.51562 211.45601 211.16439 210.80078 210.43417
 210.05456 209.76795 209.57934 209.44673 209.37812 209.71251 210.10190 210.49428
 211.29067 212.47206 213.72545 215.51184 217.44323 219.48962 221.58801 223.67440
 225.73779 227.82517 229.92556 232.03495 234.16734 236.34273 238.60212 240.97551
 243.59990 245.85429 247.85968 249.62806 251.04845 252.17484 253.00023 253.31962
 253.36001 253.13740 252.50079 251.45218 250.06157 248.22596 246.13834 243.97473
 241.76912 239.57651 237.39990 235.24229 233.10568 230.97607 229.00546 227.16585
 225.45223 223.92762 222.56101 221.33640 220.22179 219.18518 218.29257 217.43696
 216.68235 215.86574 214.96712 214.33451 213.78790 214.27644 215.53564 217.61919
 220.19168 222.24336 223.60524 224.50072 225.25972 226.06209 226.56068 226.03877
 226.45953 229.02084 233.17395 237.76176 242.36690 246.81190 250.98119 254.81013
 258.25607 261.34631 264.15298 266.69635 268.98401 270.94504 272.64334 274.31097
 275.97549 277.69006 279.26181 280.67557 282.05396 283.32687 284.48825 285.54037
 286.48663 287.32928 288.06540 289.00351
 366.78100 356.33797 345.77294 334.64191 323.04788 311.24485 299.11783 286.92380
 274.63877 262.53874 250.55071 239.85468 229.97965 221.08662 213.27159 206.27656
 200.11354 195.05451 191.63948 189.68445 188.72442 188.79139 189.62936 190.94033
 192.66830 194.76627 197.03224 199.39422 201.84219 204.32516 206.41613 208.26110
 209.89007 211.03804 211.27001 211.50098 211.44095 211.14892 210.78490 210.41787
 210.03784 209.75081 209.56178 209.42875 209.35972 209.69369 210.08266 210.47463
 211.27060 212.45158 213.70455 215.49052 217.42149 219.46746 221.56543 223.65140
 225.71437 227.80134 229.90131 232.01029 234.14226 236.31723 238.57620 240.94917
 243.57314 245.82711 247.83208 249.60005 251.02002 252.14599 252.97097 253.28994
 253.32991 253.10688 252.46985 251.42082 250.02979 248.19376 246.10573 243.94170
 241.73567 239.54265 237.36562 235.20759 233.07056 230.94053 228.96950 227.12947
 225.41544 223.89041 222.52338 221.29836 220.18333 219.14630 218.25327 217.39724
 216.64221 215.82518 214.92615 214.29312 213.74609 214.26976 215.57971 217.61177
 220.09575 222.26117 223.61497 224.47049 225.28639 226.13239 226.70474 225.87398
 226.29066 228.83733 233.07516 237.68857 242.30730 246.76334 250.94107 254.77711
 258.25250 261.38177 264.16254 266.71527 269.00687 270.99582 272.73981 274.42783
 276.10626 277.77545 279.33279 280.71866 281.94983 283.14490 284.28528 285.31839
 286.24756 287.07498 287.79782 288.71899
 366.78100 356.33592 345.76884 334.63577 323.03969 311.23461 299.10553 286.90946
 274.62238 262.52030 250.53022 239.83215 229.95507 221.05999 213.24291 206.24583
 200.08076 195.01968 191.60260 189.64552 188.68345 188.74837 189.58429 190.89321
 192.61914 194.71506 196.97898 199.33890 201.78482 204.26575 206.35467 208.19759
 209.82451 210.97044 211.20036 211.42928 211.36720 211.07312 210.70705 210.33797
 209.95589 209.66681 209.47574 209.34066 209.26958 209.60150 209.98843 210.37835
 211.17227 212.35119 213.60211 215.38604 217.31496 219.35888 221.45480 223.53873
 225.59965 227.68457 229.78249 231.88942 234.01934 236.19226 238.44918 240.82010
 243.44203 245.69395 247.69687 249.46279 250.88072 252.00464 252.82756 253.14448
 253.18241 252.95733 252.31825 251.26717 249.87409 248.03602 245.94594 243.77986
 241.57178 239.37671 237.19763 235.03755 232.89847 230.76639 228.79332 226.95124
 225.23516 223.70808 222.33901 221.11193 219.99485 218.95577 218.06070 217.20262
 216.44554 215.62646 214.72538 214.09031 213.54123 214.17062 215.68939 217.69710
 219.97118 222.18936 223.64636 224.51498 225.36798 226.26071 226.89774 225.58546
 226.01703 228.59569 232.94936 237.57391 242.20016 246.65900 250.84016 254.67726
 258.16650 261.30676 264.11774 266.68719 269.02847 271.07831 272.85028 274.54227
 276.21460 277.82437 279.34912 280.71902 281.91794 282.99286 283.98264 284.93655
 285.80060 286.57001 287.24219 288.09875
 366.78100 356.33550 345.76801 334.63451 323.03801 311.23252 299.10302 286.90653
 274.61903 262.51653 250.52604 239.82754 229.95004 221.05455 213.23705 206.23956
 200.07406 195.01256 191.59507 189.63757 188.67507 188.73958 189.57508 190.88359
 192.60909 194.70459 196.96810 199.32760 201.77310 204.25361 206.34211 208.18462
 209.81112 210.95662 211.18613 211.41463 211.35213 211.05764 210.69114 210.32165
 209.93915 209.64965 209.45816 209.32266 209.25116 209.58267 209.96917 210.35868
 211.15218 212.33068 213.58119 215.36469 217.29319 219.33670 221.43220 223.51571
 225.57621 227.66071 229.75822 231.86472 233.99422 236.16673 238.42323 240.79374
 243.41524 245.66674 247.66925 249.43475 250.85225 251.97576 252.79826 253.11477
 253.15227 252.92677 252.28728 251.23578 249.84228 248.00379 245.91329 243.74680
 241.53830 239.34280 237.16331 235.00281 232.86331 230.73082 228.75732 226.91483
 225.19833 223.67083 222.30134 221.07384 219.95634 218.91685 218.02135 217.16286
 216.40536 215.58586 214.68437 214.04887 213.49937 214.15788 215.73438 217.80342
 219.96039 222.16872 223.68768 224.57706 225.43680 226.36862 226.91739 225.55823
 225.94693 228.52306 232.86394 237.48924 242.12305 246.58279 250.76967 254.60834
 258.10648 261.24710 264.05313 266.62448 268.99222 271.08926 272.90927 274.58115
 276.22339 277.83612 279.35477 280.72043 281.91904 282.98938 283.96823 284.87943
 285.77301 286.56873 287.26382 288.14969
 366.78100 356.33589 345.76878 334.63568 323.03957 311.23446 299.10535 286.90924
 274.62213 262.52003 250.52992 239.83181 229.95470 221.05959 213.24248 206.24538
 200.08027 195.01916 191.60205 189.64494 188.68284 188.74773 189.58362 190.89251
 192.61840 194.71429 196.97819 199.33808 201.78397 204.26486 206.35375 208.19665
 209.82354 210.96943 211.19932 211.42821 211.36610 211.07200 210.70589 210.33678
 209.95467 209.66556 209.47445 209.33935 209.26824 209.60013 209.98702 210.37691
 211.17081 212.34970 213.60059 215.38448 217.31337 219.35726 221.45316 223.53705
 225.59794 227.68283 229.78072 231.88761 234.01751 236.19040 238.44729 240.81818
 243.44007 245.69197 247.69486 249.46075 250.87864 252.00253 252.82542 253.14232
 253.18021 252.95510 252.31599 251.26488 249.87177 248.03367 245.94356 243.77745
 241.56934 239.37423 237.19513 235.03502 232.89591 230.76380 228.79069 226.94858
 225.23248 223.70537 222.33626 221.10915 219.99204 218.95294 218.05783 217.19972
 216.44261 215.62350 214.72239 214.08729 213.53818 214.19283 215.76057 217.86560
 219.94427 222.12340 223.70464 224.61313 225.52478 226.44980 226.91901 225.50420
 225.81934 228.44606 232.79425 237.43031 242.06750 246.53149 250.73560 254.60165
 258.13483 261.30289 264.11530 266.67880 269.04431 271.16333 273.01242 274.68344
 276.29544 277.86319 279.36823 280.72867 281.91727 282.98676 283.97427 284.89160
 285.78571 286.58191 287.27744 288.16382
 366.78100 356.33622 345.76945 334.63667 323.04090 311.23612 299.10734 286.91157
 274.62479 262.52302 250.53324 239.83546 229.95869 221.06391 213.24714 206.25036
 200.08558 195.02481 191.60803 189.65126 188.68948 188.75470 189.59093 190.90015
 192.62638 194.72260 196.98682 199.34705 201.79327 204.27449 206.36372 208.20694
 209.83417 210.98039 211.21061 211.43984 211.37806 211.08429 210.71851 210.34973
 209.96796 209.67918 209.48841 209.35363 209.28285 209.61508 210.00230 210.39253
 211.18675 212.36597 213.61720 215.40142 217.33065 219.37487 221.47109 223.55532
 225.61654 227.70177 229.79999 231.90721 234.03744 236.21066 238.46789 240.83911
 243.46133 245.71356 247.71678 249.48301 250.90123 252.02545 252.84868 253.16590
 253.20413 252.97935 252.34057 251.28980 249.89702 248.05924 245.96947 243.80369
 241.59592 239.40114 237.22236 235.06259 232.92381 230.79204 228.81926 226.97748
 225.26171 223.73493 222.36616 221.13938 220.02260 218.98383 218.08905 217.23128
 216.47450 215.65572 214.75495 214.12017 213.57140 214.22298 215.76912 217.92535
 220.01250 222.11290 223.72832 224.68335 225.59039 226.50055 226.90738 225.50760
 225.75995 228.42958 232.71869 237.33510 241.96587 246.43005 250.64871 254.54933
 258.12433 261.33807 264.18140 266.75259 269.12378 271.26761 273.15588 274.84393
 276.43143 277.92270 279.37823 280.72562 281.90503 282.96182 283.94177 284.82098
 285.64062 286.41147 287.08484 287.94302
 366.78100 356.33672 345.77043 334.63815 323.04286 311.23858 299.11029 286.91501
 274.62873 262.52744 250.53816 239.84087 229.96459 221.07030 213.25402 206.25774
 200.09345 195.03317 191.61688 189.66060 188.69931 188.76503 189.60175 190.91146
 192.63818 194.73489 196.99961 199.36033 201.80704 204.28876 206.37847 208.22219
 209.84990 210.99662 211.22734 211.45705 211.39577 211.10248 210.73720 210.36891
 209.98763 209.69935 209.50906 209.37478 209.30449 209.63721 210.02492 210.41564
 211.21036 212.39007 213.64179 215.42650 217.35622 219.40093 221.49765 223.58237
 225.64408 227.72980 229.82851 231.93623 234.06694 236.24066 238.49838 240.87009
 243.49281 245.74552 247.74924 249.51596 250.93467 252.05939 252.88310 253.20082
 253.23953 253.01525 252.37697 251.32668 249.93440 248.09711 246.00783 243.84254
 241.63526 239.44098 237.26269 235.10341 232.96512 230.83384 228.86155 227.02027
 225.30499 223.77870 222.41042 221.18413 220.06785 219.02956 218.13528 217.27800
 216.52171 215.70343 214.80314 214.16886 213.62057 214.25972 215.76978 218.00244
 220.14423 222.10667 223.64055 224.70113 225.69582 226.60934 226.93408 225.58888
 225.71213 228.39413 232.63667 237.23828 241.83611 246.28734 250.51149 254.43904
 258.04480 261.29379 264.16794 266.75989 269.14706 271.31137 273.21915 274.91635
 276.50339 277.99469 279.38815 280.70990 281.88110 282.92941 283.89600 284.76617
 285.54022 286.25287 286.93048 287.79401
 366.78100 356.33730 345.77161 334.63991 323.04522 311.24152 299.11382 286.91913
 274.63343 262.53274 250.54404 239.84734 229.97165 221.07795 213.26226 206.26656
 200.10286 195.04317 191.62747 189.67178 188.71108 188.77738 189.61469 190.92499
 192.65230 194.74960 197.01490 199.37621 201.82351 204.30582 206.39612 208.24042
 209.86873 211.01603 211.24734 211.47764 211.41694 211.12425 210.75955 210.39186
 210.01116 209.72346 209.53377 209.40007 209.33037 209.66368 210.05198 210.44329
 211.23859 212.41889 213.67120 215.45650 217.38681 219.43211 221.52941 223.61472
 225.67702 227.76333 229.86263 231.97093 234.10224 236.27654 238.53485 240.90715
 243.53045 245.78376 247.78806 249.55537 250.97467 252.09997 252.92428 253.24258
 253.28189 253.05819 252.42049 251.37080 249.97910 248.14241 246.05371 243.88901
 241.68232 239.48862 237.31093 235.15223 233.01453 230.88384 228.91214 227.07145
 225.35675 223.83105 222.46336 221.23766 220.12197 219.08427 218.19057 217.33388
 216.57818 215.76049 214.86079 214.22709 213.67940 214.30222 215.77370 218.07140
 220.23393 222.08328 223.52121 224.62949 225.74580 226.70659 227.01273 225.73222
 225.72044 228.36739 232.58691 237.14859 241.72032 246.16234 250.38976 254.33493
 257.96094 261.23154 264.13568 266.75095 269.15356 271.32968 273.23251 274.91541
 276.51077 278.01395 279.39301 280.69135 281.85349 282.89963 283.86224 284.71637
 285.46243 286.14749 286.77115 287.58707
 366.78100 356.33779 345.77257 334.64136 323.04714 311.24393 299.11671 286.92250
 274.63728 262.53707 250.54886 239.85264 229.97743 221.08421 213.26900 206.27378
 200.11057 195.05135 191.63614 189.68093 188.72071 188.78750 189.62528 190.93607
 192.66385 194.76164 197.02742 199.38921 201.83700 204.31978 206.41057 208.25535
 209.88414 211.03192 211.26371 211.49449 211.43428 211.14207 210.77785 210.41064
 210.03042 209.74321 209.55399 209.42078 209.35156 209.68535 210.07413 210.46592
 211.26171 212.44249 213.69528 215.48106 217.41185 219.45763 221.55542 223.64120
 225.70399 227.79078 229.89056 231.99935 234.13113 236.30592 238.56470 240.93749
 243.56127 245.81506 247.81985 249.58763 251.00742 252.13320 252.95799 253.27677
 253.31656 253.09334 252.45613 251.40692 250.01570 248.17949 246.09127 243.92706
 241.72084 239.52763 237.35041 235.19220 233.05499 230.92477 228.95356 227.11334
 225.39913 223.87391 222.50670 221.28148 220.16627 219.12906 218.23584 217.37963
 216.62441 215.80720 214.90798 214.27477 213.72755 214.33794 215.78003 218.15065
 220.28073 222.01599 223.46497 224.58284 225.68770 226.71297 227.13242 225.96457
 225.84654 228.35400 232.52513 237.08003 241.61543 246.02687 250.24713 254.20314
 257.84732 261.14404 264.08417 266.73129 269.15839 271.36401 273.28391 274.96121
 276.53339 278.02206 279.39346 280.67139 281.83188 282.88202 283.85052 284.70578
 285.40143 286.08725 286.70743 287.53668
 366.78100 356.33875 345.77449 334.64424 323.05098 311.24873 299.12247 286.92922
 274.64496 262.54571 250.55845 239.86320 229.98895 221.09669 213.28244 206.28818
 200.12593 195.06767 191.65342 189.69916 188.73991 188.80765 189.64640 190.95815
 192.68689 194.78564 197.05238 199.41513 201.86387 204.34762 206.43936 208.28511
 209.91486 211.06360 211.29635 211.52809 211.46884 211.17758 210.81433 210.44807
 210.06882 209.78256 209.59431 209.46206 209.39380 209.72855 210.11829 210.51104
 211.30778 212.48953 213.74327 215.53002 217.46176 219.50851 221.60726 223.69400
 225.75775 227.84549 229.94624 232.05598 234.18873 236.36447 238.62422 240.99796
 243.62271 245.87746 247.88320 249.65195 251.07269 252.19944 253.02518 253.34493
 253.38567 253.16342 252.52717 251.47891 250.08866 248.25340 246.16615 244.00289
 241.79764 239.60538 237.42913 235.27187 233.13562 231.00637 229.03611 227.19686
 225.48360 223.95935 222.59309 221.36884 220.25458 219.21833 218.32607 217.47082
 216.71657 215.90031 215.00206 214.36980 213.82355 214.40131 215.76633 218.18718
 220.40475 222.03389 223.36003 224.43141 225.52271 226.70488 227.31760 226.25471
 225.98729 228.37946 232.53117 236.99667 241.47350 245.87335 250.09985 254.06766
 257.72632 261.02673 263.96823 266.62158 269.07138 271.29358 273.19043 274.87845
 276.51483 278.05054 279.43536 280.69690 281.85538 282.90067 283.86600 284.73178
 285.47128 286.13467 286.73654 287.54272
 366.78100 356.34030 345.77761 334.64891 323.05722 311.25652 299.13182 286.94013
 274.65743 262.55974 250.57404 239.88035 230.00765 221.11695 213.30426 206.31156
 200.15087 195.09417 191.68147 189.72878 188.77108 188.84039 189.68069 190.99400
 192.72430 194.82460 197.09291 199.45721 201.90752 204.39282 206.48612 208.33343
 209.96473 211.11504 211.34934 211.58265 211.52495 211.23525 210.87356 210.50886
 210.13117 209.84647 209.65977 209.52908 209.46238 209.79869 210.18999 210.58430
 211.38260 212.56590 213.82121 215.60951 217.54282 219.59112 221.69142 223.77973
 225.84503 227.93434 230.03664 232.14795 234.28225 236.45955 238.72086 241.09616
 243.72247 245.97877 247.98607 249.75638 251.17868 252.30699 253.13429 253.45560
 253.49790 253.27720 252.64251 251.59581 250.20712 248.37342 246.28772 244.12603
 241.92233 239.73164 237.55694 235.40125 233.26655 231.13885 229.17016 227.33246
 225.62077 224.09807 222.73337 221.51068 220.39798 219.36329 218.47259 217.61890
 216.86620 216.05150 215.15481 214.52411 213.97942 214.50864 215.78656 218.10234
 220.47847 221.98395 223.12370 224.19768 225.36592 226.62572 227.35530 226.70819
 226.05495 228.23582 232.41365 236.97304 241.47896 245.86584 250.09294 254.07693
 257.75272 261.06693 263.99408 266.59265 268.96423 271.11441 272.97409 274.62762
 276.23029 277.77603 279.24603 280.60718 281.79568 282.85468 283.83279 284.74594
 285.60495 286.36990 287.03815 287.88974
 366.78100 356.34225 345.78149 334.65474 323.06499 311.26623 299.14348 286.95373
 274.67297 262.57722 250.59346 239.90171 230.03096 221.14220 213.33145 206.34070
 200.18194 195.12719 191.71644 189.76568 188.80993 188.88118 189.72342 191.03867
 192.77091 194.87316 197.14341 199.50965 201.96190 204.44915 206.54439 208.39364
 210.02689 211.17913 211.41538 211.65063 211.59487 211.30712 210.94737 210.58461
 210.20886 209.92610 209.74135 209.61260 209.54784 209.88609 210.27934 210.67558
 211.47583 212.66108 213.91832 215.70857 217.64382 219.69406 221.79631 223.88655
 225.95380 228.04505 230.14929 232.26254 234.39879 236.57803 238.84128 241.21853
 243.84677 246.10502 248.11427 249.88651 251.31076 252.44101 253.27025 253.59350
 253.63774 253.41899 252.78624 251.74148 250.35473 248.52298 246.43922 244.27947
 242.07772 239.88896 237.71621 235.56246 233.42970 231.30395 229.33719 227.50144
 225.79169 224.27093 222.90818 221.68743 220.57667 219.54392 218.65517 217.80341
 217.05266 216.23991 215.34515 214.71640 214.17365 214.64799 215.88950 218.03239
 220.44328 222.08620 223.27344 224.32466 225.45299 226.44383 226.97601 226.63820
 226.34441 228.52930 232.49013 237.01437 241.54747 245.97923 250.25386 254.28784
 258.00873 261.36072 264.31052 266.89148 269.18826 271.20959 272.95428 274.56122
 276.16019 277.79901 279.36404 280.79013 282.18048 283.41580 284.54282 285.56384
 286.48212 287.29987 288.01422 288.92459
 366.78100 356.34112 345.77925 334.65137 323.06050 311.26062 299.13674 286.94587
 274.66399 262.56711 250.58224 239.88936 230.01749 221.12761 213.31573 206.32386
 200.16398 195.10811 191.69623 189.74435 188.78748 188.85760 189.69872 191.01285
 192.74397 194.84510 197.11422 199.47934 201.93047 204.41659 206.51072 208.35884
 209.99096 211.14209 211.37721 211.61134 211.55446 211.26558 210.90471 210.54083
 210.16395 209.88008 209.69420 209.56433 209.49845 209.83557 210.22770 210.62282
 211.42195 212.60607 213.86219 215.65132 217.58544 219.63456 221.73569 223.82481
 225.89094 227.98106 230.08418 232.19631 234.33143 236.50956 238.77168 241.14780
 243.77493 246.03205 248.04017 249.81130 251.23442 252.36355 253.19167 253.51379
 253.55692 253.33704 252.70317 251.65729 250.26941 248.43654 246.35166 244.19079
 241.98791 239.79803 237.62416 235.46928 233.33540 231.20853 229.24065 227.40378
 225.69290 224.17102 222.80715 221.58527 220.47340 219.43952 218.54964 217.69677
 216.94489 216.13101 215.23514 214.60526 214.06139 214.61150 216.00314 218.00768
 220.20908 222.14597 223.48734 224.42061 225.44118 226.42525 227.02417 226.38977
 226.11691 228.35341 232.40826 236.97884 241.50188 245.94482 250.27261 254.39160
 258.23892 261.75473 264.86942 267.54871 269.89844 272.03815 273.83841 275.29880
 276.62244 277.98123 279.48514 280.90024 282.27744 283.54236 284.69638 285.74188
 286.68216 287.51950 288.25098 289.18317
 366.78100 356.33959 345.77618 334.64676 323.05435 311.25294 299.12753 286.93512
 274.65171 262.55329 250.56688 239.87247 229.99906 221.10765 213.29424 206.30082
 200.13941 195.08200 191.66859 189.71518 188.75676 188.82535 189.66494 190.97753
 192.70712 194.80671 197.07429 199.43788 201.88747 204.37206 206.46465 208.31123
 209.94182 211.09141 211.32500 211.55759 211.49918 211.20876 210.84635 210.48094
 210.10253 209.81712 209.62971 209.49829 209.43088 209.76647 210.15706 210.55065
 211.34823 212.53082 213.78541 215.57300 217.50559 219.55318 221.65276 223.74035
 225.80494 227.89353 229.99512 232.10570 234.23929 236.41588 238.67647 241.05106
 243.67665 245.93223 247.93882 249.70841 251.13000 252.25759 253.08418 253.40476
 253.44635 253.22494 252.58953 251.54212 250.15270 248.31829 246.23188 244.06947
 241.86506 239.67365 237.49823 235.34182 233.20641 231.07800 229.10859 227.27017
 225.55776 224.03435 222.66894 221.44553 220.33212 219.29670 218.40529 217.55088
 216.79747 215.98206 215.08465 214.45323 213.90782 214.52217 215.98564 218.22240
 220.10962 221.88264 223.49425 224.50655 225.46326 226.42508 227.21115 226.28255
 226.23692 228.29942 232.27924 236.79997 241.22406 245.61867 249.92703 254.02519
 257.86142 261.41129 264.63483 267.50665 270.06555 272.35727 274.36087 276.07169
 277.52560 278.76102 279.87491 280.95917 282.04892 283.08682 284.04834 284.93311
 285.76385 286.52124 287.18286 288.02606
 366.78100 356.34030 345.77760 334.64890 323.05720 311.25650 299.13180 286.94010
 274.65740 262.55970 250.57400 239.88030 230.00760 221.11690 213.30420 206.31151
 200.15081 195.09411 191.68141 189.72871 188.77101 188.84031 189.68061 190.99391
 192.72421 194.82451 197.09281 199.45711 201.90741 204.39271 206.48601 208.33331
 209.96461 211.11491 211.34921 211.58251 211.52481 211.23511 210.87341 210.50871
 210.13101 209.84631 209.65961 209.52891 209.46222 209.79852 210.18982 210.58412
 211.38242 212.56572 213.82102 215.60932 217.54262 219.59092 221.69122 223.77952
 225.84482 227.93412 230.03642 232.14772 234.28202 236.45932 238.72062 241.09592
 243.72222 245.97852 247.98582 249.75612 251.17842 252.30672 253.13402 253.45532
 253.49762 253.27693 252.64223 251.59553 250.20683 248.37313 246.28743 244.12573
 241.92203 239.73133 237.55663 235.40093 233.26623 231.13853 229.16983 227.33213
 225.62043 224.09773 222.73303 221.51033 220.39763 219.36293 218.47223 217.61853
 216.86583 216.05113 215.15443 214.52373 213.97903 214.56116 215.93649 218.30452
 220.38579 221.93430 223.33914 224.40399 225.38220 226.43065 227.30682 226.57784
 226.37186 228.39926 232.27333 236.80301 241.15776 245.49234 249.77315 253.84291
 257.63129 261.10812 264.25500 267.07910 269.64410 271.96002 273.96948 275.71475
 277.27808 278.66385 279.89429 281.01651 282.06799 283.08389 284.03473 284.90582
 285.70151 286.42300 287.04205 287.87296
 366.78100 356.34197 345.78094 334.65392 323.06389 311.26486 299.14183 286.95180
 274.67078 262.57475 250.59072 239.89869 230.02766 221.13864 213.32761 206.33658
 200.17755 195.12252 191.71150 189.76047 188.80444 188.87541 189.71738 191.03235
 192.76433 194.86630 197.13627 199.50224 201.95421 204.44119 206.53616 208.38513
 210.01810 211.17007 211.40605 211.64102 211.58499 211.29696 210.93693 210.57391
 210.19788 209.91485 209.72982 209.60079 209.53577 209.87374 210.26671 210.66268
 211.46265 212.64763 213.90460 215.69457 217.62954 219.67951 221.78149 223.87146
 225.93843 228.02940 230.13337 232.24634 234.38232 236.56129 238.82426 241.20123
 243.82920 246.08718 248.09615 249.86812 251.29209 252.42206 253.25104 253.57401
 253.61798 253.39895 252.76592 251.72090 250.33387 248.50184 246.41781 244.25778
 242.05576 239.86673 237.69370 235.53967 233.40664 231.28062 229.31359 227.47756
 225.76753 224.24650 222.88348 221.66245 220.55142 219.51839 218.62936 217.77733
 217.02631 216.21328 215.31825 214.68922 214.14619 214.66557 215.89270 218.23576
 220.53278 222.05421 223.23135 224.18410 225.12828 226.27934 227.31448 226.78139
 226.55199 228.45546 232.30692 236.87965 241.24919 245.55113 249.82506 253.90199
 257.69000 261.14648 264.24326 266.98950 269.51242 271.81296 273.73569 275.39557
 276.95844 278.39548 279.69122 280.87918 282.01810 283.06094 284.01761 284.89496
 285.69797 286.43076 287.05289 287.87585
 366.78100 356.34251 345.78201 334.65552 323.06603 311.26753 299.14504 286.95555
 274.67505 262.57956 250.59606 239.90457 230.03408 221.14558 213.33509 206.34460
 200.18610 195.13161 191.72112 189.77062 188.81513 188.88664 189.72914 191.04465
 192.77716 194.87966 197.15017 199.51667 201.96918 204.45669 206.55219 208.40170
 210.03521 211.18771 211.42422 211.65973 211.60423 211.31674 210.95725 210.59475
 210.21926 209.93676 209.75227 209.62378 209.55928 209.89779 210.29130 210.68780
 211.48831 212.67382 213.93132 215.72183 217.65734 219.70784 221.81035 223.90086
 225.96836 228.05987 230.16437 232.27788 234.41439 236.59389 238.85740 241.23491
 243.86341 246.12192 248.13143 249.90393 251.32844 252.45895 253.28845 253.61196
 253.65647 253.43797 252.80548 251.76098 250.37449 248.54300 246.45950 244.30001
 242.09852 239.91002 237.73753 235.58404 233.45154 231.32605 229.35956 227.52406
 225.81457 224.29407 222.93158 221.71109 220.60059 219.56810 218.67961 217.82811
 217.07762 216.26513 215.37063 214.74214 214.19965 214.70874 215.91156 218.20717
 220.54652 222.13992 223.24236 224.09196 224.95175 226.11690 227.23846 226.83327
 226.62344 228.47636 232.32079 236.92360 241.30905 245.59056 249.86281 253.94643
 257.73758 261.19275 264.28067 266.99957 269.51700 271.83722 273.71869 275.31357
 276.85223 278.30020 279.61542 280.83450 281.99597 283.04413 284.00452 284.88556
 285.69345 286.42752 287.05057 287.87564
 366.78100 356.34205 345.78109 334.65414 323.06418 311.26523 299.14227 286.95232
 274.67136 262.57541 250.59145 239.89950 230.02855 221.13959 213.32864 206.33768
 200.17873 195.12377 191.71282 189.76186 188.80591 188.87696 189.71900 191.03405
 192.76609 194.86814 197.13818 199.50423 201.95627 204.44332 206.53836 208.38741
 210.02046 211.17250 211.40855 211.64359 211.58764 211.29968 210.93973 210.57677
 210.20082 209.91787 209.73291 209.60396 209.53900 209.87705 210.27009 210.66614
 211.46618 212.65123 213.90827 215.69832 217.63337 219.68341 221.78546 223.87550
 225.94255 228.03359 230.13764 232.25068 234.38673 236.56578 238.82882 241.20587
 243.83391 246.09196 248.10100 249.87305 251.29709 252.42714 253.25618 253.57923
 253.62328 253.40432 252.77137 251.72641 250.33946 248.50750 246.42355 244.26359
 242.06164 239.87268 237.69973 235.54578 233.41282 231.28687 229.31991 227.48396
 225.77400 224.25305 222.89009 221.66914 220.55819 219.52523 218.63628 217.78432
 217.03337 216.22041 215.32546 214.69650 214.15355 214.69426 215.97177 218.22067
 220.49843 222.14293 223.27342 224.07457 224.86143 226.01430 227.18892 226.86905
 226.66119 228.47331 232.32085 236.94464 241.32959 245.59557 249.86404 253.94475
 257.72812 261.17615 264.25854 266.97382 269.50607 271.84396 273.71036 275.28009
 276.80972 278.26230 279.58228 280.82382 281.99103 283.04092 284.00293 284.88803
 285.69577 286.42899 287.05743 287.88297
 366.78100 356.34200 345.78101 334.65401 323.06402 311.26502 299.14203 286.95203
 274.67104 262.57504 250.59105 239.89905 230.02806 221.13906 213.32807 206.33707
 200.17808 195.12308 191.71209 189.76109 188.80510 188.87610 189.71810 191.03311
 192.76511 194.86712 197.13712 199.50313 201.95513 204.44214 206.53714 208.38615
 210.01915 211.17116 211.40716 211.64217 211.58617 211.29818 210.93818 210.57519
 210.19919 209.91619 209.73120 209.60220 209.53721 209.87521 210.26822 210.66422
 211.46423 212.64923 213.90624 215.69624 217.63125 219.68125 221.78326 223.87326
 225.94027 228.03127 230.13528 232.24828 234.38429 236.56329 238.82629 241.20330
 243.83130 246.08931 248.09831 249.87032 251.29432 252.42433 253.25333 253.57634
 253.62034 253.40135 252.76835 251.72336 250.33636 248.50437 246.42037 244.26038
 242.05838 239.86938 237.69639 235.54239 233.40940 231.28340 229.31641 227.48041
 225.77042 224.24942 222.88643 221.66543 220.55444 219.52144 218.63245 217.78045
 217.02946 216.21646 215.32147 214.69247 214.14948 214.70081 216.00340 218.23537
 220.48990 222.14255 223.27199 224.00858 224.74602 225.89609 227.13205 226.94754
 226.76054 228.49982 232.33195 236.97453 241.36021 245.61163 249.87846 253.95340
 257.72406 261.15955 264.23322 266.94669 269.49033 271.83472 273.69019 275.25195
 276.78522 278.24338 279.56500 280.82620 281.99704 283.04761 284.01132 284.89566
 285.70547 286.43948 287.07114 287.90244
 366.78100 356.34254 345.78208 334.65562 323.06615 311.26769 299.14523 286.95577
 274.67531 262.57985 250.59639 239.90493 230.03446 221.14600 213.33554 206.34508
 200.18662 195.13216 191.72170 189.77123 188.81577 188.88731 189.72985 191.04539
 192.77793 194.88047 197.15101 199.51754 201.97008 204.45762 206.55316 208.40270
 210.03624 211.18878 211.42531 211.66085 211.60539 211.31793 210.95847 210.59601
 210.22055 209.93808 209.75362 209.62516 209.56070 209.89924 210.29278 210.68932
 211.48986 212.67539 213.93293 215.72347 217.65901 219.70955 221.81209 223.90263
 225.97016 228.06170 230.16624 232.27978 234.41632 236.59586 238.85940 241.23694
 243.86547 246.12401 248.13355 249.90609 251.33063 252.46117 253.29071 253.61424
 253.65878 253.44032 252.80786 251.76340 250.37694 248.54548 246.46202 244.30255
 242.10109 239.91263 237.74017 235.58671 233.45425 231.32879 229.36232 227.52686
 225.81740 224.29694 222.93448 221.71402 220.60356 219.57110 218.68263 217.83117
 217.08071 216.26825 215.37379 214.74533 214.20287 214.74026 216.00993 218.22542
 220.51259 222.18541 223.29672 223.92560 224.56351 225.70480 227.04007 227.01564
 226.86208 228.54155 232.36024 237.02420 241.42244 245.65907 249.92075 253.98369
 257.73401 261.14890 264.20767 266.91882 269.47214 271.81793 273.65976 275.21756
 276.76025 278.22556 279.54892 280.83627 282.01218 283.06207 284.02722 284.91330
 285.72351 286.45966 287.09598 287.92685
 366.78100 356.34302 345.78303 334.65705 323.06806 311.27008 299.14809 286.95911
 274.67912 262.58414 250.60115 239.91017 230.04018 221.15220 213.34221 206.35223
 200.19424 195.14026 191.73027 189.78029 188.82530 188.89732 189.74033 191.05635
 192.78936 194.89238 197.16339 199.53041 201.98342 204.47144 206.56745 208.41747
 210.05148 211.20450 211.44151 211.67753 211.62254 211.33556 210.97657 210.61459
 210.23960 209.95762 209.77363 209.64565 209.58166 209.92068 210.31469 210.71171
 211.51272 212.69874 213.95675 215.74777 217.68378 219.73480 221.83781 223.92883
 225.99684 228.08886 230.19387 232.30789 234.44490 236.62492 238.88893 241.26695
 243.89596 246.15498 248.16499 249.93801 251.36302 252.49404 253.32405 253.64807
 253.69308 253.47510 252.84311 251.79913 250.41314 248.58216 246.49917 244.34019
 242.13920 239.95122 237.77923 235.62625 233.49426 231.36928 229.40329 227.56831
 225.85932 224.33934 222.97735 221.75737 220.64738 219.61540 218.72741 217.87643
 217.12644 216.31446 215.42047 214.79249 214.25050 214.77785 216.02376 218.20653
 220.51611 222.23288 223.33920 223.88081 224.42221 225.47766 226.86324 227.04968
 226.99467 228.62024 232.39896 237.07451 241.49365 245.73123 249.98021 254.02504
 257.75040 261.13910 264.17868 266.88742 269.45056 271.79666 273.62579 275.17877
 276.73071 278.20413 279.53012 280.85040 282.03113 283.08295 284.04977 284.93634
 285.74661 286.48373 287.12207 287.96475
 366.78100 356.34313 345.78326 334.65739 323.06852 311.27065 299.14879 286.95992
 274.68005 262.58518 250.60231 239.91144 230.04157 221.15370 213.34383 206.35396
 200.19609 195.14222 191.73236 189.78249 188.82762 188.89975 189.74288 191.05901
 192.79214 194.89527 197.16640 199.53353 201.98666 204.47479 206.57093 208.42106
 210.05519 211.20832 211.44545 211.68158 211.62671 211.33984 210.98097 210.61910
 210.24423 209.96236 209.77850 209.65063 209.58676 209.92589 210.32002 210.71715
 211.51828 212.70441 213.96254 215.75367 217.68980 219.74094 221.84407 223.93520
 226.00333 228.09546 230.20059 232.31472 234.45185 236.63198 238.89611 241.27424
 243.90337 246.16251 248.17264 249.94577 251.37090 252.50203 253.33216 253.65629
 253.70142 253.48355 252.85168 251.80781 250.42194 248.59108 246.50821 244.34934
 242.14847 239.96060 237.78873 235.63586 233.50399 231.37912 229.41325 227.57838
 225.86951 224.34965 222.98778 221.76791 220.65804 219.62617 218.73830 217.88743
 217.13756 216.32569 215.43182 214.80395 214.26208 214.79597 216.05733 218.19028
 220.49112 222.26917 223.39534 223.84035 224.26152 225.28722 226.72653 227.03806
 227.04358 228.65395 232.44022 237.14288 241.58089 245.82718 250.06628 254.08560
 257.77884 261.13531 264.15182 266.85733 269.42770 271.77118 273.58972 275.13818
 276.69873 278.17844 279.52371 280.86176 282.04755 283.10242 284.07092 284.95862
 285.77045 286.50385 287.14890 287.98831
 366.78100 356.34307 345.78314 334.65721 323.06827 311.27034 299.14841 286.95948
 274.67955 262.58462 250.60168 239.91075 230.04082 221.15289 213.34296 206.35303
 200.19510 195.14116 191.73123 189.78130 188.82637 188.89844 189.74151 191.05757
 192.79064 194.89371 197.16478 199.53185 201.98492 204.47298 206.56905 208.41912
 210.05319 211.20626 211.44333 211.67940 211.62446 211.33753 210.97860 210.61667
 210.24174 209.95981 209.77587 209.64794 209.58401 209.92308 210.31715 210.71422
 211.51529 212.70135 213.95942 215.75049 217.68656 219.73763 221.84070 223.93176
 225.99983 228.09190 230.19697 232.31104 234.44811 236.62817 238.89224 241.27031
 243.89938 246.15845 248.16852 249.94159 251.36665 252.49772 253.32779 253.65186
 253.69693 253.47900 252.84706 251.80313 250.41720 248.58627 246.50334 244.34441
 242.14348 239.95554 237.78361 235.63068 233.49875 231.37382 229.40789 227.57295
 225.86402 224.34409 222.98216 221.76223 220.65230 219.62037 218.73243 217.88150
 217.13157 216.31964 215.42571 214.79778 214.25584 214.80450 216.10074 218.17612
 220.45326 222.29393 223.45541 223.85353 224.15303 224.99025 226.48285 227.01886
 227.15205 228.77612 232.51503 237.20740 241.69147 245.95383 250.16583 254.15103
 257.80603 261.12640 264.11917 266.82181 269.39752 271.73459 273.54370 275.09341
 276.66235 278.14923 279.52567 280.87256 282.06088 283.11807 284.08878 284.97855
 285.78824 286.52454 287.16849 288.01971
 366.78100 356.34309 345.78318 334.65727 323.06836 311.27045 299.14854 286.95963
 274.67972 262.58481 250.60190 239.91099 230.04108 221.15317 213.34326 206.35335
 200.19544 195.14153 191.73162 189.78171 188.82681 188.89890 189.74199 191.05808
 192.79117 194.89426 197.16535 199.53244 201.98553 204.47362 206.56971 208.41980
 210.05389 211.20698 211.44407 211.68016 211.62525 211.33834 210.97943 210.61752
 210.24261 209.96070 209.77679 209.64888 209.58497 209.92406 210.31815 210.71524
 211.51633 212.70242 213.96051 215.75160 217.68769 219.73878 221.84187 223.93296
 226.00105 228.09314 230.19824 232.31233 234.44942 236.62951 238.89360 241.27169
 243.90078 246.15987 248.16996 249.94305 251.36814 252.49923 253.32932 253.65341
 253.69850 253.48059 252.84868 251.80477 250.41886 248.58795 246.50504 244.34613
 242.14522 239.95731 237.78540 235.63249 233.50058 231.37567 229.40976 227.57485
 225.86594 224.34603 222.98412 221.76421 220.65430 219.62239 218.73448 217.88357
 217.13367 216.32176 215.42785 214.79994 214.25803 214.81789 216.14064 218.16208
 220.41701 222.30925 223.50407 223.87515 224.06847 224.69971 226.20737 226.96593
 227.26413 228.92812 232.61061 237.28470 241.80850 246.07996 250.26479 254.21294
 257.82819 261.11322 264.08466 266.78625 269.36630 271.69495 273.49826 275.05103
 276.62750 278.12537 279.52829 280.88098 282.06992 283.12979 284.10300 284.99225
 285.80270 286.53943 287.18146 288.04065
 366.78100 356.34326 345.78353 334.65779 323.06906 311.27132 299.14959 286.96085
 274.68111 262.58638 250.60364 239.91291 230.04317 221.15544 213.34570 206.35597
 200.19823 195.14449 191.73476 189.78502 188.83029 188.90255 189.74582 191.06208
 192.79534 194.89861 197.16987 199.53714 201.99040 204.47867 206.57493 208.42520
 210.05946 211.21272 211.44999 211.68625 211.63152 211.34478 210.98605 210.62431
 210.24957 209.96784 209.78410 209.65637 209.59263 209.93190 210.32616 210.72343
 211.52469 212.71095 213.96922 215.76048 217.69675 219.74801 221.85128 223.94254
 226.01080 228.10307 230.20833 232.32260 234.45986 236.64013 238.90439 241.28265
 243.91192 246.17118 248.18145 249.95471 251.37998 252.51124 253.34151 253.66577
 253.71103 253.49330 252.86156 251.81783 250.43209 248.60136 246.51862 244.35988
 242.15915 239.97141 237.79968 235.64694 233.51521 231.39047 229.42474 227.59000
 225.88126 224.36153 222.99979 221.78006 220.67032 219.63859 218.75085 217.90011
 217.15038 216.33864 215.44491 214.81717 214.27544 214.84021 216.17451 218.14830
 220.38367 222.31757 223.54231 223.88321 223.98367 224.44916 225.94594 226.88412
 227.35260 229.07796 232.70442 237.36427 241.92245 246.20338 250.36470 254.27850
 257.85571 261.10577 264.05869 266.75919 269.34015 271.66049 273.45706 275.01324
 276.59851 278.10306 279.53131 280.88782 282.08038 283.14139 284.11414 285.00421
 285.81622 286.55328 287.19971 288.06519
 366.78100 356.34350 345.78399 334.65849 323.06998 311.27248 299.15097 286.96247
 274.68296 262.58846 250.60596 239.91545 230.04595 221.15844 213.34894 206.35943
 200.20193 195.14842 191.73892 189.78942 188.83491 188.90741 189.75090 191.06740
 192.80089 194.90439 197.17588 199.54338 201.99687 204.48537 206.58187 208.43236
 210.06686 211.22035 211.45785 211.69434 211.63984 211.35333 210.99483 210.63333
 210.25882 209.97732 209.79381 209.66631 209.60280 209.94230 210.33679 210.73429
 211.53579 212.72228 213.98078 215.77227 217.70877 219.76026 221.86376 223.95525
 226.02375 228.11625 230.22174 232.33624 234.47373 236.65423 238.91872 241.29722
 243.92671 246.18621 248.19671 249.97020 251.39570 252.52719 253.35769 253.68218
 253.72768 253.51017 252.87867 251.83517 250.44966 248.61916 246.53665 244.37815
 242.17764 239.99014 237.81863 235.66613 233.53462 231.41012 229.44462 227.61011
 225.90161 224.38210 223.02060 221.80109 220.69159 219.66008 218.77258 217.92208
 217.17257 216.36107 215.46756 214.84006 214.29855 214.86629 216.20760 218.13516
 220.34686 222.31752 223.57715 223.88109 223.89549 224.23511 225.70265 226.77196
 227.40576 229.21259 232.80475 237.44907 242.03529 246.33051 250.47118 254.35197
 257.89114 261.10690 264.03931 266.73813 269.31659 271.62650 273.41608 274.97711
 276.57303 278.09116 279.53265 280.89264 282.08646 283.14777 284.12405 285.01407
 285.82675 286.56241 287.20822 288.07632
 366.78100 356.34367 345.78434 334.65901 323.07068 311.27335 299.15202 286.96369
 274.68436 262.59003 250.60770 239.91737 230.04804 221.16071 213.35138 206.36205
 200.20472 195.15139 191.74206 189.79273 188.83840 188.91108 189.75475 191.07142
 192.80509 194.90876 197.18043 199.54810 202.00177 204.49044 206.58711 208.43778
 210.07245 211.22612 211.46379 211.70046 211.64613 211.35980 211.00147 210.64014
 210.26581 209.98448 209.80115 209.67382 209.61049 209.95016 210.34483 210.74250
 211.54417 212.73084 213.98951 215.78118 217.71785 219.76952 221.87319 223.96486
 226.03353 228.12620 230.23187 232.34654 234.48421 236.66489 238.92956 241.30823
 243.93790 246.19757 248.20824 249.98191 251.40758 252.53925 253.36992 253.69459
 253.74026 253.52293 252.89160 251.84827 250.46294 248.63261 246.55028 244.39195
 242.19162 240.00429 237.83296 235.68063 233.54930 231.42497 229.45964 227.62531
 225.91698 224.39765 223.03632 221.81699 220.70766 219.67633 218.78900 217.93867
 217.18934 216.37801 215.48468 214.85735 214.31602 214.88948 216.24434 218.12469
 220.30464 222.30582 223.60722 223.87379 223.81049 224.05469 225.47513 226.63226
 227.42599 229.32959 232.90331 237.54558 242.15700 246.46251 250.58284 254.43184
 257.93481 261.11673 264.02841 266.72339 269.29578 271.59280 273.37497 274.94159
 276.54572 278.03510 279.54523 280.91211 282.10278 283.16278 284.13428 285.02414
 285.83365 286.56625 287.20996 288.07663
 366.78100 356.34380 345.78460 334.65941 323.07121 311.27401 299.15281 286.96461
 274.68542 262.59122 250.60902 239.91882 230.04963 221.16243 213.35323 206.36403
 200.20683 195.15364 191.74444 189.79524 188.84104 188.91384 189.75765 191.07445
 192.80825 194.91205 197.18385 199.55166 202.00546 204.49426 206.59106 208.44186
 210.07667 211.23047 211.46827 211.70507 211.65088 211.36468 211.00648 210.64528
 210.27108 209.98989 209.80669 209.67949 209.61629 209.95609 210.35090 210.74870
 211.55050 212.73730 213.99610 215.78791 217.72471 219.77651 221.88031 223.97211
 226.04092 228.13372 230.23952 232.35432 234.49213 236.67293 238.93773 241.31653
 243.94633 246.20614 248.21694 249.99074 251.41654 252.54834 253.37915 253.70395
 253.74975 253.53255 252.90135 251.85816 250.47296 248.64276 246.56056 244.40236
 242.20217 240.01497 237.84377 235.69157 233.56038 231.43618 229.47098 227.63678
 225.92858 224.40939 223.04819 221.82899 220.71979 219.68859 218.80140 217.95120
 217.20200 216.39080 215.49760 214.87041 214.32921 214.91054 216.28398 218.11777
 220.26030 222.28302 223.62489 223.85902 223.73033 223.90474 225.26323 226.47035
 227.42159 229.44179 233.00494 237.64037 242.27686 246.59656 250.69812 254.51651
 257.98550 261.13507 264.02505 266.71411 269.27850 271.56168 273.33664 274.90988
 276.52017 278.01874 279.54291 280.91663 282.10864 283.16904 284.14099 285.02966
 285.83698 286.56778 287.20648 288.07333
 366.78100 356.34392 345.78484 334.65976 323.07169 311.27461 299.15353 286.96545
 274.68637 262.59229 250.61021 239.92014 230.05106 221.16398 213.35490 206.36582
 200.20874 195.15566 191.74659 189.79751 188.84343 188.91635 189.76027 191.07719
 192.81111 194.91504 197.18696 199.55488 202.00880 204.49772 206.59464 208.44556
 210.08049 211.23441 211.47233 211.70925 211.65517 211.36909 211.01101 210.64993
 210.27586 209.99478 209.81170 209.68462 209.62154 209.96146 210.35638 210.75431
 211.55623 212.74315 214.00207 215.79399 217.73091 219.78283 221.88676 223.97868
 226.04760 228.14052 230.24644 232.36136 234.49928 236.68021 238.94513 241.32405
 243.95397 246.21389 248.22481 249.99873 251.42466 252.55658 253.38750 253.71242
 253.75834 253.54126 252.91018 251.86711 250.48203 248.65195 246.56987 244.41179
 242.21171 240.02463 237.85356 235.70148 233.57040 231.44632 229.48124 227.64716
 225.93908 224.42001 223.05893 221.83985 220.73077 219.69969 218.81261 217.96253
 217.21346 216.40238 215.50930 214.88222 214.34114 214.93094 216.32440 218.11145
 220.21336 222.25101 223.62827 223.83546 223.65250 223.77893 225.06592 226.28845
 227.39101 229.54289 233.11401 237.74272 242.39923 246.73099 250.81430 254.60422
 258.04190 261.16144 264.03137 266.71255 269.26587 271.53452 273.30234 274.87888
 276.49512 278.01324 279.54260 280.91666 282.11081 283.17206 284.14420 285.03317
 285.83743 286.56299 287.20300 288.06757
 366.78100 356.34404 345.78508 334.66012 323.07216 311.27520 299.15425 286.96629
 274.68733 262.59337 250.61141 239.92145 230.05249 221.16553 213.35657 206.36761
 200.21065 195.15770 191.74874 189.79978 188.84582 188.91886 189.76290 191.07994
 192.81398 194.91802 197.19006 199.55810 202.01214 204.50119 206.59823 208.44927
 210.08431 211.23835 211.47639 211.71343 211.65947 211.37351 211.01555 210.65459
 210.28064 209.99968 209.81672 209.68976 209.62680 209.96684 210.36188 210.75992
 211.56196 212.74900 214.00804 215.80009 217.73713 219.78917 221.89321 223.98525
 226.05429 228.14733 230.25337 232.36841 234.50645 236.68749 238.95253 241.33158
 243.96162 246.22166 248.23270 250.00674 251.43278 252.56482 253.39586 253.72090
 253.76694 253.54998 252.91903 251.87607 250.49111 248.66115 246.57919 244.42123
 242.22127 240.03431 237.86335 235.71139 233.58043 231.45648 229.49152 227.65756
 225.94960 224.43064 223.06968 221.85072 220.74176 219.71080 218.82384 217.97388
 217.22492 216.41397 215.52101 214.89405 214.35309 214.95143 216.36511 218.10938
 220.16000 222.20834 223.61795 223.80884 223.58063 223.67342 224.88367 226.09854
 227.34106 229.63042 233.21854 237.84749 242.52258 246.86412 250.93146 254.69516
 258.10287 261.19415 264.04565 266.71921 269.25919 271.51300 273.27374 274.85336
 276.47305 278.01077 279.54428 280.91861 282.11212 283.17429 284.14670 285.03458
 285.83768 286.56335 287.20380 288.06653
 366.78100 356.34418 345.78536 334.66054 323.07272 311.27590 299.15508 286.96726
 274.68844 262.59462 250.61280 239.92298 230.05416 221.16734 213.35852 206.36970
 200.21288 195.16006 191.75124 189.80242 188.84859 188.92177 189.76595 191.08313
 192.81731 194.92149 197.19367 199.56185 202.01603 204.50521 206.60239 208.45357
 210.08875 211.24293 211.48111 211.71829 211.66447 211.37865 211.02083 210.66001
 210.28619 210.00537 209.82255 209.69573 209.63291 209.97309 210.36827 210.76645
 211.56863 212.75581 214.01499 215.80717 217.74435 219.79653 221.90071 223.99289
 226.06207 228.15525 230.26142 232.37660 234.51478 236.69596 238.96114 241.34032
 243.97050 246.23068 248.24186 250.01604 251.44222 252.57440 253.40558 253.73076
 253.77694 253.56012 252.92930 251.88648 250.50166 248.67184 246.59002 244.43220
 242.23238 240.04556 237.87474 235.72292 233.59210 231.46828 229.50346 227.66964
 225.96182 224.44300 223.08218 221.86336 220.75454 219.72372 218.83690 217.98708
 217.23825 216.42743 215.53461 214.90779 214.36697 214.97269 216.40378 218.11186
 220.10493 222.15463 223.58965 223.77493 223.51637 223.59290 224.72299 225.91193
 227.27612 229.70105 233.32101 237.95514 242.64352 246.99240 251.04659 254.78587
 258.16605 261.23166 264.06662 266.73212 269.25516 271.48880 273.24557 274.83170
 276.45630 278.01804 279.55307 280.92807 282.12317 283.18427 284.15561 285.04376
 285.84805 286.57660 287.21863 288.08112
 366.78100 356.34446 345.78592 334.66138 323.07384 311.27729 299.15675 286.96921
 274.69067 262.59713 250.61559 239.92605 230.05751 221.17097 213.36243 206.37388
 200.21734 195.16480 191.75626 189.80772 188.85418 188.92764 189.77210 191.08956
 192.82402 194.92847 197.20093 199.56939 202.02385 204.51331 206.61077 208.46223
 210.09769 211.25215 211.49061 211.72806 211.67452 211.38898 211.03144 210.67090
 210.29736 210.01682 209.83428 209.70774 209.64519 209.98565 210.38111 210.77957
 211.58203 212.76949 214.02895 215.82141 217.75887 219.81133 221.91578 224.00824
 226.07770 228.17116 230.27762 232.39308 234.53154 236.71300 238.97846 241.35792
 243.98837 246.24883 248.26029 250.03475 251.46121 252.59367 253.42513 253.75059
 253.79705 253.58051 252.94996 251.90742 250.52288 248.69334 246.61180 244.45426
 242.25472 240.06818 237.89764 235.74609 233.61555 231.49201 229.52747 227.69393
 225.98639 224.46785 223.10731 221.88877 220.78023 219.74968 218.86314 218.01360
 217.26506 216.45452 215.56198 214.93544 214.39490 215.00217 216.43689 218.11569
 220.05276 222.08963 223.53590 223.72446 223.45123 223.53261 224.58446 225.73808
 227.20901 229.75993 233.42206 238.06474 242.75871 247.11261 251.15736 254.87558
 258.23135 261.27625 264.09601 266.75125 269.25369 271.46323 273.21515 274.81079
 276.44266 278.03171 279.56946 280.94495 282.13953 283.20163 284.17123 285.05835
 285.86240 286.59070 287.23187 288.08539
 366.78100 356.34491 345.78682 334.66274 323.07565 311.27956 299.15947 286.97238
 274.69430 262.60121 250.62012 239.93103 230.06294 221.17686 213.36877 206.38068
 200.22459 195.17250 191.76442 189.81633 188.86324 188.93715 189.78206 191.09998
 192.83489 194.93980 197.21271 199.58162 202.03654 204.52645 206.62436 208.47627
 210.11218 211.26710 211.50601 211.74392 211.69083 211.40574 211.04866 210.68857
 210.31548 210.03539 209.85330 209.72722 209.66513 210.00604 210.40195 210.80086
 211.60378 212.79169 214.05160 215.84451 217.78242 219.83534 221.94025 224.03316
 226.10307 228.19698 230.30390 232.41981 234.55872 236.74063 239.00654 241.38646
 244.01737 246.27828 248.29019 250.06510 251.49202 252.62493 253.45684 253.78275
 253.82966 253.61358 252.98349 251.94140 250.55731 248.72822 246.64714 244.49005
 242.29096 240.10487 237.93478 235.78370 233.65361 231.53052 229.56643 227.73334
 226.02626 224.50817 223.14808 221.92999 220.82190 219.79182 218.90573 218.05664
 217.30855 216.49846 215.60638 214.98029 214.44020 215.04164 216.46260 218.11783
 220.00826 222.02229 223.46234 223.64848 223.37604 223.48183 224.46350 225.57317
 227.13994 229.81433 233.52837 238.18034 242.87193 247.22787 251.26561 254.96518
 258.30212 261.32913 264.13574 266.77927 269.25626 271.43759 273.18182 274.78561
 276.42914 278.05322 279.59576 280.97125 282.16757 283.22809 284.19736 285.08261
 285.88885 286.61810 287.25507 288.10455
 366.78100 356.34538 345.78776 334.66413 323.07751 311.28189 299.16227 286.97565
 274.69803 262.60540 250.62478 239.93616 230.06854 221.18292 213.37529 206.38767
 200.23205 195.18043 191.77281 189.82519 188.87256 188.94694 189.79232 191.11070
 192.84608 194.95145 197.22483 199.59421 202.04959 204.53997 206.63834 208.49072
 210.12710 211.28248 211.52186 211.76024 211.70761 211.42299 211.06637 210.70675
 210.33413 210.05450 209.87288 209.74726 209.68564 210.02702 210.42340 210.82277
 211.62615 212.81453 214.07491 215.86829 217.80666 219.86004 221.96542 224.05880
 226.12918 228.22356 230.33093 232.44731 234.58669 236.76907 239.03545 241.41582
 244.04720 246.30858 248.32096 250.09634 251.52372 252.65709 253.48947 253.81585
 253.86323 253.64761 253.01798 251.97636 250.59274 248.76412 246.68350 244.52687
 242.32825 240.14263 237.97301 235.82239 233.69277 231.57014 229.60652 227.77390
 226.06728 224.54966 223.19003 221.97241 220.86479 219.83517 218.94955 218.10093
 217.35330 216.54368 215.65206 215.02644 214.48682 215.08076 216.48404 218.11644
 219.97255 221.96294 223.38736 223.55479 223.27264 223.42529 224.34608 225.41002
 227.07391 229.87495 233.64490 238.30241 242.98315 247.33649 251.37009 255.05591
 258.37589 261.39117 264.18430 266.81396 269.26123 271.41266 273.15244 274.77036
 276.42471 278.07999 279.62610 281.00253 282.19684 283.25732 284.22650 285.11047
 285.91479 286.64703 287.27930 288.12460
 366.78100 356.34576 345.78851 334.66527 323.07903 311.28379 299.16454 286.97830
 274.70106 262.60881 250.62857 239.94033 230.07308 221.18784 213.38060 206.39336
 200.23811 195.18687 191.77963 189.83238 188.88014 188.95490 189.80065 191.11941
 192.85517 194.96093 197.23468 199.60444 202.06020 204.55095 206.64971 208.50247
 210.13923 211.29498 211.53474 211.77350 211.72125 211.43701 211.08077 210.72152
 210.34928 210.07004 209.88880 209.76355 209.70231 210.04407 210.44082 210.84058
 211.64434 212.83309 214.09385 215.88761 217.82637 219.88012 221.98588 224.07964
 226.15039 228.24515 230.35291 232.46967 234.60942 236.79218 239.05894 241.43969
 244.07145 246.33321 248.34596 250.12172 251.54948 252.68324 253.51599 253.84275
 253.89051 253.67526 253.04602 252.00478 250.62154 248.79329 246.71305 244.55681
 242.35856 240.17332 238.00408 235.85383 233.72459 231.60235 229.63911 227.80686
 226.10062 224.58338 223.22413 222.00689 220.89965 219.87040 218.98516 218.13692
 217.38968 216.58043 215.68919 215.06395 214.52470 215.11240 216.50089 218.11456
 219.94380 221.91673 223.30792 223.45027 223.15776 223.34064 224.22578 225.26378
 227.00636 229.92950 233.76581 238.42830 243.09308 247.44354 251.47728 255.15399
 258.46439 261.46506 264.24359 266.85718 269.27151 271.38507 273.11600 274.74374
 276.39017 278.12213 279.67664 281.04913 282.24121 283.29794 284.26352 285.14359
 285.94757 286.67770 287.30588 288.14276
 366.78100 356.34612 345.78925 334.66637 323.08049 311.28561 299.16674 286.98086
 274.70398 262.61210 250.63223 239.94435 230.07747 221.19259 213.38572 206.39884
 200.24396 195.19308 191.78621 189.83933 188.88745 188.96258 189.80870 191.12782
 192.86394 194.97007 197.24419 199.61431 202.07043 204.56156 206.66068 208.51380
 210.15092 211.30705 211.54717 211.78629 211.73442 211.45054 211.09466 210.73578
 210.36391 210.08503 209.90415 209.77927 209.71840 210.06052 210.45764 210.85776
 211.66189 212.85101 214.11213 215.90625 217.84538 219.89950 222.00562 224.09975
 226.17087 228.26599 230.37411 232.49124 234.63136 236.81448 239.08160 241.46273
 244.09485 246.35697 248.37009 250.14622 251.57434 252.70846 253.54158 253.86871
 253.91683 253.70195 253.07308 252.03220 250.64932 248.82144 246.74157 244.58569
 242.38781 240.20293 238.03406 235.88418 233.75530 231.63342 229.67055 227.83867
 226.13279 224.61591 223.25704 222.04016 220.93328 219.90441 219.01953 218.17165
 217.42477 216.61590 215.72502 215.10014 214.56126 215.14107 216.51091 218.11533
 219.91589 221.88188 223.25548 223.33658 223.00604 223.26250 224.09521 225.07947
 226.91835 229.98425 233.89209 238.55907 243.20711 247.55876 251.60178 255.27704
 258.57043 261.55905 264.31552 266.90262 269.27264 271.34189 273.07208 274.72919
 276.39139 278.14185 279.70410 281.07913 282.27206 283.32883 284.29089 285.16992
 285.97253 286.70465 287.32639 288.16129
 366.78100 356.34661 345.79021 334.66782 323.08243 311.28804 299.16964 286.98425
 274.70786 262.61647 250.63707 239.94968 230.08329 221.19889 213.39250 206.40611
 200.25172 195.20132 191.79493 189.84854 188.89715 188.97275 189.81936 191.13897
 192.87557 194.98218 197.25679 199.62740 202.08400 204.57561 206.67522 208.52883
 210.16643 211.32304 211.56365 211.80325 211.75186 211.46847 211.11308 210.75468
 210.38329 210.10490 209.92450 209.80011 209.73972 210.08233 210.47993 210.88054
 211.68515 212.87476 214.13636 215.93097 217.87058 219.92518 222.03179 224.12640
 226.19801 228.29361 230.40222 232.51983 234.66044 236.84404 239.11165 241.49326
 244.12586 246.38847 248.40208 250.17869 251.60729 252.74190 253.57551 253.90312
 253.95172 253.73733 253.10894 252.06854 250.68615 248.85876 246.77937 244.62397
 242.42658 240.24219 238.07380 235.92440 233.79601 231.67462 229.71222 227.88083
 226.17544 224.65905 223.30065 222.08426 220.97787 219.94948 219.06508 218.21769
 217.47130 216.66290 215.77251 215.14812 214.60973 215.17697 216.51714 218.10736
 219.88179 221.83965 223.21503 223.27652 222.88814 223.06438 223.92496 224.99980
 226.88815 230.02713 234.00981 238.68379 243.31334 247.66447 251.71858 255.39337
 258.69321 261.65903 264.39151 266.95654 269.28375 271.30490 273.02499 274.68359
 276.41284 278.17395 279.73676 281.11404 282.30713 283.36215 284.32117 285.19656
 285.99976 286.72849 287.34964 288.17883
 366.78100 356.34718 345.79135 334.66953 323.08471 311.29089 299.17306 286.98824
 274.71242 262.62159 250.64277 239.95595 230.09012 221.20630 213.40048 206.41466
 200.26083 195.21101 191.80519 189.85936 188.90854 188.98472 189.83189 191.15207
 192.88925 194.99643 197.27160 199.64278 202.09996 204.59213 206.69231 208.54649
 210.18466 211.34184 211.58302 211.82320 211.77237 211.48955 211.13473 210.77690
 210.40608 210.12826 209.94843 209.82461 209.76479 210.10797 210.50614 210.90732
 211.71250 212.90267 214.16485 215.96003 217.90021 219.95538 222.06256 224.15774
 226.22991 228.32609 230.43527 232.55344 234.69462 236.87880 239.14698 241.52915
 244.16233 246.42551 248.43968 250.21686 251.64604 252.78121 253.61539 253.94357
 253.99275 253.77892 253.15110 252.11128 250.72945 248.90263 246.82381 244.66898
 242.47216 240.28834 238.12052 235.97169 233.84387 231.72305 229.76122 227.93040
 226.22558 224.70976 223.35193 222.13611 221.03029 220.00246 219.11864 218.27182
 217.52599 216.71817 215.82835 215.20453 214.66670 215.22014 216.52769 218.09392
 219.84006 221.78424 223.16188 223.23271 222.79715 222.86545 223.76204 224.93729
 226.85268 230.05696 234.12250 238.80573 243.41130 247.76755 251.83308 255.51068
 258.77145 261.75363 264.46909 267.00195 269.28107 271.24936 272.97046 274.70663
 276.40875 278.16806 279.73599 281.11807 282.31470 283.37598 284.34619 285.22842
 286.02393 286.72845 287.34256 288.16333
 366.78100 356.34758 345.79216 334.67075 323.08633 311.29291 299.17549 286.99107
 274.71565 262.62524 250.64682 239.96040 230.09498 221.21156 213.40614 206.42073
 200.26731 195.21789 191.81247 189.86705 188.91663 188.99322 189.84080 191.16138
 192.89896 195.00654 197.28212 199.65371 202.11129 204.60387 206.70445 208.55903
 210.19761 211.35520 211.59678 211.83736 211.78694 211.50452 211.15010 210.79269
 210.42227 210.14485 209.96543 209.84201 209.78259 210.12618 210.52476 210.92634
 211.73192 212.92250 214.18508 215.98067 217.92125 219.97683 222.08441 224.17999
 226.25257 228.34916 230.45874 232.57732 234.71890 236.90348 239.17206 241.55465
 244.18823 246.45181 248.46639 250.24397 251.67355 252.80914 253.64372 253.97230
 254.02188 253.80846 253.18104 252.14163 250.76021 248.93379 246.85537 244.70095
 242.50453 240.32112 238.15370 236.00528 233.87786 231.75744 229.79602 227.96561
 226.26119 224.74577 223.38835 222.17293 221.06752 220.04010 219.15668 218.31026
 217.56484 216.75742 215.86801 215.24459 214.70717 215.25127 216.53676 218.08144
 219.79939 221.72345 223.08376 223.17619 222.72522 222.70631 223.61594 224.84897
 226.79178 230.07243 234.23207 238.91733 243.50653 247.85336 251.92964 255.60921
 258.93918 261.83859 264.52255 267.04608 269.28650 271.20300 272.90710 274.53149
 276.48193 278.26160 279.81497 281.18976 282.38269 283.44189 284.41470 285.29642
 286.08722 286.78494 287.40182 288.22684
 366.78100 356.34786 345.79271 334.67157 323.08743 311.29428 299.17714 286.99300
 274.71785 262.62771 250.64956 239.96342 230.09828 221.21513 213.40999 206.42485
 200.27170 195.22256 191.81742 189.87227 188.92213 188.99899 189.84684 191.16770
 192.90556 195.01341 197.28927 199.66113 202.11898 204.61184 206.71269 208.56755
 210.20641 211.36426 211.60612 211.84698 211.79683 211.51469 211.16055 210.80340
 210.43326 210.15612 209.97697 209.85383 209.79469 210.13854 210.53740 210.93926
 211.74511 212.93597 214.19882 215.99468 217.93554 219.99139 222.09925 224.19511
 226.26796 228.36482 230.47468 232.59353 234.73539 236.92025 239.18910 241.57196
 244.20582 246.46967 248.48453 250.26239 251.69224 252.82810 253.66295 253.99181
 254.04167 253.82852 253.20138 252.16224 250.78109 248.95495 246.87681 244.72266
 242.52652 240.34338 238.17623 236.02809 233.90095 231.78080 229.81966 227.98952
 226.28537 224.77023 223.41308 222.19794 221.09280 220.06565 219.18251 218.33637
 217.59122 216.78408 215.89494 215.27179 214.73465 215.27574 216.55414 218.06517
 219.75076 221.63582 222.96465 223.09415 222.66705 222.57607 223.46751 224.73201
 226.73526 230.09810 234.33894 239.03127 243.57703 247.93643 252.04132 255.72638
 258.84619 261.99887 264.71341 267.18753 269.36407 271.20312 272.85938 274.52072
 276.46674 278.23141 279.77429 281.11111 282.28690 283.33032 284.28665 285.14523
 285.89313 286.52859 287.06387 287.73831
 366.78100 356.34817 345.79334 334.67252 323.08869 311.29586 299.17903 286.99520
 274.72038 262.63055 250.65272 239.96689 230.10206 221.21924 213.41441 206.42958
 200.27675 195.22792 191.82310 189.87827 188.92844 189.00561 189.85379 191.17496
 192.91313 195.02130 197.29747 199.66965 202.12782 204.62099 206.72216 208.57733
 210.21651 211.37468 211.61685 211.85802 211.80819 211.52637 211.17254 210.81571
 210.44588 210.16905 209.99023 209.86740 209.80857 210.15274 210.55191 210.95409
 211.76026 212.95143 214.21460 216.01077 217.95195 220.00812 222.11629 224.21246
 226.28563 228.38281 230.49298 232.61215 234.75432 236.93949 239.20867 241.59184
 244.22601 246.49018 248.50536 250.28353 251.71370 252.84987 253.68504 254.01422
 254.06439 253.85156 253.22473 252.18590 250.80508 248.97925 246.90142 244.74759
 242.55176 240.36894 238.20211 236.05428 233.92745 231.80762 229.84680 228.01697
 226.31314 224.79831 223.44148 222.22666 221.12183 220.09500 219.21217 218.36634
 217.62152 216.81469 215.92586 215.30303 214.76620 215.29924 216.55856 218.04369
 219.68823 221.54108 222.84560 222.98239 222.58264 222.44936 223.32550 224.61542
 226.67528 230.13448 234.44125 239.11540 243.65004 248.05873 252.18520 255.87947
 259.00711 262.11304 264.82520 267.25198 269.36609 271.14966 272.80515 274.57050
 276.42123 278.16019 279.64017 280.95740 282.11295 283.13095 284.06094 284.88779
 285.60422 286.21283 286.73935 287.41034
 366.78100 356.34779 345.79258 334.67137 323.08717 311.29396 299.17675 286.99254
 274.71733 262.62712 250.64891 239.96271 230.09750 221.21429 213.40908 206.42387
 200.27066 195.22146 191.81625 189.87104 188.92083 188.99762 189.84541 191.16620
 192.90400 195.01179 197.28758 199.65937 202.11716 204.60995 206.71074 208.56554
 210.20433 211.36212 211.60391 211.84470 211.79449 211.51229 211.15808 210.80087
 210.43066 210.15345 209.97424 209.85103 209.79183 210.13562 210.53441 210.93620
 211.74199 212.93278 214.19557 215.99137 217.93216 219.98795 222.09574 224.19153
 226.26432 228.36112 230.47091 232.58970 234.73149 236.91628 239.18507 241.56786
 244.20166 246.46545 248.48024 250.25803 251.68782 252.82361 253.65840 253.98720
 254.03699 253.82378 253.19657 252.15736 250.77615 248.94995 246.87174 244.71753
 242.52132 240.33811 238.17090 236.02269 233.89549 231.77528 229.81407 227.98386
 226.27965 224.76444 223.40723 222.19203 221.08682 220.05961 219.17640 218.33019
 217.58498 216.77777 215.88857 215.26536 214.72815 215.28851 216.61243 217.98242
 219.62111 221.46951 222.72266 222.84337 222.46701 222.29883 223.16684 224.51547
 226.59804 230.19504 234.55003 239.21127 243.73085 248.14229 252.27170 255.95825
 259.16287 262.23526 264.92560 267.33423 269.42014 271.17990 272.85281 274.60229
 276.39465 278.09549 279.53662 280.81088 281.94058 282.94183 283.86499 284.71451
 285.48477 286.17389 286.77585 287.54300
 366.78100 356.34753 345.79207 334.67060 323.08614 311.29267 299.17521 286.99074
 274.71527 262.62481 250.64634 239.95988 230.09441 221.21095 213.40548 206.42001
 200.26655 195.21708 191.81162 189.86615 188.91568 188.99222 189.83975 191.16029
 192.89782 195.00536 197.28089 199.65242 202.10996 204.60249 206.70303 208.55756
 210.19610 211.35363 211.59516 211.83570 211.78523 211.50277 211.14830 210.79084
 210.42037 210.14290 209.96344 209.83997 209.78051 210.12404 210.52257 210.92411
 211.72964 212.92018 214.18271 215.97825 217.91878 219.97431 222.08185 224.17738
 226.24992 228.34645 230.45599 232.57452 234.71605 236.90059 239.16912 241.55166
 244.18519 246.44873 248.46326 250.24079 251.67033 252.80586 253.64040 253.96893
 254.01846 253.80500 253.17753 252.13807 250.75660 248.93014 246.85167 244.69720
 242.50074 240.31727 238.14981 236.00134 233.87388 231.75341 229.79194 227.96148
 226.25701 224.74155 223.38408 222.16862 221.06315 220.03568 219.15222 218.30575
 217.56029 216.75282 215.86335 215.23989 214.70242 215.28082 216.65433 217.96657
 219.50150 221.28059 222.61255 222.78296 222.36902 222.09894 222.94556 224.43866
 226.51579 230.25636 234.70584 239.31122 243.83017 248.21892 252.34396 256.01691
 259.26620 262.27060 264.97998 267.39673 269.45029 271.18790 272.85617 274.62405
 276.41043 278.05658 279.43585 280.70261 281.81595 282.82779 283.77243 284.65485
 285.45087 286.15976 286.77902 287.56818
 366.78100 356.34831 345.79362 334.67292 323.08923 311.29654 299.17985 286.99615
 274.72146 262.63177 250.65408 239.96839 230.10369 221.22100 213.41631 206.43162
 200.27893 195.23023 191.82554 189.88085 188.93116 189.00846 189.85677 191.17808
 192.91639 195.02470 197.30100 199.67331 202.13162 204.62493 206.72624 208.58154
 210.22085 211.37916 211.62147 211.86277 211.81308 211.53139 211.17770 210.82101
 210.45131 210.17462 209.99593 209.87324 209.81455 210.15885 210.55816 210.96047
 211.76678 212.95808 214.22139 216.01770 217.95901 220.01532 222.12362 224.21993
 226.29324 228.39055 230.50086 232.62016 234.76247 236.94778 239.21709 241.60039
 244.23470 246.49901 248.51432 250.29263 251.72293 252.85924 253.69455 254.02386
 254.07417 253.86147 253.23478 252.19609 250.81540 248.98970 246.91201 244.75832
 242.56263 240.37994 238.21324 236.06555 233.93886 231.81917 229.85848 228.02878
 226.32509 224.81040 223.45371 222.23901 221.13432 220.10763 219.22494 218.37925
 217.63455 216.82786 215.93917 215.31648 214.77979 215.31868 216.60524 218.03183
 219.42430 221.18932 222.57768 222.62898 222.14995 221.93236 222.81940 224.36340
 226.54105 230.36043 234.87212 239.44431 243.93370 248.28793 252.39197 256.05017
 259.35724 262.37979 265.04120 267.46524 269.53357 271.25903 272.93286 274.69659
 276.43723 278.02435 279.38666 280.65555 281.76981 282.78629 283.74078 284.63876
 285.44641 286.16565 286.79395 287.59464
 366.78100 356.34838 345.79375 334.67313 323.08951 311.29689 299.18026 286.99664
 274.72202 262.63240 250.65477 239.96915 230.10453 221.22191 213.41728 206.43266
 200.28004 195.23142 191.82679 189.88217 188.93255 189.00993 189.85830 191.17968
 192.91806 195.02644 197.30281 199.67519 202.13357 204.62695 206.72832 208.58370
 210.22308 211.38146 211.62383 211.86521 211.81559 211.53396 211.18034 210.82372
 210.45410 210.17747 209.99885 209.87623 209.81761 210.16198 210.56136 210.96374
 211.77012 212.96149 214.22487 216.02125 217.96263 220.01900 222.12738 224.22376
 226.29714 228.39451 230.50489 232.62427 234.76665 236.95202 239.22140 241.60478
 244.23916 246.50353 248.51891 250.29729 251.72767 252.86404 253.69942 254.02880
 254.07918 253.86655 253.23993 252.20131 250.82068 248.99506 246.91744 244.76382
 242.56819 240.38557 238.21895 236.07133 233.94470 231.82508 229.86446 228.03484
 226.33121 224.81659 223.45997 222.24535 221.14072 220.11410 219.23148 218.38586
 217.64123 216.83461 215.94599 215.32337 214.78674 215.32033 216.59775 218.05136
 219.40393 221.06525 222.51660 222.58545 221.99197 221.73152 222.63203 224.19495
 226.49776 230.43425 235.03790 239.60857 244.06902 248.38957 252.48378 256.12790
 259.32938 262.34616 265.14487 267.58115 269.61200 271.29214 272.92810 274.66858
 276.37363 277.91226 279.20181 280.42935 281.53284 282.54068 283.50735 284.40558
 285.21344 285.93283 286.56128 287.36215
 366.78100 356.34832 345.79365 334.67297 323.08930 311.29662 299.17995 286.99627
 274.72160 262.63192 250.65424 239.96857 230.10389 221.22122 213.41654 206.43187
 200.27919 195.23052 191.82584 189.88117 188.93149 189.00881 189.85714 191.17846
 192.91679 195.02511 197.30144 199.67376 202.13209 204.62541 206.72673 208.58206
 210.22138 211.37971 211.62203 211.86336 211.81368 211.53201 211.17833 210.82165
 210.45198 210.17530 209.99663 209.87395 209.81528 210.15960 210.55893 210.96125
 211.76758 212.95890 214.22222 216.01855 217.95987 220.01620 222.12452 224.22085
 226.29417 228.39150 230.50182 232.62114 234.76347 236.94879 239.21812 241.60144
 244.23577 246.50009 248.51542 250.29374 251.72406 252.86039 253.69571 254.02504
 254.07536 253.86269 253.23601 252.19734 250.81666 248.99099 246.91331 244.75963
 242.56396 240.38128 238.21461 236.06693 233.94026 231.82058 229.85991 228.03023
 226.32655 224.81188 223.45520 222.24053 221.13585 220.10918 219.22650 218.38083
 217.63615 216.82947 215.94080 215.31812 214.78145 215.32668 216.64505 218.00829
 219.47014 221.09883 222.51379 222.61325 221.97911 221.61935 222.41222 224.11165
 226.56519 230.55066 235.16225 239.78178 244.24245 248.56322 252.64696 256.27765
 259.44754 262.36749 265.00266 267.53085 269.56274 271.27148 272.94559 274.67819
 276.33136 277.71472 278.97952 280.27771 281.51761 282.65588 283.69440 284.63519
 285.48132 286.23483 286.89310 287.73193
 366.78100 356.34833 345.79366 334.67299 323.08932 311.29664 299.17997 286.99630
 274.72163 262.63196 250.65429 239.96862 230.10395 221.22128 213.41660 206.43193
 200.27926 195.23059 191.82592 189.88125 188.93158 189.00891 189.85724 191.17856
 192.91689 195.02522 197.30155 199.67388 202.13221 204.62554 206.72687 208.58220
 210.22153 211.37985 211.62218 211.86351 211.81384 211.53217 211.17850 210.82183
 210.45216 210.17549 209.99681 209.87414 209.81547 210.15980 210.55913 210.96146
 211.76779 212.95912 214.22245 216.01877 217.96010 220.01643 222.12476 224.22109
 226.29442 228.39175 230.50208 232.62141 234.76373 236.94906 239.21839 241.60172
 244.23605 246.50038 248.51571 250.29404 251.72437 252.86069 253.69602 254.02535
 254.07568 253.86301 253.23634 252.19767 250.81700 248.99133 246.91365 244.75998
 242.56431 240.38164 238.21497 236.06730 233.94063 231.82096 229.86029 228.03062
 226.32694 224.81227 223.45560 222.24093 221.13626 220.10959 219.22692 218.38125
 217.63658 216.82990 215.94123 215.31856 214.78189 215.33240 216.66193 217.96220
 219.50040 221.16936 222.50314 222.51193 221.78195 221.42621 222.27603 223.96277
 226.59003 230.66132 235.31903 239.97147 244.42041 248.71326 252.79271 256.41086
 259.59698 262.43167 265.10474 267.59024 269.58072 271.26639 272.93716 274.67245
 276.26550 277.65527 279.11682 280.54755 281.85077 283.00381 284.05576 285.00879
 285.86591 286.62918 287.29596 288.14569
 366.78100 356.34774 345.79247 334.67121 323.08695 311.29368 299.17642 286.99215
 274.71689 262.62663 250.64836 239.96210 230.09684 221.21357 213.40831 206.42305
 200.26978 195.22052 191.81526 189.86999 188.91973 188.99646 189.84420 191.16494
 192.90267 195.01041 197.28615 199.65788 202.11562 204.60836 206.70909 208.56383
 210.20257 211.36030 211.60204 211.84277 211.79251 211.51025 211.15598 210.79872
 210.42846 210.15119 209.97193 209.84867 209.78940 210.13314 210.53187 210.93361
 211.73935 212.93008 214.19282 215.98856 217.92929 219.98503 222.09277 224.18850
 226.26124 228.35798 230.46771 232.58645 234.72818 236.91292 239.18166 241.56439
 244.19813 246.46187 248.47660 250.25434 251.68408 252.81981 253.65455 253.98329
 254.03302 253.81976 253.19249 252.15323 250.77197 248.94570 246.86744 244.71318
 242.51691 240.33365 238.16639 236.01812 233.89086 231.77059 229.80933 227.97907
 226.27480 224.75954 223.40228 222.18701 221.08175 220.05449 219.17122 218.32496
 217.57970 216.77243 215.88317 215.25990 214.72264 215.30574 216.69676 217.91745
 219.50203 221.23235 222.50719 222.37332 221.48747 221.16302 222.10291 223.83981
 226.60428 230.74197 235.45711 240.14214 244.59537 248.84674 252.87376 256.50455
 259.69394 262.52750 265.18219 267.64850 269.59286 271.28604 272.98044 274.70691
 276.26541 277.75403 279.28665 280.76199 282.06293 283.21393 284.26404 285.21536
 286.07098 286.83292 287.49854 288.34677
 366.78100 356.34710 345.79121 334.66931 323.08442 311.29052 299.17263 286.98773
 274.71184 262.62094 250.64205 239.95515 230.08926 221.20536 213.39947 206.41357
 200.25968 195.20978 191.80389 189.85799 188.90710 188.98320 189.83031 191.15041
 192.88752 194.99462 197.26973 199.64083 202.09794 204.59004 206.69015 208.54425
 210.18236 211.33946 211.58056 211.82067 211.76977 211.48688 211.13198 210.77409
 210.40319 210.12530 209.94540 209.82151 209.76161 210.10472 210.50282 210.90393
 211.70903 212.89914 214.16124 215.95635 217.89645 219.95156 222.05866 224.15377
 226.22587 228.32198 230.43108 232.54919 234.69029 236.87440 239.14250 241.52461
 244.15771 246.42082 248.43492 250.21202 251.64113 252.77623 253.61034 253.93844
 253.98755 253.77365 253.14576 252.10586 250.72397 248.89707 246.81818 244.66328
 242.46639 240.28249 238.11460 235.96570 233.83781 231.71691 229.75502 227.92412
 226.21923 224.70333 223.34544 222.12954 221.02365 219.99575 219.11186 218.26496
 217.51907 216.71117 215.82128 215.19738 214.65948 215.27750 216.73302 217.88846
 219.48045 221.30399 222.58440 222.28366 221.20357 220.97786 221.88626 223.54578
 226.53207 230.79504 235.58813 240.30598 244.78740 249.02275 252.97899 256.57825
 259.77924 262.62415 265.25555 267.63391 269.58548 271.29727 273.00113 274.72574
 276.26062 277.92633 279.56256 281.10425 282.43842 283.61884 284.69577 285.67142
 286.54889 287.33029 288.01288 288.88281
 366.78100 356.34687 345.79075 334.66862 323.08350 311.28937 299.17125 286.98612
 274.71000 262.61887 250.63975 239.95262 230.08650 221.20237 213.39624 206.41012
 200.25599 195.20587 191.79974 189.85362 188.90249 188.97837 189.82524 191.14512
 192.88199 194.98886 197.26374 199.63461 202.09149 204.58336 206.68324 208.53711
 210.17499 211.33186 211.57274 211.81261 211.76149 211.47836 211.12323 210.76511
 210.39398 210.11586 209.93573 209.81161 209.75148 210.09436 210.49223 210.89311
 211.69798 212.88786 214.14973 215.94460 217.88448 219.93935 222.04623 224.14110
 226.21298 228.30885 230.41773 232.53560 234.67648 236.86035 239.12822 241.51010
 244.14297 246.40585 248.41972 250.19660 251.62547 252.76035 253.59422 253.92210
 253.97097 253.75685 253.12872 252.08859 250.70647 248.87934 246.80022 244.64509
 242.44797 240.26384 238.09572 235.94659 233.81847 231.69734 229.73522 227.90409
 226.19896 224.68284 223.32471 222.10859 221.00246 219.97434 219.09021 218.24309
 217.49696 216.68884 215.79871 215.17458 214.63646 215.26523 216.74019 217.88097
 219.44197 221.31241 222.63313 222.26926 221.03951 220.70462 221.54678 223.38290
 226.51451 230.86545 235.71703 240.45396 244.97177 249.21494 253.12373 256.66254
 259.86789 262.73398 265.33917 267.66589 269.62750 271.32529 273.02524 274.69873
 276.30450 278.03809 279.73181 281.23611 282.53793 283.68973 284.74057 285.69254
 286.54874 287.31119 287.97723 288.82608
 366.78100 356.34680 345.79061 334.66841 323.08321 311.28901 299.17082 286.98562
 274.70942 262.61823 250.63903 239.95183 230.08563 221.20144 213.39524 206.40904
 200.25485 195.20465 191.79845 189.85225 188.90106 188.97686 189.82366 191.14347
 192.88027 194.98707 197.26187 199.63268 202.08948 204.58128 206.68109 208.53489
 210.17269 211.32949 211.57030 211.81010 211.75890 211.47571 211.12051 210.76231
 210.39112 210.11292 209.93272 209.80852 209.74833 210.09113 210.48893 210.88974
 211.69454 212.88434 214.14614 215.94095 217.88075 219.93555 222.04236 224.13716
 226.20896 228.30476 230.41357 232.53137 234.67217 236.85598 239.12378 241.50558
 244.13838 246.40119 248.41499 250.19179 251.62060 252.75540 253.58920 253.91700
 253.96581 253.75161 253.12341 252.08322 250.70102 248.87382 246.79462 244.63943
 242.44223 240.25803 238.08984 235.94064 233.81244 231.69124 229.72905 227.89785
 226.19265 224.67646 223.31826 222.10206 220.99586 219.96767 219.08347 218.23627
 217.49008 216.68188 215.79168 215.16748 214.62929 215.25862 216.73524 217.88304
 219.41838 221.27631 222.61058 222.25543 220.92688 220.42526 221.21547 223.32722
 226.55556 230.97849 235.84099 240.60471 245.14548 249.39780 253.27547 256.75259
 259.91736 262.77756 265.37057 267.69040 269.67206 271.38184 273.06839 274.67978
 276.25302 277.99255 279.67621 281.15457 282.43396 283.56589 284.59860 285.53418
 286.37564 287.12494 287.77954 288.61371
 366.78100 356.34670 345.79039 334.66809 323.08279 311.28848 299.17018 286.98488
 274.70858 262.61727 250.63797 239.95067 230.08436 221.20006 213.39376 206.40745
 200.25315 195.20285 191.79655 189.85024 188.89894 188.97464 189.82133 191.14103
 192.87773 194.98442 197.25912 199.62982 202.08652 204.57821 206.67791 208.53161
 210.16930 211.32600 211.56670 211.80639 211.75509 211.47179 211.11649 210.75818
 210.38688 210.10858 209.92827 209.80397 209.74367 210.08636 210.48406 210.88476
 211.68946 212.87915 214.14085 215.93555 217.87524 219.92994 222.03664 224.13133
 226.20303 228.29873 230.40742 232.52512 234.66582 236.84952 239.11721 241.49891
 244.13161 246.39430 248.40800 250.18470 251.61339 252.74809 253.58179 253.90949
 253.95818 253.74388 253.11558 252.07527 250.69297 248.86567 246.78636 244.63106
 242.43376 240.24946 238.08115 235.93185 233.80355 231.68224 229.71994 227.88864
 226.18333 224.66703 223.30873 222.09243 220.98612 219.95782 219.07352 218.22621
 217.47991 216.67161 215.78130 215.15700 214.61870 215.24454 216.71866 217.87389
 219.39174 221.22002 222.48521 222.12944 220.82884 220.23352 220.97913 223.33119
 226.65439 231.08501 235.96321 240.75075 245.30011 249.55354 253.42502 256.84650
 259.92517 262.76523 265.33850 267.64542 269.64084 271.40186 273.15894 274.76318
 275.98740 277.50568 279.14255 280.59824 281.85803 282.97263 283.98953 284.91077
 285.73932 286.47714 287.12167 287.94308
 366.78100 356.34650 345.79001 334.66751 323.08201 311.28751 299.16902 286.98352
 274.70702 262.61553 250.63603 239.94853 230.08203 221.19754 213.39104 206.40454
 200.25005 195.19955 191.79305 189.84655 188.89506 188.97056 189.81706 191.13657
 192.87307 194.97957 197.25408 199.62458 202.08108 204.57258 206.67209 208.52559
 210.16309 211.31960 211.56010 211.79960 211.74810 211.46461 211.10911 210.75061
 210.37912 210.10062 209.92012 209.79562 209.73513 210.07763 210.47513 210.87564
 211.68014 212.86964 214.13114 215.92565 217.86515 219.91965 222.02616 224.12066
 226.19216 228.28766 230.39617 232.51367 234.65417 236.83768 239.10518 241.48668
 244.11918 246.38169 248.39519 250.17169 251.60020 252.73470 253.56820 253.89571
 253.94421 253.72971 253.10121 252.06072 250.67822 248.85072 246.77123 244.61573
 242.41823 240.23373 238.06524 235.91574 233.78724 231.66575 229.70325 227.87175
 226.16625 224.64976 223.29126 222.07476 220.96827 219.93977 219.05527 218.20777
 217.46128 216.65278 215.76228 215.13779 214.59929 215.21661 216.68466 217.87987
 219.28355 221.12968 222.30846 221.89804 220.64810 219.99826 220.87451 223.42976
 226.83760 231.22702 236.07452 240.89229 245.45781 249.72188 253.59831 257.01212
 260.02417 262.79095 265.33878 267.63260 269.65372 271.47241 273.22327 274.73819
 275.64725 276.26617 277.19006 278.50189 279.74796 280.85040 281.85623 282.76746
 283.58698 284.31677 284.95432 285.76678
 366.78100 356.34652 345.79004 334.66756 323.08208 311.28760 299.16912 286.98364
 274.70716 262.61568 250.63620 239.94872 230.08225 221.19777 213.39129 206.40481
 200.25033 195.19985 191.79337 189.84689 188.89541 188.97093 189.81745 191.13697
 192.87349 194.98001 197.25453 199.62505 202.08157 204.57309 206.67261 208.52613
 210.16365 211.32017 211.56069 211.80022 211.74874 211.46526 211.10978 210.75130
 210.37982 210.10134 209.92086 209.79638 209.73590 210.07842 210.47594 210.87646
 211.68098 212.87050 214.13202 215.92654 217.86606 219.92058 222.02710 224.12162
 226.19314 228.28866 230.39719 232.51471 234.65523 236.83875 239.10627 241.48779
 244.12031 246.38283 248.39635 250.17287 251.60139 252.73591 253.56943 253.89695
 253.94547 253.73099 253.10251 252.06203 250.67955 248.85207 246.77259 244.61711
 242.41963 240.23516 238.06668 235.91720 233.78872 231.66724 229.70476 227.87328
 226.16780 224.65132 223.29284 222.07636 220.96988 219.94140 219.05692 218.20944
 217.46296 216.65448 215.76400 215.13952 214.60104 215.19394 216.61028 217.94542
 219.14253 220.83717 222.19095 221.71426 220.35023 219.58356 220.76906 223.29016
 226.94508 231.31607 236.18521 241.02263 245.59961 249.85696 253.74493 257.19022
 260.19293 262.87900 265.38678 267.65469 269.66800 271.50958 273.23819 274.74500
 275.69583 276.17828 276.77301 277.49460 278.19269 279.06369 280.05212 280.94754
 281.75290 282.47006 283.09656 283.89499
 366.78100 356.34617 345.78933 334.66650 323.08067 311.28584 299.16700 286.98117
 274.70434 262.61250 250.63267 239.94484 230.07801 221.19317 213.38634 206.39951
 200.24468 195.19384 191.78701 189.84018 188.88834 188.96351 189.80968 191.12885
 192.86501 194.97118 197.24535 199.61551 202.07168 204.56285 206.66202 208.51518
 210.15235 211.30852 211.54868 211.78785 211.73602 211.45219 211.09635 210.73752
 210.36569 210.08686 209.90602 209.78119 209.72036 210.06252 210.45969 210.85986
 211.66403 212.85319 214.11436 215.90853 217.84769 219.90186 222.00803 224.10220
 226.17336 228.26853 230.37670 232.49386 234.63403 236.81720 239.08437 241.46553
 244.09770 246.35987 248.37303 250.14920 251.57737 252.71154 253.54470 253.87187
 253.92004 253.70521 253.07637 252.03554 250.65271 248.82487 246.74504 244.58921
 242.39138 240.20654 238.03771 235.88788 233.75904 231.63721 229.67438 227.84255
 226.13671 224.61988 223.26105 222.04421 220.93738 219.90855 219.02372 218.17588
 217.42905 216.62022 215.72939 215.10455 214.56572 215.16266 216.58038 217.95396
 219.18079 220.75726 222.09872 221.58748 220.10893 219.19458 220.52866 223.15141
 227.00717 231.40710 236.31274 241.17802 245.76195 250.01408 253.90886 257.37952
 260.41235 263.06696 265.44226 267.62085 269.63129 271.49432 273.23990 274.70697
 275.65485 276.21475 276.66742 277.33307 278.01849 278.75845 279.68506 280.59875
 281.42053 282.15234 282.79163 283.60632
 354.97500 345.04800 334.58700 324.11500 313.32600 302.53700 291.65000 280.76700
 269.93100 259.19300 248.62200 238.61700 229.08700 220.35500 212.54000 205.53500
 199.46400 194.49300 191.14300 189.19000 188.08900 188.01400 188.72400 189.90600
 191.46900 193.38200 195.40300 197.55600 199.80700 202.06000 204.28800 206.47900
 208.55200 210.37800 212.02500 213.65900 214.99800 216.11800 217.17200 218.25900
 219.49400 220.64500 221.67900 222.61400 223.54500 224.98200 226.57100 228.19000
 229.79700 231.81100 233.86500 235.97200 238.24200 240.55300 242.89900 245.25300
 247.48800 249.53500 251.36600 252.84800 254.09800 255.16700 256.02700 256.25300
 256.09500 255.54300 253.93500 252.56600 251.38400 250.24500 249.05200 247.70100
 246.01600 243.99600 241.78400 239.39300 236.81300 234.22300 231.65800 229.14400
 226.74000 224.47300 222.33500 220.32500 218.44000 216.67700 214.96200 213.47200
 212.20000 211.10800 210.26000 209.63900 209.24400 209.03100 209.05800 209.33300
 209.78400 210.62600 211.33100 212.39100 213.62500 214.84668 217.72949 219.47640
 220.32566 220.86828 220.88710 220.27371 219.43733 218.84250 219.04934 220.86203
 222.60583 225.72206 229.03064 232.61777 236.12270 239.51333 242.70767 245.68587
 248.41061 250.90679 253.19353 254.91714 256.48655 257.94920 259.39966 260.69384
 261.81714 262.77997 263.71679 264.54570 265.26305 265.89772 266.47676 267.00133
 267.47312 267.89325 268.26027 268.72800
