|-------------------------------------------------------------------------|
|   File Name : in_temp.dat
|   Subject   : temperature profiles used for initial guess atmosphere
|   File Type : input of gmtr
|   Data Type : atmospherical data
|   Author/s  : WRF-Chem
|   Date      : Fri Jul 26 15:39:24 2024
|-------------------------------------------------------------------------|

 WRF-Chem temperature
#
 values of T (K)    (8f10.5)
#
 354.97500 345.04800 334.58700 324.11500 313.32600 302.53700 291.65000 280.76700
 269.93100 259.19300 248.62200 238.61700 229.08700 220.35500 212.54000 205.53500
 199.46400 194.49300 191.14300 189.19000 188.08900 188.01400 188.72400 189.90600
 191.46900 193.38200 195.40300 197.55600 199.80700 202.06000 204.28800 206.47900
 208.55200 210.37800 212.02500 213.65900 214.99800 216.11800 217.17200 218.25900
 219.49400 220.64500 221.67900 222.61400 223.54500 224.98200 226.57100 228.19000
 229.79700 231.81100 233.86500 235.97200 238.24200 240.55300 242.89900 245.25300
 247.48800 249.53500 251.36600 252.84800 254.09800 255.16700 256.02700 256.25300
 256.09500 255.54300 253.93500 252.56600 251.38400 250.24500 249.05200 247.70100
 246.01600 243.99600 241.78400 239.39300 236.81300 234.22300 231.65800 229.14400
 226.74000 224.47300 222.33500 220.32500 218.44000 216.67700 214.96200 213.47200
 212.20000 211.10800 210.26000 209.63900 209.24400 209.03100 209.05800 209.33300
 209.78400 210.62600 211.33100 212.39100 213.62500 214.84668 217.72949 219.47640
 220.32566 220.86828 220.88710 220.27371 219.43733 218.84250 219.04934 220.86203
 222.60583 225.72206 229.03064 232.61777 236.12270 239.51333 242.70767 245.68587
 248.41061 250.90679 253.19353 254.91714 256.48655 257.94920 259.39966 260.69384
 261.81714 262.77997 263.71679 264.54570 265.26305 265.89772 266.47676 267.00133
 267.47312 267.89325 268.26027 268.72800
 366.78100 356.33500 345.76700 334.63300 323.03600 311.23000 299.10000 286.90300
 274.61500 262.51200 250.52100 239.82200 229.94400 221.04800 213.23000 206.23200
 200.06600 195.00400 191.58600 189.62800 188.66500 188.72900 189.56400 190.87200
 192.59700 194.69200 196.95500 199.31400 201.75900 204.23900 206.32700 208.16900
 209.79500 210.94000 211.16900 211.39700 211.33400 211.03900 210.67200 210.30200
 209.91900 209.62900 209.43700 209.30100 209.22900 209.56000 209.94600 210.33500
 211.12800 212.30600 213.55600 215.33900 217.26700 219.31000 221.40500 223.48800
 225.54800 227.63200 229.72900 231.83500 233.96400 236.13600 238.39200 240.76200
 243.38300 245.63400 247.63600 249.40100 250.81800 251.94100 252.76300 253.07900
 253.11600 252.89000 252.25000 251.19800 249.80400 247.96500 245.87400 243.70700
 241.49800 239.30200 237.12200 234.96100 232.82100 230.68800 228.71400 226.87100
 225.15400 223.62600 222.25600 221.02800 219.91000 218.87000 217.97400 217.11500
 216.35700 215.53700 214.63500 213.99900 213.44900 212.85855 212.01316 212.61654
 214.26826 216.08686 218.14273 220.53346 223.40855 226.78828 231.49734 235.90155
 239.42278 243.28576 247.23140 251.11907 254.80144 258.23331 261.38913 264.27520
 266.89312 269.26852 271.44504 273.08845 274.58484 275.98591 277.39845 278.65879
 279.75272 280.69038 281.56708 282.34086 283.01050 283.60295 284.14348 284.63317
 285.07358 285.46577 285.80838 286.24500
 381.81900 372.39900 361.20600 349.77600 337.62200 324.85300 311.81000 298.35300
 284.86000 271.32400 258.56100 246.30400 236.08700 226.79600 218.44800 211.29000
 205.52200 200.89400 197.38100 194.84800 193.01500 192.31500 192.25000 192.43100
 192.91200 193.53700 194.13600 194.71200 195.26200 195.83100 196.39300 196.97600
 197.60400 198.14900 198.58400 199.05700 199.69500 200.37800 201.05400 201.70800
 202.31300 202.85700 203.35500 203.86200 204.56900 205.29700 206.02600 206.98700
 208.19300 209.44100 210.96900 212.57600 214.46200 216.51300 218.63000 220.85300
 223.34100 225.96200 228.73900 231.69700 234.70600 237.70600 240.69200 243.65700
 246.73700 249.69900 252.52100 255.06300 257.29000 259.23300 260.63300 261.68000
 262.46100 262.79800 262.69100 262.22400 261.06900 259.52500 257.70700 255.50700
 253.00100 250.30200 247.39800 244.45200 241.65400 239.05400 236.73300 234.59000
 232.59500 230.72500 228.83400 226.82600 224.66600 222.38700 220.10400 217.71500
 215.45900 213.06600 210.54600 208.09300 205.35400 202.08130 196.05959 200.71215
 209.01611 216.90438 223.84126 229.78593 235.00632 240.20838 245.98943 250.68668
 254.32982 257.93487 261.55666 264.96801 268.15192 271.06452 273.76717 276.25691
 278.57680 280.74479 282.77456 284.60533 286.27232 287.81705 289.31715 290.65561
 291.81734 292.81312 293.70701 294.49387 295.17482 295.77730 296.32696 296.82492
 297.27278 297.67160 298.02000 298.46400
 399.33000 389.90700 379.81300 368.66800 357.52200 345.30100 333.07400 320.22700
 307.21600 293.84800 280.37600 267.29600 254.61000 242.98700 232.15100 221.97700
 212.67200 204.28600 197.66900 192.82100 189.48600 187.45200 186.81400 187.08900
 187.78100 189.05400 190.64800 192.54200 194.63000 196.75200 198.67100 200.15800
 201.53500 202.48700 202.97500 203.34000 203.53900 203.49700 203.38500 203.24700
 203.00500 202.78600 202.60300 202.43700 202.42600 202.88800 203.42000 203.95100
 204.89500 205.99200 207.30100 208.95800 210.73800 213.10000 215.56400 218.18000
 220.96600 223.91800 226.96100 230.09200 233.29300 236.55700 239.95500 243.53700
 246.84500 249.39000 251.54200 253.47400 255.19500 256.48400 257.43100 258.05900
 258.21200 258.04000 257.58200 256.64300 255.23900 253.50700 251.40800 249.05600
 246.57600 243.99400 241.38900 238.83000 236.34400 233.98600 231.96900 230.11800
 228.42300 226.89900 225.54800 224.29700 223.10500 221.96500 220.95800 220.11300
 219.49000 218.92000 218.32500 217.88100 217.42300 216.96366 216.35568 216.80261
 217.73415 218.28582 218.64258 219.10077 220.44626 222.53987 226.38451 230.35736
 233.59734 237.39164 241.29814 245.22796 248.98002 252.51130 255.78595 258.80109
 261.54781 264.05210 266.34239 268.04198 269.58951 271.01303 272.35754 273.55718
 274.59842 275.49092 276.28989 276.99307 277.60161 278.14001 278.63122 279.07623
 279.47646 279.83287 280.14422 280.54100
 399.73800 389.78500 379.66200 368.15100 356.64100 344.35000 331.79200 318.88800
 305.72600 292.49300 279.20900 266.73800 254.69600 244.21100 234.45700 225.43300
 217.56900 210.45100 204.30000 199.30600 195.45800 192.57600 191.02700 190.38600
 190.23900 190.53400 191.16600 191.92500 192.79500 193.76600 194.73200 195.31200
 195.80000 196.05200 196.11500 196.11500 196.03900 195.72300 195.34000 194.98900
 194.75100 194.79200 195.13300 195.59800 196.50600 198.13600 199.85800 201.56600
 204.17900 206.82300 209.89300 213.28400 216.82800 220.60500 224.38700 228.20900
 232.03200 235.82500 239.56000 243.25800 246.84500 250.20100 253.70900 257.46800
 261.53000 264.22100 266.60100 268.68100 270.32900 271.74100 272.83600 273.47400
 273.89800 274.00200 273.75700 273.28800 272.37100 271.10000 269.58900 267.77900
 265.81600 263.72100 261.39300 258.91600 256.29800 253.42300 250.33100 247.11400
 243.83700 240.52900 237.24900 233.99900 230.72800 227.51500 224.25400 220.95200
 217.62700 213.65600 210.12100 206.78900 204.01000 201.99491 199.07309 198.76551
 199.40006 200.48994 201.46112 202.31912 203.45100 204.96110 207.47502 210.85391
 213.70530 217.29629 220.99574 224.72316 228.28753 231.64854 234.68024 237.40893
 239.70644 241.60899 243.46854 245.67368 247.68154 249.52395 251.24767 252.78566
 254.12057 255.26479 256.23740 257.09036 257.82852 258.48160 259.07744 259.61723
 260.10271 260.53504 260.91270 261.39400
 399.73800 389.78500 379.66200 368.15100 356.64100 344.35000 331.79200 318.88800
 305.72600 292.49300 279.20900 266.73800 254.69600 244.21100 234.45700 225.43300
 217.56900 210.45100 204.30000 199.30600 195.45800 192.57600 191.02700 190.38600
 190.23900 190.53400 191.16600 191.92500 192.79500 193.76600 194.73200 195.31200
 195.80000 196.05200 196.11500 196.11500 196.03900 195.72300 195.34000 194.98900
 194.75100 194.79200 195.13300 195.59800 196.50600 198.13600 199.85800 201.56600
 204.17900 206.82300 209.89300 213.28400 216.82800 220.60500 224.38700 228.20900
 232.03200 235.82500 239.56000 243.25800 246.84500 250.20100 253.70900 257.46800
 261.53000 264.22100 266.60100 268.68100 270.32900 271.74100 272.83600 273.47400
 273.89800 274.00200 273.75700 273.28800 272.37100 271.10000 269.58900 267.77900
 265.81600 263.72100 261.39300 258.91600 256.29800 253.42300 250.33100 247.11400
 243.83700 240.52900 237.24900 233.99900 230.72800 227.51500 224.25400 220.95200
 217.62700 213.65600 210.12100 206.78900 204.01000 201.99491 199.07309 198.76551
 199.40006 200.48994 201.46112 202.31912 203.45100 204.96110 207.47502 210.85391
 213.70530 217.29629 220.99574 224.72316 228.28753 231.64854 234.68024 237.40893
 239.70644 241.60899 243.46854 245.67368 247.68154 249.52395 251.24767 252.78566
 254.12057 255.26479 256.23740 257.09036 257.82852 258.48160 259.07744 259.61723
 260.10271 260.53504 260.91270 261.39400
 399.33000 389.90700 379.81300 368.66800 357.52200 345.30100 333.07400 320.22700
 307.21600 293.84800 280.37600 267.29600 254.61000 242.98700 232.15100 221.97700
 212.67200 204.28600 197.66900 192.82100 189.48600 187.45200 186.81400 187.08900
 187.78100 189.05400 190.64800 192.54200 194.63000 196.75200 198.67100 200.15800
 201.53500 202.48700 202.97500 203.34000 203.53900 203.49700 203.38500 203.24700
 203.00500 202.78600 202.60300 202.43700 202.42600 202.88800 203.42000 203.95100
 204.89500 205.99200 207.30100 208.95800 210.73800 213.10000 215.56400 218.18000
 220.96600 223.91800 226.96100 230.09200 233.29300 236.55700 239.95500 243.53700
 246.84500 249.39000 251.54200 253.47400 255.19500 256.48400 257.43100 258.05900
 258.21200 258.04000 257.58200 256.64300 255.23900 253.50700 251.40800 249.05600
 246.57600 243.99400 241.38900 238.83000 236.34400 233.98600 231.96900 230.11800
 228.42300 226.89900 225.54800 224.29700 223.10500 221.96500 220.95800 220.11300
 219.49000 218.92000 218.32500 217.88100 217.42300 216.96366 216.35568 216.80261
 217.73415 218.28582 218.64258 219.10077 220.44626 222.53987 226.38451 230.35736
 233.59734 237.39164 241.29814 245.22796 248.98002 252.51130 255.78595 258.80109
 261.54781 264.05210 266.34239 268.04198 269.58951 271.01303 272.35754 273.55718
 274.59842 275.49092 276.28989 276.99307 277.60161 278.14001 278.63122 279.07623
 279.47646 279.83287 280.14422 280.54100
 381.81900 372.39900 361.20600 349.77600 337.62200 324.85300 311.81000 298.35300
 284.86000 271.32400 258.56100 246.30400 236.08700 226.79600 218.44800 211.29000
 205.52200 200.89400 197.38100 194.84800 193.01500 192.31500 192.25000 192.43100
 192.91200 193.53700 194.13600 194.71200 195.26200 195.83100 196.39300 196.97600
 197.60400 198.14900 198.58400 199.05700 199.69500 200.37800 201.05400 201.70800
 202.31300 202.85700 203.35500 203.86200 204.56900 205.29700 206.02600 206.98700
 208.19300 209.44100 210.96900 212.57600 214.46200 216.51300 218.63000 220.85300
 223.34100 225.96200 228.73900 231.69700 234.70600 237.70600 240.69200 243.65700
 246.73700 249.69900 252.52100 255.06300 257.29000 259.23300 260.63300 261.68000
 262.46100 262.79800 262.69100 262.22400 261.06900 259.52500 257.70700 255.50700
 253.00100 250.30200 247.39800 244.45200 241.65400 239.05400 236.73300 234.59000
 232.59500 230.72500 228.83400 226.82600 224.66600 222.38700 220.10400 217.71500
 215.45900 213.06600 210.54600 208.09300 205.35400 202.08130 196.05959 200.71215
 209.01611 216.90438 223.84126 229.78593 235.00632 240.20838 245.98943 250.68668
 254.32982 257.93487 261.55666 264.96801 268.15192 271.06452 273.76717 276.25691
 278.57680 280.74479 282.77456 284.60533 286.27232 287.81705 289.31715 290.65561
 291.81734 292.81312 293.70701 294.49387 295.17482 295.77730 296.32696 296.82492
 297.27278 297.67160 298.02000 298.46400
 366.78100 356.34386 345.78472 334.65958 323.07143 311.27429 299.15315 286.96501
 274.68587 262.59173 250.60959 239.91944 230.05030 221.16316 213.35402 206.36488
 200.20774 195.15460 191.74545 189.79631 188.84217 188.91503 189.75889 191.07575
 192.80960 194.91346 197.18532 199.55318 202.00704 204.49590 206.59276 208.44361
 210.07847 211.23233 211.47019 211.70705 211.65291 211.36677 211.00862 210.64748
 210.27334 209.99220 209.80906 209.68192 209.61878 209.95863 210.35349 210.75135
 211.55321 212.74007 213.99893 215.79079 217.72764 219.77950 221.88336 223.97522
 226.04408 228.13694 230.24280 232.35765 234.49551 236.67637 238.94123 241.32009
 243.94995 246.20981 248.22066 249.99452 251.42038 252.55224 253.38310 253.70796
 253.75381 253.53667 252.90553 251.86239 250.47725 248.64711 246.56497 244.40682
 242.20668 240.01954 237.84840 235.69626 233.56512 231.44098 229.47583 227.64169
 225.93355 224.41441 223.05327 221.83413 220.72499 219.69384 218.80670 217.95656
 217.20742 216.39628 215.50314 214.87600 214.33485 213.48506 211.48004 210.81882
 211.75609 213.60695 215.64616 216.97966 219.10162 223.13306 229.00810 234.08678
 237.92320 241.64189 245.33957 249.17816 253.21339 256.50244 259.11099 261.49750
 264.36646 267.11511 269.46924 271.47385 273.26733 274.97189 276.60379 278.28055
 280.01254 281.64838 283.13715 284.48984 285.67126 286.71606 287.67615 288.54855
 289.33832 290.04730 290.67322 291.50418
 366.78100 356.34222 345.78145 334.65467 323.06489 311.26612 299.14334 286.95356
 274.67279 262.57701 250.59323 239.90146 230.03068 221.14190 213.33113 206.34035
 200.18157 195.12680 191.71602 189.76524 188.80947 188.88069 189.72291 191.03813
 192.77036 194.87258 197.14280 199.50903 201.96125 204.44847 206.54370 208.39292
 210.02614 211.17837 211.41459 211.64981 211.59404 211.30626 210.94648 210.58371
 210.20793 209.92515 209.74038 209.61160 209.54682 209.88505 210.27827 210.67449
 211.47472 212.65994 213.91716 215.70739 217.64261 219.69283 221.79506 223.88528
 225.95250 228.04373 230.14795 232.26117 234.39740 236.57662 238.83984 241.21707
 243.84529 246.10351 248.11273 249.88496 251.30918 252.43940 253.26863 253.59185
 253.63607 253.41730 252.78452 251.73974 250.35297 248.52119 246.43741 244.27764
 242.07586 239.88708 237.71431 235.56053 233.42775 231.30198 229.33520 227.49942
 225.78965 224.26887 222.90609 221.68532 220.57454 219.54176 218.65299 217.80121
 217.05043 216.23766 215.34288 214.71410 214.17133 213.40648 211.60159 211.01175
 211.79294 213.68985 215.76631 217.02562 219.00795 223.04053 228.93976 233.99550
 237.82033 241.54257 245.26218 249.12796 253.18617 256.42078 258.97232 261.37827
 264.24600 267.01059 269.39310 271.39032 273.15103 274.82773 276.47153 278.16663
 279.90305 281.54141 283.03439 284.38904 285.56921 286.61636 287.57443 288.44812
 289.23907 289.94928 290.57510 291.40402
 366.78100 356.34029 345.77758 334.64887 323.05716 311.25646 299.13175 286.94004
 274.65733 262.55962 250.57391 239.88020 230.00749 221.11678 213.30407 206.31137
 200.15066 195.09395 191.68124 189.72853 188.77082 188.84011 189.68040 190.99369
 192.72398 194.82428 197.09257 199.45686 201.90715 204.39244 206.48573 208.33302
 209.96431 211.11460 211.34890 211.58219 211.52448 211.23477 210.87306 210.50835
 210.13064 209.84593 209.65922 209.52851 209.46181 209.79810 210.18939 210.58368
 211.38197 212.56526 213.82055 215.60884 217.54213 219.59042 221.69072 223.77901
 225.84430 227.93359 230.03588 232.14717 234.28146 236.45875 238.72004 241.09534
 243.72163 245.97792 247.98521 249.75550 251.17779 252.30608 253.13337 253.45466
 253.49695 253.27625 252.64154 251.59483 250.20612 248.37241 246.28670 244.12499
 241.92128 239.73057 237.55586 235.40016 233.26545 231.13774 229.16903 227.33132
 225.61961 224.09690 222.73219 221.50948 220.39678 219.36207 218.47136 217.61765
 216.86494 216.05023 215.15352 214.52281 213.97810 213.31277 211.74229 211.16251
 211.86116 213.78656 215.83107 217.09312 218.94243 222.96118 228.88217 233.91161
 237.72212 241.44490 245.18463 249.07654 253.14810 256.32867 258.82700 261.25391
 264.11902 266.90045 269.31332 271.30649 273.03796 274.68756 276.34372 278.05566
 279.79770 281.43707 282.93552 284.29126 285.47250 286.51938 287.47800 288.35248
 289.14243 289.85449 290.48035 291.31723
 366.78100 356.33840 345.77380 334.64320 323.04959 311.24699 299.12039 286.92679
 274.64219 262.54259 250.55498 239.85938 229.98478 221.09218 213.27758 206.28298
 200.12037 195.06177 191.64717 189.69257 188.73297 188.80037 189.63876 190.95016
 192.67856 194.77696 197.04336 199.40576 201.85415 204.33755 206.42895 208.27435
 209.90375 211.05215 211.28454 211.51594 211.45634 211.16474 210.80114 210.43454
 210.05493 209.76833 209.57973 209.44713 209.37853 209.71293 210.10232 210.49472
 211.29112 212.47252 213.72592 215.51232 217.44371 219.49011 221.58851 223.67491
 225.73831 227.82571 229.92610 232.03550 234.16790 236.34330 238.60270 240.97610
 243.60049 245.85489 247.86029 249.62869 251.04909 252.17549 253.00088 253.32028
 253.36068 253.13808 252.50148 251.45288 250.06227 248.22667 246.13907 243.97547
 241.76987 239.57727 237.40066 235.24306 233.10646 230.97686 229.00626 227.16666
 225.45305 223.92845 222.56185 221.33725 220.22265 219.18605 218.29344 217.43784
 216.68324 215.86664 214.96804 214.33544 213.78883 213.22070 211.87926 211.29318
 211.95186 213.89539 215.88351 217.15186 218.89558 222.88985 228.83115 233.82771
 237.62187 241.34471 245.10715 249.02580 253.10153 256.23242 258.68344 261.13040
 263.98798 266.78339 269.22504 271.21625 272.92361 274.55292 276.22202 277.95255
 279.69791 281.33795 282.84143 284.19769 285.37778 286.42676 287.38678 288.26022
 289.05322 289.76489 290.39188 291.22415
 366.78100 356.33682 345.77065 334.63847 323.04329 311.23912 299.11094 286.91576
 274.62959 262.52841 250.53923 239.84206 229.96588 221.07171 213.25553 206.25935
 200.09518 195.03500 191.61882 189.66265 188.70147 188.76729 189.60412 190.91394
 192.64076 194.73759 197.00241 199.36323 201.81006 204.29188 206.38170 208.22553
 209.85335 211.00017 211.23100 211.46082 211.39965 211.10647 210.74129 210.37312
 209.99194 209.70376 209.51359 209.37941 209.30923 209.64206 210.02988 210.42070
 211.21553 212.39535 213.64717 215.43200 217.36182 219.40664 221.50347 223.58829
 225.65011 227.73594 229.83476 231.94259 234.07341 236.24723 238.50506 240.87688
 243.49970 245.75253 247.75635 249.52317 250.94200 252.06682 252.89064 253.20847
 253.24729 253.02311 252.38494 251.33476 249.94258 248.10541 246.01623 243.85105
 241.64388 239.44970 237.27153 235.11235 232.97417 230.84300 228.87082 227.02964
 225.31447 223.78829 222.42011 221.19394 220.07776 219.03958 218.14541 217.28823
 216.53205 215.71388 214.81370 214.17952 213.63135 213.14392 211.99278 211.42500
 212.05429 214.00298 215.94081 217.20193 218.86237 222.82944 228.78175 233.74202
 237.52164 241.24753 245.03510 248.97653 253.04774 256.13226 258.54370 261.00769
 263.85233 266.65552 269.12405 271.11493 272.80722 274.42429 276.10843 277.85635
 279.60284 281.24493 282.75171 284.10944 285.29025 286.33871 287.29898 288.17377
 288.96777 289.67664 290.30554 291.14111
 366.78100 356.33558 345.76816 334.63474 323.03832 311.23290 299.10348 286.90706
 274.61964 262.51722 250.52680 239.82838 229.95096 221.05554 213.23812 206.24070
 200.07528 195.01386 191.59644 189.63901 188.67659 188.74117 189.57675 190.88533
 192.61091 194.70649 196.97007 199.32965 201.77523 204.25581 206.34439 208.18697
 209.81355 210.95913 211.18871 211.41729 211.35487 211.06045 210.69403 210.32461
 209.94219 209.65277 209.46135 209.32593 209.25451 209.58609 209.97267 210.36225
 211.15583 212.33441 213.58499 215.36857 217.29715 219.34073 221.43631 223.51989
 225.58047 227.66504 229.76262 231.86920 233.99878 236.17136 238.42794 240.79852
 243.42010 245.67168 247.67426 249.43984 250.85742 251.98100 252.80358 253.12016
 253.15774 252.93232 252.29290 251.24148 249.84806 248.00964 245.91922 243.75280
 241.54438 239.34896 237.16954 235.00912 232.86970 230.73728 228.76386 226.92144
 225.20502 223.67760 222.30818 221.08076 219.96334 218.92392 218.02849 217.17007
 216.41265 215.59323 214.69181 214.05639 213.50697 213.08327 212.08247 211.56006
 212.16817 214.10312 216.00421 217.25066 218.83855 222.78320 228.73314 233.65529
 237.42252 241.15721 244.97017 248.92793 252.98537 256.02667 258.40558 260.88510
 263.71124 266.51575 269.00595 270.99963 272.68939 274.30640 276.00372 277.76645
 279.51187 281.15677 282.66754 284.02573 285.20746 286.25638 287.21725 288.09137
 288.88474 289.59534 290.22388 291.06299
 366.78100 356.33461 345.76622 334.63182 323.03443 311.22804 299.09765 286.90025
 274.61186 262.50847 250.51708 239.81768 229.93929 221.04290 213.22451 206.22611
 200.05972 194.99733 191.57894 189.62054 188.65715 188.72076 189.55537 190.86297
 192.58758 194.68219 196.94480 199.30341 201.74801 204.22762 206.31523 208.15684
 209.78244 210.92705 211.15566 211.38327 211.31987 211.02448 210.65709 210.28670
 209.90330 209.61291 209.42052 209.28413 209.21173 209.54234 209.92795 210.31656
 211.10916 212.28677 213.53638 215.31899 217.24659 219.28920 221.38381 223.46642
 225.52603 227.60963 229.70624 231.81185 233.94046 236.11206 238.36767 240.73728
 243.35789 245.60849 247.61010 249.37471 250.79132 251.91392 252.73553 253.05114
 253.08775 252.86135 252.22096 251.16857 249.77418 247.93478 245.84339 243.67600
 241.46661 239.27022 237.08982 234.92843 232.78804 230.65465 228.68025 226.83686
 225.11947 223.59108 222.22068 220.99229 219.87390 218.83351 217.93711 217.07772
 216.31933 215.49894 214.59654 213.96015 213.40976 213.03632 212.15421 211.69586
 212.28915 214.20000 216.07526 217.29214 218.82863 222.74875 228.68129 233.57149
 237.32831 241.07484 244.91147 248.88054 252.91312 255.91623 258.27078 260.76373
 263.56537 266.36371 268.86945 270.86923 272.56909 274.19858 275.91302 277.68387
 279.42807 281.07318 282.58679 283.94644 285.12912 286.17682 287.13925 288.01410
 288.80783 289.52039 290.14929 290.98853
 366.78100 356.33380 345.76459 334.62939 323.03118 311.22398 299.09278 286.89457
 274.60537 262.50117 250.50896 239.80876 229.92955 221.03235 213.21315 206.21394
 200.04674 194.98353 191.56433 189.60513 188.64092 188.70372 189.53751 190.84431
 192.56811 194.66190 196.92370 199.28150 201.72529 204.20409 206.29088 208.13168
 209.75648 210.90027 211.12807 211.35486 211.29066 210.99446 210.62625 210.25505
 209.87085 209.57964 209.38644 209.24923 209.17603 209.50583 209.89062 210.27842
 211.07021 212.24701 213.49581 215.27760 217.20440 219.24620 221.33999 223.42179
 225.48058 227.56338 229.65918 231.76397 233.89177 236.06256 238.31736 240.68616
 243.30595 245.55575 247.55654 249.32034 250.73614 251.85793 252.67873 252.99353
 253.02932 252.80212 252.16091 251.10771 249.71251 247.87230 245.78010 243.61189
 241.40169 239.20449 237.02328 234.86108 232.71988 230.58567 228.61047 226.76626
 225.04806 223.51886 222.14765 220.91845 219.79924 218.75804 217.86084 217.00063
 216.24143 215.42022 214.51702 213.87982 213.32861 212.99797 212.21693 211.82417
 212.41573 214.29803 216.15292 217.33028 218.82512 222.72714 228.63113 233.49083
 237.23633 240.99437 244.85577 248.83269 252.83119 255.80206 258.14218 260.64713
 263.41702 266.19992 268.71469 270.72238 272.44394 274.10059 275.83270 277.60876
 279.35025 280.99408 282.51294 283.87302 285.05545 286.10526 287.06702 287.94287
 288.73727 289.45187 290.07962 290.92078
 366.78100 356.33311 345.76321 334.62732 323.02842 311.22053 299.08863 286.88974
 274.59984 262.49495 250.50205 239.80116 229.92126 221.02337 213.20347 206.20358
 200.03568 194.97179 191.55189 189.59200 188.62710 188.68921 189.52231 190.82842
 192.55153 194.64463 196.90574 199.26284 201.70595 204.18405 206.27016 208.11026
 209.73437 210.87747 211.10458 211.33068 211.26579 210.96889 210.60000 210.22810
 209.84321 209.55131 209.35742 209.21952 209.14563 209.47473 209.85884 210.24595
 211.03705 212.21316 213.46126 215.24237 217.16847 219.20958 221.30268 223.38379
 225.44189 227.52400 229.61910 231.72321 233.85031 236.02042 238.27452 240.64263
 243.26173 245.51084 247.51094 249.27405 250.68915 251.81026 252.63037 252.94447
 252.97958 252.75168 252.10979 251.05589 249.66000 247.81910 245.72621 243.55731
 241.34642 239.14852 236.96663 234.80373 232.66184 230.52694 228.55105 226.70615
 224.98726 223.45736 222.08547 220.85557 219.73568 218.69378 217.79589 216.93500
 216.17510 215.35321 214.44931 213.81142 213.25952 212.96677 212.27515 211.94360
 212.53815 214.41228 216.23271 217.35558 218.85045 222.71230 228.57425 233.40935
 237.14806 240.91879 244.80473 248.78571 252.73788 255.67932 258.01562 260.53329
 263.26727 266.02731 268.54495 270.56549 272.32053 274.01422 275.76288 277.54053
 279.27847 280.91998 282.44415 283.80566 284.98813 286.03729 286.99988 287.87753
 288.67200 289.38593 290.01578 290.85919
 366.78100 356.33274 345.76248 334.62622 323.02696 311.21871 299.08645 286.88719
 274.59693 262.49167 250.49841 239.79715 229.91689 221.01863 213.19838 206.19812
 200.02986 194.96560 191.54534 189.58508 188.61982 188.68156 189.51431 190.82005
 192.54279 194.63553 196.89627 199.25301 201.69575 204.17349 206.25923 208.09898
 209.72272 210.86546 211.09220 211.31794 211.25268 210.95542 210.58616 210.21390
 209.82865 209.53639 209.34213 209.20387 209.12961 209.45835 209.84209 210.22883
 211.01957 212.19532 213.44306 215.22380 217.14954 219.19028 221.28302 223.36376
 225.42150 227.50324 229.59799 231.70173 233.82847 235.99821 238.25195 240.61969
 243.23843 245.48717 247.48692 249.24966 250.66440 251.78514 252.60488 252.91862
 252.95336 252.72510 252.08284 251.02859 249.63233 247.79107 245.69781 243.52855
 241.31729 239.11903 236.93677 234.77351 232.63126 230.49600 228.51974 226.67448
 224.95522 223.42496 222.05270 220.82244 219.70218 218.65993 217.76167 216.90041
 216.14015 215.31789 214.41363 213.77537 213.22311 212.95374 212.31729 212.05722
 212.66405 214.51845 216.32951 217.39241 218.86407 222.71127 228.52800 233.33322
 237.06133 240.84366 244.75468 248.73715 252.63054 255.54555 257.88974 260.42163
 263.11633 265.84619 268.36249 270.40012 272.19965 273.93845 275.70255 277.47757
 279.21225 280.85098 282.37936 283.74170 284.92487 285.97650 286.93869 287.81592
 288.61185 289.32651 289.95691 290.80252
 366.78100 356.33242 345.76185 334.62527 323.02569 311.21712 299.08454 286.88497
 274.59439 262.48881 250.49524 239.79366 229.91308 221.01451 213.19393 206.19335
 200.02478 194.96020 191.53962 189.57905 188.61347 188.67490 189.50732 190.81274
 192.53517 194.62759 196.88801 199.24444 201.68686 204.16428 206.24971 208.08913
 209.71256 210.85498 211.08140 211.30683 211.24125 210.94367 210.57410 210.20152
 209.81594 209.52337 209.32879 209.19022 209.11564 209.44406 209.82749 210.21391
 211.00433 212.17976 213.42718 215.20760 217.13303 219.17345 221.26587 223.34630
 225.40372 227.48515 229.57957 231.68299 233.80942 235.97884 238.23226 240.59969
 243.21811 245.46653 247.46596 249.22838 250.64281 251.76323 252.58265 252.89608
 252.93050 252.70192 252.05935 251.00477 249.60819 247.76662 245.67304 243.50346
 241.29189 239.09331 236.91074 234.74716 232.60458 230.46901 228.49243 226.64685
 224.92728 223.39670 222.02412 220.79355 219.67297 218.63040 217.73182 216.87024
 216.10967 215.28709 214.38251 213.74394 213.19136 212.94659 212.36830 212.13258
 212.78595 214.66400 216.41072 217.44138 218.94841 222.71848 228.47063 233.24335
 236.96596 240.76717 244.70827 248.69136 252.51611 255.40584 257.76550 260.31122
 262.96344 265.65723 268.16760 270.22644 272.07925 273.87112 275.64801 277.41495
 279.14810 280.78568 282.31918 283.68231 284.86615 285.91806 286.88080 287.75867
 288.55576 289.26923 289.90186 290.75058
 366.78100 356.33330 345.76360 334.62789 323.02919 311.22149 299.08979 286.89109
 274.60139 262.49668 250.50398 239.80328 229.92358 221.02588 213.20618 206.20647
 200.03877 194.97507 191.55537 189.59567 188.63096 188.69326 189.52656 190.83286
 192.55616 194.64946 196.91075 199.26805 201.71135 204.18965 206.27595 208.11625
 209.74054 210.88384 211.11114 211.33744 211.27274 210.97603 210.60733 210.23563
 209.85093 209.55923 209.36553 209.22782 209.15412 209.48342 209.86772 210.25502
 211.04632 212.22261 213.47091 215.25221 217.17851 219.21981 221.31310 223.39440
 225.45270 227.53500 229.63030 231.73460 233.86189 236.03219 238.28649 240.65479
 243.27409 245.52339 247.52368 249.28698 250.70228 251.82358 252.64388 252.95817
 252.99347 252.76577 252.12407 251.07037 249.67467 247.83396 245.74126 243.57256
 241.36186 239.16416 236.98246 234.81975 232.67805 230.54335 228.56765 226.72295
 225.00424 223.47454 222.10284 220.87314 219.75344 218.71174 217.81403 216.95333
 216.19363 215.37193 214.46823 213.83053 213.27882 213.00578 212.36067 212.18636
 212.94295 214.83087 216.55394 217.46149 218.94710 222.73080 228.42769 233.16255
 236.87950 240.69952 244.66992 248.64917 252.39241 255.25494 257.63782 260.19952
 262.81058 265.46484 267.96497 270.04816 271.96051 273.81085 275.59973 277.35574
 279.08301 280.72449 282.26108 283.62503 284.80997 285.86209 286.82623 287.70499
 288.50174 289.21628 289.85028 290.69791
 366.78100 356.33133 345.75967 334.62200 323.02133 311.21167 299.07800 286.87733
 274.58567 262.47900 250.48433 239.78167 229.90000 221.00033 213.17867 206.17700
 200.00733 194.94167 191.52000 189.55833 188.59167 188.65200 189.48333 190.78767
 192.50900 194.60033 196.85967 199.21500 201.65633 204.13267 206.21700 208.05533
 209.67767 210.81900 211.04433 211.26867 211.20200 210.90333 210.53267 210.15900
 209.77233 209.47867 209.28300 209.14333 209.06767 209.39500 209.77733 210.16267
 210.95200 212.12633 213.37267 215.15200 217.07633 219.11567 221.20700 223.28634
 225.34267 227.42300 229.51634 231.61867 233.74400 235.91234 238.16467 240.53100
 243.14834 245.39567 247.39400 249.15534 250.56867 251.68800 252.50634 252.81867
 252.85200 252.62234 251.97867 250.92300 249.52534 247.68267 245.58800 243.41734
 241.20467 239.00500 236.82134 234.65667 232.51300 230.37634 228.39867 226.55200
 224.83134 223.29967 221.92600 220.69434 219.57267 218.52900 217.62934 216.76667
 216.00500 215.18134 214.27567 213.63600 213.08234 212.92705 212.56017 212.21347
 212.91736 214.96191 216.74324 217.57819 219.00545 222.70827 228.37839 233.07658
 236.78343 240.62485 244.62622 248.60045 252.25714 255.09648 257.51178 260.09317
 262.66589 265.27631 267.76071 269.86761 271.84122 273.75244 275.55371 277.29550
 279.01172 280.67056 282.20892 283.57471 284.75952 285.81229 286.77673 287.65616
 288.45337 289.16910 289.80106 290.65561
 366.78100 356.33083 345.75866 334.62049 323.01932 311.20915 299.07498 286.87381
 274.58164 262.47447 250.47930 239.77612 229.89395 220.99378 213.17161 206.16944
 199.99927 194.93310 191.51093 189.54876 188.58159 188.64142 189.47225 190.77608
 192.49691 194.58774 196.84657 199.20140 201.64223 204.11806 206.20189 208.03972
 209.66154 210.80237 211.02720 211.25103 211.18386 210.88469 210.51352 210.13935
 209.75218 209.45801 209.26184 209.12167 209.04550 209.37233 209.75416 210.13899
 210.92782 212.10165 213.34748 215.12631 217.05013 219.08896 221.17979 223.25862
 225.31445 227.39428 229.48711 231.58894 233.71377 235.88160 238.13343 240.49926
 243.11609 245.36292 247.36075 249.12158 250.53441 251.65324 252.47107 252.78290
 252.81573 252.58555 251.94138 250.88521 249.48704 247.64387 245.54870 243.37753
 241.16436 238.96419 236.78002 234.61485 232.47068 230.33351 228.35534 226.50817
 224.78700 223.25483 221.88066 220.64849 219.52632 218.48215 217.58197 216.71880
 215.95663 215.13246 214.22629 213.58612 213.03195 212.91721 212.64610 212.27159
 212.98158 215.07344 216.90392 217.70325 219.07227 222.69460 228.31932 232.98216
 236.68491 240.55156 244.58617 248.55496 252.12463 254.94345 257.39334 259.99231
 262.52655 265.08710 267.55035 269.68240 271.72162 273.69852 275.51053 277.23706
 278.94232 280.61722 282.15964 283.52472 284.71170 285.76456 286.73010 287.61087
 288.40784 289.12424 289.75644 290.61218
 366.78100 356.33053 345.75806 334.61959 323.01813 311.20766 299.07319 286.87172
 274.57925 262.47178 250.47632 239.77285 229.89038 220.98991 213.16744 206.16497
 199.99450 194.92804 191.50557 189.54310 188.57563 188.63516 189.46569 190.76922
 192.48976 194.58029 196.83882 199.19335 201.63388 204.10941 206.19295 208.03048
 209.65201 210.79254 211.01707 211.24060 211.17313 210.87367 210.50220 210.12773
 209.74026 209.44579 209.24932 209.10886 209.03239 209.35892 209.74045 210.12498
 210.91351 212.08704 213.33258 215.11111 217.03464 219.07317 221.16370 223.24223
 225.29776 227.37730 229.46983 231.57136 233.69589 235.86342 238.11495 240.48049
 243.09702 245.34355 247.34108 249.10161 250.51414 251.63267 252.45021 252.76174
 252.79427 252.56380 251.91933 250.86286 249.46440 247.62093 245.52546 243.35399
 241.14052 238.94005 236.75558 234.59012 232.44565 230.30818 228.32971 226.48224
 224.76077 223.22830 221.85384 220.62137 219.49890 218.45443 217.55396 216.69049
 215.92803 215.10356 214.19709 213.55662 213.00215 212.92001 212.72595 212.31566
 213.07074 215.17854 217.01767 217.81583 219.15773 222.69563 228.27084 232.89935
 236.59973 240.49232 244.55763 248.51694 251.99377 254.78627 257.26813 259.88181
 262.38055 264.89243 267.33456 269.49802 271.60617 273.65143 275.47623 277.18756
 278.88159 280.56415 282.10828 283.47437 284.66144 285.71558 286.68237 287.56213
 288.36124 289.07874 289.71048 290.56952
 366.78100 356.33010 345.75720 334.61829 323.01639 311.20549 299.07059 286.86868
 274.57578 262.46788 250.47198 239.76807 229.88517 220.98427 213.16137 206.15847
 199.98756 194.92066 191.49776 189.53486 188.56695 188.62605 189.45615 190.75925
 192.47934 194.56944 196.82754 199.18164 201.62174 204.09683 206.17993 208.01703
 209.63813 210.77822 211.00232 211.22542 211.15752 210.85762 210.48571 210.11081
 209.72291 209.42801 209.23110 209.09020 209.01330 209.33940 209.72049 210.10459
 210.89269 212.06579 213.31089 215.08898 217.01208 219.05018 221.14028 223.21837
 225.27347 227.35257 229.44467 231.54576 233.66986 235.83696 238.08806 240.45316
 243.06925 245.31535 247.31245 249.07255 250.48464 251.60274 252.41984 252.73094
 252.76303 252.53213 251.88723 250.83033 249.43143 247.58752 245.49162 243.31972
 241.10582 238.90491 236.72001 234.55411 232.40921 230.27131 228.29240 226.44450
 224.72260 223.18970 221.81479 220.58189 219.45899 218.41409 217.51318 216.64928
 215.88638 215.06148 214.15458 213.51367 212.95877 212.91685 212.81784 212.34837
 213.16867 215.28908 217.08240 217.91728 219.27612 222.70604 228.23634 232.83398
 236.53096 240.44771 244.53523 248.47650 251.85143 254.60986 257.12430 259.75592
 262.22833 264.69867 267.12433 269.32352 271.50180 273.61206 275.44894 277.14651
 278.82471 280.51245 282.05783 283.42529 284.61188 285.66586 286.63431 287.51459
 288.31235 289.03110 289.66498 290.52478
 366.78100 356.32999 345.75698 334.61798 323.01597 311.20496 299.06995 286.86795
 274.57494 262.46693 250.47092 239.76692 229.88391 220.98290 213.15989 206.15689
 199.98588 194.91887 191.49586 189.53286 188.56485 188.62384 189.45383 190.75683
 192.47682 194.56681 196.82480 199.17880 201.61879 204.09378 206.17677 208.01377
 209.63476 210.77475 210.99874 211.22173 211.15373 210.85372 210.48171 210.10670
 209.71870 209.42369 209.22668 209.08567 209.00867 209.33466 209.71565 210.09964
 210.88764 212.06063 213.30562 215.08361 217.00661 219.04460 221.13459 223.21258
 225.26758 227.34657 229.43856 231.53955 233.66355 235.83054 238.08153 240.44652
 243.06251 245.30851 247.30550 249.06549 250.47748 251.59548 252.41247 252.72346
 252.75545 252.52445 251.87944 250.82243 249.42342 247.57942 245.48341 243.31140
 241.09739 238.89639 236.71138 234.54537 232.40036 230.26236 228.28335 226.43534
 224.71333 223.18033 221.80532 220.57231 219.44930 218.40430 217.50329 216.63928
 215.87627 215.05126 214.14426 213.50325 212.94824 212.93167 212.89252 212.38092
 213.28154 215.40771 217.12946 218.01457 219.40613 222.72052 228.20621 232.77747
 236.47020 240.40656 244.50703 248.41991 251.68951 254.41254 256.96451 259.62207
 262.07935 264.51602 266.93015 269.16708 271.40952 273.58032 275.42636 277.11240
 278.77405 280.46091 282.00809 283.37463 284.56259 285.61783 286.58527 287.46671
 288.26590 288.98242 289.61841 290.48016
 366.78100 356.33018 345.75737 334.61855 323.01673 311.20591 299.07110 286.86928
 274.57646 262.46864 250.47283 239.76901 229.88619 220.98537 213.16256 206.15974
 199.98892 194.92210 191.49929 189.53647 188.56865 188.62783 189.45802 190.76120
 192.48138 194.57156 196.82975 199.18393 201.62411 204.09929 206.18248 208.01966
 209.64084 210.78102 211.00521 211.22839 211.16057 210.86075 210.48894 210.11412
 209.72630 209.43148 209.23467 209.09385 209.01703 209.34321 209.72440 210.10858
 210.89676 212.06994 213.31513 215.09331 217.01649 219.05467 221.14486 223.22304
 225.27822 227.35741 229.44959 231.55077 233.67495 235.84214 238.09332 240.45850
 243.07468 245.32087 247.31805 249.07823 250.49041 251.60860 252.42578 252.73696
 252.76914 252.53833 251.89351 250.83669 249.43787 247.59406 245.49824 243.32642
 241.11260 238.91179 236.72697 234.56115 232.41633 230.27852 228.29970 226.45188
 224.73006 223.19725 221.82243 220.58961 219.46679 218.42198 217.52116 216.65734
 215.89452 215.06971 214.16289 213.52207 212.96725 212.96257 212.95149 212.41556
 213.39981 215.53047 217.18410 218.12067 219.53474 222.73529 228.17873 232.72581
 236.40955 240.35858 244.46423 248.34209 251.50970 254.20145 256.79544 259.48422
 261.93637 264.34744 266.75381 269.03110 271.33179 273.55499 275.40845 277.08313
 278.72903 280.41150 281.95773 283.32544 284.51385 285.56995 286.53665 287.41919
 288.21881 288.93634 289.57025 290.43576
 366.78100 356.33036 345.75772 334.61908 323.01745 311.20681 299.07217 286.87053
 274.57789 262.47025 250.47462 239.77098 229.88834 220.98770 213.16506 206.16242
 199.99178 194.92515 191.50251 189.53987 188.57223 188.63159 189.46195 190.76532
 192.48568 194.57604 196.83440 199.18876 201.62912 204.10448 206.18785 208.02521
 209.64657 210.78693 211.01129 211.23465 211.16702 210.86738 210.49574 210.12110
 209.73346 209.43882 209.24218 209.10155 209.02491 209.35127 209.73263 210.11699
 210.90535 212.07872 213.32408 215.10244 217.02580 219.06416 221.15452 223.23288
 225.28825 227.36761 229.45997 231.56133 233.68569 235.85305 238.10441 240.46978
 243.08614 245.33250 247.32986 249.09022 250.50258 251.62095 252.43831 252.74967
 252.78203 252.55139 251.90675 250.85011 249.45148 247.60784 245.51220 243.34056
 241.12692 238.92628 236.74165 234.57601 232.43137 230.29373 228.31509 226.46745
 224.74581 223.21318 221.83854 220.60590 219.48326 218.43862 217.53798 216.67435
 215.91171 215.08707 214.18043 213.53979 212.98515 212.99344 213.01303 212.44934
 213.50966 215.65413 217.25002 218.24266 219.66873 222.75078 228.15526 232.67651
 236.34579 240.30328 244.40770 248.24599 251.31789 253.98238 256.61902 259.34024
 261.79611 264.19144 266.59622 268.91452 271.26724 273.53400 275.39310 277.05481
 278.68909 280.36478 281.91086 283.27859 284.46823 285.52426 286.49240 287.37347
 288.17242 288.89160 289.52563 290.39218
 366.78100 356.33041 345.75782 334.61923 323.01764 311.20705 299.07246 286.87087
 274.57827 262.47068 250.47509 239.77150 229.88891 220.98832 213.16573 206.16314
 199.99255 194.92596 191.50337 189.54078 188.57319 188.63260 189.46300 190.76641
 192.48682 194.57723 196.83564 199.19005 201.63046 204.10587 206.18928 208.02669
 209.64810 210.78851 211.01292 211.23633 211.16873 210.86914 210.49755 210.12296
 209.73537 209.44078 209.24419 209.10360 209.02701 209.35342 209.73483 210.11924
 210.90765 212.08106 213.32646 215.10487 217.02828 219.06669 221.15710 223.23551
 225.29092 227.37033 229.46274 231.56415 233.68856 235.85597 238.10738 240.47279
 243.08919 245.33560 247.33301 249.09342 250.50583 251.62424 252.44165 252.75306
 252.78547 252.55488 251.91029 250.85370 249.45511 247.61152 245.51592 243.34433
 241.13074 238.93015 236.74556 234.57997 232.43538 230.29779 228.31920 226.47161
 224.75002 223.21743 221.84284 220.61025 219.48765 218.44306 217.54247 216.67888
 215.91629 215.09170 214.18511 213.54452 212.98993 213.01746 213.08246 212.48495
 213.60788 215.77126 217.32249 218.37816 219.81683 222.77046 228.13806 232.62788
 236.28113 240.24597 244.34209 248.13475 251.11592 253.75267 256.42752 259.18097
 261.65082 264.04367 266.45694 268.81995 271.21896 273.52216 275.39114 277.04565
 278.68820 280.31036 281.85287 283.22165 284.41110 285.46872 286.43491 287.31821
 288.11801 288.83713 289.47128 290.33765
 366.78100 356.33033 345.75766 334.61899 323.01732 311.20665 299.07198 286.87031
 274.57764 262.46997 250.47430 239.77063 229.88796 220.98729 213.16462 206.16195
 199.99128 194.92461 191.50194 189.53927 188.57160 188.63093 189.46126 190.76459
 192.48492 194.57524 196.83357 199.18790 201.62823 204.10356 206.18689 208.02422
 209.64555 210.78588 211.01021 211.23354 211.16587 210.86620 210.49453 210.11986
 209.73219 209.43752 209.24085 209.10018 209.02351 209.34984 209.73117 210.11550
 210.90383 212.07716 213.32249 215.10082 217.02415 219.06248 221.15281 223.23114
 225.28647 227.36580 229.45813 231.55946 233.68379 235.85112 238.10245 240.46778
 243.08411 245.33044 247.32777 249.08810 250.50043 251.61876 252.43609 252.74742
 252.77975 252.54907 251.90440 250.84773 249.44906 247.60539 245.50972 243.33805
 241.12438 238.92371 236.73904 234.57337 232.42870 230.29103 228.31236 226.46469
 224.74302 223.21035 221.83568 220.60301 219.48034 218.43567 217.53500 216.67133
 215.90866 215.08399 214.17732 213.53665 212.98198 213.03450 213.15858 212.52661
 213.69984 215.87469 217.38985 218.52083 219.98114 222.80174 228.12849 232.58318
 236.22421 240.19536 244.27356 248.01016 250.90138 253.50842 256.21655 259.00116
 261.49582 263.90231 266.33676 268.74692 271.18491 273.51376 275.38498 277.03070
 278.67102 280.27560 281.81781 283.18686 284.37683 285.43689 286.40475 287.28900
 288.09055 288.81036 289.44598 290.31387
 366.78100 356.33013 345.75726 334.61839 323.01652 311.20565 299.07078 286.86892
 274.57605 262.46818 250.47231 239.76844 229.88557 220.98470 213.16183 206.15896
 199.98809 194.92122 191.49835 189.53549 188.56762 188.62675 189.45688 190.76001
 192.48014 194.57027 196.82840 199.18253 201.62266 204.09779 206.18092 208.01806
 209.63919 210.77932 211.00345 211.22658 211.15871 210.85884 210.48697 210.11210
 209.72423 209.42936 209.23249 209.09163 209.01476 209.34089 209.72202 210.10615
 210.89428 212.06741 213.31254 215.09067 217.01380 219.05193 221.14206 223.22020
 225.27533 227.35446 229.44659 231.54772 233.67185 235.83898 238.09011 240.45524
 243.07137 245.31750 247.31463 249.07476 250.48690 251.60503 252.42216 252.73329
 252.76542 252.53455 251.88968 250.83281 249.43394 247.59007 245.49420 243.32233
 241.10847 238.90760 236.72273 234.55686 232.41199 230.27412 228.29525 226.44738
 224.72551 223.19264 221.81777 220.58490 219.46204 218.41717 217.51630 216.65243
 215.88956 215.06469 214.15782 213.51695 212.96208 213.04405 213.23775 212.57852
 213.79134 215.96375 217.44014 218.65947 220.16107 222.84824 228.12700 232.54977
 236.17923 240.15508 244.20364 247.87128 250.67339 253.25162 255.98752 258.80127
 261.33099 263.76724 266.23486 268.69440 271.16592 273.50876 275.37631 277.01202
 278.63797 280.25467 281.79788 283.16919 284.35974 285.42029 286.39145 287.27802
 288.08563 288.81174 289.44974 290.31699
 366.78100 356.32985 345.75670 334.61756 323.01541 311.20426 299.06911 286.86696
 274.57382 262.46567 250.46952 239.76537 229.88222 220.98108 213.15793 206.15478
 199.98363 194.91648 191.49334 189.53019 188.56204 188.62089 189.45074 190.75360
 192.47345 194.56330 196.82115 199.17501 201.61486 204.08971 206.17256 208.00941
 209.63027 210.77012 210.99397 211.21682 211.14867 210.84853 210.47638 210.10123
 209.71308 209.41793 209.22079 209.07964 209.00249 209.32834 209.70919 210.09305
 210.88090 212.05375 213.29860 215.07645 216.99931 219.03716 221.12701 223.20486
 225.25971 227.33857 229.43042 231.53127 233.65512 235.82197 238.07283 240.43768
 243.05353 245.29938 247.29623 249.05609 250.46794 251.58579 252.40264 252.71349
 252.74535 252.51420 251.86905 250.81190 249.41276 247.56861 245.47246 243.30031
 241.08616 238.88502 236.69987 234.53372 232.38857 230.25042 228.27128 226.42313
 224.70098 223.16783 221.79268 220.55954 219.43639 218.39124 217.49009 216.62594
 215.86280 215.03765 214.13050 213.48935 212.93420 213.04742 213.31491 212.64507
 213.88391 216.04169 217.47905 218.78482 220.33746 222.91335 228.12863 232.53200
 236.14995 240.12811 244.13380 247.71909 250.43484 252.98669 255.74504 258.58582
 261.15942 263.64032 266.15244 268.66031 271.15793 273.50812 275.36990 276.99692
 278.61685 280.23325 281.77747 283.14764 284.34024 285.39987 286.37164 287.25839
 288.06747 288.79547 289.43274 290.30051
 366.78100 356.32928 345.75556 334.61585 323.01313 311.20141 299.06569 286.86298
 274.56926 262.46054 250.46382 239.75911 229.87539 220.97367 213.14995 206.14624
 199.97452 194.90680 191.48308 189.51937 188.55065 188.60893 189.43821 190.74050
 192.45978 194.54906 196.80634 199.15963 201.59891 204.07319 206.15547 207.99176
 209.61204 210.75132 210.97460 211.19689 211.12817 210.82745 210.45473 210.07901
 209.69030 209.39458 209.19686 209.05514 208.97743 209.30271 209.68299 210.06627
 210.85356 212.02584 213.27012 215.04740 216.96969 219.00697 221.09625 223.17353
 225.22782 227.30610 229.39738 231.49766 233.62095 235.78723 238.03751 240.40179
 243.01708 245.26236 247.25864 249.01792 250.42921 251.54649 252.36277 252.67305
 252.70433 252.47262 251.82690 250.76918 249.36946 247.52475 245.42803 243.25531
 241.04059 238.83888 236.65316 234.48644 232.34072 230.20201 228.22229 226.37357
 224.65085 223.11714 221.74142 220.50770 219.38398 218.33827 217.43655 216.57183
 215.80811 214.98240 214.07468 213.43296 212.87724 213.03337 213.40225 212.71799
 213.98969 216.12242 217.48303 218.88666 220.51982 222.98650 228.13344 232.53383
 236.13539 240.11087 244.06189 247.55299 250.18832 252.71774 255.49463 258.36200
 260.98721 263.52567 266.08701 268.63998 271.15872 273.51047 275.36502 276.98593
 278.61078 280.21008 281.75235 283.12460 284.31659 285.37567 286.34796 287.23254
 288.04193 288.76819 289.40894 290.26843
 366.78100 356.32878 345.75456 334.61434 323.01112 311.19890 299.06268 286.85947
 274.56525 262.45603 250.45881 239.75359 229.86937 220.96715 213.14293 206.13871
 199.96649 194.89827 191.47405 189.50983 188.54061 188.59840 189.42718 190.72896
 192.44774 194.53652 196.79330 199.14608 201.58486 204.05864 206.14042 207.97620
 209.59598 210.73476 210.95754 211.17933 211.11011 210.80889 210.43567 210.05945
 209.67023 209.37401 209.17579 209.03357 208.95535 209.28013 209.65991 210.04269
 210.82947 212.00126 213.24504 215.02182 216.94360 218.98038 221.06916 223.14594
 225.19972 227.27750 229.36828 231.46806 233.59084 235.75662 238.00640 240.37019
 242.98497 245.22975 247.22553 248.98431 250.39509 251.51187 252.32765 252.63743
 252.66821 252.43599 251.78977 250.73155 249.33133 247.48612 245.38890 243.21568
 241.00046 238.79824 236.61202 234.44480 232.29858 230.15936 228.17914 226.32992
 224.60670 223.07248 221.69626 220.46205 219.33783 218.29161 217.38939 216.52417
 215.75995 214.93373 214.02551 213.38329 212.82707 213.01828 213.47000 212.84125
 214.08008 216.19576 217.52055 218.94798 220.63678 223.06438 228.13306 232.53993
 236.13034 240.10185 243.99165 247.38257 249.94836 252.45509 255.24423 258.13510
 260.81717 263.42120 266.03561 268.63159 271.16931 273.51910 275.36462 276.97836
 278.60431 280.18927 281.73151 283.10339 284.29654 285.35675 286.32690 287.21439
 288.02133 288.74860 289.38593 290.24625
 366.78100 356.32868 345.75436 334.61404 323.01072 311.19839 299.06207 286.85875
 274.56443 262.45511 250.45779 239.75247 229.86815 220.96583 213.14151 206.13718
 199.96486 194.89654 191.47222 189.50790 188.53858 188.59626 189.42494 190.72662
 192.44529 194.53397 196.79065 199.14333 201.58201 204.05569 206.13737 207.97305
 209.59273 210.73141 210.95408 211.17576 211.10644 210.80512 210.43180 210.05548
 209.66616 209.36984 209.17152 209.02919 208.95087 209.27555 209.65523 210.03791
 210.82459 211.99627 213.23995 215.01663 216.93831 218.97498 221.06366 223.14034
 225.19402 227.27170 229.36238 231.46206 233.58474 235.75042 238.00009 240.36377
 242.97845 245.22313 247.21881 248.97749 250.38817 251.50485 252.32053 252.63021
 252.66088 252.42856 251.78224 250.72392 249.32360 247.47828 245.38096 243.20764
 240.99232 238.78999 236.60367 234.43635 232.29003 230.15071 228.17039 226.32107
 224.59775 223.06343 221.68711 220.45278 219.32846 218.28214 217.37982 216.51450
 215.75018 214.92386 214.01554 213.37322 212.81689 213.01956 213.49843 212.99187
 214.28017 216.24382 217.38849 218.95555 220.78465 223.12338 228.15074 232.58414
 236.15469 240.11482 243.93852 247.22176 249.71907 252.19533 254.98775 257.89828
 260.64297 263.32025 265.99405 268.63342 271.18665 273.52985 275.36298 276.96814
 278.59601 280.17133 281.71378 283.08643 284.27814 285.33978 286.30884 287.19366
 288.00244 288.73068 289.36768 290.22043
 366.78100 356.33163 345.76026 334.62289 323.02252 311.21315 299.07978 286.87941
 274.58804 262.48167 250.48730 239.78493 229.90356 221.00419 213.18282 206.18145
 200.01208 194.94670 191.52533 189.56396 188.59759 188.65822 189.48985 190.79448
 192.51611 194.60774 196.86737 199.22300 201.66463 204.14126 206.22589 208.06452
 209.68715 210.82878 211.05441 211.27904 211.21267 210.91430 210.54393 210.17056
 209.78419 209.49082 209.29545 209.15608 209.08071 209.40834 209.79097 210.17660
 210.96623 212.14085 213.38748 215.16711 217.09174 219.13137 221.22300 223.30263
 225.35926 227.43989 229.53352 231.63615 233.76178 235.93041 238.18304 240.54967
 243.16730 245.41493 247.41356 249.17519 250.58882 251.70845 252.52708 252.83971
 252.87334 252.64397 252.00060 250.94523 249.54786 247.70549 245.61112 243.44075
 241.22838 239.02900 236.84563 234.68126 232.53789 230.40152 228.42415 226.57778
 224.85741 223.32604 221.95267 220.72130 219.59993 218.55656 217.65719 216.79482
 216.03345 215.21008 214.30471 213.66534 213.11197 213.17387 213.32014 213.34663
 214.50795 215.99593 217.24265 219.01514 220.98604 223.34212 228.19649 232.63106
 236.19380 240.13731 243.88472 247.04553 249.46808 251.91412 254.71266 257.64780
 260.46442 263.22406 265.96097 268.64108 271.20322 273.53247 275.34708 276.94693
 278.57864 280.15314 281.69540 283.06769 284.26138 285.32196 286.29111 287.17572
 287.98343 288.70789 289.34692 290.19839
 366.78100 356.33375 345.76451 334.62926 323.03102 311.22377 299.09253 286.89428
 274.60503 262.50079 250.50854 239.80830 229.92905 221.03181 213.21256 206.21331
 200.04607 194.98282 191.56358 189.60433 188.64009 188.70284 189.53660 190.84335
 192.56710 194.66086 196.92261 199.28037 201.72412 204.20288 206.28963 208.13038
 209.75514 210.89889 211.12665 211.35340 211.28916 210.99291 210.62466 210.25342
 209.86917 209.57793 209.38468 209.24744 209.17419 209.50394 209.88870 210.27645
 211.06821 212.24496 213.49372 215.27547 217.20222 219.24398 221.33773 223.41949
 225.47824 227.56100 229.65675 231.76151 233.88926 236.06001 238.31477 240.68352
 243.30328 245.55303 247.55379 249.31754 250.73329 251.85505 252.67580 252.99056
 253.02631 252.79907 252.15782 251.10457 249.70933 247.86908 245.77684 243.60859
 241.39835 239.20110 237.01985 234.85761 232.71636 230.58212 228.60687 226.76263
 225.04438 223.51513 222.14389 220.91464 219.79540 218.75415 217.85691 216.99666
 216.23742 215.41617 214.51292 213.87568 213.32443 213.29291 213.21841 213.54367
 214.71150 215.87990 217.21082 219.07065 221.14017 223.55963 228.24350 232.66112
 236.22618 240.15193 243.81688 246.84822 249.19550 251.62148 254.43536 257.40173
 260.29578 263.14081 265.93671 268.65106 271.21768 273.52805 275.32477 276.92148
 278.55453 280.13211 281.67511 283.04752 284.24036 285.30164 286.26984 287.15488
 287.96207 288.68921 289.32513 290.17432
 366.78100 356.33483 345.76666 334.63249 323.03532 311.22915 299.09897 286.90180
 274.61363 262.51046 250.51929 239.82012 229.94195 221.04578 213.22761 206.22944
 200.06327 195.00110 191.58292 189.62475 188.66158 188.72541 189.56024 190.86807
 192.59290 194.68773 196.95056 199.30939 201.75422 204.23405 206.32187 208.16370
 209.78953 210.93436 211.16319 211.39102 211.32785 211.03268 210.66551 210.29534
 209.91217 209.62200 209.42982 209.29365 209.22148 209.55231 209.93814 210.32697
 211.11980 212.29763 213.54746 215.33029 217.25812 219.30095 221.39577 223.47860
 225.53843 227.62226 229.71909 231.82492 233.95375 236.12558 238.38141 240.75124
 243.37207 245.62289 247.62472 249.38955 250.80638 251.92921 252.75104 253.06687
 253.10370 252.87753 252.23736 251.18519 249.79102 247.95184 245.86067 243.69350
 241.48433 239.28816 237.10799 234.94682 232.80665 230.67348 228.69931 226.85614
 225.13897 223.61079 222.24062 221.01245 219.89428 218.85411 217.95794 217.09877
 216.34060 215.52043 214.61826 213.98209 213.43192 213.35802 213.18341 213.71788
 214.86378 215.85141 217.20694 219.09628 221.23946 223.73465 228.28369 232.67905
 236.25160 240.16156 243.74303 246.64894 248.92918 251.34206 254.17429 257.17493
 260.14487 263.06870 265.91592 268.65793 271.22742 273.52087 275.30200 276.89786
 278.53198 280.10657 281.64828 283.02161 284.21597 285.27432 286.24265 287.12692
 287.93390 288.65942 289.29788 290.14114
 366.78100 356.33483 345.76666 334.63249 323.03532 311.22915 299.09898 286.90181
 274.61363 262.51046 250.51929 239.82012 229.94195 221.04578 213.22761 206.22944
 200.06327 195.00110 191.58293 189.62476 188.66159 188.72542 189.56024 190.86807
 192.59290 194.68773 196.95056 199.30939 201.75422 204.23405 206.32188 208.16371
 209.78954 210.93437 211.16320 211.39103 211.32785 211.03268 210.66551 210.29534
 209.91217 209.62200 209.42983 209.29366 209.22149 209.55232 209.93815 210.32698
 211.11981 212.29764 213.54747 215.33029 217.25812 219.30095 221.39578 223.47861
 225.53844 227.62227 229.71910 231.82493 233.95376 236.12559 238.38142 240.75125
 243.37208 245.62290 247.62473 249.38956 250.80639 251.92922 252.75105 253.06688
 253.10371 252.87754 252.23737 251.18520 249.79103 247.95186 245.86069 243.69352
 241.48434 239.28817 237.10800 234.94683 232.80666 230.67349 228.69932 226.85615
 225.13898 223.61081 222.24064 221.01247 219.89430 218.85413 217.95795 217.09878
 216.34061 215.52044 214.61827 213.98210 213.43193 213.36798 213.21690 213.88849
 214.95586 215.84952 217.20418 219.12350 221.31664 223.87944 228.31970 232.69312
 236.27431 240.17130 243.67444 246.46303 248.68378 251.08452 253.93184 256.96271
 260.00208 262.99533 265.88721 268.65704 271.22977 273.50644 275.27133 276.86713
 278.50525 280.07556 281.61713 282.99042 284.18420 285.24188 286.21024 287.09470
 287.90015 288.62582 289.26135 290.10168
 366.78100 356.33412 345.76524 334.63037 323.03249 311.22561 299.09473 286.89685
 274.60797 262.50410 250.51222 239.81234 229.93346 221.03658 213.21770 206.21883
 200.05195 194.98907 191.57019 189.61131 188.64744 188.71056 189.54468 190.85180
 192.57592 194.67004 196.93217 199.29029 201.73441 204.21353 206.30065 208.14177
 209.76690 210.91102 211.13914 211.36626 211.30238 211.00650 210.63863 210.26775
 209.88387 209.59299 209.40011 209.26324 209.19036 209.52048 209.90560 210.29372
 211.08584 212.26297 213.51209 215.29421 217.22133 219.26345 221.35757 223.43970
 225.49882 227.58194 229.67806 231.78318 233.91131 236.08243 238.33755 240.70667
 243.32679 245.57691 247.57804 249.34216 250.75828 251.88040 252.70152 253.01664
 253.05277 252.82589 252.18501 251.13213 249.73725 247.89738 245.80550 243.63762
 241.42774 239.23086 237.04998 234.88811 232.74723 230.61335 228.63847 226.79459
 225.07671 223.54784 222.17696 220.94808 219.82920 218.78832 217.89145 217.03157
 216.27269 215.45181 214.54893 213.91205 213.36118 213.34334 213.30119 214.03651
 215.03552 215.86049 217.20586 219.15224 221.36992 224.00185 228.35284 232.71039
 236.29739 240.18147 243.60985 246.28561 248.44786 250.83714 253.69810 256.75699
 259.86047 262.91687 265.85300 268.65192 271.22882 273.48822 275.23792 276.82971
 278.45959 280.04318 281.58524 282.95868 284.15207 285.21030 286.17654 287.06046
 287.86642 288.59109 289.22635 290.06378
 366.78100 356.33356 345.76412 334.62868 323.03023 311.22279 299.09135 286.89291
 274.60347 262.49903 250.50659 239.80615 229.92670 221.02926 213.20982 206.21038
 200.04294 194.97950 191.56006 189.60062 188.63617 188.69873 189.53229 190.83885
 192.56241 194.65597 196.91753 199.27509 201.71864 204.19720 206.28376 208.12432
 209.74888 210.89244 211.12000 211.34655 211.28211 210.98567 210.61723 210.24579
 209.86135 209.56991 209.37647 209.23902 209.16558 209.49514 209.87970 210.26726
 211.05882 212.23538 213.48394 215.26549 217.19205 219.23361 221.32717 223.40873
 225.46729 227.54985 229.64540 231.74996 233.87752 236.04808 238.30264 240.67120
 243.29076 245.54032 247.54087 249.30443 250.71999 251.84155 252.66211 252.97667
 253.01223 252.78479 252.14334 251.08990 249.69446 247.85402 245.76158 243.59314
 241.38270 239.18526 237.00381 234.84137 232.69993 230.56549 228.59005 226.74561
 225.02717 223.49772 222.12628 220.89684 219.77740 218.73596 217.83852 216.97808
 216.21864 215.39719 214.49375 213.85631 213.30487 213.32877 213.38521 214.17065
 215.14252 215.89217 217.21213 219.15776 221.39461 224.11066 228.38800 232.73546
 236.32114 240.18106 243.52664 246.08806 248.19582 250.58357 253.46825 256.56165
 259.73010 262.84940 265.82648 268.64932 271.22766 273.47406 275.22131 276.81143
 278.42908 279.99939 281.54019 282.91245 284.10580 285.16293 286.12949 287.01117
 287.81866 288.54062 289.17905 290.01071
 366.78100 356.33339 345.76378 334.62816 323.02955 311.22194 299.09033 286.89172
 274.60211 262.49749 250.50488 239.80427 229.92466 221.02705 213.20744 206.20782
 200.04021 194.97660 191.55699 189.59738 188.63277 188.69515 189.52854 190.83493
 192.55832 194.65171 196.91309 199.27048 201.71387 204.19226 206.27865 208.11904
 209.74342 210.88681 211.11420 211.34059 211.27598 210.97937 210.61075 210.23914
 209.85453 209.56292 209.36931 209.23170 209.15808 209.48747 209.87186 210.25925
 211.05064 212.22703 213.47541 215.25680 217.18319 219.22458 221.31797 223.39935
 225.45774 227.54013 229.63552 231.73991 233.86730 236.03768 238.29207 240.66046
 243.27985 245.52924 247.52963 249.29301 250.70840 251.82979 252.65018 252.96457
 252.99996 252.77234 252.13073 251.07712 249.68151 247.84090 245.74828 243.57967
 241.36906 239.17145 236.98984 234.82723 232.68561 230.55100 228.57539 226.73078
 225.01217 223.48256 222.11094 220.88133 219.76172 218.72011 217.82250 216.96189
 216.20227 215.38066 214.47705 213.83944 213.28783 213.33693 213.45294 214.30400
 215.26872 215.93346 217.22693 219.16385 221.41650 224.20360 228.42061 232.75450
 236.33185 240.15202 243.40517 245.85616 247.92538 250.33237 253.25655 256.39511
 259.63077 262.80783 265.81317 268.64847 271.22430 273.45657 275.20172 276.78738
 278.40143 279.94772 281.48663 282.85843 284.04977 285.10754 286.07278 286.95566
 287.76056 288.48569 289.12064 289.94821
 366.78100 356.33323 345.76346 334.62769 323.02892 311.22115 299.08938 286.89061
 274.60084 262.49607 250.50330 239.80253 229.92276 221.02499 213.20522 206.20545
 200.03768 194.97391 191.55414 189.59436 188.62959 188.69182 189.52505 190.83128
 192.55451 194.64774 196.90897 199.26620 201.70943 204.18766 206.27389 208.11412
 209.73835 210.88158 211.10881 211.33504 211.27027 210.97350 210.60473 210.23296
 209.84819 209.55642 209.36265 209.22488 209.15111 209.48034 209.86457 210.25180
 211.04303 212.21926 213.46749 215.24872 217.17495 219.21618 221.30941 223.39063
 225.44886 227.53109 229.62632 231.73055 233.85778 236.02801 238.28224 240.65047
 243.26970 245.51893 247.51916 249.28239 250.69762 251.81885 252.63908 252.95331
 252.98854 252.76077 252.11900 251.06523 249.66946 247.82869 245.73592 243.56715
 241.35638 239.15861 236.97684 234.81407 232.67230 230.53753 228.56176 226.71699
 224.99822 223.46845 222.09668 220.86691 219.74713 218.70536 217.80759 216.94682
 216.18705 215.36528 214.46151 213.82374 213.27197 213.34737 213.52550 214.42731
 215.39566 215.97499 217.26610 219.21466 221.44846 224.26500 228.43825 232.75833
 236.32121 240.08841 243.24628 245.60004 247.65298 250.09981 253.07391 256.26218
 259.55920 262.77756 265.79800 268.64441 271.22318 273.44958 275.18570 276.74518
 278.32727 279.88275 281.42056 282.79239 283.98361 285.04230 286.00650 286.88904
 287.69534 288.41779 289.05209 289.88306
 366.78100 356.33310 345.76320 334.62731 323.02841 311.22051 299.08861 286.88971
 274.59981 262.49492 250.50202 239.80112 229.92122 221.02332 213.20342 206.20353
 200.03563 194.97173 191.55183 189.59193 188.62703 188.68914 189.52224 190.82834
 192.55144 194.64454 196.90564 199.26275 201.70585 204.18395 206.27005 208.11015
 209.73425 210.87736 211.10446 211.33056 211.26566 210.96876 210.59986 210.22797
 209.84307 209.55117 209.35727 209.21937 209.14548 209.47458 209.85868 210.24578
 211.03688 212.21298 213.46109 215.24219 217.16829 219.20939 221.30249 223.38359
 225.44170 227.52380 229.61890 231.72300 233.85010 236.02020 238.27431 240.64241
 243.26151 245.51061 247.51071 249.27381 250.68892 251.81002 252.63012 252.94422
 252.97932 252.75142 252.10953 251.05563 249.65973 247.81883 245.72593 243.55703
 241.34614 239.14824 236.96634 234.80344 232.66154 230.52664 228.55075 226.70585
 224.98695 223.45705 222.08515 220.85526 219.73536 218.69346 217.79556 216.93466
 216.17476 215.35287 214.44897 213.81107 213.25917 213.36032 213.59927 214.54758
 215.52353 216.02580 217.31877 219.29771 221.48593 224.30084 228.44554 232.75752
 236.29387 239.99368 243.05215 245.32678 247.38193 249.87749 252.90640 256.14703
 259.49557 262.74139 265.77386 268.63403 271.22430 273.46313 275.20963 276.74194
 278.27008 279.79034 281.32349 282.69437 283.88422 284.94138 285.90689 286.78854
 287.59360 288.31625 288.95370 289.77979
 366.78100 356.33312 345.76325 334.62737 323.02850 311.22062 299.08874 286.88987
 274.59999 262.49512 250.50224 239.80136 229.92149 221.02361 213.20374 206.20386
 200.03598 194.97211 191.55223 189.59236 188.62748 188.68960 189.52273 190.82885
 192.55198 194.64510 196.90622 199.26335 201.70647 204.18460 206.27072 208.11084
 209.73497 210.87809 211.10522 211.33134 211.26646 210.96959 210.60071 210.22884
 209.84396 209.55208 209.35821 209.22033 209.14646 209.47558 209.85970 210.24683
 211.03795 212.21408 213.46220 215.24332 217.16945 219.21057 221.30370 223.38482
 225.44294 227.52507 229.62019 231.72432 233.85144 236.02156 238.27569 240.64381
 243.26293 245.51206 247.51218 249.27531 250.69043 251.81155 252.63168 252.94580
 252.98093 252.75305 252.11117 251.05730 249.66142 247.82055 245.72767 243.55879
 241.34792 239.15004 236.96817 234.80529 232.66341 230.52854 228.55266 226.70779
 224.98891 223.45903 222.08716 220.85728 219.73741 218.69553 217.79765 216.93678
 216.17690 215.35503 214.45115 213.81327 213.26140 213.38200 213.66693 214.66791
 215.65706 216.09258 217.39018 219.36243 221.50638 224.32474 228.46846 232.76097
 236.25691 239.87320 242.83386 245.04552 247.11156 249.65405 252.74022 256.03937
 259.43347 262.69946 265.74231 268.61627 271.22223 273.48096 275.25537 276.78784
 278.27866 279.69781 281.20599 282.56998 283.75928 284.81339 285.77783 286.65924
 287.46384 288.19003 288.82385 289.65271
 366.78100 356.33331 345.76362 334.62793 323.02924 311.22155 299.08987 286.89118
 274.60149 262.49680 250.50411 239.80342 229.92373 221.02604 213.20635 206.20666
 200.03897 194.97529 191.55560 189.59591 188.63122 188.69353 189.52684 190.83315
 192.55646 194.64977 196.91108 199.26839 201.71171 204.19002 206.27633 208.11664
 209.74095 210.88426 211.11157 211.33788 211.27319 210.97650 210.60781 210.23613
 209.85144 209.55975 209.36606 209.22837 209.15468 209.48399 209.86830 210.25561
 211.04692 212.22323 213.47155 215.25286 217.17917 219.22048 221.31379 223.39510
 225.45341 227.53572 229.63103 231.73534 233.86265 236.03297 238.28728 240.65559
 243.27490 245.52421 247.52452 249.28783 250.70314 251.82445 252.64476 252.95907
 252.99439 252.76670 252.12501 251.07132 249.67563 247.83494 245.74225 243.57356
 241.36287 239.16518 236.98349 234.82080 232.67912 230.54443 228.56874 226.72405
 225.00536 223.47567 222.10398 220.87429 219.75460 218.71291 217.81522 216.95454
 216.19485 215.37316 214.46947 213.83178 213.28009 213.41574 213.73625 214.76695
 215.78979 216.17918 217.47221 219.42381 221.54561 224.35843 228.51886 232.76497
 236.20602 239.72920 242.58612 244.73830 246.82268 249.42130 252.57671 255.94431
 259.38168 262.66428 265.71091 268.59192 271.21036 273.48645 275.28366 276.83093
 278.31046 279.70441 281.08142 282.43503 283.62311 284.67862 285.64496 286.52716
 287.33301 288.05899 288.69669 289.53250
 366.78100 356.33439 345.76578 334.63117 323.03356 311.22696 299.09635 286.89874
 274.61013 262.50652 250.51491 239.81530 229.93669 221.04008 213.22148 206.22287
 200.05626 194.99365 191.57504 189.61643 188.65282 188.71621 189.55060 190.85799
 192.58239 194.67678 196.93917 199.29756 201.74195 204.22134 206.30873 208.15012
 209.77551 210.91991 211.14830 211.37569 211.31208 211.01647 210.64886 210.27825
 209.89464 209.60403 209.41143 209.27482 209.20221 209.53260 209.91799 210.30638
 211.09877 212.27616 213.52555 215.30794 217.23534 219.27773 221.37212 223.45451
 225.51390 227.59729 229.69368 231.79907 233.92746 236.09886 238.35425 240.72364
 243.34403 245.59442 247.59581 249.36020 250.77659 251.89898 252.72038 253.03577
 253.07216 252.84555 252.20494 251.15233 249.75772 247.91811 245.82650 243.65889
 241.44929 239.25268 237.07207 234.91046 232.76985 230.63624 228.66163 226.81802
 225.10041 223.57181 222.20120 220.97259 219.85398 218.81337 217.91676 217.05715
 216.29854 215.47793 214.57533 213.93872 213.38811 213.49704 213.75439 214.91057
 215.87915 216.25017 217.59908 219.54066 221.61421 224.39787 228.57291 232.71725
 236.13242 239.56447 242.31290 244.40369 246.51324 249.18854 252.43214 255.87607
 259.35245 262.64243 265.67938 268.55951 271.18378 273.47202 275.28906 276.85486
 278.32190 279.70093 280.99316 282.33197 283.51694 284.57227 285.53763 286.42050
 287.22702 287.95404 288.59610 289.42630
 366.78100 356.33476 345.76653 334.63229 323.03505 311.22882 299.09858 286.90134
 274.61311 262.50987 250.51863 239.81940 229.94116 221.04492 213.22669 206.22845
 200.06221 194.99997 191.58174 189.62350 188.66026 188.72403 189.55879 190.86655
 192.59132 194.68608 196.94884 199.30761 201.75237 204.23213 206.31990 208.16166
 209.78742 210.93219 211.16095 211.38871 211.32548 211.03024 210.66300 210.29277
 209.90953 209.61929 209.42706 209.29082 209.21858 209.54935 209.93511 210.32387
 211.11664 212.29440 213.54416 215.32692 217.25469 219.29745 221.39221 223.47498
 225.53474 227.61850 229.71527 231.82103 233.94979 236.12156 238.37732 240.74708
 243.36785 245.61861 247.62037 249.38514 250.80190 251.92466 252.74643 253.06219
 253.09895 252.87272 252.23248 251.18024 249.78601 247.94677 245.85553 243.68830
 241.47906 239.28282 237.10259 234.94135 232.80111 230.66787 228.69364 226.85040
 225.13316 223.60493 222.23469 221.00645 219.88822 218.84798 217.95174 217.09251
 216.33427 215.51403 214.61180 213.97556 213.42532 213.54497 213.82765 214.97752
 216.05917 216.32106 217.63329 219.66211 221.72527 224.46851 228.61798 232.61427
 236.03160 239.36751 242.01697 244.05794 246.21037 248.98259 252.32085 255.83740
 259.34161 262.62704 265.64951 268.52655 271.16040 273.45834 275.28357 276.83829
 278.27899 279.64642 280.91663 282.25259 283.43704 284.49219 285.45630 286.33890
 287.14517 287.87411 288.51163 289.34567
 366.78100 356.33418 345.76536 334.63054 323.03273 311.22591 299.09509 286.89727
 274.60845 262.50463 250.51282 239.81300 229.93418 221.03736 213.21854 206.21972
 200.05291 194.99009 191.57127 189.61245 188.64863 188.71181 189.54599 190.85318
 192.57736 194.67154 196.93372 199.29190 201.73608 204.21527 206.30245 208.14363
 209.76881 210.91299 211.14117 211.36835 211.30454 211.00872 210.64090 210.27008
 209.88626 209.59544 209.40263 209.26581 209.19299 209.52317 209.90835 210.29653
 211.08872 212.26590 213.51508 215.29726 217.22444 219.26662 221.36080 223.44299
 225.50217 227.58535 229.68153 231.78671 233.91489 236.08608 238.34126 240.71044
 243.33062 245.58080 247.58198 249.34617 250.76235 251.88453 252.70571 253.02089
 253.05707 252.83025 252.18944 251.13662 249.74180 247.90198 245.81016 243.64234
 241.43253 239.23571 237.05489 234.89307 232.75225 230.61843 228.64362 226.79980
 225.08198 223.55316 222.18234 220.95352 219.83470 218.79389 217.89707 217.03725
 216.27843 215.45761 214.55479 213.91798 213.36716 213.54291 213.95815 215.05534
 216.18062 216.40559 217.72466 219.74431 221.76100 224.50969 228.65277 232.52335
 235.90758 239.14586 241.72256 243.74265 245.94762 248.81284 252.23222 255.81009
 259.33200 262.61749 265.64087 268.51700 271.15991 273.46277 275.28442 276.79892
 278.18451 279.48911 280.78647 282.13110 283.32019 284.37546 285.34305 286.22525
 287.03018 287.75696 288.39325 289.22556
 366.78100 356.33378 345.76456 334.62934 323.03111 311.22389 299.09267 286.89445
 274.60523 262.50101 250.50879 239.80857 229.92934 221.03212 213.21290 206.21368
 200.04646 194.98324 191.56402 189.60480 188.64057 188.70335 189.53713 190.84391
 192.56769 194.66147 196.92325 199.28103 201.72480 204.20358 206.29036 208.13114
 209.75592 210.89970 211.12748 211.35426 211.29003 210.99381 210.62559 210.25437
 209.87015 209.57893 209.38571 209.24849 209.17526 209.50504 209.88982 210.27760
 211.06938 212.24616 213.49494 215.27672 217.20349 219.24527 221.33905 223.42083
 225.47961 227.56239 229.65817 231.76295 233.89072 236.06150 238.31628 240.68506
 243.30484 245.55462 247.55540 249.31918 250.73495 251.85673 252.67751 252.99229
 253.02807 252.80085 252.15963 251.10641 249.71118 247.87096 245.77874 243.61052
 241.40030 239.20308 237.02186 234.85964 232.71841 230.58419 228.60897 226.76475
 225.04653 223.51731 222.14609 220.91687 219.79764 218.75642 217.85920 216.99898
 216.23976 215.41854 214.51532 213.87810 213.32687 213.54971 214.07620 215.18916
 216.16609 216.51970 217.87909 219.77402 221.76877 224.55553 228.70256 232.48471
 235.78427 238.92319 241.43793 243.45427 245.70331 248.64587 252.14307 255.78343
 259.33197 262.63153 265.66306 268.52542 271.15790 273.45856 275.28342 276.79449
 278.15588 279.42972 280.63489 281.90900 283.08487 284.13763 285.10092 285.98315
 286.78796 287.51547 288.15488 288.99573
 366.78100 356.33287 345.76273 334.62660 323.02746 311.21933 299.08719 286.88806
 274.59792 262.49279 250.49965 239.79852 229.91838 221.02025 213.20011 206.19998
 200.03184 194.96771 191.54757 189.58744 188.62230 188.68417 189.51703 190.82290
 192.54576 194.63863 196.89949 199.25636 201.69922 204.17709 206.26295 208.10282
 209.72668 210.86955 211.09641 211.32228 211.25714 210.96001 210.59087 210.21874
 209.83360 209.54147 209.34733 209.20920 209.13506 209.46393 209.84779 210.23466
 211.02552 212.20139 213.44925 215.23012 217.15598 219.19685 221.28971 223.37058
 225.42844 227.51031 229.60517 231.70904 233.83590 236.00577 238.25963 240.62750
 243.24636 245.49523 247.49509 249.25796 250.67282 251.79369 252.61355 252.92742
 252.96228 252.73415 252.09201 251.03788 249.64174 247.80061 245.70747 243.53834
 241.32720 239.12907 236.94693 234.78380 232.64166 230.50653 228.53039 226.68526
 224.96612 223.43599 222.06385 220.83372 219.71358 218.67145 217.77331 216.91218
 216.15204 215.32991 214.42577 213.78764 213.23550 213.52966 214.22466 215.33815
 216.12592 216.68881 217.98466 219.73651 221.80150 224.62660 228.76068 232.44640
 235.65916 238.68723 241.12537 243.14636 245.44905 248.47194 252.05830 255.77296
 259.35513 262.66183 265.68323 268.51447 271.12531 273.42648 275.28470 276.83731
 278.19843 279.42734 280.57675 281.66714 282.81979 283.87115 284.83505 285.71722
 286.52438 287.25427 287.89731 288.74911
 366.78100 356.33237 345.76174 334.62512 323.02549 311.21686 299.08423 286.88461
 274.59398 262.48835 250.49472 239.79309 229.91247 221.01384 213.19321 206.19258
 200.02395 194.95933 191.53870 189.57807 188.61244 188.67382 189.50619 190.81156
 192.53393 194.62630 196.88668 199.24305 201.68542 204.16279 206.24817 208.08754
 209.71091 210.85328 211.07965 211.30503 211.23940 210.94177 210.57214 210.19952
 209.81389 209.52126 209.32663 209.18800 209.11338 209.44175 209.82512 210.21149
 211.00186 212.17724 213.42461 215.20498 217.13035 219.17073 221.26310 223.34347
 225.40084 227.48221 229.57659 231.67996 233.80633 235.97570 238.22908 240.59645
 243.21482 245.46319 247.46256 249.22494 250.63931 251.75968 252.57905 252.89242
 252.92680 252.69817 252.05554 251.00091 249.60429 247.76266 245.66903 243.49940
 241.28777 239.08915 236.90652 234.74289 232.60026 230.46464 228.48801 226.64238
 224.92275 223.39212 222.01950 220.78887 219.66824 218.62561 217.72699 216.86536
 216.10473 215.28210 214.37747 213.73885 213.18622 213.53381 214.35504 215.45967
 216.15471 216.89386 218.04901 219.69348 221.84294 224.69562 228.80505 232.40242
 235.53238 238.43013 240.77448 242.80144 245.17781 248.30124 251.98878 255.77884
 259.38400 262.68420 265.68707 268.50259 271.11957 273.45044 275.35776 276.93143
 278.24927 279.39059 280.44763 281.48587 282.63272 283.68524 284.65137 285.53635
 286.34537 287.07559 287.72281 288.57321
 366.78100 356.33235 345.76170 334.62505 323.02540 311.21675 299.08409 286.88444
 274.59379 262.48814 250.49449 239.79284 229.91219 221.01354 213.19289 206.19224
 200.02359 194.95894 191.53828 189.57763 188.61198 188.67333 189.50568 190.81103
 192.53338 194.62573 196.88608 199.24243 201.68478 204.16213 206.24747 208.08682
 209.71017 210.85252 211.07887 211.30422 211.23857 210.94092 210.57127 210.19862
 209.81297 209.52031 209.32566 209.18701 209.11236 209.44071 209.82406 210.21041
 211.00076 212.17611 213.42346 215.20381 217.12916 219.16950 221.26185 223.34220
 225.39955 227.48090 229.57525 231.67860 233.80495 235.97430 238.22765 240.59500
 243.21335 245.46169 247.46104 249.22339 250.63774 251.75809 252.57744 252.89079
 252.92514 252.69649 252.05384 250.99919 249.60253 247.76088 245.66723 243.49758
 241.28593 239.08728 236.90463 234.74098 232.59833 230.46268 228.48603 226.64038
 224.92072 223.39007 222.01742 220.78677 219.66612 218.62347 217.72482 216.86317
 216.10252 215.27987 214.37522 213.73657 213.18391 213.56094 214.45174 215.59744
 216.25223 217.00752 218.09329 219.70572 221.86726 224.72141 228.80701 232.37566
 235.41721 238.18582 240.44037 242.47832 244.94395 248.17352 251.94473 255.79364
 259.40732 262.69611 265.69757 268.52505 271.16788 273.53192 275.46725 277.03381
 278.30438 279.38867 280.38123 281.35025 282.47888 283.53180 284.49704 285.38141
 286.19293 286.92560 287.57199 288.43063
 366.78100 356.33012 345.75724 334.61837 323.01649 311.20561 299.07073 286.86886
 274.57598 262.46810 250.47222 239.76835 229.88547 220.98459 213.16171 206.15884
 199.98796 194.92108 191.49820 189.53533 188.56745 188.62657 189.45669 190.75982
 192.47994 194.57006 196.82818 199.18231 201.62243 204.09755 206.18067 208.01780
 209.63892 210.77904 211.00316 211.22628 211.15841 210.85853 210.48665 210.11177
 209.72390 209.42902 209.23214 209.09126 209.01439 209.34051 209.72163 210.10575
 210.89388 212.06700 213.31212 215.09024 217.01337 219.05149 221.14161 223.21973
 225.27486 227.35398 229.44610 231.54722 233.67135 235.83847 238.08959 240.45471
 243.07084 245.31696 247.31408 249.07420 250.48633 251.60445 252.42157 252.73269
 252.76481 252.53394 251.88906 250.83218 249.43330 247.58943 245.49355 243.32167
 241.10779 238.90692 236.72204 234.55616 232.41128 230.27341 228.29453 226.44665
 224.72477 223.19190 221.81702 220.58414 219.46126 218.41639 217.51551 216.65163
 215.88875 215.06388 214.15700 213.51612 212.96124 213.47025 214.67281 215.73689
 216.31487 217.07635 218.08510 219.65050 221.82463 224.70837 228.79854 232.36633
 235.32080 237.98636 240.16684 242.20909 244.74615 248.06714 251.91278 255.80951
 259.43799 262.73532 265.75354 268.59982 271.26224 273.64954 275.60526 277.17151
 278.41223 279.45657 280.40945 281.31143 282.38696 283.43082 284.39621 285.28180
 286.09229 286.82492 287.47028 288.32242
 366.78100 356.32783 345.75266 334.61149 323.00732 311.19415 299.05699 286.85282
 274.55765 262.44748 250.44931 239.74314 229.85797 220.95480 213.12963 206.12446
 199.95129 194.88212 191.45696 189.49179 188.52162 188.57845 189.40628 190.70711
 192.42494 194.51277 196.76860 199.12043 201.55826 204.03109 206.11193 207.94676
 209.56559 210.70342 210.92525 211.14608 211.07591 210.77374 210.39957 210.02240
 209.63223 209.33507 209.13590 208.99273 208.91356 209.23739 209.61622 209.99805
 210.78388 211.95471 213.19754 214.97337 216.89420 218.93004 221.01787 223.09370
 225.14653 227.22336 229.31319 231.41202 233.53385 235.69868 237.94751 240.31034
 242.92418 245.16801 247.16284 248.92067 250.33050 251.44633 252.26116 252.56999
 252.59982 252.36665 251.71948 250.66031 249.25915 247.41298 245.31481 243.14064
 240.92447 238.72130 236.53413 234.36596 232.21879 230.07862 228.09745 226.24728
 224.52312 222.98795 221.61078 220.37561 219.25044 218.20327 217.30010 216.43393
 215.66876 214.84159 213.93242 213.28926 212.73209 213.37437 214.89185 215.93591
 216.41437 217.00592 217.94839 219.57326 221.82278 224.71333 228.76132 232.38153
 235.25783 237.78883 239.87761 241.91570 244.52036 247.92059 251.84630 255.81273
 259.49731 262.84009 265.88177 268.72818 271.38306 273.78894 275.81281 277.44861
 278.73157 279.78528 280.71283 281.58475 282.45779 283.46555 284.43051 285.31891
 286.14044 286.89978 287.64636 288.64896
 366.78100 356.32723 345.75146 334.60969 323.00492 311.19115 299.05338 286.84861
 274.55284 262.44207 250.44330 239.73652 229.85075 220.94698 213.12121 206.11544
 199.94167 194.87190 191.44613 189.48036 188.50959 188.56582 189.39305 190.69328
 192.41051 194.49774 196.75297 199.10420 201.54143 204.01366 206.09389 207.92811
 209.54634 210.68357 210.90480 211.12503 211.05426 210.75149 210.37672 209.99895
 209.60818 209.31041 209.11064 208.96687 208.88710 209.21033 209.58856 209.96979
 210.75502 211.92525 213.16748 214.94271 216.86293 218.89816 220.98539 223.06062
 225.11285 227.18908 229.27831 231.37654 233.49777 235.66200 237.91023 240.27246
 242.88569 245.12892 247.12315 248.88038 250.28961 251.40484 252.21907 252.52730
 252.55652 252.32275 251.67498 250.61521 249.21344 247.36667 245.26790 243.09313
 240.87636 238.67259 236.48482 234.31605 232.16828 230.02751 228.04574 226.19497
 224.47020 222.93443 221.55666 220.32089 219.19512 218.14734 217.24357 216.37680
 215.61103 214.78326 213.87349 213.22972 212.67195 213.35806 214.97981 216.26067
 216.56105 216.81152 217.93680 219.65924 221.92029 224.74608 228.69948 232.31865
 235.05975 237.42383 239.42361 241.50861 244.23195 247.73120 251.74031 255.74315
 259.45697 262.83771 265.94345 268.83517 271.50864 273.92325 276.02026 277.77628
 279.21619 280.40601 281.40332 282.21686 282.95026 283.88315 284.83899 285.72601
 286.55780 287.40433 288.19620 289.20535
 366.78100 356.33102 345.75905 334.62107 323.02010 311.21012 299.07614 286.87517
 274.58319 262.47622 250.48124 239.77826 229.89629 220.99631 213.17433 206.17236
 200.00238 194.93641 191.51443 189.55245 188.58548 188.64550 189.47653 190.78055
 192.50157 194.59260 196.85162 199.20665 201.64767 204.12369 206.20772 208.04574
 209.66777 210.80879 211.03381 211.25784 211.19086 210.89188 210.52091 210.14693
 209.75996 209.46598 209.27000 209.13003 209.05405 209.38108 209.76310 210.14812
 210.93715 212.11117 213.35720 215.13622 217.06024 219.09927 221.19029 223.26932
 225.32534 227.40536 229.49839 231.60041 233.72543 235.89346 238.14548 240.51151
 243.12853 245.37555 247.37358 249.13460 250.54763 251.66665 252.48467 252.79670
 252.82972 252.59975 251.95577 250.89979 249.50182 247.65884 245.56387 243.39289
 241.17991 238.97994 236.79596 234.63099 232.48701 230.35003 228.37206 226.52508
 224.80410 223.27213 221.89815 220.66618 219.54420 218.50022 217.60025 216.73727
 215.97530 215.15132 214.24534 213.60537 213.05139 213.56985 214.80472 216.45839
 216.82703 217.07916 218.25406 219.80635 221.94759 224.74348 228.71901 232.10655
 234.76056 236.96628 238.89014 241.00819 243.82941 247.46814 251.55054 255.55925
 259.26093 262.65900 265.83246 268.79657 271.52109 273.97354 276.13013 277.97620
 279.51932 280.79477 281.84705 282.74893 283.64758 284.60965 285.54941 286.41211
 287.21872 288.06702 288.80807 289.75247
 366.78100 356.33657 345.77015 334.63772 323.04230 311.23787 299.10945 286.91402
 274.62759 262.52617 250.53674 239.83932 229.96289 221.06847 213.25204 206.25561
 200.09119 195.03076 191.61434 189.65791 188.69649 188.76206 189.59863 190.90821
 192.63478 194.73136 196.99593 199.35651 201.80308 204.28465 206.37423 208.21780
 209.84538 210.99195 211.22253 211.45210 211.39067 211.09725 210.73182 210.36340
 209.98197 209.69355 209.50312 209.36869 209.29827 209.63084 210.01842 210.40899
 211.20357 212.38314 213.63472 215.41929 217.34886 219.39344 221.49001 223.57459
 225.63616 227.72174 229.82031 231.92788 234.05846 236.23203 238.48961 240.86118
 243.48376 245.73633 247.73990 249.50648 250.92505 252.04963 252.87320 253.19078
 253.22935 253.00492 252.36650 251.31607 249.92365 248.08622 245.99680 243.83137
 241.62394 239.42952 237.25109 235.09167 232.95324 230.82182 228.84939 227.00796
 225.29254 223.76611 222.39769 221.17126 220.05484 219.01641 218.12198 217.26456
 216.50813 215.68971 214.78928 214.15486 213.60643 213.89127 214.58255 216.36577
 217.09964 217.62466 218.66313 219.95920 221.98866 224.82384 228.80127 231.91341
 234.54800 236.60991 238.46120 240.57111 243.47816 247.22108 251.36786 255.39413
 259.09677 262.51801 265.73993 268.74734 271.49466 273.95486 276.11655 277.96826
 279.51196 280.79633 281.88474 282.87152 283.83331 284.80029 285.69891 286.49310
 287.22339 287.91016 288.51013 289.27469
 366.78100 356.34086 345.77873 334.65059 323.05945 311.25932 299.13518 286.94404
 274.66190 262.56477 250.57963 239.88649 230.01436 221.12422 213.31208 206.31995
 200.15981 195.10367 191.69154 189.73940 188.78226 188.85212 189.69299 191.00685
 192.73771 194.83858 197.10744 199.47230 201.92317 204.40903 206.50289 208.35076
 209.98262 211.13348 211.36835 211.60221 211.54507 211.25593 210.89480 210.53066
 210.15352 209.86939 209.68325 209.55311 209.48698 209.82384 210.21570 210.61057
 211.40943 212.59329 213.84915 215.63802 217.57188 219.62074 221.72161 223.81047
 225.87633 227.96620 230.06906 232.18092 234.31579 236.49365 238.75551 241.13137
 243.75824 246.01510 248.02296 249.79383 251.21669 252.34555 253.17342 253.49528
 253.53814 253.31801 252.68387 251.63773 250.24959 248.41646 246.33132 244.17018
 241.96705 239.77691 237.60277 235.44764 233.31350 231.18636 229.21823 227.38109
 225.66995 224.14781 222.78368 221.56154 220.44940 219.41527 218.52513 217.67199
 216.91986 216.10572 215.20958 214.57945 214.03531 214.16602 214.52214 216.10779
 217.21561 218.02541 218.99675 220.10985 222.05830 224.92337 228.81198 231.75728
 234.36855 236.29044 238.10959 240.29544 243.32242 247.12907 251.29559 255.34070
 259.06897 262.52597 265.78094 268.81390 271.58029 274.05576 276.21057 278.03162
 279.48779 280.66745 281.66541 282.65958 283.75107 284.75119 285.66849 286.53143
 287.33435 288.04935 288.67398 289.46997
 366.78100 356.34402 345.78503 334.66005 323.07207 311.27508 299.15410 286.96611
 274.68713 262.59315 250.61116 239.92118 230.05220 221.16521 213.35623 206.36724
 200.21026 195.15728 191.74829 189.79931 188.84533 188.91834 189.76236 191.07938
 192.81339 194.91741 197.18942 199.55744 202.01146 204.50047 206.59749 208.44851
 210.08352 211.23754 211.47555 211.71257 211.65859 211.37260 211.01462 210.65364
 210.27965 209.99867 209.81569 209.68870 209.62572 209.96573 210.36075 210.75877
 211.56078 212.74780 214.00682 215.79883 217.73585 219.78786 221.89188 223.98390
 226.05291 228.14593 230.25195 232.36696 234.50498 236.68600 238.95101 241.33003
 243.96004 246.22006 248.23108 250.00509 251.43111 252.56313 253.39414 253.71916
 253.76517 253.54819 252.91721 251.87422 250.48924 248.65926 246.57727 244.41929
 242.21931 240.03232 237.86134 235.70935 233.57837 231.45439 229.48940 227.65542
 225.94744 224.42845 223.06747 221.84848 220.73950 219.70852 218.82153 217.97155
 217.22257 216.41158 215.51860 214.89162 214.35063 214.38910 214.55318 215.84119
 217.26294 218.34689 219.37431 220.34998 222.21603 225.05293 228.71255 231.62262
 234.02216 235.87523 237.69139 239.98383 243.14214 247.04068 251.24300 255.30376
 259.04996 262.53906 265.82742 268.89478 271.68353 274.16382 276.30417 278.06818
 279.41620 280.44800 281.48730 282.76071 283.91425 284.95682 286.03644 287.02496
 287.91403 288.70575 289.39740 290.27881
 366.78100 356.34220 345.78141 334.65461 323.06481 311.26602 299.14322 286.95343
 274.67263 262.57683 250.59304 239.90124 230.03044 221.14165 213.33085 206.34005
 200.18126 195.12646 191.71566 189.76487 188.80907 188.88028 189.72248 191.03768
 192.76989 194.87209 197.14229 199.50850 201.96070 204.44790 206.54311 208.39231
 210.02551 211.17772 211.41392 211.64913 211.59333 211.30553 210.94574 210.58294
 210.20714 209.92435 209.73955 209.61075 209.54596 209.88416 210.27736 210.67357
 211.47377 212.65898 213.91618 215.70638 217.64159 219.69179 221.79399 223.88420
 225.95140 228.04260 230.14681 232.26001 234.39621 236.57542 238.83862 241.21583
 243.84403 246.10223 248.11144 249.88364 251.30784 252.43805 253.26725 253.59045
 253.63466 253.41586 252.78306 251.73827 250.35147 248.51968 246.43588 244.27608
 242.07429 239.88549 237.71269 235.55890 233.42610 231.30030 229.33351 227.49771
 225.78791 224.26712 222.90432 221.68353 220.57273 219.53993 218.65114 217.79934
 217.04854 216.23575 215.34095 214.71215 214.16936 214.34743 214.79205 215.59416
 217.14569 218.60587 219.77780 220.63759 222.35385 225.16103 228.76436 231.53061
 233.86630 235.61089 237.36119 239.67534 242.91769 246.89568 251.13293 255.18851
 258.93323 262.44321 265.75815 268.82925 271.59351 274.02118 276.08224 277.75323
 279.07132 280.24475 281.50510 282.81860 283.98074 285.02658 286.06396 287.02576
 287.89081 288.66110 289.33405 290.19162
 366.78100 356.33508 345.76716 334.63325 323.03633 311.23041 299.10049 286.90358
 274.61566 262.51274 250.52182 239.82291 229.94499 221.04907 213.23115 206.23324
 200.06732 195.00540 191.58748 189.62957 188.66665 188.73073 189.56581 190.87390
 192.59898 194.69406 196.95714 199.31623 201.76131 204.24139 206.32947 208.17156
 209.79764 210.94272 211.17180 211.39989 211.33697 211.04205 210.67513 210.30522
 209.92230 209.63238 209.44046 209.30455 209.23263 209.56371 209.94979 210.33888
 211.13196 212.31004 213.56012 215.34320 217.27129 219.31437 221.40945 223.49253
 225.55262 227.63670 229.73378 231.83986 233.96895 236.14103 238.39711 240.76719
 243.38828 245.63936 247.64144 249.40652 250.82361 251.94669 252.76877 253.08485
 253.12194 252.89602 252.25610 251.20418 249.81027 247.97135 245.88043 243.71351
 241.50460 239.30868 237.12876 234.96784 232.82793 230.69501 228.72109 226.87817
 225.16126 223.63334 222.26342 221.03550 219.91759 218.87767 217.98175 217.12283
 216.36492 215.54500 214.64308 214.00716 213.45724 213.99580 215.25371 215.66179
 216.71330 218.61731 220.04179 220.78294 222.45348 225.32751 228.98779 231.48340
 233.92195 235.53461 237.19589 239.47627 242.76292 246.79410 251.06335 255.12645
 258.88046 262.39481 265.69714 268.72620 271.43658 273.81805 275.84918 277.50836
 278.79956 279.95297 281.12421 282.35291 283.48697 284.51349 285.47012 286.35526
 287.19543 287.94363 288.59723 289.43018
 366.78100 356.33215 345.76130 334.62445 323.02460 311.21576 299.08291 286.88306
 274.59221 262.48636 250.49251 239.79066 229.90981 221.01097 213.19012 206.18927
 200.02042 194.95557 191.53472 189.57387 188.60802 188.66918 189.50133 190.80648
 192.52863 194.62078 196.88093 199.23708 201.67923 204.15639 206.24154 208.08069
 209.70384 210.84599 211.07214 211.29729 211.23144 210.93360 210.56375 210.19090
 209.80505 209.51220 209.31735 209.17850 209.10365 209.43181 209.81496 210.20111
 210.99126 212.16641 213.41356 215.19371 217.11886 219.15902 221.25117 223.33132
 225.38847 227.46962 229.56377 231.66692 233.79307 235.96223 238.21538 240.58253
 243.20068 245.44883 247.44798 249.21013 250.62428 251.74444 252.56359 252.87674
 252.91089 252.68204 252.03919 250.98434 249.58749 247.74565 245.65180 243.48195
 241.27010 239.07125 236.88840 234.72455 232.58170 230.44586 228.46901 226.62316
 224.90331 223.37246 221.99961 220.76876 219.64791 218.60506 217.70622 216.84437
 216.08352 215.26067 214.35582 213.71697 213.16412 213.83240 215.41124 216.05865
 216.61649 218.36163 220.07072 221.11201 222.68663 225.35855 228.96419 231.42821
 233.61317 235.32364 237.02605 239.38507 242.72005 246.78188 251.07814 255.16545
 258.93164 262.43692 265.71243 268.69669 271.36267 273.71375 275.74884 277.43945
 278.77658 279.86600 280.87329 281.89441 282.89832 283.86932 284.80173 285.66959
 286.46771 287.19391 287.85144 288.69235
 366.78100 356.33389 345.76477 334.62966 323.03154 311.22443 299.09331 286.89520
 274.60608 262.50197 250.50986 239.80974 229.93063 221.03351 213.21440 206.21528
 200.04817 194.98505 191.56594 189.60683 188.64271 188.70560 189.53948 190.84637
 192.57025 194.66414 196.92602 199.28391 201.72780 204.20668 206.29357 208.13445
 209.75934 210.90322 211.13111 211.35799 211.29388 210.99777 210.62965 210.25854
 209.87442 209.58331 209.39019 209.25308 209.17996 209.50985 209.89474 210.28262
 211.07451 212.25139 213.50028 215.28216 217.20905 219.25093 221.34482 223.42671
 225.48559 227.56848 229.66436 231.76925 233.89713 236.06802 238.32290 240.69179
 243.31168 245.56156 247.56245 249.32633 250.74222 251.86410 252.68499 252.99987
 253.03576 252.80865 252.16753 251.11442 249.71930 247.87919 245.78707 243.61896
 241.40884 239.21173 237.03062 234.86850 232.72739 230.59327 228.61816 226.77404
 225.05593 223.52681 222.15570 220.92658 219.80747 218.76636 217.86924 217.00913
 216.25001 215.42890 214.52578 213.88867 213.33755 213.92029 215.29706 216.30409
 216.87915 218.36333 220.13928 221.35953 222.82582 225.27670 228.79051 231.20633
 233.22462 234.92577 236.68001 239.19646 242.66377 246.79504 251.11699 255.22678
 259.00415 262.50375 265.75653 268.70837 271.33862 273.65210 275.65424 277.31915
 278.59818 279.66376 280.65067 281.62726 282.51276 283.45935 284.40240 285.27701
 286.08173 286.81583 287.46149 288.30768
 366.78100 356.33661 345.77023 334.63784 323.04246 311.23807 299.10968 286.91430
 274.62791 262.52653 250.53714 239.83976 229.96337 221.06898 213.25260 206.25621
 200.09183 195.03144 191.61505 189.65867 188.69728 188.76290 189.59951 190.90912
 192.63574 194.73235 196.99697 199.35758 201.80420 204.28581 206.37542 208.21904
 209.84665 210.99327 211.22388 211.45349 211.39211 211.09872 210.73334 210.36495
 209.98357 209.69518 209.50479 209.37041 209.30002 209.63264 210.02025 210.41086
 211.20548 212.38509 213.63671 215.42132 217.35093 219.39555 221.49216 223.57678
 225.63839 227.72401 229.82262 231.93023 234.06085 236.23446 238.49208 240.86369
 243.48630 245.73892 247.74253 249.50915 250.92776 252.05237 252.87599 253.19360
 253.23222 253.00783 252.36945 251.31906 249.92667 248.08929 245.99990 243.83452
 241.62713 239.43274 237.25436 235.09497 232.95659 230.82520 228.85281 227.01143
 225.29604 223.76966 222.40127 221.17489 220.05850 219.02011 218.12573 217.26834
 216.51196 215.69357 214.79318 214.15880 213.61041 214.07686 215.17889 216.30345
 217.16716 218.55864 220.32143 221.61723 223.01546 225.25912 228.61012 230.97646
 232.87097 234.50888 236.31218 238.97955 242.58420 246.78813 251.14191 255.26672
 259.04358 262.53577 265.77704 268.71332 271.32773 273.62344 275.60837 277.25702
 278.48383 279.48877 280.43628 281.40793 282.26178 283.24170 284.19354 285.07278
 285.88242 286.62408 287.27499 288.13843
 366.78100 356.33796 345.77293 334.64189 323.04785 311.24482 299.11778 286.92375
 274.63871 262.53867 250.55064 239.85460 229.97956 221.08653 213.27149 206.27645
 200.11342 195.05438 191.63935 189.68431 188.72427 188.79124 189.62920 190.94016
 192.66813 194.76609 197.03205 199.39402 201.84198 204.32494 206.41591 208.26087
 209.88984 211.03780 211.26976 211.50073 211.44069 211.14865 210.78462 210.41758
 210.03754 209.75051 209.56147 209.42844 209.35940 209.69336 210.08233 210.47429
 211.27025 212.45122 213.70418 215.49014 217.42111 219.46707 221.56504 223.65100
 225.71396 227.80093 229.90089 232.00985 234.14182 236.31678 238.57574 240.94871
 243.57267 245.82663 247.83160 249.59956 251.01953 252.14549 252.97045 253.28942
 253.32938 253.10634 252.46931 251.42027 250.02923 248.19320 246.10516 243.94113
 241.73509 239.54205 237.36502 235.20698 233.06994 230.93991 228.96887 227.12883
 225.41480 223.88976 222.52273 221.29769 220.18265 219.14562 218.25258 217.39654
 216.64151 215.82447 214.92543 214.29240 213.74536 214.16595 215.15965 216.24028
 217.39616 218.76666 220.48358 221.82423 223.21022 225.30190 228.46680 230.76735
 232.54767 234.13118 235.98187 238.78436 242.50351 246.76494 251.14049 255.26851
 259.03781 262.52399 265.76120 268.69357 271.30640 273.60025 275.58606 277.23575
 278.43616 279.39465 280.30368 281.27234 282.14078 283.13959 284.09689 284.97900
 285.79245 286.53500 287.19162 288.05234
 366.78100 356.33711 345.77122 334.63933 323.04444 311.24054 299.11265 286.91776
 274.63187 262.53098 250.54209 239.84520 229.96931 221.07542 213.25953 206.26363
 200.09974 195.03985 191.62396 189.66807 188.70718 188.77329 189.61040 190.92051
 192.64762 194.74472 197.00983 199.37094 201.81805 204.30016 206.39027 208.23438
 209.86249 211.00960 211.24070 211.47081 211.40992 211.11703 210.75214 210.38425
 210.00336 209.71547 209.52558 209.39169 209.32179 209.65490 210.04301 210.43412
 211.22923 212.40934 213.66145 215.44656 217.37667 219.42178 221.51888 223.60399
 225.66610 227.75221 229.85132 231.95943 234.09054 236.26465 238.52276 240.89487
 243.51797 245.77108 247.77519 249.54230 250.96141 252.08652 252.91063 253.22874
 253.26785 253.04395 252.40606 251.35617 249.96428 248.12739 246.03850 243.87361
 241.66672 239.47283 237.29494 235.13604 232.99815 230.86726 228.89537 227.05448
 225.33959 223.81370 222.44581 221.21992 220.10403 219.06613 218.17224 217.31535
 216.55946 215.74157 214.84168 214.20779 213.65990 214.13695 215.26404 216.19058
 217.47455 218.91451 220.61673 222.01604 223.42598 225.41968 228.39772 230.59175
 232.25354 233.78596 235.68295 238.60983 242.42363 246.73134 251.12035 255.24277
 258.99933 262.48230 265.72202 268.65802 271.27231 273.56586 275.55957 277.22357
 278.42636 279.37402 280.26514 281.23444 282.10876 283.11298 284.07248 284.95587
 285.77054 286.51321 287.16751 288.02985
 366.78100 356.33552 345.76804 334.63456 323.03808 311.23260 299.10312 286.90664
 274.61915 262.51667 250.52619 239.82771 229.95023 221.05475 213.23727 206.23979
 200.07431 195.01283 191.59535 189.63787 188.67539 188.73991 189.57542 190.88394
 192.60946 194.70498 196.96850 199.32802 201.77354 204.25406 206.34258 208.18510
 209.81162 210.95714 211.18666 211.41518 211.35270 211.05821 210.69173 210.32225
 209.93977 209.65029 209.45881 209.32333 209.25185 209.58337 209.96989 210.35941
 211.15293 212.33145 213.58197 215.36548 217.29400 219.33752 221.43304 223.51656
 225.57708 227.66160 229.75912 231.86564 233.99516 236.16768 238.42420 240.79472
 243.41624 245.66776 247.67027 249.43579 250.85331 251.97683 252.79935 253.11587
 253.15339 252.92791 252.28843 251.23695 249.84347 248.00499 245.91451 243.74803
 241.53954 239.34406 237.16458 235.00410 232.86462 230.73214 228.75866 226.91618
 225.19970 223.67222 222.30274 221.07526 219.95778 218.91830 218.02281 217.16433
 216.40685 215.58737 214.68589 214.05041 213.50093 214.06665 215.40323 216.17937
 217.44041 218.97775 220.73694 222.26108 223.69186 225.60576 228.39479 230.43567
 231.97708 233.45850 235.40697 238.45180 242.34496 246.68871 251.07901 255.18471
 258.92651 262.41275 265.66605 268.61252 271.22861 273.52039 275.53012 277.22641
 278.45938 279.42386 280.31381 281.27615 282.13760 283.13474 284.09097 284.97348
 285.78726 286.52936 287.18369 288.04199
 366.78100 356.33554 345.76807 334.63461 323.03815 311.23268 299.10322 286.90676
 274.61929 262.51683 250.52637 239.82790 229.95044 221.05498 213.23751 206.24005
 200.07458 195.01312 191.59566 189.63819 188.67573 188.74027 189.57580 190.88434
 192.60988 194.70541 196.96895 199.32849 201.77402 204.25456 206.34310 208.18563
 209.81217 210.95771 211.18724 211.41578 211.35332 211.05885 210.69239 210.32293
 209.94046 209.65100 209.45954 209.32407 209.25261 209.58414 209.97068 210.36022
 211.15375 212.33229 213.58283 215.36636 217.29490 219.33844 221.43397 223.51751
 225.57805 227.66258 229.76012 231.86666 233.99619 236.16873 238.42527 240.79580
 243.41734 245.66888 247.67141 249.43695 250.85449 251.97802 252.80056 253.11710
 253.15463 252.92917 252.28970 251.23824 249.84478 248.00631 245.91585 243.74939
 241.54092 239.34546 237.16600 235.00553 232.86607 230.73361 228.76014 226.91768
 225.20122 223.67375 222.30429 221.07683 219.95936 218.91990 218.02444 217.16597
 216.40851 215.58905 214.68758 214.05212 213.50266 214.07756 215.43584 216.22124
 217.47920 219.02687 220.85371 222.47063 223.88591 225.75949 228.39844 230.26497
 231.69872 233.14246 235.15564 238.31615 242.27760 246.64688 251.03018 255.11717
 258.84863 262.34183 265.61435 268.56839 271.18427 273.47772 275.50449 277.23206
 278.49545 279.48505 280.39310 281.36758 282.20593 283.18573 284.13858 285.01892
 285.82910 286.56726 287.22195 288.07562
 366.78100 356.33698 345.77096 334.63895 323.04393 311.23991 299.11189 286.91687
 274.63086 262.52984 250.54082 239.84380 229.96778 221.07377 213.25775 206.26173
 200.09771 195.03769 191.62168 189.66566 188.70464 188.77062 189.60760 190.91759
 192.64457 194.74155 197.00653 199.36751 201.81450 204.29648 206.38646 208.23044
 209.85842 211.00541 211.23639 211.46637 211.40535 211.11233 210.74732 210.37930
 209.99828 209.71026 209.52024 209.38623 209.31621 209.64919 210.03717 210.42815
 211.22314 212.40312 213.65510 215.44008 217.37006 219.41505 221.51203 223.59701
 225.65899 227.74497 229.84396 231.95194 234.08292 236.25690 238.51488 240.88687
 243.50985 245.76283 247.76681 249.53380 250.95278 252.07776 252.90174 253.21972
 253.25871 253.03469 252.39667 251.34665 249.95463 248.11762 246.02860 243.86358
 241.65656 239.46254 237.28453 235.12551 232.98749 230.85647 228.88445 227.04344
 225.32842 223.80240 222.43438 221.20836 220.09235 219.05433 218.16031 217.30329
 216.54727 215.72926 214.82924 214.19522 213.64720 214.16182 215.37767 216.27211
 217.62279 219.15370 221.00926 222.55286 223.93303 225.83824 228.39438 230.07962
 231.41679 232.83360 234.92145 238.20644 242.22380 246.61328 250.99486 255.07510
 258.80609 262.30420 265.58594 268.53964 271.14667 273.43243 275.46463 277.20340
 278.48236 279.50302 280.45297 281.45792 282.29837 283.27350 284.22681 285.10400
 285.91385 286.65207 287.30334 288.15741
 366.78100 356.33839 345.77378 334.64316 323.04955 311.24694 299.12033 286.92671
 274.64210 262.54249 250.55488 239.85926 229.98465 221.09204 213.27743 206.28281
 200.12020 195.06159 191.64698 189.69237 188.73275 188.80014 189.63853 190.94992
 192.67830 194.77669 197.04308 199.40547 201.85385 204.33724 206.42863 208.27402
 209.90340 211.05179 211.28418 211.51557 211.45596 211.16434 210.80073 210.43412
 210.05451 209.76789 209.57928 209.44667 209.37806 209.71244 210.10183 210.49422
 211.29061 212.47200 213.72538 215.51177 217.44316 219.48955 221.58793 223.67432
 225.73771 227.82510 229.92548 232.03487 234.16726 236.34265 238.60203 240.97542
 243.59981 245.85420 247.85959 249.62797 251.04836 252.17475 253.00014 253.31952
 253.35991 253.13730 252.50069 251.45207 250.06146 248.22585 246.13824 243.97462
 241.76901 239.57640 237.39979 235.24218 233.10556 230.97595 229.00534 227.16573
 225.45211 223.92750 222.56089 221.33628 220.22166 219.18505 218.29244 217.43683
 216.68221 215.86560 214.96699 214.33438 213.78777 214.24243 215.31665 216.33537
 217.72130 219.32512 221.21658 222.58084 223.92113 225.88806 228.40150 229.90526
 231.14812 232.54396 234.69704 238.10374 242.17148 246.57907 250.96576 255.04767
 258.78085 262.27875 265.55954 268.50946 271.10852 273.38876 275.41919 277.15573
 278.43753 279.47662 280.46979 281.50708 282.38364 283.38153 284.33746 285.21738
 286.02576 286.76120 287.41165 288.26105
 366.78100 356.33931 345.77562 334.64593 323.05323 311.25154 299.12585 286.93316
 274.64947 262.55078 250.56409 239.86940 229.99570 221.10401 213.29032 206.29663
 200.13494 195.07725 191.66356 189.70986 188.75117 188.81948 189.65879 190.97110
 192.70041 194.79972 197.06703 199.43033 201.87964 204.36395 206.45626 208.30257
 209.93288 211.08219 211.31549 211.54780 211.48911 211.19842 210.83573 210.47004
 210.09135 209.80566 209.61796 209.48627 209.41858 209.75389 210.14420 210.53751
 211.33482 212.51713 213.77143 215.55874 217.49105 219.53836 221.63767 223.72498
 225.78929 227.87759 229.97890 232.08921 234.22252 236.39883 238.65914 241.03345
 243.65876 245.91406 247.92037 249.68968 251.11099 252.23830 253.06461 253.38492
 253.42622 253.20453 252.56884 251.52115 250.13146 248.29677 246.21008 244.04739
 241.84269 239.65100 237.47531 235.31862 233.18293 231.05424 229.08455 227.24585
 225.53316 224.00947 222.64378 221.42009 220.30640 219.27071 218.37902 217.52432
 216.77063 215.95494 215.05725 214.42556 213.87987 214.29559 215.27777 216.43723
 217.73264 219.46602 221.40909 222.63142 223.94563 225.94231 228.41139 229.76598
 230.92113 232.29327 234.50703 238.01424 242.11740 246.54025 250.92921 255.00742
 258.73730 262.23093 265.51047 268.46155 271.06696 273.35736 275.38855 277.11874
 278.39334 279.42395 280.43219 281.50439 282.49078 283.51523 284.47592 285.35739
 286.16595 286.90106 287.54944 288.39023
 366.78100 356.33968 345.77636 334.64704 323.05472 311.25339 299.12807 286.93575
 274.65243 262.55411 250.56779 239.87347 230.00015 221.10883 213.29550 206.30218
 200.14086 195.08354 191.67022 189.71690 188.75858 188.82726 189.66693 190.97961
 192.70929 194.80897 197.07665 199.44033 201.89001 204.37469 206.46737 208.31404
 209.94472 211.09440 211.32808 211.56076 211.50244 211.21212 210.84980 210.48448
 210.10615 209.82083 209.63351 209.50219 209.43487 209.77055 210.16123 210.55491
 211.35258 212.53526 213.78994 215.57762 217.51030 219.55798 221.65766 223.74534
 225.81002 227.89869 230.00037 232.11105 234.24473 236.42141 238.68209 241.05677
 243.68245 245.93813 247.94480 249.71448 251.13616 252.26384 253.09052 253.41120
 253.45288 253.23156 252.59624 251.54891 250.15959 248.32527 246.23895 244.07663
 241.87231 239.68099 237.50567 235.34934 233.21402 231.08570 229.11638 227.27806
 225.56574 224.04242 222.67710 221.45378 220.34045 219.30513 218.41381 217.55949
 216.80617 215.99085 215.09353 214.46221 213.91689 214.31914 215.26950 216.53770
 217.74945 219.55855 221.53590 222.70467 223.99359 225.99960 228.41451 229.64864
 230.72523 232.08052 234.35173 237.94632 242.07661 246.50308 250.88522 254.95200
 258.67310 262.16339 265.44431 268.40320 271.02390 273.32999 275.36212 277.08212
 278.35577 279.38052 280.38892 281.49121 282.59906 283.63834 284.59775 285.47763
 286.28265 287.01160 287.65115 288.46796
 366.78100 356.33906 345.77512 334.64519 323.05225 311.25031 299.12437 286.93144
 274.64750 262.54856 250.56162 239.86668 229.99275 221.10081 213.28687 206.29293
 200.13100 195.07306 191.65912 189.70518 188.74624 188.81431 189.65337 190.96543
 192.69449 194.79356 197.06062 199.42368 201.87274 204.35681 206.44887 208.29493
 209.92499 211.07405 211.30712 211.53918 211.48024 211.18930 210.82637 210.46043
 210.08149 209.79555 209.60761 209.47568 209.40774 209.74280 210.13286 210.52593
 211.32299 212.50505 213.75911 215.54617 217.47824 219.52530 221.62436 223.71142
 225.77549 227.86355 229.96461 232.07467 234.20773 236.38380 238.64386 241.01792
 243.64298 245.89805 247.90411 249.67317 251.09423 252.22129 253.04736 253.36742
 253.40848 253.18654 252.55061 251.50267 250.11273 248.27779 246.19086 244.02792
 241.82298 239.63104 237.45510 235.29817 233.16223 231.03329 229.06335 227.22442
 225.51148 223.98754 222.62160 221.39766 220.28373 219.24779 218.35585 217.50091
 216.74698 215.93104 215.03310 214.40116 213.85522 214.29320 215.32797 216.57069
 217.81163 219.65262 221.62617 222.78670 224.02081 226.02295 228.41502 229.56364
 230.55486 231.88014 234.21474 237.89635 242.04553 246.46632 250.83691 254.89072
 258.60483 262.09470 265.37817 268.34354 270.97543 273.29211 275.31689 277.02646
 278.31216 279.36487 280.38812 281.52313 282.68091 283.72766 284.68704 285.56528
 286.36963 287.09399 287.72772 288.54352
 366.78100 356.33788 345.77276 334.64164 323.04752 311.24440 299.11728 286.92316
 274.63804 262.53792 250.54980 239.85368 229.97856 221.08544 213.27032 206.27520
 200.11208 195.05297 191.63785 189.68273 188.72261 188.78949 189.62737 190.93825
 192.66613 194.76401 197.02989 199.39177 201.83965 204.32253 206.41341 208.25829
 209.88717 211.03505 211.26693 211.49781 211.43769 211.14557 210.78145 210.41433
 210.03421 209.74709 209.55797 209.42485 209.35573 209.68961 210.07849 210.47037
 211.26625 212.44713 213.70002 215.48590 217.41678 219.46266 221.56054 223.64642
 225.70930 227.79618 229.89606 232.00494 234.13682 236.31170 238.57058 240.94346
 243.56734 245.82122 247.82610 249.59398 251.01386 252.13974 252.96462 253.28350
 253.32338 253.10026 252.46314 251.41402 250.02290 248.18678 246.09866 243.93454
 241.72842 239.53530 237.35818 235.20006 233.06295 230.93283 228.96171 227.12159
 225.40747 223.88235 222.51523 221.29011 220.17499 219.13787 218.24475 217.38863
 216.63351 215.81639 214.91727 214.28415 213.73703 214.24048 215.42996 216.56046
 217.86960 219.76984 221.73416 222.84877 224.05231 226.06938 228.41003 229.48096
 230.38979 231.67368 234.07246 237.84755 242.01787 246.42711 250.77917 254.82233
 258.53723 262.03104 265.31546 268.28464 270.92331 273.24750 275.26581 276.97116
 278.28510 279.39032 280.45590 281.57416 282.72549 283.77045 284.72687 285.60284
 286.40060 287.12039 287.74640 288.55945
 366.78100 356.33688 345.77076 334.63864 323.04352 311.23940 299.11128 286.91616
 274.63005 262.52893 250.53981 239.84269 229.96657 221.07245 213.25633 206.26021
 200.09609 195.03597 191.61985 189.66373 188.70261 188.76849 189.60538 190.91526
 192.64214 194.73902 197.00390 199.36478 201.81166 204.29354 206.38342 208.22730
 209.85518 211.00206 211.23294 211.46282 211.40171 211.10859 210.74347 210.37535
 209.99423 209.70611 209.51599 209.38187 209.31175 209.64463 210.03251 210.42339
 211.21827 212.39815 213.65003 215.43492 217.36480 219.40968 221.50656 223.59144
 225.65332 227.73920 229.83808 231.94596 234.07684 236.25072 238.50860 240.88048
 243.50336 245.75625 247.76013 249.52701 250.94589 252.07077 252.89465 253.21253
 253.25141 253.02729 252.38917 251.33905 249.94693 248.10981 246.02069 243.85558
 241.64846 239.45434 237.27622 235.11710 232.97898 230.84786 228.87574 227.03462
 225.31950 223.79338 222.42526 221.19914 220.08302 219.04490 218.15079 217.29367
 216.53755 215.71943 214.81931 214.18519 213.63707 214.19760 215.52194 216.57283
 217.91507 219.86694 221.85994 222.91020 223.99146 226.07932 228.46487 229.45596
 230.23050 231.44025 233.92343 237.80977 242.00723 246.38632 250.71896 254.75563
 258.47379 261.96948 265.25186 268.22141 270.86615 273.19843 275.20721 276.90460
 278.24200 279.39594 280.50668 281.64935 282.73663 283.77078 284.72424 285.58997
 286.37439 287.07495 287.68332 288.45328
 366.78100 356.33580 345.76860 334.63541 323.03921 311.23401 299.10481 286.90862
 274.62142 262.51922 250.52902 239.83082 229.95363 221.05843 213.24123 206.24403
 200.07884 195.01764 191.60044 189.64324 188.68104 188.74585 189.58165 190.89045
 192.61625 194.71206 196.97586 199.33566 201.78146 204.26226 206.35107 208.19387
 209.82067 210.96647 211.19627 211.42508 211.36288 211.06868 210.70248 210.33329
 209.95109 209.66189 209.47069 209.33549 209.26430 209.59610 209.98290 210.37270
 211.16651 212.34531 213.59611 215.37991 217.30871 219.35252 221.44832 223.53212
 225.59292 227.67773 229.77553 231.88233 234.01213 236.18493 238.44174 240.81254
 243.43434 245.68614 247.68895 249.45475 250.87255 251.99635 252.81915 253.13596
 253.17376 252.94856 252.30936 251.25817 249.86497 248.02677 245.93657 243.77037
 241.56218 239.36698 237.18778 235.02758 232.88839 230.75619 228.78299 226.94079
 225.22459 223.69740 222.32820 221.10100 219.98380 218.94461 218.04941 217.19121
 216.43401 215.61481 214.71362 214.07842 213.52922 214.15225 215.62424 216.59871
 217.93504 219.87158 221.91469 223.04308 224.00458 226.05057 228.46030 229.42166
 230.06494 231.19069 233.76582 237.80588 242.01479 246.35306 250.66969 254.70610
 258.42401 261.91367 265.19025 268.15894 270.80585 273.14188 275.13843 276.80615
 278.16174 279.35034 280.50839 281.68167 282.77530 283.80026 284.75076 285.61603
 286.39557 287.08859 287.68533 288.44580
 366.78100 356.33562 345.76825 334.63487 323.03850 311.23312 299.10374 286.90737
 274.61999 262.51761 250.52724 239.82886 229.95149 221.05611 213.23873 206.24136
 200.07598 195.01461 191.59723 189.63985 188.67748 188.74210 189.57772 190.88635
 192.61197 194.70760 196.97122 199.33084 201.77647 204.25709 206.34571 208.18834
 209.81496 210.96059 211.19021 211.41883 211.35646 211.06208 210.69571 210.32633
 209.94395 209.65458 209.46320 209.32782 209.25645 209.58807 209.97470 210.36432
 211.15794 212.33657 213.58719 215.37082 217.29944 219.34306 221.43869 223.52231
 225.58293 227.66756 229.76518 231.87181 234.00143 236.17405 238.43068 240.80130
 243.42293 245.67455 247.67717 249.44280 250.86042 251.98404 252.80667 253.12329
 253.16092 252.93554 252.29616 251.24479 249.85141 248.01303 245.92266 243.75628
 241.54791 239.35253 237.17315 235.01278 232.87340 230.74103 228.76765 226.92527
 225.20890 223.68152 222.31214 221.08477 219.96739 218.92802 218.03264 217.17426
 216.41689 215.59751 214.69614 214.06076 213.51138 214.15623 215.67726 216.66289
 217.92862 219.76491 221.85762 223.11998 224.02756 226.03549 228.42203 229.46022
 229.88321 230.95787 233.57002 237.78999 242.05949 246.34399 250.63286 254.66249
 258.39041 261.88013 265.14362 268.11108 270.76434 273.10141 275.08627 276.72589
 278.07648 279.27878 280.47382 281.70956 282.87701 283.92429 284.88437 285.76822
 286.60687 287.35443 288.00751 288.83978
 366.78100 356.33619 345.76939 334.63658 323.04077 311.23596 299.10716 286.91135
 274.62454 262.52273 250.53293 239.83512 229.95831 221.06350 213.24670 206.24989
 200.08508 195.02428 191.60747 189.65066 188.68885 188.75405 189.59024 190.89943
 192.62562 194.72182 196.98601 199.34620 201.79239 204.27359 206.36278 208.20597
 209.83317 210.97936 211.20955 211.43874 211.37694 211.08313 210.71732 210.34851
 209.96671 209.67790 209.48709 209.35229 209.28148 209.61367 210.00086 210.39106
 211.18525 212.36444 213.61563 215.39983 217.32902 219.37321 221.46940 223.55360
 225.61479 227.69998 229.79818 231.90537 234.03556 236.20875 238.46595 240.83714
 243.45933 245.71152 247.71472 249.48091 250.89910 252.02329 252.84649 253.16368
 253.20187 252.97707 252.33826 251.28745 249.89464 248.05684 245.96703 243.80122
 241.59341 239.39861 237.21980 235.05999 232.92118 230.78938 228.81657 226.97476
 225.25896 223.73215 222.36334 221.13653 220.01973 218.98092 218.08611 217.22830
 216.47150 215.65269 214.75188 214.11708 213.56827 214.19511 215.67715 216.78374
 217.94722 219.68098 221.71629 223.08954 224.11189 226.03018 228.34393 229.49829
 229.77904 230.92747 233.60312 237.79066 242.11490 246.36247 250.61356 254.64938
 258.39011 261.88504 265.14514 268.11411 270.78088 273.14169 275.11148 276.73624
 278.08545 279.28683 280.51138 281.83038 283.01385 284.07169 285.06442 286.00906
 286.85867 287.61526 288.27621 289.11850
 366.78100 356.33580 345.76859 334.63539 323.03919 311.23399 299.10478 286.90858
 274.62138 262.51918 250.52897 239.83077 229.95357 221.05837 213.24116 206.24396
 200.07876 195.01755 191.60035 189.64315 188.68095 188.74574 189.58154 190.89034
 192.61614 194.71193 196.97573 199.33553 201.78133 204.26212 206.35092 208.19372
 209.82051 210.96631 211.19611 211.42491 211.36270 211.06850 210.70230 210.33310
 209.95089 209.66169 209.47049 209.33528 209.26408 209.59588 209.98268 210.37247
 211.16627 212.34507 213.59587 215.37966 217.30846 219.35226 221.44806 223.53185
 225.59265 227.67745 229.77524 231.88204 234.01184 236.18464 238.44143 240.81223
 243.43403 245.68583 247.68862 249.45442 250.87222 251.99602 252.81881 253.13561
 253.17341 252.94820 252.30900 251.25780 249.86460 248.02639 245.93619 243.76999
 241.56179 239.36658 237.18738 235.02718 232.88798 230.75577 228.78257 226.94037
 225.22416 223.69696 222.32776 221.10056 219.98335 218.94415 218.04895 217.19075
 216.43354 215.61434 214.71314 214.07793 213.52873 214.17865 215.71849 216.92065
 217.98497 219.65849 221.61893 223.02289 224.20268 226.05174 228.29303 229.41039
 229.69212 230.83397 233.53423 237.79120 242.14691 246.36296 250.59209 254.63449
 258.38837 261.88901 265.14966 268.12476 270.80759 273.18665 275.18127 276.82294
 278.19870 279.41376 280.61823 281.92892 283.11438 284.17169 285.17511 286.10983
 286.95050 287.69910 288.35306 289.18649
 366.78100 356.33545 345.76790 334.63435 323.03780 311.23224 299.10269 286.90614
 274.61859 262.51604 250.52549 239.82694 229.94939 221.05384 213.23629 206.23873
 200.07318 195.01163 191.59408 189.63653 188.67398 188.73843 189.57388 190.88233
 192.60778 194.70322 196.96667 199.32612 201.77157 204.25202 206.34047 208.18292
 209.80937 210.95482 211.18426 211.41271 211.35016 211.05561 210.68906 210.31951
 209.93696 209.64741 209.45586 209.32031 209.24875 209.58020 209.96665 210.35610
 211.14955 212.32800 213.57845 215.36190 217.29035 219.33380 221.42924 223.51269
 225.57314 227.65759 229.75504 231.86149 233.99094 236.16339 238.41984 240.79028
 243.41173 245.66318 247.66563 249.43108 250.84853 251.97198 252.79443 253.11088
 253.14833 252.92277 252.28322 251.23167 249.83812 247.99957 245.90902 243.74247
 241.53392 239.33837 237.15882 234.99826 232.85871 230.72616 228.75261 226.91006
 225.19351 223.66596 222.29641 221.06886 219.95130 218.91175 218.01620 217.15765
 216.40010 215.58055 214.67900 214.04345 213.49390 214.16104 215.74380 217.05565
 218.07045 219.71207 221.59607 223.00668 224.29794 226.08238 228.30835 229.24834
 229.53860 230.64781 233.40166 237.77600 242.15819 246.33269 250.53815 254.58044
 258.34329 261.84836 265.11096 268.09671 270.79639 273.20697 275.24118 276.90530
 278.32385 279.58020 280.74097 282.01880 283.20062 284.25500 285.23193 286.16699
 287.01227 287.76498 288.42255 289.26056
 366.78100 356.33582 345.76863 334.63545 323.03926 311.23408 299.10489 286.90871
 274.62152 262.51934 250.52915 239.83097 229.95378 221.05860 213.24141 206.24423
 200.07904 195.01786 191.60067 189.64349 188.68130 188.74612 189.58193 190.89075
 192.61656 194.71238 196.97619 199.33601 201.78182 204.26264 206.35146 208.19427
 209.82109 210.96690 211.19672 211.42553 211.36335 211.06916 210.70298 210.33379
 209.95161 209.66242 209.47124 209.33605 209.26487 209.59668 209.98350 210.37331
 211.16713 212.34594 213.59676 215.38057 217.30939 219.35320 221.44902 223.53283
 225.59365 227.67847 229.77628 231.88310 234.01291 236.18573 238.44254 240.81336
 243.43517 245.68699 247.68980 249.45562 250.87343 251.99725 252.82006 253.13688
 253.17469 252.94951 252.31032 251.25914 249.86595 248.02777 245.93758 243.77140
 241.56321 239.36803 237.18884 235.02866 232.88947 230.75729 228.78411 226.94192
 225.22574 223.69855 222.32937 221.10218 219.98500 218.94581 218.05063 217.19244
 216.43526 215.61607 214.71489 214.07970 213.53052 214.18040 215.72252 217.16792
 218.19957 219.80719 221.62347 223.03531 224.40245 226.12122 228.27516 229.01303
 229.39572 230.47672 233.26311 237.77596 242.16562 246.28552 250.46405 254.50464
 258.27100 261.77805 265.04129 268.03595 270.75403 273.18222 275.23413 276.93484
 278.40070 279.72244 280.91476 282.09061 283.24612 284.29282 285.25525 286.13440
 286.96640 287.70837 288.35654 289.18256
 366.78100 356.33640 345.76980 334.63720 323.04160 311.23700 299.10840 286.91280
 274.62620 262.52459 250.53499 239.83739 229.96079 221.06619 213.24959 206.25299
 200.08839 195.02779 191.61119 189.65459 188.69299 188.75839 189.59479 190.90419
 192.63059 194.72699 196.99139 199.35178 201.79818 204.27958 206.36898 208.21238
 209.83978 210.98618 211.21658 211.44598 211.38438 211.09078 210.72518 210.35658
 209.97498 209.68638 209.49578 209.36118 209.29058 209.62297 210.01037 210.40077
 211.19517 212.37457 213.62597 215.41037 217.33977 219.38417 221.48057 223.56497
 225.62637 227.71177 229.81017 231.91757 234.04797 236.22137 238.47876 240.85016
 243.47256 245.72496 247.72836 249.49476 250.91316 252.03756 252.86096 253.17836
 253.21676 252.99216 252.35356 251.30296 249.91036 248.07276 245.98316 243.81756
 241.60995 239.41535 237.23675 235.07715 232.93855 230.80695 228.83435 226.99275
 225.27715 223.75055 222.38195 221.15535 220.03875 219.00015 218.10555 217.24795
 216.49135 215.67275 214.77214 214.13754 213.58894 214.21196 215.68391 217.24803
 218.38638 219.94667 221.66382 223.07780 224.46088 226.13701 228.21408 228.82161
 229.27048 230.44217 233.32932 237.79019 242.16867 246.23671 250.38634 254.42807
 258.20059 261.70859 264.96829 267.96777 270.69623 273.13116 275.19449 276.90604
 278.41196 279.77866 281.02084 282.16904 283.29730 284.34030 285.30127 286.17578
 286.96552 287.67465 288.29590 289.08765
 366.78100 356.33704 345.77107 334.63911 323.04414 311.24018 299.11221 286.91725
 274.63128 262.53032 250.54135 239.84439 229.96842 221.07446 213.25849 206.26253
 200.09856 195.03860 191.62263 189.66667 188.70570 188.77174 189.60877 190.91881
 192.64584 194.74288 197.00791 199.36895 201.81598 204.29802 206.38805 208.23209
 209.86012 211.00716 211.23819 211.46823 211.40726 211.11430 210.74933 210.38137
 210.00040 209.71244 209.52247 209.38851 209.31855 209.65158 210.03962 210.43065
 211.22569 212.40572 213.65776 215.44279 217.37283 219.41786 221.51490 223.59993
 225.66197 227.74800 229.84704 231.95507 234.08611 236.26014 238.51818 240.89021
 243.51325 245.76628 247.77032 249.53735 250.95639 252.08142 252.90546 253.22349
 253.26253 253.03856 252.40060 251.35063 249.95867 248.12170 246.03274 243.86777
 241.66081 239.46684 237.28888 235.12991 232.99195 230.86098 228.88902 227.04806
 225.33309 223.80713 222.43916 221.21320 220.09723 219.05927 218.16530 217.30834
 216.55237 215.73441 214.83444 214.20048 213.65251 214.24744 215.65302 217.30336
 218.59418 220.08569 221.69783 223.09183 224.46097 226.11752 228.13007 228.70152
 229.13942 230.41318 233.36145 237.79474 242.16368 246.22778 250.33589 254.35942
 258.13513 261.64325 264.89737 267.89880 270.63779 273.08682 275.13062 276.82553
 278.35059 279.76312 281.05603 282.24023 283.29956 284.32526 285.27344 286.13190
 286.89658 287.56235 288.13431 288.87219
 366.78100 356.33762 345.77224 334.64086 323.04648 311.24310 299.11572 286.92134
 274.63596 262.53559 250.54721 239.85083 229.97545 221.08207 213.26669 206.27131
 200.10793 195.04855 191.63317 189.67779 188.71741 188.78403 189.62165 190.93227
 192.65989 194.75751 197.02314 199.38476 201.83238 204.31500 206.40562 208.25024
 209.87886 211.02648 211.25810 211.48872 211.42834 211.13596 210.77158 210.40420
 210.02382 209.73644 209.54707 209.41369 209.34431 209.67793 210.06655 210.45817
 211.25379 212.43441 213.68703 215.47265 217.40327 219.44889 221.54651 223.63213
 225.69475 227.78137 229.88099 231.98962 234.12124 236.29586 238.55448 240.92710
 243.55072 245.80434 247.80896 249.57658 250.99620 252.12182 252.94644 253.26506
 253.30468 253.08130 252.44392 251.39454 250.00317 248.16679 246.07841 243.91403
 241.70765 239.51427 237.33689 235.17851 233.04113 230.91075 228.93937 227.09899
 225.38461 223.85923 222.49185 221.26647 220.15109 219.11372 218.22034 217.36396
 216.60858 215.79120 214.89182 214.25844 213.71106 214.28178 215.63016 217.35143
 218.74924 220.18164 221.70389 223.05981 224.41116 226.07408 228.06064 228.62177
 229.04359 230.36206 233.35706 237.82327 242.19217 246.22015 250.29457 254.30905
 258.08716 261.59491 264.84140 267.83899 270.58148 273.03101 275.04898 276.73480
 278.27414 279.70593 281.03152 282.25064 283.30588 284.29199 285.23584 286.09509
 286.86444 287.54825 288.15045 288.95694
 366.78100 356.33803 345.77306 334.64208 323.04811 311.24514 299.11817 286.92419
 274.63922 262.53925 250.55128 239.85531 229.98033 221.08736 213.27239 206.27742
 200.11445 195.05547 191.64050 189.68553 188.72556 188.79258 189.63061 190.94164
 192.66967 194.76770 197.03372 199.39575 201.84378 204.32681 206.41784 208.26286
 209.89189 211.03992 211.27195 211.50297 211.44300 211.15103 210.78706 210.42009
 210.04011 209.75314 209.56417 209.43120 209.36223 209.69625 210.08528 210.47731
 211.27334 212.45436 213.70739 215.49342 217.42445 219.47048 221.56850 223.65453
 225.71756 227.80459 229.90462 232.01364 234.14567 236.32070 238.57973 240.95275
 243.57678 245.83081 247.83584 249.60387 251.02389 252.14992 252.97495 253.29398
 253.33401 253.11103 252.47406 251.42509 250.03412 248.19814 246.11017 243.94620
 241.74023 239.54726 237.37028 235.21231 233.07534 230.94537 228.97440 227.13442
 225.42045 223.89548 222.52851 221.30353 220.18856 219.15159 218.25862 217.40265
 216.64767 215.83070 214.93173 214.29876 213.75179 214.30534 215.61316 217.41376
 218.85936 220.24838 221.69386 222.99495 224.32648 226.01312 228.00932 228.58270
 229.00478 230.33018 233.35718 237.86230 242.23047 246.21776 250.26270 254.27031
 258.05444 261.56387 264.80194 267.79285 270.53653 272.98883 274.99005 276.66208
 278.20480 279.64600 280.98874 282.23126 283.29346 284.26385 285.20810 286.07251
 286.85287 287.55121 288.16177 288.96375
 366.78100 356.33845 345.77391 334.64336 323.04981 311.24726 299.12072 286.92717
 274.64262 262.54307 250.55553 239.85998 229.98543 221.09288 213.27834 206.28379
 200.12124 195.06269 191.64815 189.69360 188.73405 188.80150 189.63996 190.95141
 192.67986 194.77831 197.04477 199.40722 201.85567 204.33912 206.43058 208.27603
 209.90548 211.05393 211.28639 211.51784 211.45829 211.16674 210.80320 210.43665
 210.05710 209.77055 209.58201 209.44946 209.38091 209.71536 210.10482 210.49727
 211.29372 212.47517 213.72863 215.51508 217.44653 219.49298 221.59144 223.67789
 225.74134 227.82879 229.92925 232.03870 234.17115 236.34660 238.60606 240.97951
 243.60396 245.85841 247.86387 249.63232 251.05277 252.17922 253.00468 253.32413
 253.36458 253.14203 252.50549 251.45694 250.06639 248.23084 246.14330 243.97975
 241.77420 239.58165 237.40511 235.24756 233.11101 230.98146 229.01092 227.17137
 225.45782 223.93327 222.56673 221.34218 220.22763 219.19108 218.29854 217.44299
 216.68844 215.87189 214.97335 214.34080 213.79425 214.32822 215.58977 217.48474
 218.97194 220.33250 221.69867 222.91705 224.21248 225.92516 227.93925 228.53653
 228.97514 230.31265 233.36183 237.89343 242.25954 246.21986 250.22893 254.23209
 258.02576 261.53824 264.76807 267.75079 270.49176 272.94485 274.93344 276.59894
 278.14273 279.58783 280.94031 282.19733 283.26016 284.24020 285.18735 286.05484
 286.84067 287.54395 288.15591 288.96008
 366.78100 356.33910 345.77520 334.64530 323.05240 311.25051 299.12461 286.93171
 274.64781 262.54891 250.56201 239.86711 229.99321 221.10131 213.28741 206.29352
 200.13162 195.07372 191.65982 189.70592 188.74702 188.81512 189.65422 190.96632
 192.69542 194.79453 197.06163 199.42473 201.87383 204.35793 206.45003 208.29613
 209.92623 211.07533 211.30843 211.54054 211.48164 211.19074 210.82784 210.46194
 210.08304 209.79714 209.60924 209.47734 209.40944 209.74455 210.13465 210.52775
 211.32485 212.50695 213.76105 215.54815 217.48025 219.52735 221.62645 223.71356
 225.77766 227.86576 229.96686 232.07696 234.21006 236.38616 238.64626 241.02036
 243.64546 245.90057 247.90667 249.67577 251.09687 252.22397 253.05007 253.37017
 253.41127 253.18937 252.55347 251.50558 250.11568 248.28078 246.19388 244.03098
 241.82608 239.63418 237.45828 235.30138 233.16548 231.03659 229.06669 227.22779
 225.51489 223.99099 222.62509 221.40119 220.28729 219.25139 218.35949 217.50460
 216.75070 215.93480 215.03690 214.40500 213.85910 214.36324 215.55431 217.53531
 219.10776 220.44055 221.71675 222.84439 224.09436 225.81035 227.85504 228.48642
 228.94447 230.29839 233.37013 237.92278 242.28664 246.20879 250.19812 254.19600
 257.99945 261.51584 264.73752 267.71207 270.44916 272.90182 274.88379 276.54373
 278.08542 279.52838 280.88409 282.15063 283.20917 284.21585 285.16599 286.03448
 286.82230 287.52762 288.14487 288.95059
 366.78100 356.33988 345.77677 334.64765 323.05554 311.25442 299.12931 286.93719
 274.65408 262.55596 250.56985 239.87573 230.00261 221.11150 213.29838 206.30527
 200.14415 195.08704 191.67392 189.72081 188.76269 188.83158 189.67146 190.98434
 192.71423 194.81411 197.08200 199.44588 201.89577 204.38065 206.47354 208.32042
 209.95131 211.10119 211.33507 211.56796 211.50984 211.21973 210.85761 210.49250
 210.11438 209.82927 209.64215 209.51104 209.44392 209.77980 210.17069 210.56457
 211.36246 212.54534 213.80023 215.58811 217.52100 219.56888 221.66877 223.75665
 225.82153 227.91042 230.01230 232.12319 234.25707 236.43396 238.69484 241.06973
 243.69561 245.95150 247.95838 249.72826 251.15015 252.27803 253.10492 253.42580
 253.46769 253.24657 252.61146 251.56434 250.17523 248.34111 246.25499 244.09288
 241.88876 239.69765 237.52253 235.36642 233.23130 231.10319 229.13407 227.29596
 225.58384 224.06072 222.69561 221.47249 220.35938 219.32426 218.43315 217.57903
 216.82592 216.01080 215.11369 214.48257 213.93745 214.40639 215.51431 217.56099
 219.26401 220.55664 221.73648 222.76627 223.96594 225.70586 227.76495 228.42233
 228.91286 230.29431 233.38493 237.95187 242.31255 246.20920 250.17146 254.16408
 257.97617 261.49524 264.70844 267.67404 270.40863 272.85980 274.83798 276.49637
 278.03061 279.46747 280.82425 282.09262 283.15485 284.18317 285.13815 286.01013
 286.80054 287.51077 288.13251 288.93866
 366.78100 356.34073 345.77846 334.65019 323.05892 311.25865 299.13438 286.94311
 274.66084 262.56357 250.57830 239.88504 230.01277 221.12250 213.31023 206.31796
 200.15769 195.10142 191.68915 189.73688 188.77961 188.84934 189.69007 191.00380
 192.73453 194.83526 197.10399 199.46872 201.91945 204.40518 206.49891 208.34665
 209.97838 211.12911 211.36384 211.59757 211.54030 211.25103 210.88976 210.52549
 210.14822 209.86395 209.67768 209.54741 209.48114 209.81787 210.20960 210.60433
 211.40306 212.58679 213.84252 215.63125 217.56499 219.61372 221.71445 223.80318
 225.86891 227.95864 230.06137 232.17310 234.30783 236.48556 238.74729 241.12302
 243.74975 246.00648 248.01421 249.78494 251.20767 252.33640 253.16413 253.48586
 253.52860 253.30833 252.67406 251.62779 250.23952 248.40625 246.32098 244.15971
 241.95644 239.76617 237.59190 235.43663 233.30236 231.17509 229.20682 227.36955
 225.65828 224.13601 222.77174 221.54947 220.43721 219.40294 218.51267 217.65940
 216.90713 216.09286 215.19659 214.56632 214.02205 214.45332 215.47224 217.57478
 219.42403 220.66849 221.76021 222.71342 223.85539 225.54140 227.64920 228.37779
 228.90474 230.30916 233.40976 237.98271 242.34070 246.22232 250.15329 254.13588
 257.95374 261.47360 264.67712 267.63348 270.36444 272.81189 274.79156 276.45270
 277.97678 279.40448 280.75699 282.02347 283.10965 284.14658 285.10446 285.98126
 286.77725 287.49454 288.11899 288.92889
 366.78100 356.34155 345.78010 334.65265 323.06220 311.26275 299.13931 286.94886
 274.66741 262.57096 250.58651 239.89406 230.02261 221.13316 213.32171 206.33026
 200.17082 195.11537 191.70392 189.75247 188.79602 188.86657 189.70812 191.02267
 192.75422 194.85577 197.12532 199.49088 201.94243 204.42898 206.52353 208.37208
 210.00463 211.15618 211.39173 211.62628 211.56983 211.28139 210.92094 210.55749
 210.18104 209.89759 209.71214 209.58269 209.51724 209.85479 210.24734 210.64289
 211.44245 212.62700 213.88355 215.67310 217.60765 219.65720 221.75875 223.84830
 225.91485 228.00540 230.10896 232.22151 234.35706 236.53561 238.79816 241.17471
 243.80226 246.05981 248.06836 249.83991 251.26346 252.39302 253.22157 253.54412
 253.58767 253.36822 252.73477 251.68932 250.30187 248.46942 246.38497 244.22453
 242.02208 239.83263 237.65918 235.50473 233.37128 231.24483 229.27738 227.44093
 225.73048 224.20903 222.84559 221.62414 220.51269 219.47924 218.58979 217.73734
 216.98589 216.17244 215.27699 214.64754 214.10410 214.49884 215.43147 217.57788
 219.57155 220.78079 221.79343 222.67522 223.75139 225.36505 227.52066 228.32857
 228.90018 230.33473 233.44331 238.01930 242.37758 246.24332 250.13371 254.10968
 257.93259 261.45056 264.64395 267.59036 270.31702 272.76166 274.74548 276.41281
 277.92584 279.34036 280.68732 281.94522 283.06708 284.10739 285.06735 285.94604
 286.74689 287.46475 288.09796 288.90836
 366.78100 356.34211 345.78122 334.65433 323.06444 311.26555 299.14266 286.95277
 274.67188 262.57598 250.59209 239.90020 230.02931 221.14042 213.32953 206.33864
 200.17975 195.12486 191.71397 189.76308 188.80719 188.87830 189.72041 191.03552
 192.76763 194.86974 197.13985 199.50595 201.95806 204.44517 206.54028 208.38939
 210.02250 211.17461 211.41072 211.64583 211.58994 211.30205 210.94216 210.57927
 210.20338 209.92049 209.73560 209.60671 209.54181 209.87992 210.27303 210.66914
 211.46925 212.65436 213.91147 215.70158 217.63669 219.68680 221.78891 223.87902
 225.94613 228.03724 230.14135 232.25446 234.39057 236.56968 238.83278 241.20989
 243.83800 246.09611 248.10522 249.87733 251.30144 252.43155 253.26066 253.58377
 253.62788 253.40899 252.77610 251.73121 250.34432 248.51243 246.42854 244.26864
 242.06675 239.87786 237.70497 235.55108 233.41819 231.29230 229.32541 227.48952
 225.77963 224.25874 222.89585 221.67496 220.56407 219.53118 218.64229 217.79040
 217.03950 216.22661 215.33172 214.70283 214.15994 214.53094 215.40746 217.55902
 219.69876 220.91093 221.84431 222.64731 223.64587 225.18755 227.37840 228.25850
 228.88470 230.36241 233.48093 238.05632 242.41310 246.26505 250.13593 254.09377
 257.91455 261.42755 264.60974 267.54532 270.26672 272.70657 274.69705 276.37311
 277.87527 279.27679 280.61441 281.86166 283.02850 284.07642 285.03845 285.91998
 286.72214 287.44437 288.08215 288.89999
 366.78100 356.34238 345.78175 334.65513 323.06550 311.26688 299.14426 286.95463
 274.67401 262.57838 250.59476 239.90313 230.03251 221.14389 213.33326 206.34264
 200.18401 195.12939 191.71877 189.76814 188.81252 188.88389 189.72627 191.04164
 192.77402 194.87640 197.14677 199.51315 201.96552 204.45290 206.54828 208.39765
 210.03103 211.18340 211.41978 211.65515 211.59953 211.31191 210.95228 210.58966
 210.21403 209.93141 209.74679 209.61816 209.55354 209.89191 210.28529 210.68166
 211.48204 212.66742 213.92479 215.71517 217.65054 219.70092 221.80330 223.89367
 225.96105 228.05242 230.15680 232.27017 234.40655 236.58593 238.84930 241.22668
 243.85505 246.11343 248.12281 249.89518 251.31956 252.44993 253.27931 253.60268
 253.64706 253.42844 252.79581 251.75119 250.36456 248.53294 246.44932 244.28969
 242.08807 239.89944 237.72682 235.57320 233.44057 231.31495 229.34832 227.51270
 225.80307 224.28245 222.91983 221.69920 220.58858 219.55595 218.66733 217.81571
 217.06508 216.25246 215.35783 214.72921 214.18658 214.54852 215.40363 217.52071
 219.80690 221.06116 221.90620 222.61823 223.53105 225.00885 227.22542 228.17126
 228.86304 230.39738 233.52644 238.09740 242.45396 246.29805 250.14792 254.08354
 257.89999 261.40570 264.57367 267.49762 270.21344 272.64725 274.64471 276.33179
 277.82477 279.21439 280.54202 281.80835 282.98288 284.03375 284.99988 285.88452
 286.68759 287.41470 288.05017 288.87430
 366.78100 356.34272 345.78243 334.65615 323.06686 311.26858 299.14629 286.95701
 274.67672 262.58144 250.59815 239.90687 230.03658 221.14830 213.33801 206.34773
 200.18945 195.13516 191.72488 189.77459 188.81931 188.89102 189.73374 191.04945
 192.78217 194.88488 197.15560 199.52231 201.97503 204.46275 206.55846 208.40818
 210.04189 211.19461 211.43132 211.66704 211.61175 211.32447 210.96518 210.60290
 210.22761 209.94533 209.76104 209.63276 209.56848 209.90719 210.30091 210.69762
 211.49834 212.68405 213.94177 215.73248 217.66820 219.71891 221.82163 223.91234
 225.98006 228.07178 230.17649 232.29021 234.42692 236.60664 238.87035 241.24807
 243.87678 246.13550 248.14521 249.91793 251.34264 252.47336 253.30307 253.62679
 253.67151 253.45322 252.82094 251.77665 250.39037 248.55908 246.47580 244.31651
 242.11523 239.92694 237.75466 235.60137 233.46909 231.34380 229.37752 227.54224
 225.83295 224.31267 222.95038 221.73010 220.61981 219.58753 218.69924 217.84796
 217.09767 216.28539 215.39110 214.76282 214.22054 214.57079 215.39828 217.48659
 219.89943 221.21181 221.96938 222.58391 223.40785 224.83217 227.06656 228.07382
 228.84120 230.44464 233.58582 238.14607 242.50642 246.34685 250.15912 254.07922
 257.88669 261.38141 264.53290 267.44540 270.15485 272.58167 274.58679 276.28601
 277.77240 279.15228 280.45267 281.77005 282.94647 283.99631 284.96075 285.84293
 286.64978 287.37433 288.01389 288.83719
 366.78100 356.34350 345.78399 334.65849 323.06999 311.27249 299.15098 286.96248
 274.68298 262.58847 250.60597 239.91547 230.04596 221.15846 213.34896 206.35946
 200.20195 195.14845 191.73895 189.78944 188.83494 188.90744 189.75094 191.06743
 192.80093 194.90443 197.17592 199.54342 201.99692 204.48541 206.58191 208.43241
 210.06691 211.22040 211.45790 211.69440 211.63989 211.35339 210.99489 210.63339
 210.25888 209.97738 209.79388 209.66637 209.60287 209.94237 210.33686 210.73436
 211.53586 212.72236 213.98085 215.77235 217.70885 219.76034 221.86384 223.95534
 226.02384 228.11633 230.22183 232.33633 234.47382 236.65432 238.91882 241.29731
 243.92681 246.18631 248.19681 249.97030 251.39580 252.52730 253.35779 253.68229
 253.72779 253.51029 252.87878 251.83528 250.44978 248.61927 246.53677 244.37827
 242.17776 239.99026 237.81876 235.66626 233.53475 231.41025 229.44475 227.61024
 225.90174 224.38224 223.02074 221.80123 220.69173 219.66023 218.77272 217.92222
 217.17272 216.36121 215.46771 214.84021 214.29871 214.61639 215.36696 217.48135
 219.96941 221.33398 222.03613 222.55945 223.29460 224.67061 226.90941 227.96944
 228.81639 230.49620 233.65260 238.20047 242.56367 246.39880 250.18568 254.07841
 257.87299 261.35257 264.48694 267.38809 270.09109 272.51114 274.52426 276.23624
 277.71924 279.09317 280.38428 281.72205 282.90521 283.95782 284.92331 285.80676
 286.61090 287.33545 287.97064 288.79865
 366.78100 356.34453 345.78606 334.66159 323.07412 311.27765 299.15718 286.96971
 274.69124 262.59777 250.61630 239.92683 230.05836 221.17189 213.36342 206.37495
 200.21848 195.16601 191.75754 189.80907 188.85560 188.92913 189.77366 191.09119
 192.82572 194.93025 197.20278 199.57131 202.02584 204.51537 206.61290 208.46443
 210.09996 211.25449 211.49302 211.73055 211.67708 211.39161 211.03414 210.67367
 210.30020 210.01973 209.83726 209.71079 209.64832 209.98885 210.38438 210.78291
 211.58544 212.77297 214.03250 215.82503 217.76256 219.81509 221.91962 224.01215
 226.08168 228.17521 230.28174 232.39727 234.53580 236.71733 238.98286 241.36239
 243.99292 246.25345 248.26498 250.03951 251.46604 252.59857 253.43009 253.75562
 253.80215 253.58568 252.95521 251.91274 250.52827 248.69880 246.61733 244.45986
 242.26039 240.07392 237.90345 235.75198 233.62151 231.49804 229.53357 227.70010
 225.99263 224.47416 223.11369 221.89522 220.78675 219.75628 218.86981 218.02034
 217.27187 216.46140 215.56893 214.94246 214.40199 214.67464 215.31877 217.49730
 220.01740 221.41371 222.11351 222.56374 223.20549 224.53011 226.75336 227.85338
 228.78149 230.54552 233.72272 238.25363 242.61786 246.45247 250.20975 254.08607
 257.85852 261.31812 264.43655 267.32724 270.02448 272.43857 274.46051 276.18347
 277.66739 279.04047 280.33435 281.67722 282.86423 283.91833 284.88464 285.76895
 286.57346 287.29483 287.92838 288.75589
 366.78100 356.34524 345.78748 334.66372 323.07696 311.28119 299.16143 286.97467
 274.69691 262.60415 250.62339 239.93463 230.06687 221.18111 213.37334 206.38558
 200.22982 195.17806 191.77030 189.82254 188.86978 188.94402 189.78925 191.10749
 192.84273 194.94797 197.22121 199.59045 202.04569 204.53593 206.63417 208.48640
 210.12264 211.27788 211.51712 211.75536 211.70260 211.41784 211.06108 210.70132
 210.32855 210.04879 209.86703 209.74127 209.67951 210.02075 210.41699 210.81623
 211.61946 212.80770 214.06794 215.86118 217.79942 219.85266 221.95790 224.05114
 226.12138 228.21561 230.32285 232.43909 234.57833 236.76057 239.02681 241.40705
 244.03829 246.29953 248.31176 250.08700 251.51424 252.64748 253.47972 253.80596
 253.85320 253.63744 253.00767 251.96591 250.58215 248.75339 246.67263 244.51587
 242.31711 240.13135 237.96159 235.81082 233.68106 231.55830 229.59454 227.76178
 226.05502 224.53726 223.17750 221.95974 220.85197 219.82221 218.93645 218.08769
 217.33993 216.53017 215.63841 215.01265 214.47289 214.71681 215.29315 217.49757
 220.05441 221.47093 222.19989 222.59248 223.14162 224.40657 226.59085 227.71489
 228.72409 230.58377 233.79727 238.31456 242.67278 246.50879 250.24437 254.08943
 257.84085 261.27930 264.38046 267.26291 269.95602 272.36700 274.39667 276.13208
 277.61942 278.99374 280.29376 281.63785 282.82562 283.88193 284.85040 285.73477
 286.53958 287.26184 287.89590 288.72321
 366.78100 356.34541 345.78782 334.66422 323.07763 311.28204 299.16245 286.97586
 274.69826 262.60567 250.62508 239.93649 230.06890 221.18330 213.37571 206.38812
 200.23253 195.18094 191.77335 189.82575 188.87316 188.94757 189.79298 191.11139
 192.84679 194.95220 197.22561 199.59502 202.05043 204.54083 206.63924 208.49165
 210.12806 211.28347 211.52287 211.76128 211.70869 211.42410 211.06751 210.70791
 210.33532 210.05573 209.87414 209.74855 209.68696 210.02836 210.42477 210.82418
 211.62759 212.81600 214.07640 215.86981 217.80822 219.86163 221.96704 224.06044
 226.13085 228.22526 230.33267 232.44908 234.58848 236.77089 239.03730 241.41771
 244.04912 246.31052 248.32293 250.09834 251.52575 252.65916 253.49156 253.81797
 253.86538 253.64979 253.02020 251.97861 250.59501 248.76642 246.68583 244.52924
 242.33065 240.14505 237.97546 235.82487 233.69528 231.57269 229.60909 227.77650
 226.06991 224.55232 223.19273 221.97513 220.86754 219.83795 218.95236 218.10377
 217.35617 216.54658 215.65499 215.02940 214.48981 214.73305 215.30774 217.46637
 220.08313 221.52634 222.28517 222.62622 223.08197 224.29251 226.42656 227.56635
 228.65782 230.61885 233.87402 238.37596 242.73126 246.57451 250.28279 254.09862
 257.81860 261.23169 264.31610 267.19315 269.88388 272.29282 274.33194 276.07904
 277.57550 278.95804 280.26996 281.61578 282.80630 283.86243 284.83105 285.71835
 286.52255 287.24588 287.88229 288.71436
 366.78100 356.34530 345.78760 334.66390 323.07719 311.28149 299.16179 286.97509
 274.69739 262.60469 250.62399 239.93528 230.06758 221.18188 213.37418 206.38648
 200.23078 195.17907 191.77137 189.82367 188.87097 188.94527 189.79057 191.10887
 192.84416 194.94946 197.22276 199.59206 202.04736 204.53766 206.63596 208.48825
 210.12455 211.27985 211.51915 211.75745 211.70475 211.42004 211.06334 210.70364
 210.33094 210.05124 209.86954 209.74384 209.68213 210.02343 210.41973 210.81903
 211.62233 212.81063 214.07093 215.86422 217.80252 219.85582 221.96112 224.05442
 226.12472 228.21902 230.32631 232.44261 234.58191 236.76421 239.03051 241.41081
 244.04210 246.30340 248.31570 250.09100 251.51830 252.65160 253.48390 253.81019
 253.85749 253.64179 253.01209 251.97039 250.58669 248.75799 246.67728 244.52058
 242.32188 240.13618 237.96648 235.81578 233.68608 231.56337 229.59967 227.76697
 226.06027 224.54257 223.18287 221.96516 220.85746 219.82776 218.94206 218.09336
 217.34566 216.53596 215.64425 215.01855 214.47885 214.73723 215.34767 217.42119
 220.09070 221.59433 222.35048 222.63701 223.02124 224.18633 226.26660 227.42336
 228.59850 230.66202 233.96223 238.44972 242.80139 246.64799 250.32994 254.10532
 257.79196 261.17419 264.24200 267.11636 269.80478 272.21356 274.26062 276.02045
 277.53235 278.92584 280.25754 281.60690 282.79636 283.85440 284.82452 285.71127
 286.51785 287.24274 287.88000 288.70877
 366.78100 356.34529 345.78758 334.66387 323.07716 311.28145 299.16174 286.97503
 274.69732 262.60461 250.62390 239.93518 230.06747 221.18176 213.37405 206.38634
 200.23063 195.17892 191.77121 189.82350 188.87079 188.94508 189.79037 191.10866
 192.84395 194.94924 197.22253 199.59182 202.04711 204.53740 206.63569 208.48797
 210.12426 211.27955 211.51884 211.75713 211.70442 211.41971 211.06300 210.70329
 210.33058 210.05087 209.86916 209.74345 209.68174 210.02303 210.41932 210.81861
 211.62190 212.81019 214.07048 215.86377 217.80205 219.85534 221.96063 224.05392
 226.12421 228.21850 230.32579 232.44208 234.58137 236.76366 239.02995 241.41024
 244.04153 246.30282 248.31511 250.09040 251.51769 252.65098 253.48327 253.80956
 253.85684 253.64113 253.01142 251.96971 250.58600 248.75729 246.67658 244.51987
 242.32116 240.13545 237.96574 235.81503 233.68532 231.56261 229.59890 227.76619
 226.05948 224.54177 223.18206 221.96435 220.85663 219.82692 218.94121 218.09250
 217.34479 216.53508 215.64337 215.01766 214.47795 214.74789 215.38565 217.39319
 220.05925 221.66118 222.41687 222.62857 222.93509 224.08586 226.11926 227.29364
 228.55339 230.71646 234.05765 238.52759 242.88087 246.73637 250.38634 254.11388
 257.75967 261.10934 264.16168 267.03479 269.72260 272.13092 274.18594 275.95596
 277.48709 278.89478 280.25937 281.61206 282.80316 283.86145 284.83130 285.71927
 286.52713 287.25485 287.89349 288.71820
 366.78100 356.34546 345.78792 334.66437 323.07783 311.28229 299.16275 286.97621
 274.69867 262.60612 250.62558 239.93704 230.06950 221.18396 213.37642 206.38887
 200.23333 195.18179 191.77425 189.82671 188.87417 188.94862 189.79408 191.11254
 192.84800 194.95346 197.22692 199.59637 202.05183 204.54229 206.64075 208.49321
 210.12966 211.28512 211.52458 211.76304 211.71050 211.42596 211.06941 210.70987
 210.33733 210.05779 209.87625 209.75071 209.68916 210.03062 210.42708 210.82654
 211.63000 212.81846 214.07891 215.87237 217.81083 219.86429 221.96975 224.06320
 226.13366 228.22812 230.33558 232.45204 234.59150 236.77395 239.04041 241.42087
 244.05233 246.31379 248.32625 250.10170 251.52916 252.66262 253.49508 253.82154
 253.86900 253.65345 253.02391 251.98237 250.59883 248.77029 246.68975 244.53320
 242.33466 240.14912 237.97958 235.82904 233.69949 231.57695 229.61341 227.78087
 226.07433 224.55679 223.19724 221.97970 220.87216 219.84262 218.95708 218.10854
 217.36099 216.55145 215.65991 215.03437 214.49483 214.76819 215.41403 217.39009
 220.00529 221.70451 222.46880 222.62254 222.86862 223.98433 225.96974 227.16966
 228.51309 230.77403 234.16083 238.61609 242.96907 246.82921 250.44888 254.12451
 257.72757 261.04361 264.08032 266.95306 269.63931 272.04697 274.10516 275.88760
 277.44427 278.87213 280.27060 281.62640 282.81671 283.87622 284.84875 285.73578
 286.54401 287.27286 287.91003 288.73798
 366.78100 356.34550 345.78799 334.66449 323.07799 311.28248 299.16298 286.97647
 274.69897 262.60647 250.62596 239.93746 230.06996 221.18445 213.37695 206.38944
 200.23394 195.18244 191.77493 189.82743 188.87493 188.94942 189.79492 191.11341
 192.84891 194.95441 197.22790 199.59740 202.05290 204.54339 206.64189 208.49438
 210.13088 211.28638 211.52587 211.76437 211.71187 211.42736 211.07086 210.71135
 210.33885 210.05935 209.87784 209.75234 209.69084 210.03233 210.42883 210.82832
 211.63182 212.82032 214.08081 215.87431 217.81281 219.86630 221.97180 224.06529
 226.13579 228.23029 230.33778 232.45428 234.59378 236.77627 239.04277 241.42326
 244.05476 246.31626 248.32875 250.10425 251.53175 252.66524 253.49774 253.82423
 253.87173 253.65623 253.02672 251.98522 250.60172 248.77321 246.69271 244.53621
 242.33770 240.15220 237.98269 235.83219 233.70269 231.58018 229.61668 227.78418
 226.07767 224.56017 223.20066 221.98316 220.87566 219.84615 218.96065 218.11215
 217.36464 216.55514 215.66363 215.03813 214.49863 214.78236 215.45271 217.39275
 219.94325 221.73643 222.54218 222.60109 222.75990 223.89514 225.82397 227.02846
 228.46231 230.83006 234.26794 238.71420 243.06641 246.92821 250.52179 254.14137
 257.69812 260.97937 264.00092 266.87262 269.55756 271.96167 274.01959 275.80917
 277.38977 278.79791 280.30206 281.66870 282.85724 283.91226 284.88019 285.76617
 286.57324 287.30240 287.93851 288.76456
 366.78100 356.34524 345.78749 334.66373 323.07697 311.28121 299.16146 286.97470
 274.69694 262.60419 250.62343 239.93467 230.06692 221.18116 213.37340 206.38564
 200.22989 195.17813 191.77037 189.82262 188.86986 188.94410 189.78935 191.10759
 192.84283 194.94807 197.22132 199.59056 202.04580 204.53605 206.63429 208.48653
 210.12278 211.27802 211.51726 211.75550 211.70275 211.41799 211.06123 210.70148
 210.32872 210.04896 209.86720 209.74145 209.67969 210.02093 210.41718 210.81642
 211.61966 212.80791 214.06815 215.86139 217.79963 219.85288 221.95812 224.05136
 226.12161 228.21585 230.32309 232.43934 234.57858 236.76082 239.02706 241.40731
 244.03855 246.29979 248.31204 250.08728 251.51452 252.64777 253.48001 253.80625
 253.85349 253.63774 253.00798 251.96622 250.58247 248.75371 246.67295 244.51619
 242.31744 240.13168 237.96192 235.81117 233.68141 231.55865 229.59490 227.76214
 226.05538 224.53762 223.17787 221.96011 220.85235 219.82260 218.93684 218.08808
 217.34033 216.53057 215.63881 215.01305 214.47330 214.78212 215.51173 217.39609
 219.86992 221.73256 222.63130 222.64764 222.69470 223.72560 225.63934 226.90495
 228.41754 230.87880 234.37721 238.82253 243.17274 247.03403 250.60143 254.16621
 257.67355 260.92020 263.92667 266.79620 269.47748 271.87711 273.93344 275.73441
 277.34439 278.79205 280.31357 281.68683 282.87958 283.93719 284.90665 285.79321
 286.60129 287.32840 287.96442 288.78940
 366.78100 356.34485 345.78669 334.66254 323.07539 311.27924 299.15908 286.97193
 274.69378 262.60063 250.61947 239.93032 230.06217 221.17602 213.36786 206.37971
 200.22356 195.17141 191.76325 189.81510 188.86195 188.93580 189.78064 191.09849
 192.83334 194.93819 197.21103 199.57988 202.03473 204.52458 206.62242 208.47427
 210.11012 211.26497 211.50381 211.74166 211.68851 211.40336 211.04620 210.68605
 210.31290 210.03275 209.85059 209.72444 209.66229 210.00314 210.39898 210.79783
 211.60068 212.78853 214.04837 215.84122 217.77907 219.83192 221.93676 224.02961
 226.09946 228.19331 230.30015 232.41600 234.55485 236.73670 239.00254 241.38239
 244.01324 246.27409 248.28593 250.06078 251.48763 252.62047 253.45232 253.77817
 253.82502 253.60886 252.97871 251.93656 250.55241 248.72325 246.64210 244.48495
 242.28580 240.09964 237.92949 235.77834 233.64819 231.52503 229.56088 227.72773
 226.02058 224.50242 223.14227 221.92412 220.81597 219.78581 218.89966 218.05051
 217.30236 216.49220 215.60005 214.97390 214.43375 214.77527 215.58217 217.40387
 219.79425 221.68423 222.68831 222.70599 222.65811 223.56306 225.45717 226.78651
 228.37567 230.92928 234.48726 238.93205 243.28163 247.14804 250.69214 254.20520
 257.66071 260.87256 263.86050 266.72543 269.40033 271.78998 273.83722 275.64145
 277.28101 278.80402 280.33508 281.70959 282.90323 283.96350 284.93365 285.81940
 286.62808 287.35507 287.98941 288.81290
 366.78100 356.34433 345.78567 334.66100 323.07334 311.27667 299.15601 286.96834
 274.68967 262.59601 250.61434 239.92468 230.05601 221.16935 213.36068 206.37201
 200.21535 195.16268 191.75402 189.80535 188.85169 188.92502 189.76935 191.08669
 192.82102 194.92536 197.19769 199.56603 202.02036 204.50969 206.60703 208.45836
 210.09370 211.24803 211.48637 211.72370 211.67004 211.38437 211.02670 210.66604
 210.29237 210.01171 209.82904 209.70238 209.63971 209.98004 210.37538 210.77371
 211.57605 212.76338 214.02272 215.81505 217.75238 219.80472 221.90905 224.00139
 226.07072 228.16406 230.27039 232.38572 234.52406 236.70539 238.97073 241.35006
 243.98040 246.24073 248.25206 250.02640 251.45273 252.58507 253.41640 253.74174
 253.78807 253.57140 252.94074 251.89807 250.51341 248.68374 246.60208 244.44441
 242.24474 240.05808 237.88741 235.73575 233.60508 231.48142 229.51675 227.68308
 225.97542 224.45675 223.09609 221.87742 220.76876 219.73809 218.85143 218.00176
 217.25309 216.44243 215.54976 214.92310 214.38243 214.76303 215.66225 217.40999
 219.71416 221.61893 222.70702 222.74525 222.62399 223.41701 225.28145 226.66707
 228.33769 230.98747 234.60632 239.05278 243.40266 247.27589 250.79938 254.25768
 257.65662 260.82880 263.79517 266.65347 269.32037 271.69980 273.74179 275.55795
 277.23111 278.81116 280.34900 281.72311 282.91724 283.97693 284.94739 285.83267
 286.63950 287.36389 287.99884 288.82071
 366.78100 356.34411 345.78521 334.66032 323.07242 311.27553 299.15463 286.96674
 274.68785 262.59395 250.61206 239.92216 230.05327 221.16637 213.35748 206.36859
 200.21169 195.15880 191.74990 189.80101 188.84711 188.92022 189.76433 191.08143
 192.81554 194.91964 197.19175 199.55985 202.01396 204.50307 206.60017 208.45128
 210.08638 211.24049 211.47859 211.71570 211.66181 211.37591 211.01802 210.65712
 210.28323 210.00234 209.81944 209.69255 209.62965 209.96976 210.36486 210.76297
 211.56508 212.75218 214.01129 215.80339 217.74050 219.79260 221.89671 223.98882
 226.05792 228.15103 230.25713 232.37224 234.51034 236.69145 238.95656 241.33566
 243.96577 246.22587 248.23698 250.01108 251.43719 252.56930 253.40040 253.72551
 253.77161 253.55472 252.92382 251.88093 250.49604 248.66614 246.58425 244.42635
 242.22646 240.03956 237.86867 235.71678 233.58588 231.46199 229.49709 227.66320
 225.95530 224.43641 223.07552 221.85662 220.74773 219.71683 218.82994 217.98004
 217.23115 216.42026 215.52736 214.90047 214.35957 214.76547 215.72443 217.42880
 219.63585 221.54030 222.68907 222.76312 222.59183 223.28874 225.11357 226.55132
 228.30330 231.04897 234.72392 239.17026 243.52112 247.40810 250.90941 254.31865
 257.66684 260.80286 263.74603 266.59171 269.24631 271.60654 273.62714 275.44147
 277.15100 278.82623 280.37289 281.74496 282.93848 283.99597 284.96320 285.84930
 286.65134 287.37677 288.00885 288.82779
 366.78100 356.34428 345.78557 334.66085 323.07313 311.27641 299.15570 286.96798
 274.68926 262.59554 250.61383 239.92411 230.05539 221.16868 213.35996 206.37124
 200.21452 195.16181 191.75309 189.80437 188.85065 188.92394 189.76822 191.08550
 192.81979 194.92407 197.19635 199.56463 202.01892 204.50820 206.60548 208.45676
 210.09205 211.24633 211.48461 211.72190 211.66818 211.38246 211.02474 210.66403
 210.29031 210.00959 209.82687 209.70016 209.63744 209.97772 210.37301 210.77129
 211.57357 212.76085 214.02014 215.81242 217.74970 219.80198 221.90627 223.99855
 226.06783 228.16112 230.26740 232.38268 234.52096 236.70225 238.96753 241.34681
 243.97710 246.23738 248.24866 250.02294 251.44923 252.58151 253.41279 253.73807
 253.78436 253.56764 252.93692 251.89421 250.50949 248.67977 246.59805 244.44034
 242.24062 240.05390 237.88318 235.73147 233.60075 231.47703 229.51232 227.67860
 225.97088 224.45216 223.09145 221.87273 220.76401 219.73329 218.84658 217.99686
 217.24814 216.43743 215.54471 214.91799 214.37727 214.79047 215.76668 217.44260
 219.58150 221.48828 222.64040 222.72212 222.51939 223.15860 224.95865 226.45317
 228.29158 231.12576 234.85091 239.29504 243.64191 247.53128 251.02872 254.39052
 257.68008 260.77075 263.68906 266.53009 269.17883 271.53473 273.55811 275.38174
 277.08307 278.81894 280.36823 281.73587 282.92310 283.97736 284.94296 285.82285
 286.62408 287.34735 287.97809 288.79446
 366.78100 356.34444 345.78588 334.66132 323.07376 311.27720 299.15664 286.96908
 274.69052 262.59696 250.61540 239.92584 230.05728 221.17072 213.36217 206.37361
 200.21705 195.16449 191.75593 189.80737 188.85381 188.92725 189.77169 191.08913
 192.82357 194.92801 197.20045 199.56889 202.02333 204.51277 206.61021 208.46165
 210.09709 211.25153 211.48997 211.72741 211.67385 211.38829 211.03073 210.67017
 210.29661 210.01605 209.83350 209.70694 209.64438 209.98482 210.38026 210.77870
 211.58114 212.76858 214.02802 215.82046 217.75790 219.81034 221.91478 224.00722
 226.07666 228.17010 230.27654 232.39198 234.53042 236.71186 238.97730 241.35674
 243.98718 246.24762 248.25906 250.03350 251.45994 252.59238 253.42383 253.74927
 253.79571 253.57915 252.94859 251.90603 250.52147 248.69191 246.61035 244.45279
 242.25323 240.06667 237.89611 235.74455 233.61399 231.49043 229.52587 227.69231
 225.98475 224.46619 223.10563 221.88707 220.77851 219.74795 218.86139 218.01183
 217.26327 216.45271 215.56016 214.93360 214.39304 214.82033 215.82986 217.40216
 219.53581 221.48987 222.60884 222.64064 222.37807 222.97841 224.76979 226.33601
 228.27449 231.19304 234.97861 239.42480 243.79259 247.71986 251.18422 254.48375
 257.72354 260.77695 263.65933 266.47580 269.10593 271.42584 273.39526 275.21576
 277.02689 278.81958 280.37665 281.75000 282.93811 283.99405 284.95917 285.83862
 286.63824 287.35638 287.98730 288.80054
 366.78100 356.34510 345.78719 334.66329 323.07639 311.28048 299.16058 286.97368
 274.69578 262.60287 250.62197 239.93307 230.06516 221.17926 213.37136 206.38345
 200.22755 195.17565 191.76775 189.81984 188.86694 188.94104 189.78613 191.10423
 192.83933 194.94442 197.21752 199.58662 202.04171 204.53181 206.62991 208.48201
 210.11810 211.27320 211.51230 211.75039 211.69749 211.41259 211.05568 210.69578
 210.32288 210.04297 209.86107 209.73517 209.67327 210.01436 210.41046 210.80956
 211.61265 212.80075 214.06085 215.85394 217.79204 219.84514 221.95024 224.04333
 226.11343 228.20753 230.31462 232.43072 234.56982 236.75191 239.01801 241.39811
 244.02920 246.29030 248.30240 250.07750 251.50459 252.63769 253.46979 253.79588
 253.84298 253.62708 252.99717 251.95527 250.57137 248.74246 246.66156 244.50466
 242.30576 240.11985 237.94995 235.79905 233.66914 231.54624 229.58234 227.74943
 226.04253 224.52463 223.16473 221.94682 220.83892 219.80902 218.92311 218.07421
 217.32631 216.51640 215.62450 214.99860 214.45869 214.87965 215.87422 217.37292
 219.41035 221.42062 222.60947 222.60768 222.24127 222.78894 224.53859 226.17131
 228.24185 231.23557 235.09393 239.55032 243.90367 247.84180 251.39211 254.66882
 257.84045 260.84073 263.66846 266.45166 269.04135 271.32431 273.28888 275.12302
 276.96353 278.70386 280.22470 281.57446 282.74915 283.79041 284.74261 285.61115
 286.39172 287.07468 287.65994 288.40576
 366.78100 356.34557 345.78815 334.66472 323.07830 311.28287 299.16345 286.97702
 274.69959 262.60717 250.62674 239.93832 230.07089 221.18547 213.37804 206.39061
 200.23519 195.18376 191.77634 189.82891 188.87648 188.95106 189.79663 191.11521
 192.85078 194.95636 197.22993 199.59950 202.05508 204.54565 206.64423 208.49680
 210.13338 211.28895 211.52852 211.76710 211.71467 211.43025 211.07382 210.71440
 210.34197 210.06254 209.88112 209.75569 209.69427 210.03584 210.43242 210.83199
 211.63556 212.82414 214.08471 215.87829 217.81686 219.87043 221.97601 224.06958
 226.14016 228.23473 230.34231 232.45888 234.59845 236.78103 239.04760 241.42818
 244.05975 246.32133 248.33390 250.10947 251.53705 252.67062 253.50320 253.82977
 253.87735 253.66192 253.03249 251.99107 250.60764 248.77922 246.69879 244.54236
 242.34394 240.15851 237.98909 235.83866 233.70924 231.58681 229.62338 227.79096
 226.08453 224.56711 223.20768 221.99026 220.88283 219.85340 218.96798 218.11955
 217.37213 216.56270 215.67128 215.04585 214.50642 214.92419 215.91125 217.40054
 219.28880 221.32298 222.57809 222.58601 222.18088 222.67839 224.40134 226.07388
 228.19054 231.29204 235.22203 239.67322 244.02817 247.95793 251.53635 254.76913
 257.88501 260.85132 263.65274 266.41943 269.00781 271.29456 273.26929 275.10272
 276.92252 278.65259 280.19504 281.55753 282.73749 283.78525 284.74661 285.62341
 286.42426 287.15604 287.80112 288.62323
 366.78100 356.34659 345.79018 334.66778 323.08237 311.28796 299.16955 286.98414
 274.70773 262.61633 250.63692 239.94951 230.08310 221.19869 213.39228 206.40588
 200.25147 195.20106 191.79465 189.84824 188.89683 188.97243 189.81902 191.13861
 192.87520 194.98179 197.25638 199.62698 202.08357 204.57516 206.67475 208.52834
 210.16593 211.32253 211.56312 211.80271 211.75130 211.46789 211.11248 210.75408
 210.38267 210.10426 209.92385 209.79944 209.73903 210.08163 210.47922 210.87981
 211.68440 212.87399 214.13558 215.93018 217.86977 219.92436 222.03095 224.12554
 226.19713 228.29273 230.40132 232.51891 234.65950 236.84309 239.11069 241.49228
 244.12487 246.38746 248.40105 250.17764 251.60624 252.74083 253.57442 253.90201
 253.95060 253.73619 253.10779 252.06738 250.68497 248.85756 246.77815 244.62274
 242.42534 240.24093 238.07252 235.92311 233.79470 231.67329 229.71089 227.87948
 226.17407 224.65766 223.29925 222.08284 220.97644 219.94803 219.06362 218.21621
 217.46980 216.66139 215.77099 215.14658 214.60817 214.99908 215.92268 217.37735
 219.32509 221.35704 222.56998 222.51201 222.09688 222.54260 224.23726 225.90834
 228.12227 231.36826 235.35208 239.77248 244.11307 248.05797 251.63524 254.87004
 257.95844 260.89169 263.67786 266.43451 269.00690 271.26315 273.21289 275.06143
 276.89893 278.58078 280.11642 281.47552 282.65234 283.69547 284.64874 285.52295
 286.32999 287.05048 287.66916 288.47565
 366.78100 356.34824 345.79347 334.67271 323.08894 311.29618 299.17941 286.99565
 274.72089 262.63112 250.65336 239.96759 230.10283 221.22007 213.41530 206.43054
 200.27777 195.22901 191.82424 189.87948 188.92972 189.00695 189.85519 191.17642
 192.91466 195.02290 197.29913 199.67137 202.12960 204.62284 206.72407 208.57931
 210.21855 211.37678 211.61902 211.86025 211.81049 211.52873 211.17496 210.81820
 210.44843 210.17167 209.99290 209.87014 209.81138 210.15561 210.55485 210.95708
 211.76332 212.95456 214.21779 216.01403 217.95526 220.01150 222.11973 224.21597
 226.28921 228.38644 230.49668 232.61591 234.75815 236.94339 239.21262 241.59586
 244.23009 246.49433 248.50956 250.28780 251.71804 252.85427 253.68951 254.01874
 254.06898 253.85622 253.22945 252.19069 250.80992 248.98416 246.90639 244.75263
 242.55687 240.37410 238.20734 236.05957 233.93281 231.81305 229.85228 228.02252
 226.31875 224.80399 223.44722 222.23246 221.12770 220.10093 219.21817 218.37240
 217.62764 216.82088 215.93211 215.30935 214.77258 215.12425 215.95511 217.23042
 219.37508 221.46201 222.57881 222.37192 221.82050 222.25305 223.97861 225.75728
 228.02435 231.37543 235.45799 239.89992 244.27357 248.26259 251.81566 255.03145
 258.09766 261.02292 263.77469 266.48526 269.05496 271.33594 273.27200 275.01703
 276.72470 278.47189 280.00815 281.36224 282.54141 283.59476 284.57062 285.46173
 286.25394 286.95770 287.58560 288.38712
 366.78100 356.34747 345.79194 334.67042 323.08589 311.29236 299.17483 286.99031
 274.71478 262.62425 250.64572 239.95920 230.09367 221.21014 213.40461 206.41908
 200.26556 195.21603 191.81050 189.86497 188.91445 188.99092 189.83839 191.15886
 192.89633 195.00381 197.27928 199.65075 202.10822 204.60070 206.70117 208.55564
 210.19411 211.35159 211.59306 211.83353 211.78300 211.50047 211.14595 210.78842
 210.41789 210.14036 209.96084 209.83731 209.77778 210.12125 210.51972 210.92120
 211.72667 212.91714 214.17961 215.97509 217.91556 219.97103 222.07850 224.17398
 226.24645 228.34292 230.45239 232.57086 234.71234 236.89681 239.16528 241.54775
 244.18123 246.44470 248.45917 250.23664 251.66612 252.80159 253.63606 253.96453
 254.01400 253.80048 253.17295 252.13342 250.75189 248.92537 246.84684 244.69231
 242.49578 240.31225 238.14473 235.99620 233.86867 231.74814 229.78662 227.95609
 226.25156 224.73603 223.37851 222.16298 221.05745 220.02992 219.14639 218.29987
 217.55434 216.74681 215.85728 215.23376 214.69623 215.11972 216.13409 217.21930
 219.09457 220.96260 222.30783 222.38167 221.87996 222.17847 223.74757 225.79619
 227.98572 231.39412 235.50395 239.90646 244.27026 248.35887 252.03261 255.33264
 258.37363 261.23392 263.95270 266.58484 269.06662 271.26767 273.21335 274.98792
 276.69052 278.26959 279.68619 280.95233 282.09055 283.14838 284.15598 285.06879
 285.88977 286.62085 287.25949 288.07339
 366.78100 356.34424 345.78549 334.66073 323.07298 311.27622 299.15546 286.96771
 274.68895 262.59520 250.61344 239.92369 230.05493 221.16817 213.35942 206.37066
 200.21391 195.16115 191.75239 189.80364 188.84988 188.92313 189.76737 191.08462
 192.81886 194.92310 197.19535 199.56359 202.01784 204.50708 206.60432 208.45557
 210.09081 211.24506 211.48330 211.72054 211.66679 211.38103 211.02328 210.66252
 210.28877 210.00801 209.82525 209.69850 209.63574 209.97599 210.37123 210.76947
 211.57172 212.75896 214.01821 215.81045 217.74769 219.79994 221.90418 223.99643
 226.06567 228.15892 230.26516 232.38040 234.51865 236.69989 238.96514 241.34438
 243.97462 246.23487 248.24611 250.02036 251.44660 252.57885 253.41009 253.73533
 253.78158 253.56482 252.93407 251.89131 250.50655 248.67680 246.59504 244.43729
 242.23753 240.05077 237.88002 235.72826 233.59751 231.47375 229.50900 227.67524
 225.96748 224.44873 223.08797 221.86922 220.76046 219.72970 218.84295 217.99319
 217.24444 216.43368 215.54092 214.91417 214.37341 214.97888 216.37959 217.31541
 218.88846 220.81274 222.36124 222.63976 222.26605 222.39598 223.81696 225.64507
 227.92285 231.39098 235.53561 239.92073 244.31532 248.40625 252.12257 255.48070
 258.51581 261.33920 264.02469 266.63364 269.07202 271.26981 273.16736 274.94250
 276.64575 278.13058 279.68579 281.17749 282.47733 283.62735 284.67657 285.62711
 286.48203 287.24329 287.90836 288.75586
 366.78100 356.34313 345.78325 334.65738 323.06851 311.27063 299.14876 286.95988
 274.68001 262.58514 250.60226 239.91139 230.04152 221.15364 213.34377 206.35390
 200.19602 195.14215 191.73228 189.78240 188.82753 188.89965 189.74278 191.05891
 192.79203 194.89516 197.16629 199.53341 201.98654 204.47467 206.57079 208.42092
 210.05505 211.20817 211.44530 211.68142 211.62655 211.33968 210.98080 210.61893
 210.24406 209.96218 209.77831 209.65044 209.58656 209.92569 210.31982 210.71694
 211.51807 212.70419 213.96232 215.75345 217.68957 219.74070 221.84383 223.93495
 226.00308 228.09521 230.20033 232.31446 234.45159 236.63171 238.89584 241.27396
 243.90309 246.16222 248.17234 249.94547 251.37060 252.50172 253.33185 253.65598
 253.70110 253.48323 252.85136 251.80748 250.42161 248.59073 246.50786 244.34899
 242.14811 239.96024 237.78837 235.63549 233.50362 231.37875 229.41287 227.57800
 225.86913 224.34925 222.98738 221.76750 220.65763 219.62576 218.73788 217.88701
 217.13714 216.32526 215.43139 214.80352 214.26164 214.92764 216.46921 217.36371
 218.66383 220.69316 222.31036 222.57811 222.20949 222.38348 223.73161 225.57977
 227.91838 231.44621 235.61734 239.98424 244.34760 248.45688 252.21956 255.59441
 258.62878 261.44955 264.12527 266.70410 269.14484 271.35196 273.26810 275.01093
 276.61871 278.13260 279.66809 281.08517 282.35147 283.47183 284.49396 285.41995
 286.25278 286.99442 287.64230 288.46796
 366.78100 356.34350 345.78401 334.65851 323.07001 311.27252 299.15102 286.96252
 274.68303 262.58853 250.60603 239.91554 230.04604 221.15854 213.34905 206.35955
 200.20205 195.14856 191.73906 189.78956 188.83507 188.90757 189.75107 191.06758
 192.80108 194.90458 197.17609 199.54359 201.99709 204.48560 206.58210 208.43260
 210.06711 211.22061 211.45811 211.69462 211.64012 211.35362 210.99513 210.63363
 210.25913 209.97764 209.79414 209.66664 209.60315 209.94265 210.33715 210.73466
 211.53616 212.72266 213.98117 215.77267 217.70917 219.76068 221.86418 223.95568
 226.02419 228.11669 230.22219 232.33670 234.47420 236.65470 238.91921 241.29771
 243.92721 246.18672 248.19722 249.97072 251.39623 252.52773 253.35823 253.68274
 253.72824 253.51074 252.87925 251.83575 250.45025 248.61976 246.53726 244.37876
 242.17827 239.99077 237.81927 235.66678 233.53528 231.41078 229.44529 227.61079
 225.90229 224.38280 223.02130 221.80180 220.69231 219.66081 218.77331 217.92282
 217.17332 216.36182 215.46833 214.84083 214.29933 214.95793 216.49448 217.40160
 218.51917 220.57875 222.31215 222.49953 221.98204 222.19827 223.62637 225.39500
 227.83849 231.46320 235.67796 240.01115 244.34738 248.49782 252.31152 255.75394
 258.74615 261.52240 264.14908 266.66962 269.09772 271.32208 273.25089 274.98038
 276.60605 277.98315 279.20810 280.56110 281.77484 282.86783 283.86502 284.76843
 285.58093 286.30444 286.93652 287.74200
 366.78100 356.34356 345.78412 334.65868 323.07024 311.27280 299.15135 286.96291
 274.68347 262.58903 250.60659 239.91615 230.04671 221.15927 213.34983 206.36039
 200.20295 195.14951 191.74006 189.79062 188.83618 188.90874 189.75230 191.06886
 192.80242 194.90598 197.17754 199.54510 201.99866 204.48722 206.58377 208.43433
 210.06889 211.22245 211.46001 211.69657 211.64213 211.35569 210.99725 210.63581
 210.26137 209.97993 209.79648 209.66904 209.60560 209.94516 210.33972 210.73728
 211.53884 212.72540 213.98396 215.77552 217.71208 219.76364 221.86719 223.95875
 226.02731 228.11987 230.22543 232.33999 234.47755 236.65811 238.92267 241.30123
 243.93079 246.19035 248.20090 249.97446 251.40002 252.53158 253.36214 253.68670
 253.73226 253.51482 252.88338 251.83994 250.45450 248.62406 246.54161 244.38317
 242.18273 239.99529 237.82385 235.67141 233.53997 231.41553 229.45009 227.61565
 225.90721 224.38777 223.02632 221.80688 220.69744 219.66600 218.77856 217.92812
 217.17868 216.36724 215.47380 214.84636 214.30492 214.98228 216.54820 217.41890
 218.49672 220.47997 222.27205 222.53658 221.97076 222.10022 223.52423 225.38748
 227.85822 231.52745 235.76221 240.06905 244.40723 248.57391 252.42535 255.90834
 258.89682 261.64648 264.21790 266.67798 269.05267 271.25336 273.19116 274.93906
 276.54575 277.88358 279.23141 280.67966 281.96222 283.09695 284.13223 285.07013
 285.91364 286.66483 287.32101 288.15726
 366.78100 356.34433 345.78566 334.66098 323.07331 311.27664 299.15597 286.96830
 274.68962 262.59595 250.61428 239.92461 230.05593 221.16926 213.36059 206.37192
 200.21525 195.16257 191.75390 189.80523 188.85156 188.92489 189.76921 191.08654
 192.82087 194.92520 197.19753 199.56585 202.02018 204.50951 206.60684 208.45816
 210.09349 211.24782 211.48615 211.72348 211.66980 211.38413 211.02646 210.66579
 210.29212 210.01144 209.82877 209.70210 209.63943 209.97976 210.37508 210.77341
 211.57574 212.76307 214.02240 215.81472 217.75205 219.80438 221.90871 224.00103
 226.07036 228.16369 230.27002 232.38535 234.52367 236.70500 238.97033 241.34966
 243.97999 246.24031 248.25164 250.02597 251.45230 252.58463 253.41595 253.74128
 253.78761 253.57094 252.94026 251.89759 250.51292 248.68325 246.60158 244.44390
 242.24423 240.05756 237.88689 235.73522 233.60454 231.48087 229.51620 227.68253
 225.97486 224.45618 223.09551 221.87684 220.76817 219.73749 218.85082 218.00115
 217.25248 216.44181 215.54913 214.92246 214.38179 215.03642 216.54993 217.45393
 218.51167 220.31615 222.09683 222.43408 221.88335 222.01733 223.57428 225.41234
 227.90984 231.60901 235.87285 240.17628 244.49533 248.66171 252.53166 256.06873
 259.09750 261.80222 264.35025 266.78876 269.12231 271.31171 273.24533 274.97714
 276.52774 278.01599 279.67960 281.20743 282.52963 283.69943 284.76672 285.73358
 286.60318 287.37756 288.05408 288.91617
 366.78100 356.34534 345.78768 334.66402 323.07736 311.28170 299.16204 286.97538
 274.69772 262.60506 250.62440 239.93574 230.06808 221.18242 213.37476 206.38710
 200.23144 195.17978 191.77212 189.82446 188.87180 188.94614 189.79148 191.10982
 192.84516 194.95050 197.22384 199.59318 202.04852 204.53886 206.63721 208.48955
 210.12589 211.28123 211.52057 211.75891 211.70625 211.42159 211.06493 210.70527
 210.33261 210.05295 209.87129 209.74563 209.68397 210.02531 210.42165 210.82099
 211.62433 212.81267 214.07301 215.86635 217.80469 219.85803 221.96337 224.05671
 226.12705 228.22139 230.32873 232.44507 234.58441 236.76675 239.03309 241.41343
 244.04477 246.30611 248.31845 250.09379 251.52113 252.65447 253.48681 253.81315
 253.86049 253.64483 253.01517 251.97351 250.58985 248.76119 246.68053 244.52387
 242.32521 240.13955 237.96989 235.81923 233.68957 231.56691 229.60325 227.77059
 226.06393 224.54628 223.18662 221.96896 220.86130 219.83164 218.94598 218.09732
 217.34966 216.54000 215.64834 215.02268 214.48302 215.09981 216.53209 217.47244
 218.57304 220.21964 221.91119 222.28214 221.73384 221.87352 223.55377 225.37833
 227.90434 231.66978 235.97240 240.29015 244.59087 248.74617 252.57771 256.05307
 259.23380 261.97391 264.49030 266.87759 269.16452 271.34564 273.25031 274.96466
 276.44589 278.15662 279.87488 281.39423 282.70908 283.87238 284.93372 285.89523
 286.75998 287.53006 288.20279 289.06009
 366.78100 356.34511 345.78723 334.66334 323.07645 311.28057 299.16068 286.97380
 274.69591 262.60302 250.62214 239.93325 230.06536 221.17948 213.37159 206.38371
 200.22782 195.17593 191.76805 189.82016 188.86727 188.94139 189.78650 191.10462
 192.83973 194.94484 197.21796 199.58707 202.04218 204.53230 206.63041 208.48253
 210.11864 211.27375 211.51287 211.75098 211.69809 211.41321 211.05632 210.69644
 210.32355 210.04366 209.86178 209.73589 209.67400 210.01512 210.41123 210.81035
 211.61346 212.80157 214.06169 215.85480 217.79291 219.84603 221.95114 224.04426
 226.11437 228.20848 230.31560 232.43171 234.57082 236.75294 239.01905 241.39916
 244.03028 246.29139 248.30351 250.07862 251.50573 252.63885 253.47096 253.79707
 253.84419 253.62830 252.99842 251.95653 250.57264 248.74376 246.66287 244.50598
 242.30710 240.12121 237.95133 235.80044 233.67055 231.54767 229.58378 227.75089
 226.04401 224.52612 223.16624 221.94835 220.84046 219.81058 218.92469 218.07580
 217.32792 216.51803 215.62615 215.00026 214.46037 215.10574 216.57594 217.45032
 218.57498 220.23701 221.85680 222.19377 221.56339 221.64493 223.47861 225.38678
 227.94720 231.75163 236.07001 240.41200 244.73088 248.89815 252.72568 256.15671
 259.30313 262.05530 264.53635 266.87003 269.13760 271.30511 273.20117 274.80157
 276.69385 278.65891 280.41095 281.94940 283.28079 284.45871 285.53342 286.50699
 287.38263 288.16241 288.84360 289.71167
 366.78100 356.34550 345.78799 334.66449 323.07799 311.28249 299.16298 286.97648
 274.69898 262.60647 250.62597 239.93747 230.06997 221.18446 213.37696 206.38946
 200.23395 195.18245 191.77495 189.82745 188.87494 188.94944 189.79494 191.11344
 192.84893 194.95443 197.22793 199.59742 202.05292 204.54342 206.64192 208.49441
 210.13091 211.28641 211.52590 211.76440 211.71190 211.42740 211.07089 210.71139
 210.33889 210.05938 209.87788 209.75238 209.69088 210.03237 210.42887 210.82837
 211.63186 212.82036 214.08086 215.87436 217.81285 219.86635 221.97185 224.06535
 226.13584 228.23034 230.33784 232.45433 234.59383 236.77633 239.04283 241.42332
 244.05482 246.31632 248.32881 250.10431 251.53181 252.66531 253.49780 253.82430
 253.87180 253.65629 253.02679 251.98529 250.60179 248.77328 246.69278 244.53628
 242.33777 240.15227 237.98277 235.83227 233.70276 231.58026 229.61676 227.78425
 226.07775 224.56025 223.20075 221.98324 220.87574 219.84624 218.96074 218.11223
 217.36473 216.55523 215.66372 215.03822 214.49872 215.13818 216.59158 217.46104
 218.51291 220.19279 221.80328 222.15404 221.38396 221.34708 223.37157 225.38760
 228.04793 231.85405 236.16870 240.53299 244.88145 249.07465 252.90160 256.34369
 259.45172 262.20071 264.64789 266.94031 269.16754 271.27859 273.16473 275.11911
 277.36832 279.42279 281.20062 282.76169 284.11264 285.30789 286.39838 287.38629
 288.27481 289.06604 289.75723 290.63809
 366.78100 356.34714 345.79128 334.66941 323.08455 311.29069 299.17283 286.98796
 274.71210 262.62124 250.64238 239.95552 230.08965 221.20579 213.39993 206.41407
 200.26020 195.21034 191.80448 189.85862 188.90776 188.98389 189.83103 191.15117
 192.88831 194.99545 197.27058 199.64172 202.09886 204.59100 206.69113 208.54527
 210.18341 211.34055 211.58169 211.82182 211.77096 211.48810 211.13324 210.77537
 210.40451 210.12665 209.94679 209.82293 209.76306 210.10620 210.50434 210.90548
 211.71061 212.90075 214.16289 215.95803 217.89817 219.95330 222.06044 224.15558
 226.22772 228.32386 230.43299 232.55113 234.69227 236.87641 239.14454 241.52668
 244.15982 246.42296 248.43710 250.21423 251.64337 252.77851 253.61265 253.94078
 253.98992 253.77606 253.14820 252.10834 250.72647 248.89961 246.82075 244.66589
 242.46902 240.28516 238.11730 235.96844 233.84058 231.71971 229.75785 227.92699
 226.22213 224.70626 223.34840 222.13254 221.02668 219.99882 219.11495 218.26809
 217.52223 216.71437 215.82451 215.20064 214.66278 215.22267 216.54549 217.51511
 218.48256 220.05574 221.62190 222.01691 221.30618 221.12891 223.27731 225.36986
 228.09041 231.93800 236.26994 240.63509 245.00339 249.19113 253.04463 256.53226
 259.65775 262.39865 264.84155 267.11002 269.28549 271.34000 273.34357 275.48392
 277.93832 280.04312 281.86447 283.46378 284.84781 286.07236 287.18954 288.20163
 289.11191 289.92252 290.63065 291.53308
 366.78100 356.34714 345.79128 334.66942 323.08456 311.29070 299.17284 286.98798
 274.71212 262.62126 250.64240 239.95554 230.08968 221.20582 213.39996 206.41410
 200.26024 195.21038 191.80452 189.85866 188.90780 188.98394 189.83108 191.15122
 192.88836 194.99550 197.27064 199.64178 202.09892 204.59106 206.69120 208.54534
 210.18348 211.34062 211.58176 211.82190 211.77104 211.48818 211.13332 210.77546
 210.40460 210.12674 209.94688 209.82302 209.76316 210.10630 210.50444 210.90558
 211.71072 212.90086 214.16300 215.95814 217.89828 219.95342 222.06056 224.15570
 226.22784 228.32398 230.43312 232.55126 234.69240 236.87654 239.14468 241.52682
 244.15996 246.42310 248.43724 250.21438 251.64352 252.77866 253.61280 253.94094
 253.99008 253.77622 253.14836 252.10850 250.72664 248.89978 246.82092 244.66606
 242.46920 240.28534 238.11748 235.96862 233.84076 231.71990 229.75804 227.92718
 226.22232 224.70646 223.34859 222.13273 221.02687 219.99901 219.11515 218.26829
 217.52243 216.71457 215.82471 215.20085 214.66299 215.22995 216.54745 217.51253
 218.53209 220.00946 221.42999 221.74805 221.12907 221.07236 223.16953 225.35609
 228.12381 232.01300 236.36453 240.72816 245.10292 249.30563 253.18129 256.69775
 259.82504 262.58435 265.05020 267.31815 269.47272 271.46698 273.40732 275.71866
 278.24060 280.42892 282.32254 283.98526 285.42422 286.69733 287.85886 288.91110
 289.85748 290.70026 291.43646 292.37469
 366.78100 356.34710 345.79120 334.66930 323.08440 311.29050 299.17260 286.98770
 274.71180 262.62090 250.64200 239.95509 230.08919 221.20529 213.39939 206.41349
 200.25959 195.20969 191.80379 189.85789 188.90699 188.98309 189.83019 191.15029
 192.88739 194.99449 197.26959 199.64069 202.09779 204.58989 206.68999 208.54408
 210.18218 211.33928 211.58038 211.82048 211.76958 211.48668 211.13178 210.77388
 210.40298 210.12508 209.94518 209.82128 209.76138 210.10448 210.50258 210.90368
 211.70878 212.89888 214.16098 215.95607 217.89617 219.95127 222.05837 224.15347
 226.22557 228.32167 230.43077 232.54887 234.68997 236.87407 239.14217 241.52427
 244.15737 246.42047 248.43457 250.21167 251.64077 252.77587 253.60997 253.93807
 253.98716 253.77326 253.14536 252.10546 250.72356 248.89666 246.81776 244.66286
 242.46596 240.28206 238.11416 235.96526 233.83736 231.71646 229.75456 227.92366
 226.21876 224.70286 223.34496 222.12906 221.02315 219.99525 219.11135 218.26445
 217.51855 216.71065 215.82075 215.19685 214.65895 215.23192 216.54707 217.49640
 218.55722 220.00188 221.35362 221.51062 220.87224 220.94806 222.99847 225.29359
 228.13533 232.08479 236.47038 240.83977 245.22273 249.44981 253.34462 256.87762
 259.99347 262.73755 265.21219 267.49310 269.65839 271.73160 273.45367 275.82193
 278.23981 280.35547 282.18622 283.79376 285.18497 286.41580 287.53879 288.55609
 289.47107 290.28586 290.99765 291.90472
 366.78100 356.34774 345.79247 334.67121 323.08694 311.29368 299.17641 286.99215
 274.71688 262.62662 250.64835 239.96209 230.09682 221.21356 213.40829 206.42303
 200.26977 195.22050 191.81524 189.86997 188.91971 188.99644 189.84418 191.16491
 192.90265 195.01038 197.28612 199.65785 202.11559 204.60832 206.70906 208.56380
 210.20253 211.36027 211.60200 211.84274 211.79247 211.51021 211.15594 210.79868
 210.42841 210.15115 209.97188 209.84862 209.78936 210.13309 210.53183 210.93356
 211.73930 212.93003 214.19277 215.98850 217.92924 219.98497 222.09271 224.18844
 226.26118 228.35791 230.46765 232.58639 234.72812 236.91286 239.18159 241.56433
 244.19806 246.46180 248.47653 250.25427 251.68400 252.81974 253.65447 253.98321
 254.03294 253.81968 253.19242 252.15315 250.77189 248.94562 246.86736 244.71309
 242.51683 240.33356 238.16630 236.01803 233.89077 231.77050 229.80924 227.97897
 226.27471 224.75945 223.40218 222.18692 221.08165 220.05439 219.17112 218.32486
 217.57959 216.77233 215.88306 215.25980 214.72253 215.25746 216.50644 217.48611
 218.60797 219.98166 221.21675 221.21086 220.63170 220.98280 222.72269 225.20970
 228.14098 232.16524 236.60208 240.98512 245.36298 249.59959 253.51050 257.03827
 260.14893 262.89108 265.37729 267.66049 269.82544 271.88861 273.75507 275.97650
 278.12610 280.12341 281.85175 283.36938 284.68274 285.84473 286.90488 287.86530
 288.72910 289.49829 290.17026 291.02658
 366.78100 356.34711 345.79121 334.66932 323.08442 311.29053 299.17263 286.98774
 274.71184 262.62095 250.64205 239.95516 230.08926 221.20537 213.39947 206.41358
 200.25968 195.20979 191.80389 189.85800 188.90710 188.98321 189.83031 191.15042
 192.88752 194.99463 197.26973 199.64084 202.09794 204.59005 206.69015 208.54426
 210.18236 211.33947 211.58058 211.82068 211.76979 211.48689 211.13200 210.77410
 210.40321 210.12531 209.94542 209.82152 209.76163 210.10473 210.50284 210.90394
 211.70905 212.89915 214.16126 215.95636 217.89647 219.95157 222.05868 224.15378
 226.22589 228.32199 230.43110 232.54920 234.69031 236.87441 239.14252 241.52462
 244.15773 246.42083 248.43494 250.21205 251.64115 252.77626 253.61036 253.93847
 253.98757 253.77368 253.14578 252.10589 250.72399 248.89710 246.81820 244.66331
 242.46641 240.28252 238.11462 235.96573 233.83783 231.71694 229.75504 227.92415
 226.21925 224.70336 223.34546 222.12957 221.02367 219.99578 219.11188 218.26499
 217.51909 216.71120 215.82131 215.19741 214.65952 215.21396 216.50629 217.43245
 218.62006 220.01398 221.02934 220.92039 220.47971 220.97673 222.48857 225.08221
 228.10260 232.23433 236.73544 241.10815 245.45093 249.67308 253.56113 257.06204
 260.16684 262.93369 265.47659 267.82349 270.01410 272.10941 274.01718 275.77673
 277.40298 278.99710 280.65509 282.13080 283.40790 284.53781 285.56866 286.50256
 287.34250 288.09048 288.74390 289.57657
 366.78100 356.34651 345.79002 334.66754 323.08205 311.28756 299.16907 286.98359
 274.70710 262.61561 250.63612 239.94864 230.08215 221.19766 213.39117 206.40469
 200.25020 195.19971 191.79322 189.84673 188.89525 188.97076 189.81727 191.13678
 192.87330 194.97981 197.25432 199.62483 202.08135 204.57286 206.67237 208.52588
 210.16340 211.31991 211.56042 211.79993 211.74844 211.46496 211.10947 210.75098
 210.37949 210.10101 209.92052 209.79603 209.73554 210.07806 210.47557 210.87608
 211.68059 212.87011 214.13162 215.92613 217.86564 219.92015 222.02667 224.12118
 226.19269 228.28820 230.39672 232.51423 234.65474 236.83825 239.10577 241.48728
 244.11979 246.38230 248.39582 250.17233 251.60084 252.73535 253.56886 253.89638
 253.94489 253.73040 253.10191 252.06143 250.67894 248.85145 246.77196 244.61648
 242.41899 240.23450 238.06601 235.91653 233.78804 231.66655 229.70406 227.87257
 226.16709 224.65060 223.29211 222.07562 220.96914 219.94065 219.05616 218.20867
 217.46219 216.65370 215.76321 215.13872 214.60023 215.17230 216.51115 217.42682
 218.53297 219.97339 220.99905 220.83466 220.31035 220.77605 222.36055 224.99965
 228.19325 232.33351 236.82587 241.20938 245.56052 249.78864 253.64165 257.08810
 260.13965 262.89435 265.45670 267.83810 270.07712 272.19644 274.15179 275.91623
 277.57581 278.58334 279.51755 280.91019 282.18307 283.30927 284.33673 285.26755
 286.10471 286.85022 287.50146 288.33142
 366.78100 356.34679 345.79058 334.66837 323.08317 311.28896 299.17075 286.98554
 274.70933 262.61812 250.63891 239.95170 230.08550 221.20129 213.39508 206.40887
 200.25466 195.20445 191.79824 189.85203 188.90083 188.97662 189.82341 191.14320
 192.87999 194.98678 197.26157 199.63236 202.08916 204.58095 206.68074 208.53453
 210.17232 211.32911 211.56990 211.80969 211.75849 211.47528 211.12007 210.76186
 210.39065 210.11244 209.93223 209.80803 209.74782 210.09061 210.48840 210.88919
 211.69398 212.88377 214.14556 215.94036 217.88015 219.93494 222.04173 224.13652
 226.20831 228.30410 230.41289 232.53069 234.67148 236.85527 239.12306 241.50485
 244.13764 246.40043 248.41422 250.19102 251.61981 252.75460 253.58839 253.91618
 253.96497 253.75076 253.12255 252.08235 250.70014 248.87293 246.79372 244.63851
 242.44130 240.25709 238.08889 235.93968 233.81147 231.69026 229.72805 227.89684
 226.19163 224.67542 223.31722 222.10101 220.99480 219.96659 219.08238 218.23517
 217.48896 216.68075 215.79055 215.16634 214.62813 215.17906 216.48009 217.44878
 218.52431 219.88840 220.88028 220.68298 220.11470 220.57140 222.25069 224.93965
 228.25023 232.42873 236.93980 241.34181 245.71162 249.94124 253.79207 257.22104
 260.24686 262.97815 265.52786 267.91379 270.15561 272.28018 274.23322 275.98096
 277.57700 278.48004 278.93683 280.12784 281.40289 282.53098 283.56021 284.49258
 285.33118 286.07794 286.73032 287.56168
 366.78100 356.34639 345.78979 334.66718 323.08158 311.28697 299.16837 286.98276
 274.70616 262.61455 250.63495 239.94734 230.08074 221.19613 213.38953 206.40292
 200.24832 195.19771 191.79110 189.84450 188.89289 188.96829 189.81468 191.13408
 192.87047 194.97687 197.25126 199.62166 202.07805 204.56945 206.66884 208.52224
 210.15963 211.31603 211.55642 211.79581 211.74421 211.46060 211.10500 210.74639
 210.37479 210.09618 209.91558 209.79097 209.73037 210.07276 210.47016 210.87055
 211.67495 212.86434 214.12574 215.92013 217.85952 219.91392 222.02031 224.11471
 226.18610 228.28150 230.38989 232.50729 234.64768 236.83108 239.09847 241.47987
 244.11226 246.37466 248.38805 250.16445 251.59284 252.72723 253.56063 253.88802
 253.93642 253.72181 253.09321 252.05260 250.67000 248.84239 246.76279 244.60718
 242.40958 240.22497 238.05637 235.90676 233.77816 231.65655 229.69394 227.86234
 226.15673 224.64013 223.28152 222.06492 220.95831 219.92971 219.04510 218.19750
 217.45089 216.64229 215.75168 215.12708 214.58847 215.15842 216.49545 217.41965
 218.54521 219.90518 220.82539 220.46858 219.80045 220.31433 222.12077 224.86873
 228.29453 232.51761 237.04555 241.46617 245.85153 250.08501 253.95840 257.39798
 260.42874 263.14587 265.66583 268.02899 270.26077 272.38132 274.33365 276.05585
 277.56686 278.48047 278.79675 279.76678 281.05295 282.19086 283.22906 284.16959
 285.01547 285.76874 286.42679 287.26538
 366.78100 356.34580 345.78860 334.66540 323.07920 311.28399 299.16479 286.97859
 274.70139 262.60919 250.62899 239.94079 230.07359 221.18839 213.38118 206.39398
 200.23878 195.18758 191.78038 189.83318 188.88098 188.95578 189.80157 191.12037
 192.85617 194.96197 197.23577 199.60557 202.06137 204.55217 206.65097 208.50376
 210.14056 211.29636 211.53616 211.77496 211.72276 211.43856 211.08236 210.72316
 210.35095 210.07175 209.89055 209.76535 209.70415 210.04595 210.44275 210.84255
 211.64634 212.83514 214.09594 215.88974 217.82854 219.88234 221.98814 224.08194
 226.15274 228.24753 230.35533 232.47213 234.61193 236.79473 239.06153 241.44233
 244.07413 246.33593 248.34872 250.12452 251.55232 252.68612 253.51892 253.84572
 253.89352 253.67832 253.04911 252.00791 250.62471 248.79651 246.71631 244.56011
 242.36191 240.17671 238.00751 235.85730 233.72810 231.60590 229.64270 227.81050
 226.10430 224.58710 223.22790 222.01070 220.90349 219.87429 218.98909 218.14089
 217.39369 216.58449 215.69329 215.06809 214.52888 215.13098 216.53020 217.39229
 218.50952 219.96460 220.94099 220.49184 219.61740 219.97302 221.80090 224.81007
 228.30217 232.58675 237.13669 241.57457 245.99068 250.22723 254.07091 257.50101
 260.53171 263.25989 265.78265 268.14291 270.37991 272.50168 274.46393 276.18726
 277.64618 278.51807 278.96112 280.26294 281.56418 282.71545 283.76581 284.71735
 285.57318 286.33527 287.00104 287.84949
 366.78100 356.34591 345.78882 334.66572 323.07963 311.28454 299.16545 286.97936
 274.70226 262.61017 250.63008 239.94199 230.07490 221.18981 213.38271 206.39562
 200.24053 195.18944 191.78235 189.83525 188.88316 188.95807 189.80398 191.12289
 192.85879 194.96470 197.23861 199.60852 202.06443 204.55533 206.65424 208.50715
 210.14406 211.29997 211.53988 211.77878 211.72669 211.44260 211.08651 210.72742
 210.35532 210.07623 209.89514 209.77005 209.70896 210.05086 210.44777 210.84768
 211.65159 212.84050 214.10141 215.89531 217.83422 219.88813 221.99404 224.08795
 226.15885 228.25376 230.36167 232.47858 234.61849 236.80139 239.06830 241.44921
 244.08112 246.34303 248.35593 250.13184 251.55975 252.69366 253.52657 253.85348
 253.90138 253.68629 253.05720 252.01611 250.63302 248.80492 246.72483 244.56874
 242.37065 240.18556 238.01646 235.86637 233.73728 231.61519 229.65210 227.82000
 226.11391 224.59682 223.23773 222.02064 220.91355 219.88445 218.99936 218.15127
 217.40418 216.59509 215.70399 215.07890 214.53981 215.13049 216.51363 217.41484
 218.44093 219.89250 220.91109 220.45520 219.46519 219.69208 221.63762 224.77313
 228.37567 232.68587 237.25198 241.71385 246.12465 250.31989 254.11624 257.49734
 260.54510 263.33185 265.90985 268.30286 270.54605 272.67819 274.66553 276.41052
 277.78607 278.61224 279.12747 280.21640 281.47467 282.59247 283.61227 284.53616
 285.36710 286.10706 286.75345 287.57721
 366.78100 356.34551 345.78802 334.66454 323.07805 311.28256 299.16307 286.97658
 274.69909 262.60661 250.62612 239.93763 230.07014 221.18465 213.37716 206.38968
 200.23419 195.18270 191.77521 189.82772 188.87523 188.94975 189.79526 191.11377
 192.84928 194.95479 197.22830 199.59782 202.05333 204.54384 206.64235 208.49486
 210.13137 211.28689 211.52640 211.76491 211.71242 211.42793 211.07144 210.71196
 210.33947 210.05998 209.87849 209.75300 209.69151 210.03303 210.42954 210.82905
 211.63256 212.82107 214.08158 215.87510 217.81361 219.86712 221.97263 224.06614
 226.13665 228.23117 230.33868 232.45519 234.59470 236.77721 239.04372 241.42424
 244.05575 246.31726 248.32977 250.10528 251.53279 252.66631 253.49882 253.82533
 253.87284 253.65735 253.02786 251.98638 250.60289 248.77440 246.69391 244.53742
 242.33893 240.15345 237.98396 235.83347 233.70398 231.58149 229.61800 227.78552
 226.07903 224.56154 223.20205 221.98456 220.87707 219.84759 218.96210 218.11361
 217.36612 216.55663 215.66514 215.03966 214.50017 215.10005 216.51132 217.44601
 218.38385 219.76845 220.72798 220.24910 219.21478 219.38008 221.53009 224.68193
 228.46638 232.78984 237.37912 241.86494 246.25165 250.42097 254.18028 257.51889
 260.55261 263.37213 265.99640 268.42386 270.68906 272.82950 274.82806 276.56259
 277.89322 278.75607 279.18048 279.45816 280.19189 281.29385 282.31479 283.23969
 284.07150 284.81226 285.45938 286.28406
 366.78100 356.34576 345.78851 334.66527 323.07903 311.28379 299.16454 286.97830
 274.70106 262.60881 250.62857 239.94033 230.07309 221.18784 213.38060 206.39336
 200.23812 195.18687 191.77963 189.83239 188.88014 188.95490 189.80066 191.11942
 192.85517 194.96093 197.23469 199.60444 202.06020 204.55096 206.64972 208.50247
 210.13923 211.29499 211.53474 211.77350 211.72126 211.43702 211.08077 210.72153
 210.34929 210.07004 209.88880 209.76356 209.70232 210.04407 210.44083 210.84059
 211.64435 212.83310 214.09386 215.88762 217.82637 219.88013 221.98589 224.07965
 226.15040 228.24516 230.35292 232.46967 234.60943 236.79219 239.05895 241.43970
 244.07146 246.33322 248.34597 250.12173 251.54949 252.68325 253.51600 253.84276
 253.89052 253.67528 253.04603 252.00479 250.62155 248.79330 246.71306 244.55682
 242.35858 240.17333 238.00409 235.85385 233.72460 231.60236 229.63912 227.80688
 226.10063 224.58339 223.22415 222.00690 220.89966 219.87042 218.98518 218.13693
 217.38969 216.58045 215.68920 215.06396 214.52472 215.10075 216.46577 217.55247
 218.31516 219.55441 220.57880 220.10431 218.99327 219.06441 221.35986 224.54532
 228.53024 232.89125 237.50932 242.00926 246.39241 250.56046 254.31165 257.63342
 260.63809 263.43466 266.05368 268.48257 270.74738 272.90656 274.91922 276.66055
 277.96701 278.78122 279.17789 279.37225 279.78156 280.65582 281.64520 282.55484
 283.37299 284.10153 284.73798 285.54907
 366.78100 356.34547 345.78794 334.66441 323.07788 311.28234 299.16281 286.97628
 274.69875 262.60622 250.62569 239.93716 230.06963 221.18409 213.37656 206.38903
 200.23350 195.18197 191.77444 189.82691 188.87438 188.94884 189.79431 191.11278
 192.84825 194.95372 197.22719 199.59666 202.05213 204.54260 206.64106 208.49353
 210.13000 211.28547 211.52494 211.76341 211.71088 211.42635 211.06981 210.71028
 210.33775 210.05822 209.87669 209.75116 209.68963 210.03110 210.42756 210.82703
 211.63050 212.81897 214.07944 215.87291 217.81138 219.86485 221.97032 224.06378
 226.13425 228.22872 230.33619 232.45266 234.59213 236.77460 239.04107 241.42153
 244.05300 246.31447 248.32694 250.10241 251.52988 252.66335 253.49582 253.82228
 253.86975 253.65422 253.02469 251.98316 250.59963 248.77110 246.69057 244.53404
 242.33550 240.14997 237.98044 235.82991 233.70038 231.57785 229.61432 227.78179
 226.07525 224.55772 223.19819 221.98066 220.87313 219.84360 218.95807 218.10954
 217.36200 216.55247 215.66094 215.03541 214.49588 215.07785 216.45503 217.59700
 218.40123 219.59082 220.52211 219.92868 218.77815 218.78427 221.18898 224.41812
 228.60776 233.00218 237.64421 242.14590 246.53098 250.69440 254.43071 257.74036
 260.73862 263.52908 266.13654 268.56390 270.83710 272.99710 275.02783 276.77347
 277.99069 278.71042 279.02783 279.15588 279.46616 280.21286 281.16684 282.05740
 282.86908 283.59189 284.22330 285.02798
 366.78100 356.34437 345.78574 334.66111 323.07348 311.27685 299.15622 286.96859
 274.68996 262.59633 250.61470 239.92508 230.05645 221.16982 213.36119 206.37256
 200.21593 195.16330 191.75467 189.80604 188.85241 188.92578 189.77015 191.08752
 192.82189 194.92626 197.19863 199.56700 202.02137 204.51074 206.60811 208.45948
 210.09486 211.24923 211.48760 211.72497 211.67134 211.38571 211.02808 210.66745
 210.29382 210.01319 209.83056 209.70393 209.64130 209.98167 210.37704 210.77541
 211.57778 212.76515 214.02452 215.81689 217.75426 219.80664 221.91101 224.00338
 226.07275 228.16612 230.27249 232.38786 234.52623 236.70760 238.97297 241.35234
 243.98271 246.24308 248.25445 250.02882 251.45519 252.58756 253.41893 253.74430
 253.79067 253.57404 252.94342 251.90079 250.51616 248.68653 246.60490 244.44727
 242.24764 240.06101 237.89038 235.73875 233.60812 231.48449 229.51986 227.68623
 225.97860 224.45997 223.09934 221.88071 220.77208 219.74145 218.85482 218.00519
 217.25657 216.44594 215.55331 214.92668 214.38605 215.02086 216.52028 217.56906
 218.42012 219.61450 220.43022 219.76276 218.57768 218.52733 220.93909 224.38550
 228.67686 233.12019 237.76733 242.27679 246.67230 250.81918 254.53146 257.83218
 260.84344 263.64465 266.24518 268.66034 270.93079 273.09406 275.12997 276.85217
 278.00433 278.61090 278.79910 278.85291 279.22095 279.98889 280.94598 281.84634
 282.66757 283.39886 284.03772 284.85190
 354.97500 345.04800 334.58700 324.11500 313.32600 302.53700 291.65000 280.76700
 269.93100 259.19300 248.62200 238.61700 229.08700 220.35500 212.54000 205.53500
 199.46400 194.49300 191.14300 189.19000 188.08900 188.01400 188.72400 189.90600
 191.46900 193.38200 195.40300 197.55600 199.80700 202.06000 204.28800 206.47900
 208.55200 210.37800 212.02500 213.65900 214.99800 216.11800 217.17200 218.25900
 219.49400 220.64500 221.67900 222.61400 223.54500 224.98200 226.57100 228.19000
 229.79700 231.81100 233.86500 235.97200 238.24200 240.55300 242.89900 245.25300
 247.48800 249.53500 251.36600 252.84800 254.09800 255.16700 256.02700 256.25300
 256.09500 255.54300 253.93500 252.56600 251.38400 250.24500 249.05200 247.70100
 246.01600 243.99600 241.78400 239.39300 236.81300 234.22300 231.65800 229.14400
 226.74000 224.47300 222.33500 220.32500 218.44000 216.67700 214.96200 213.47200
 212.20000 211.10800 210.26000 209.63900 209.24400 209.03100 209.05800 209.33300
 209.78400 210.62600 211.33100 212.39100 213.62500 214.84668 217.72949 219.47640
 220.32566 220.86828 220.88710 220.27371 219.43733 218.84250 219.04934 220.86203
 222.60583 225.72206 229.03064 232.61777 236.12270 239.51333 242.70767 245.68587
 248.41061 250.90679 253.19353 254.91714 256.48655 257.94920 259.39966 260.69384
 261.81714 262.77997 263.71679 264.54570 265.26305 265.89772 266.47676 267.00133
 267.47312 267.89325 268.26027 268.72800
