|-------------------------------------------------------------------------|
|   File Name : in_temp.dat
|   Subject   : temperature profiles used for initial guess atmosphere
|   File Type : input of gmtr
|   Data Type : atmospherical data
|   Author/s  : WRF-Chem
|   Date      : Fri Jul 26 15:39:24 2024
|-------------------------------------------------------------------------|

 WRF-Chem temperature
#
 values of T (K)    (8f10.5)
#
 354.97500 345.04800 334.58700 324.11500 313.32600 302.53700 291.65000 280.76700
 269.93100 259.19300 248.62200 238.61700 229.08700 220.35500 212.54000 205.53500
 199.46400 194.49300 191.14300 189.19000 188.08900 188.01400 188.72400 189.90600
 191.46900 193.38200 195.40300 197.55600 199.80700 202.06000 204.28800 206.47900
 208.55200 210.37800 212.02500 213.65900 214.99800 216.11800 217.17200 218.25900
 219.49400 220.64500 221.67900 222.61400 223.54500 224.98200 226.57100 228.19000
 229.79700 231.81100 233.86500 235.97200 238.24200 240.55300 242.89900 245.25300
 247.48800 249.53500 251.36600 252.84800 254.09800 255.16700 256.02700 256.25300
 256.09500 255.54300 253.93500 252.56600 251.38400 250.24500 249.05200 247.70100
 246.01600 243.99600 241.78400 239.39300 236.81300 234.22300 231.65800 229.14400
 226.74000 224.47300 222.33500 220.32500 218.44000 216.67700 214.96200 213.47200
 212.20000 211.10800 210.26000 209.63900 209.24400 209.03100 209.05800 209.33300
 209.78400 210.62600 211.33100 212.39100 213.62500 214.84668 217.72949 219.47640
 220.32566 220.86828 220.88710 220.27371 219.43733 218.84250 219.04934 220.86203
 222.60583 225.72206 229.03064 232.61777 236.12270 239.51333 242.70767 245.68587
 248.41061 250.90679 253.19353 254.91714 256.48655 257.94920 259.39966 260.69384
 261.81714 262.77997 263.71679 264.54570 265.26305 265.89772 266.47676 267.00133
 267.47312 267.89325 268.26027 268.72800
 366.78100 356.33500 345.76700 334.63300 323.03600 311.23000 299.10000 286.90300
 274.61500 262.51200 250.52100 239.82200 229.94400 221.04800 213.23000 206.23200
 200.06600 195.00400 191.58600 189.62800 188.66500 188.72900 189.56400 190.87200
 192.59700 194.69200 196.95500 199.31400 201.75900 204.23900 206.32700 208.16900
 209.79500 210.94000 211.16900 211.39700 211.33400 211.03900 210.67200 210.30200
 209.91900 209.62900 209.43700 209.30100 209.22900 209.56000 209.94600 210.33500
 211.12800 212.30600 213.55600 215.33900 217.26700 219.31000 221.40500 223.48800
 225.54800 227.63200 229.72900 231.83500 233.96400 236.13600 238.39200 240.76200
 243.38300 245.63400 247.63600 249.40100 250.81800 251.94100 252.76300 253.07900
 253.11600 252.89000 252.25000 251.19800 249.80400 247.96500 245.87400 243.70700
 241.49800 239.30200 237.12200 234.96100 232.82100 230.68800 228.71400 226.87100
 225.15400 223.62600 222.25600 221.02800 219.91000 218.87000 217.97400 217.11500
 216.35700 215.53700 214.63500 213.99900 213.44900 212.85855 212.01316 212.61654
 214.26826 216.08686 218.14273 220.53346 223.40855 226.78828 231.49734 235.90155
 239.42278 243.28576 247.23140 251.11907 254.80144 258.23331 261.38913 264.27520
 266.89312 269.26852 271.44504 273.08845 274.58484 275.98591 277.39845 278.65879
 279.75272 280.69038 281.56708 282.34086 283.01050 283.60295 284.14348 284.63317
 285.07358 285.46577 285.80838 286.24500
 381.81900 372.39900 361.20600 349.77600 337.62200 324.85300 311.81000 298.35300
 284.86000 271.32400 258.56100 246.30400 236.08700 226.79600 218.44800 211.29000
 205.52200 200.89400 197.38100 194.84800 193.01500 192.31500 192.25000 192.43100
 192.91200 193.53700 194.13600 194.71200 195.26200 195.83100 196.39300 196.97600
 197.60400 198.14900 198.58400 199.05700 199.69500 200.37800 201.05400 201.70800
 202.31300 202.85700 203.35500 203.86200 204.56900 205.29700 206.02600 206.98700
 208.19300 209.44100 210.96900 212.57600 214.46200 216.51300 218.63000 220.85300
 223.34100 225.96200 228.73900 231.69700 234.70600 237.70600 240.69200 243.65700
 246.73700 249.69900 252.52100 255.06300 257.29000 259.23300 260.63300 261.68000
 262.46100 262.79800 262.69100 262.22400 261.06900 259.52500 257.70700 255.50700
 253.00100 250.30200 247.39800 244.45200 241.65400 239.05400 236.73300 234.59000
 232.59500 230.72500 228.83400 226.82600 224.66600 222.38700 220.10400 217.71500
 215.45900 213.06600 210.54600 208.09300 205.35400 202.08130 196.05959 200.71215
 209.01611 216.90438 223.84126 229.78593 235.00632 240.20838 245.98943 250.68668
 254.32982 257.93487 261.55666 264.96801 268.15192 271.06452 273.76717 276.25691
 278.57680 280.74479 282.77456 284.60533 286.27232 287.81705 289.31715 290.65561
 291.81734 292.81312 293.70701 294.49387 295.17482 295.77730 296.32696 296.82492
 297.27278 297.67160 298.02000 298.46400
 399.33000 389.90700 379.81300 368.66800 357.52200 345.30100 333.07400 320.22700
 307.21600 293.84800 280.37600 267.29600 254.61000 242.98700 232.15100 221.97700
 212.67200 204.28600 197.66900 192.82100 189.48600 187.45200 186.81400 187.08900
 187.78100 189.05400 190.64800 192.54200 194.63000 196.75200 198.67100 200.15800
 201.53500 202.48700 202.97500 203.34000 203.53900 203.49700 203.38500 203.24700
 203.00500 202.78600 202.60300 202.43700 202.42600 202.88800 203.42000 203.95100
 204.89500 205.99200 207.30100 208.95800 210.73800 213.10000 215.56400 218.18000
 220.96600 223.91800 226.96100 230.09200 233.29300 236.55700 239.95500 243.53700
 246.84500 249.39000 251.54200 253.47400 255.19500 256.48400 257.43100 258.05900
 258.21200 258.04000 257.58200 256.64300 255.23900 253.50700 251.40800 249.05600
 246.57600 243.99400 241.38900 238.83000 236.34400 233.98600 231.96900 230.11800
 228.42300 226.89900 225.54800 224.29700 223.10500 221.96500 220.95800 220.11300
 219.49000 218.92000 218.32500 217.88100 217.42300 216.96366 216.35568 216.80261
 217.73415 218.28582 218.64258 219.10077 220.44626 222.53987 226.38451 230.35736
 233.59734 237.39164 241.29814 245.22796 248.98002 252.51130 255.78595 258.80109
 261.54781 264.05210 266.34239 268.04198 269.58951 271.01303 272.35754 273.55718
 274.59842 275.49092 276.28989 276.99307 277.60161 278.14001 278.63122 279.07623
 279.47646 279.83287 280.14422 280.54100
 399.73800 389.78500 379.66200 368.15100 356.64100 344.35000 331.79200 318.88800
 305.72600 292.49300 279.20900 266.73800 254.69600 244.21100 234.45700 225.43300
 217.56900 210.45100 204.30000 199.30600 195.45800 192.57600 191.02700 190.38600
 190.23900 190.53400 191.16600 191.92500 192.79500 193.76600 194.73200 195.31200
 195.80000 196.05200 196.11500 196.11500 196.03900 195.72300 195.34000 194.98900
 194.75100 194.79200 195.13300 195.59800 196.50600 198.13600 199.85800 201.56600
 204.17900 206.82300 209.89300 213.28400 216.82800 220.60500 224.38700 228.20900
 232.03200 235.82500 239.56000 243.25800 246.84500 250.20100 253.70900 257.46800
 261.53000 264.22100 266.60100 268.68100 270.32900 271.74100 272.83600 273.47400
 273.89800 274.00200 273.75700 273.28800 272.37100 271.10000 269.58900 267.77900
 265.81600 263.72100 261.39300 258.91600 256.29800 253.42300 250.33100 247.11400
 243.83700 240.52900 237.24900 233.99900 230.72800 227.51500 224.25400 220.95200
 217.62700 213.65600 210.12100 206.78900 204.01000 201.99491 199.07309 198.76551
 199.40006 200.48994 201.46112 202.31912 203.45100 204.96110 207.47502 210.85391
 213.70530 217.29629 220.99574 224.72316 228.28753 231.64854 234.68024 237.40893
 239.70644 241.60899 243.46854 245.67368 247.68154 249.52395 251.24767 252.78566
 254.12057 255.26479 256.23740 257.09036 257.82852 258.48160 259.07744 259.61723
 260.10271 260.53504 260.91270 261.39400
 399.73800 389.78500 379.66200 368.15100 356.64100 344.35000 331.79200 318.88800
 305.72600 292.49300 279.20900 266.73800 254.69600 244.21100 234.45700 225.43300
 217.56900 210.45100 204.30000 199.30600 195.45800 192.57600 191.02700 190.38600
 190.23900 190.53400 191.16600 191.92500 192.79500 193.76600 194.73200 195.31200
 195.80000 196.05200 196.11500 196.11500 196.03900 195.72300 195.34000 194.98900
 194.75100 194.79200 195.13300 195.59800 196.50600 198.13600 199.85800 201.56600
 204.17900 206.82300 209.89300 213.28400 216.82800 220.60500 224.38700 228.20900
 232.03200 235.82500 239.56000 243.25800 246.84500 250.20100 253.70900 257.46800
 261.53000 264.22100 266.60100 268.68100 270.32900 271.74100 272.83600 273.47400
 273.89800 274.00200 273.75700 273.28800 272.37100 271.10000 269.58900 267.77900
 265.81600 263.72100 261.39300 258.91600 256.29800 253.42300 250.33100 247.11400
 243.83700 240.52900 237.24900 233.99900 230.72800 227.51500 224.25400 220.95200
 217.62700 213.65600 210.12100 206.78900 204.01000 201.99491 199.07309 198.76551
 199.40006 200.48994 201.46112 202.31912 203.45100 204.96110 207.47502 210.85391
 213.70530 217.29629 220.99574 224.72316 228.28753 231.64854 234.68024 237.40893
 239.70644 241.60899 243.46854 245.67368 247.68154 249.52395 251.24767 252.78566
 254.12057 255.26479 256.23740 257.09036 257.82852 258.48160 259.07744 259.61723
 260.10271 260.53504 260.91270 261.39400
 399.33000 389.90700 379.81300 368.66800 357.52200 345.30100 333.07400 320.22700
 307.21600 293.84800 280.37600 267.29600 254.61000 242.98700 232.15100 221.97700
 212.67200 204.28600 197.66900 192.82100 189.48600 187.45200 186.81400 187.08900
 187.78100 189.05400 190.64800 192.54200 194.63000 196.75200 198.67100 200.15800
 201.53500 202.48700 202.97500 203.34000 203.53900 203.49700 203.38500 203.24700
 203.00500 202.78600 202.60300 202.43700 202.42600 202.88800 203.42000 203.95100
 204.89500 205.99200 207.30100 208.95800 210.73800 213.10000 215.56400 218.18000
 220.96600 223.91800 226.96100 230.09200 233.29300 236.55700 239.95500 243.53700
 246.84500 249.39000 251.54200 253.47400 255.19500 256.48400 257.43100 258.05900
 258.21200 258.04000 257.58200 256.64300 255.23900 253.50700 251.40800 249.05600
 246.57600 243.99400 241.38900 238.83000 236.34400 233.98600 231.96900 230.11800
 228.42300 226.89900 225.54800 224.29700 223.10500 221.96500 220.95800 220.11300
 219.49000 218.92000 218.32500 217.88100 217.42300 216.96366 216.35568 216.80261
 217.73415 218.28582 218.64258 219.10077 220.44626 222.53987 226.38451 230.35736
 233.59734 237.39164 241.29814 245.22796 248.98002 252.51130 255.78595 258.80109
 261.54781 264.05210 266.34239 268.04198 269.58951 271.01303 272.35754 273.55718
 274.59842 275.49092 276.28989 276.99307 277.60161 278.14001 278.63122 279.07623
 279.47646 279.83287 280.14422 280.54100
 381.81900 372.39900 361.20600 349.77600 337.62200 324.85300 311.81000 298.35300
 284.86000 271.32400 258.56100 246.30400 236.08700 226.79600 218.44800 211.29000
 205.52200 200.89400 197.38100 194.84800 193.01500 192.31500 192.25000 192.43100
 192.91200 193.53700 194.13600 194.71200 195.26200 195.83100 196.39300 196.97600
 197.60400 198.14900 198.58400 199.05700 199.69500 200.37800 201.05400 201.70800
 202.31300 202.85700 203.35500 203.86200 204.56900 205.29700 206.02600 206.98700
 208.19300 209.44100 210.96900 212.57600 214.46200 216.51300 218.63000 220.85300
 223.34100 225.96200 228.73900 231.69700 234.70600 237.70600 240.69200 243.65700
 246.73700 249.69900 252.52100 255.06300 257.29000 259.23300 260.63300 261.68000
 262.46100 262.79800 262.69100 262.22400 261.06900 259.52500 257.70700 255.50700
 253.00100 250.30200 247.39800 244.45200 241.65400 239.05400 236.73300 234.59000
 232.59500 230.72500 228.83400 226.82600 224.66600 222.38700 220.10400 217.71500
 215.45900 213.06600 210.54600 208.09300 205.35400 202.08130 196.05959 200.71215
 209.01611 216.90438 223.84126 229.78593 235.00632 240.20838 245.98943 250.68668
 254.32982 257.93487 261.55666 264.96801 268.15192 271.06452 273.76717 276.25691
 278.57680 280.74479 282.77456 284.60533 286.27232 287.81705 289.31715 290.65561
 291.81734 292.81312 293.70701 294.49387 295.17482 295.77730 296.32696 296.82492
 297.27278 297.67160 298.02000 298.46400
 366.78100 356.34337 345.78375 334.65812 323.06949 311.27186 299.15024 286.96161
 274.68198 262.58735 250.60473 239.91410 230.04447 221.15685 213.34722 206.35759
 200.19996 195.14634 191.73671 189.78708 188.83245 188.90483 189.74820 191.06457
 192.79794 194.90132 197.17269 199.54006 201.99344 204.48181 206.57818 208.42855
 210.06293 211.21630 211.45367 211.69004 211.63542 211.34879 210.99016 210.62854
 210.25391 209.97228 209.78865 209.66103 209.59740 209.93677 210.33114 210.72852
 211.52989 212.71626 213.97464 215.76601 217.70238 219.75375 221.85713 223.94850
 226.01687 228.10924 230.21462 232.32899 234.46636 236.64673 238.91111 241.28948
 243.91885 246.17823 248.18860 249.96197 251.38734 252.51872 253.34909 253.67346
 253.71883 253.50121 252.86958 251.82595 250.44033 248.60970 246.52707 244.36844
 242.16782 239.98019 237.80856 235.65593 233.52431 231.39968 229.43405 227.59943
 225.89080 224.37117 223.00954 221.78992 220.68029 219.64866 218.76103 217.91041
 217.16078 216.34915 215.45552 214.82790 214.28627 213.13805 210.44131 209.75034
 210.34377 210.60342 211.79924 215.24399 219.61920 224.40166 230.15247 235.14233
 238.98856 243.00275 247.28044 251.47871 255.15862 258.39319 261.12955 263.62936
 266.45331 269.15433 271.74289 274.33524 276.46609 278.10803 279.40594 280.97668
 282.89871 284.68903 286.23785 287.59805 288.77478 289.81668 290.76544 291.62335
 292.39368 293.07803 293.67282 294.41821
 366.78100 356.34378 345.78457 334.65935 323.07113 311.27391 299.15270 286.96448
 274.68526 262.59104 250.60883 239.91861 230.04939 221.16218 213.35296 206.36374
 200.20652 195.15331 191.74409 189.79487 188.84065 188.91344 189.75722 191.07400
 192.80778 194.91157 197.18335 199.55113 202.00492 204.49370 206.59048 208.44126
 210.07605 211.22983 211.46761 211.70439 211.65018 211.36396 211.00574 210.64453
 210.27031 209.98909 209.80587 209.67866 209.61544 209.95522 210.35000 210.74779
 211.54957 212.73635 213.99514 215.78692 217.72370 219.77548 221.87927 223.97105
 226.03983 228.13261 230.23840 232.35318 234.49096 236.67175 238.93653 241.31531
 243.94509 246.20488 248.21566 249.98944 251.41522 252.54701 253.37779 253.70257
 253.74835 253.53114 252.89992 251.85670 250.47149 248.64127 246.55905 244.40083
 242.20062 240.01340 237.84218 235.68996 233.55875 231.43453 229.46931 227.63510
 225.92688 224.40766 223.04644 221.82723 220.71801 219.68679 218.79957 217.94936
 217.20014 216.38892 215.49571 214.86849 214.32727 213.18361 210.49695 209.81827
 210.35660 210.67055 211.83400 215.19423 219.57257 224.35010 230.06641 235.05382
 238.90007 242.91454 247.19492 251.39677 255.08566 258.35754 261.11884 263.61276
 266.42581 269.11316 271.68488 274.25485 276.36972 278.01346 279.34412 280.93790
 282.84653 284.63406 286.18045 287.54065 288.71713 289.75858 290.70709 291.56586
 292.33609 293.02008 293.61612 294.36447
 366.78100 356.34424 345.78548 334.66071 323.07295 311.27619 299.15543 286.96767
 274.68891 262.59514 250.61338 239.92362 230.05486 221.16810 213.35934 206.37057
 200.21381 195.16105 191.75229 189.80353 188.84977 188.92300 189.76724 191.08448
 192.81872 194.92296 197.19520 199.56343 202.01767 204.50691 206.60415 208.45539
 210.09063 211.24486 211.48310 211.72034 211.66658 211.38082 211.02306 210.66229
 210.28853 210.00777 209.82501 209.69825 209.63549 209.97572 210.37096 210.76920
 211.57144 212.75868 214.01792 215.81015 217.74739 219.79963 221.90387 223.99611
 226.06535 228.15858 230.26482 232.38006 234.51830 236.69954 238.96478 241.34401
 243.97425 246.23449 248.24573 250.01997 251.44621 252.57844 253.40968 253.73492
 253.78116 253.56440 252.93364 251.89087 250.50611 248.67635 246.59459 244.43683
 242.23707 240.05030 237.87954 235.72778 233.59702 231.47326 229.50850 227.67473
 225.96697 224.44821 223.08745 221.86869 220.75993 219.72916 218.84240 217.99264
 217.24388 216.43312 215.54036 214.91359 214.37283 213.23010 210.54510 209.88766
 210.37885 210.73112 211.87706 215.15694 219.51569 224.28384 229.98439 234.97290
 238.81834 242.83005 247.10999 251.31248 255.00941 258.31702 261.10327 263.59232
 266.39514 269.06934 271.62354 274.17139 276.27289 277.92056 279.28439 280.89877
 282.79733 284.57935 286.12354 287.48230 288.65823 289.69916 290.64816 291.50699
 292.27737 292.96042 293.55688 294.31232
 366.78100 356.34468 345.78636 334.66203 323.07471 311.27839 299.15807 286.97075
 274.69242 262.59910 250.61778 239.92846 230.06014 221.17381 213.36549 206.37717
 200.22085 195.16852 191.76020 189.81188 188.85856 188.93224 189.77691 191.09459
 192.82927 194.93395 197.20663 199.57530 202.02998 204.51966 206.61734 208.46902
 210.10469 211.25937 211.49805 211.73573 211.68241 211.39708 211.03976 210.67944
 210.30612 210.02580 209.84347 209.71715 209.65483 209.99551 210.39119 210.78986
 211.59254 212.78022 214.03990 215.83257 217.77025 219.82293 221.92761 224.02029
 226.08996 228.18364 230.29032 232.40600 234.54468 236.72635 238.99203 241.37171
 244.00239 246.26307 248.27474 250.04942 251.47610 252.60878 253.44046 253.76613
 253.81281 253.59649 252.96617 251.92385 250.53952 248.71020 246.62888 244.47156
 242.27224 240.08591 237.91559 235.76427 233.63395 231.51062 229.54630 227.71298
 226.00566 224.48734 223.12701 221.90869 220.80037 219.77005 218.88373 218.03440
 217.28608 216.47576 215.58344 214.95712 214.41679 213.27469 210.59053 209.95392
 210.41371 210.78815 211.92303 215.13042 219.45172 224.21324 229.90703 234.89575
 238.73767 242.74530 247.02400 251.22754 254.93344 258.27573 261.08514 263.56778
 266.36053 269.02090 271.55847 274.08456 276.17480 277.83078 279.22650 280.86053
 282.75400 284.52286 286.06424 287.42172 288.59821 289.63901 290.58844 291.44702
 292.21774 292.90225 293.49832 294.25018
 366.78100 356.34510 345.78719 334.66329 323.07638 311.28048 299.16057 286.97367
 274.69576 262.60286 250.62195 239.93305 230.06515 221.17924 213.37134 206.38343
 200.22753 195.17562 191.76772 189.81981 188.86691 188.94100 189.78610 191.10419
 192.83929 194.94439 197.21748 199.58658 202.04167 204.53177 206.62986 208.48196
 210.11805 211.27315 211.51224 211.75034 211.69744 211.41253 211.05563 210.69572
 210.32282 210.04291 209.86101 209.73510 209.67320 210.01429 210.41039 210.80948
 211.61258 212.80068 214.06077 215.85387 217.79196 219.84506 221.95015 224.04325
 226.11334 228.20744 230.31453 232.43063 234.56973 236.75182 239.01792 241.39801
 244.02911 246.29020 248.30230 250.07739 251.50449 252.63758 253.46968 253.79577
 253.84287 253.62697 252.99706 251.95516 250.57125 248.74235 246.66144 244.50454
 242.30563 240.11973 237.94982 235.79892 233.66902 231.54611 229.58221 227.74930
 226.04240 224.52449 223.16459 221.94668 220.83878 219.80887 218.92297 218.07406
 217.32616 216.51626 215.62435 214.99845 214.45854 213.31697 210.63348 210.01701
 210.45685 210.84363 211.96814 215.11388 219.38412 224.14136 229.83305 234.81949
 238.65692 242.66075 246.93869 251.14297 254.85931 258.23416 261.06277 263.53751
 266.32077 268.96753 271.48843 273.99438 276.07681 277.74252 279.16974 280.82233
 282.71426 284.46378 286.00415 287.36133 288.53912 289.57898 290.52878 291.38745
 292.15802 292.84271 293.43893 294.19162
 366.78100 356.34559 345.78817 334.66476 323.07834 311.28293 299.16352 286.97710
 274.69969 262.60727 250.62686 239.93845 230.07103 221.18562 213.37820 206.39079
 200.23538 195.18396 191.77655 189.82913 188.87672 188.95131 189.79689 191.11548
 192.85106 194.95665 197.23024 199.59982 202.05541 204.54599 206.64458 208.49717
 210.13375 211.28934 211.52892 211.76751 211.71510 211.43068 211.07427 210.71485
 210.34244 210.06303 209.88161 209.75620 209.69478 210.03637 210.43296 210.83254
 211.63613 212.82471 214.08530 215.87889 217.81747 219.87106 221.97664 224.07023
 226.14082 228.23540 230.34299 232.45957 234.59916 236.78175 239.04833 241.42892
 244.06050 246.32209 248.33468 250.11026 251.53785 252.67143 253.50402 253.83061
 253.87819 253.66278 253.03336 251.99195 250.60854 248.78012 246.69971 244.54329
 242.34488 240.15947 237.99005 235.83964 233.71022 231.58781 229.62440 227.79198
 226.08557 224.56815 223.20874 221.99132 220.88391 219.85450 218.96908 218.12067
 217.37325 216.56384 215.67243 215.04701 214.50760 213.36263 210.67055 210.07695
 210.50832 210.90150 212.01152 215.10432 219.31392 224.06792 229.76239 234.74271
 238.57608 242.57780 246.85515 251.06084 254.78775 258.19202 261.03577 263.50217
 266.27612 268.90933 271.41422 273.90024 275.97781 277.65610 279.11234 280.78317
 282.67471 284.40732 285.94513 287.30264 288.47934 289.52008 290.46875 291.32693
 292.09653 292.78030 293.37500 294.12399
 366.78100 356.34597 345.78893 334.66590 323.07987 311.28483 299.16580 286.97977
 274.70273 262.61070 250.63067 239.94263 230.07560 221.19057 213.38353 206.39650
 200.24146 195.19043 191.78340 189.83636 188.88433 188.95930 189.80526 191.12423
 192.86020 194.96616 197.24013 199.61010 202.06606 204.55703 206.65600 208.50896
 210.14593 211.30190 211.54186 211.78083 211.72880 211.44476 211.08873 210.72970
 210.35766 210.07863 209.89759 209.77256 209.71153 210.05349 210.45046 210.85043
 211.65439 212.84336 214.10433 215.89829 217.83726 219.89123 221.99719 224.09116
 226.16213 228.25709 230.36506 232.48203 234.62199 236.80496 239.07193 241.45289
 244.08486 246.34683 248.35979 250.13576 251.56372 252.69769 253.53066 253.85762
 253.90559 253.69056 253.06152 252.02049 250.63746 248.80942 246.72939 244.57336
 242.37532 240.19029 238.02126 235.87122 233.74219 231.62016 229.65712 227.82509
 226.11906 224.60202 223.24299 222.02596 220.91892 219.88989 219.00486 218.15682
 217.40979 216.60075 215.70972 215.08469 214.54565 213.40160 210.71101 210.13864
 210.55040 210.95992 212.06071 215.10623 219.24712 223.98929 229.69342 234.66713
 238.49648 242.49805 246.77470 250.98102 254.71764 258.14886 261.00406 263.46149
 266.22781 268.84674 271.33414 273.80215 275.87909 277.57318 279.05579 280.74219
 282.63205 284.35211 285.88776 287.24335 288.42035 289.46021 290.40768 291.26465
 292.03229 292.71350 293.30560 294.04416
 366.78100 356.34653 345.79005 334.66758 323.08210 311.28763 299.16916 286.98368
 274.70721 262.61574 250.63626 239.94879 230.08231 221.19784 213.39137 206.40489
 200.25042 195.19995 191.79347 189.84700 188.89552 188.97105 189.81758 191.13710
 192.87363 194.98016 197.25468 199.62521 202.08173 204.57326 206.67279 208.52631
 210.16384 211.32037 211.56089 211.80042 211.74894 211.46547 211.11000 210.75152
 210.38005 210.10158 209.92110 209.79663 209.73615 210.07868 210.47621 210.87673
 211.68126 212.87079 214.13231 215.92684 217.86636 219.92089 222.02742 224.12194
 226.19347 228.28900 230.39752 232.51505 234.65557 236.83910 239.10663 241.48815
 244.12068 246.38321 248.39673 250.17326 251.60178 252.73631 253.56984 253.89736
 253.94589 253.73142 253.10294 252.06247 250.67999 248.85252 246.77305 244.61757
 242.42010 240.23563 238.06715 235.91768 233.78920 231.66773 229.70526 227.87378
 226.16831 224.65183 223.29336 222.07689 220.97041 219.94194 219.05747 218.20999
 217.46352 216.65504 215.76457 215.14010 214.60162 213.44759 210.73325 210.21404
 210.62128 210.99748 212.10623 215.11212 219.16577 223.90985 229.62794 234.59106
 238.41528 242.41690 246.69359 250.90068 254.64865 258.10687 260.97409 263.42160
 266.18097 268.78302 271.25031 273.69843 275.77747 277.48734 278.99316 280.69409
 282.58279 284.29614 285.82938 287.18591 288.36169 289.40091 290.34836 291.20474
 291.97217 292.65390 293.24500 293.97125
 366.78100 356.34692 345.79083 334.66875 323.08366 311.28958 299.17150 286.98641
 274.71033 262.61924 250.64016 239.95308 230.08699 221.20291 213.39683 206.41074
 200.25666 195.20657 191.80049 189.85441 188.90332 188.97924 189.82615 191.14607
 192.88299 194.98990 197.26482 199.63573 202.09265 204.58457 206.68448 208.53840
 210.17632 211.33323 211.57415 211.81406 211.76298 211.47990 211.12481 210.76673
 210.39564 210.11756 209.93748 209.81339 209.75331 210.09622 210.49414 210.89506
 211.69997 212.88989 214.15180 215.94672 217.88664 219.94155 222.04847 224.14339
 226.21530 228.31122 230.42013 232.53805 234.67897 236.86288 239.13080 241.51271
 244.14563 246.40855 248.42246 250.19938 251.62829 252.76321 253.59713 253.92504
 253.97396 253.75988 253.13179 252.09171 250.70962 248.88254 246.80346 244.64837
 242.45129 240.26720 238.09912 235.95004 233.82195 231.70087 229.73878 227.90770
 226.20262 224.68653 223.32845 222.11236 221.00628 219.97820 219.09411 218.24703
 217.50095 216.69286 215.80278 215.17869 214.64061 213.48425 210.76382 210.27576
 210.70828 211.06520 212.12418 215.10963 219.09431 223.81747 229.55046 234.50609
 238.33092 242.33727 246.61581 250.82545 254.58713 258.07211 260.95007 263.38358
 266.13400 268.71704 271.16016 273.58804 275.67252 277.40149 278.92862 280.64352
 282.53171 284.23737 285.77325 287.12958 288.30487 289.34381 290.29050 291.14648
 291.91281 292.59366 293.18286 293.89642
 366.78100 356.34815 345.79331 334.67246 323.08862 311.29577 299.17893 286.99508
 274.72024 262.63039 250.65255 239.96670 230.10185 221.21901 213.41416 206.42932
 200.27647 195.22763 191.82278 189.87794 188.92809 189.00524 189.85340 191.17455
 192.91271 195.02086 197.29702 199.66917 202.12733 204.62048 206.72164 208.57679
 210.21594 211.37410 211.61625 211.85741 211.80756 211.52572 211.17187 210.81503
 210.44518 210.16833 209.98949 209.86664 209.80780 210.15195 210.55111 210.95326
 211.75942 212.95057 214.21373 216.00988 217.95103 220.00719 222.11534 224.21150
 226.28465 228.38181 230.49196 232.61112 234.75327 236.93842 239.20758 241.59073
 244.22489 246.48904 248.50420 250.28235 251.71251 252.84866 253.68382 254.01297
 254.06312 253.85028 253.22343 252.18459 250.80374 248.97790 246.90005 244.74621
 242.55036 240.36751 238.20067 236.05282 233.92598 231.80613 229.84529 228.01544
 226.31160 224.79675 223.43991 222.22506 221.12021 220.09337 219.21052 218.36468
 217.61983 216.81299 215.92414 215.30130 214.76445 213.56305 210.73671 210.36555
 210.82996 211.10999 212.15440 215.09315 218.98338 223.71609 229.48149 234.43391
 238.25940 242.27068 246.54625 250.75584 254.52985 258.03793 260.92419 263.34201
 266.08368 268.64740 271.06424 273.47284 275.56577 277.31540 278.86029 280.58823
 282.47485 284.17920 285.71909 287.07495 288.24869 289.28760 290.23318 291.08862
 291.85629 292.53503 293.11835 293.80948
 366.78100 356.34945 345.79591 334.67636 323.09381 311.30227 299.18672 287.00417
 274.73063 262.64208 250.66553 239.98098 230.11744 221.23589 213.43234 206.44880
 200.29725 195.24970 191.84616 189.90261 188.95406 189.03252 189.88197 191.20442
 192.94388 195.05333 197.33078 199.70424 202.16369 204.65814 206.76060 208.61705
 210.25750 211.41695 211.66041 211.90286 211.85431 211.57377 211.22122 210.86567
 210.49713 210.22158 210.04403 209.92249 209.86494 210.21039 210.61085 211.01430
 211.82175 213.01421 214.27866 216.07611 218.01857 220.07602 222.18547 224.28292
 226.35738 228.45583 230.56728 232.68774 234.83119 237.01764 239.28810 241.67255
 244.30800 246.57346 248.58991 250.36936 251.80082 252.93827 253.77472 254.10518
 254.15663 253.94508 253.31954 252.28199 250.90244 249.07789 247.00135 244.84880
 242.65425 240.47271 238.30716 236.16061 234.03507 231.91652 229.95697 228.12843
 226.42588 224.91233 223.55679 222.34324 221.23969 220.21415 219.33260 218.48805
 217.74450 216.93896 216.05141 215.42986 214.89432 213.64500 210.70572 210.44386
 210.98233 211.16609 212.13509 215.05742 218.91306 223.62491 229.41438 234.36034
 238.18584 242.20256 246.47606 250.68549 254.47226 258.00330 260.89740 263.29926
 266.03320 268.57565 270.96667 273.35721 275.46268 277.23352 278.79318 280.53122
 282.41653 284.12280 285.66318 287.01901 288.19153 289.22964 290.17444 291.02914
 291.79776 292.47473 293.04922 293.69748
 366.78100 356.35030 345.79759 334.67889 323.09719 311.30648 299.19178 287.01007
 274.73737 262.64967 250.67396 239.99026 230.12756 221.24685 213.44415 206.46145
 200.31074 195.26404 191.86133 189.91863 188.97093 189.05022 189.90052 191.22382
 192.96411 195.07441 197.35271 199.72700 202.18730 204.68259 206.78589 208.64319
 210.28448 211.44478 211.68908 211.93237 211.88467 211.60497 211.25326 210.89856
 210.53086 210.25615 210.07945 209.95874 209.90204 210.24834 210.64963 211.05393
 211.86223 213.05552 214.32082 216.11912 218.06241 220.12071 222.23100 224.32930
 226.40460 228.50389 230.61619 232.73749 234.88178 237.06908 239.34038 241.72567
 244.36197 246.62826 248.64556 250.42586 251.85815 252.99645 253.83375 254.16504
 254.21734 254.00664 253.38193 252.34523 250.96652 249.14282 247.06712 244.91541
 242.72171 240.54101 238.37630 236.23060 234.10590 231.98819 230.02949 228.20178
 226.50008 224.98738 223.63267 222.41997 221.31727 220.29256 219.41186 218.56816
 217.82545 217.02075 216.13404 215.51334 214.97864 213.70596 210.71051 210.43893
 211.23721 211.27995 212.01308 215.00380 218.83858 223.52182 229.34163 234.28621
 238.11774 242.14417 246.41492 250.62375 254.42200 257.97223 260.87155 263.25446
 265.98065 268.50046 270.86493 273.23947 275.35962 277.15164 278.72253 280.47031
 282.35492 284.06299 285.60403 286.96133 288.13367 289.16861 290.11185 290.96570
 291.73358 292.41266 292.97339 293.56299
 366.78100 356.35038 345.79776 334.67914 323.09752 311.30690 299.19228 287.01066
 274.73804 262.65043 250.67481 239.99119 230.12857 221.24795 213.44533 206.46271
 200.31209 195.26547 191.86285 189.92023 188.97261 189.05199 189.90237 191.22575
 192.96613 195.07652 197.35490 199.72928 202.18966 204.68504 206.78842 208.64580
 210.28718 211.44756 211.69194 211.93532 211.88770 211.60808 211.25646 210.90184
 210.53422 210.25960 210.08299 209.96237 209.90575 210.25213 210.65351 211.05789
 211.86627 213.05965 214.32503 216.12341 218.06679 220.12517 222.23555 224.33393
 226.40931 228.50869 230.62108 232.74246 234.88684 237.07422 239.34560 241.73098
 244.36736 246.63374 248.65112 250.43150 251.86388 253.00226 253.83964 254.17102
 254.22340 254.01278 253.38816 252.35155 250.97293 249.14931 247.07369 244.92207
 242.72845 240.54783 238.38321 236.23759 234.11297 231.99535 230.03673 228.20911
 226.50749 224.99487 223.64025 222.42764 221.32502 220.30040 219.41978 218.57616
 217.83354 217.02892 216.14230 215.52168 214.98706 213.73079 210.77214 210.39915
 211.29124 211.42859 212.12837 214.94870 218.70772 223.44067 229.28346 234.23402
 238.06920 242.10333 246.36375 250.56631 254.37100 257.93488 260.83591 263.20273
 265.92310 268.42169 270.76096 273.12003 275.25800 277.07187 278.65228 280.40869
 282.29169 284.00049 285.54471 286.90073 288.07068 289.10333 290.04465 290.89838
 291.66837 292.34772 292.85333 293.36334
 366.78100 356.35056 345.79813 334.67969 323.09825 311.30781 299.19338 287.01194
 274.73950 262.65207 250.67663 239.99319 230.13076 221.25032 213.44788 206.46544
 200.31501 195.26857 191.86613 189.92370 188.97626 189.05582 189.90638 191.22995
 192.97051 195.08107 197.35964 199.73420 202.19476 204.69033 206.79389 208.65145
 210.29301 211.45358 211.69814 211.94170 211.89427 211.61483 211.26339 210.90895
 210.54152 210.26708 210.09064 209.97021 209.91377 210.26033 210.66190 211.06646
 211.87502 213.06858 214.33415 216.13271 218.07627 220.13484 222.24540 224.34396
 226.41953 228.51909 230.63165 232.75321 234.89778 237.08534 239.35690 241.74247
 244.37903 246.64559 248.66315 250.44372 251.87628 253.01484 253.85241 254.18397
 254.23653 254.02610 253.40166 252.36522 250.98678 249.16335 247.08791 244.93647
 242.74304 240.56260 238.39816 236.25272 234.12829 232.01085 230.05241 228.22498
 226.52354 225.01110 223.65667 222.44423 221.34179 220.31735 219.43692 218.59348
 217.85104 217.04661 216.16017 215.53973 215.00529 213.75880 210.82185 210.40820
 211.28502 211.50168 212.29436 214.94577 218.60356 223.36745 229.23586 234.19174
 238.02408 242.05937 246.30679 250.50038 254.31087 257.88910 260.79297 263.14554
 265.86435 268.34177 270.65503 273.00061 275.15671 276.99255 278.58322 280.34695
 282.22885 283.93692 285.48193 286.83765 288.00562 289.03281 289.97162 290.82584
 291.59863 292.28091 292.71204 293.13785
 366.78100 356.35100 345.79900 334.68100 323.09999 311.30999 299.19599 287.01499
 274.74299 262.65599 250.68098 239.99798 230.13598 221.25598 213.45398 206.47198
 200.32197 195.27597 191.87397 189.93197 188.98497 189.06497 189.91597 191.23996
 192.98096 195.09196 197.37096 199.74596 202.20696 204.70295 206.80695 208.66495
 210.30695 211.46795 211.71295 211.95695 211.90994 211.63094 211.27994 210.92594
 210.55894 210.28494 210.10893 209.98893 209.93293 210.27993 210.68193 211.08693
 211.89592 213.08992 214.35592 216.15492 218.09892 220.15792 222.26892 224.36791
 226.44391 228.54391 230.65691 232.77891 234.92391 237.11190 239.38390 241.76990
 244.40690 246.67390 248.69190 250.47290 251.90589 253.04489 253.88289 254.21489
 254.26789 254.05789 253.43388 252.39788 251.01988 249.19688 247.12188 244.97088
 242.77787 240.59787 238.43387 236.28887 234.16487 232.04787 230.08987 228.26286
 226.56186 225.04986 223.69586 222.48386 221.38186 220.35785 219.47785 218.63485
 217.89285 217.08885 216.20285 215.58284 215.04884 213.79970 210.85535 210.41768
 211.30821 211.55392 212.40619 214.97028 218.54829 223.30647 229.19194 234.14714
 237.97154 242.00449 246.24146 250.42860 254.24799 257.84140 260.74927 263.09702
 265.80231 268.26120 270.54865 272.88144 275.05469 276.90878 278.50635 280.27985
 282.16434 283.87460 285.42148 286.77652 287.93900 288.95667 289.89233 290.74725
 291.52075 292.19580 292.57263 292.91528
 366.78100 356.35145 345.79990 334.68234 323.10179 311.31224 299.19869 287.01814
 274.74659 262.66003 250.68548 240.00293 230.14138 221.26183 213.46028 206.47872
 200.32917 195.28362 191.88207 189.94052 188.99397 189.07441 189.92586 191.25031
 192.99176 195.10321 197.38265 199.75810 202.21955 204.71600 206.82045 208.67890
 210.32134 211.48279 211.72824 211.97269 211.92614 211.64759 211.29703 210.94348
 210.57693 210.30338 210.12783 210.00828 209.95272 210.30017 210.70262 211.10807
 211.91752 213.11196 214.37841 216.17786 218.12231 220.18176 222.29321 224.39265
 226.46910 228.56955 230.68300 232.80545 234.95090 237.13934 239.41179 241.79824
 244.43569 246.70314 248.72159 250.50303 251.93648 253.07593 253.91438 254.24683
 254.30027 254.09072 253.46717 252.43162 251.05407 249.23152 247.15696 245.00641
 242.81386 240.63431 238.47076 236.32621 234.20265 232.08610 230.12855 228.30200
 226.60145 225.08990 223.73634 222.52479 221.42324 220.39969 219.52014 218.67758
 217.93603 217.13248 216.24693 215.62738 215.09383 213.84302 210.89529 210.41566
 211.34113 211.61330 212.48978 215.00432 218.51904 223.25122 229.14767 234.09752
 237.91275 241.94759 246.17879 250.36224 254.19774 257.80447 260.72299 263.04465
 265.75000 268.17575 270.43048 272.74948 274.93491 276.80258 278.42252 280.21539
 282.09686 283.80688 285.35165 286.70575 287.85840 288.86392 289.80106 290.65512
 291.42566 292.06870 292.39999 292.68579
 366.78100 356.35143 345.79985 334.68228 323.10170 311.31213 299.19856 287.01798
 274.74641 262.65983 250.68526 240.00269 230.14111 221.26154 213.45996 206.47839
 200.32882 195.28324 191.88167 189.94009 188.99352 189.07395 189.92537 191.24980
 192.99122 195.10265 197.38208 199.75750 202.21893 204.71535 206.81978 208.67821
 210.32063 211.48206 211.72748 211.97191 211.92534 211.64676 211.29619 210.94261
 210.57604 210.30247 210.12689 210.00732 209.95174 210.29917 210.70160 211.10702
 211.91645 213.11087 214.37730 216.17673 218.12115 220.18058 222.29200 224.39143
 226.46786 228.56828 230.68171 232.80413 234.94956 237.13799 239.41041 241.79684
 244.43426 246.70169 248.72012 250.50154 251.93497 253.07439 253.91282 254.24524
 254.29867 254.08910 253.46552 252.42995 251.05237 249.22980 247.15523 245.00465
 242.81208 240.63250 238.46893 236.32436 234.20078 232.08421 230.12663 228.30006
 226.59949 225.08791 223.73434 222.52276 221.42119 220.39762 219.51804 218.67547
 217.93389 217.13032 216.24475 215.62517 215.09160 213.86273 210.97284 210.42603
 211.34256 211.66658 212.58028 215.02924 218.48203 223.18822 229.09866 234.04890
 237.85117 241.89703 246.12149 250.29991 254.15678 257.76685 260.69687 263.06699
 265.67880 268.09467 270.33408 272.63034 274.81927 276.69482 278.32794 280.14160
 282.03125 283.74731 285.29132 286.63876 287.78046 288.78421 289.70923 290.56287
 291.31735 291.83255 292.06079 292.26227
 366.78100 356.35055 345.79811 334.67966 323.09821 311.30776 299.19332 287.01187
 274.73942 262.65198 250.67653 239.99308 230.13063 221.25019 213.44774 206.46529
 200.31485 195.26840 191.86595 189.92350 188.97606 189.05561 189.90616 191.22972
 192.97027 195.08082 197.35937 199.73393 202.19448 204.69003 206.79359 208.65114
 210.29269 211.45324 211.69780 211.94135 211.89390 211.61446 211.26301 210.90856
 210.54112 210.26667 210.09022 209.96977 209.91333 210.25988 210.66143 211.06599
 211.87454 213.06809 214.33364 216.13220 218.07575 220.13430 222.24486 224.34341
 226.41896 228.51851 230.63107 232.75262 234.89717 237.08473 239.35628 241.74183
 244.37838 246.64494 248.66249 250.44304 251.87560 253.01415 253.85170 254.18325
 254.23581 254.02536 253.40091 252.36447 250.98602 249.16257 247.08712 244.93568
 242.74223 240.56178 238.39734 236.25189 234.12744 232.00999 230.05155 228.22410
 226.52265 225.01021 223.65576 222.44331 221.34086 220.31642 219.43597 218.59252
 217.85008 217.04563 216.15918 215.53873 215.00429 213.83383 211.08931 210.48477
 211.33826 211.68106 212.59647 215.03065 218.47295 223.13495 229.04164 233.99570
 237.78540 241.84575 246.06732 250.24489 254.12839 257.74127 260.69830 263.13989
 265.64938 268.02438 270.24448 272.51761 274.70544 276.59061 278.25299 280.06052
 281.94452 283.68558 285.23203 286.56897 287.69830 288.68539 289.61227 290.46603
 291.21851 291.46701 291.48700 291.51245
 366.78100 356.34931 345.79563 334.67594 323.09326 311.30157 299.18589 287.00320
 274.72951 262.64083 250.66414 239.97946 230.11577 221.23408 213.43040 206.44671
 200.29503 195.24734 191.84366 189.89997 188.95128 189.02960 189.87891 191.20123
 192.94054 195.04985 197.32717 199.70048 202.15980 204.65411 206.75643 208.61274
 210.25305 211.41237 211.65568 211.89800 211.84931 211.56862 211.21594 210.86025
 210.49157 210.21588 210.03820 209.91651 209.85882 210.20414 210.60445 211.00777
 211.81508 213.00739 214.27171 216.06902 218.01134 220.06865 222.17797 224.27528
 226.34959 228.44791 230.55922 232.67954 234.82285 237.00916 239.27948 241.66379
 244.29911 246.56442 248.58074 250.36005 251.79136 252.92868 253.76499 254.09531
 254.14662 253.93493 253.30925 252.27156 250.89188 249.06719 246.99051 244.83782
 242.64313 240.46145 238.29576 236.14908 234.02339 231.90470 229.94502 228.11633
 226.41365 224.89996 223.54428 222.33059 221.22690 220.20122 219.31953 218.47485
 217.73116 216.92547 216.03779 215.41610 214.88042 213.78520 211.23515 210.57204
 211.33499 211.68755 212.59898 214.98207 218.40654 223.05022 228.94849 233.90666
 237.68390 241.76390 245.98706 250.15759 254.07957 257.69574 260.63867 263.09879
 265.75931 268.14798 270.34790 272.55478 274.68741 276.53922 278.21555 280.00391
 281.81958 283.53873 285.07666 286.37875 287.47894 288.45471 289.36261 290.07211
 290.61667 291.17371 291.66031 292.28046
 366.78100 356.34751 345.79203 334.67054 323.08606 311.29257 299.17509 286.99060
 274.71512 262.62463 250.64614 239.95966 230.09417 221.21069 213.40520 206.41972
 200.26623 195.21674 191.81126 189.86577 188.91529 188.99180 189.83932 191.15983
 192.89735 195.00486 197.28037 199.65189 202.10940 204.60192 206.70243 208.55695
 210.19546 211.35298 211.59449 211.83500 211.78452 211.50203 211.14755 210.79006
 210.41958 210.14209 209.96260 209.83912 209.77963 210.12315 210.52166 210.92318
 211.72869 212.91921 214.18172 215.97723 217.91775 219.97326 222.08078 224.17629
 226.24881 228.34532 230.45483 232.57335 234.71486 236.89938 239.16789 241.55041
 244.18392 246.44744 248.46195 250.23946 251.66898 252.80449 253.63901 253.96752
 254.01704 253.80355 253.17607 252.13658 250.75509 248.92861 246.85012 244.69564
 242.49915 240.31567 238.14818 235.99969 233.87221 231.75172 229.79024 227.95975
 226.25527 224.73978 223.38230 222.16681 221.06132 220.03384 219.15035 218.30387
 217.55838 216.75090 215.86141 215.23793 214.70044 213.71689 211.44690 210.65936
 211.21783 211.60489 212.62738 214.94072 218.35284 222.98201 228.85736 233.80240
 237.57867 241.67525 245.90453 250.05275 254.00275 257.56439 260.46851 263.28668
 266.02554 268.36627 270.49280 272.63116 274.64722 276.38727 278.07425 279.87851
 281.63327 283.27390 284.70477 285.93582 287.03445 288.04691 289.05194 289.97302
 290.80142 291.53909 292.18353 293.00479
 366.78100 356.34739 345.79179 334.67018 323.08558 311.29197 299.17436 286.98976
 274.71415 262.62354 250.64494 239.95833 230.09273 221.20912 213.40351 206.41791
 200.26430 195.21470 191.80909 189.86348 188.91288 188.98927 189.83666 191.15706
 192.89445 195.00185 197.27724 199.64863 202.10603 204.59842 206.69882 208.55321
 210.19160 211.34900 211.59039 211.83078 211.78018 211.49757 211.14297 210.78536
 210.41475 210.13715 209.95754 209.83394 209.77433 210.11772 210.51612 210.91751
 211.72290 212.91330 214.17569 215.97109 217.91148 219.96687 222.07427 224.16966
 226.24206 228.33845 230.44784 232.56624 234.70763 236.89202 239.16042 241.54281
 244.17621 246.43960 248.45399 250.23139 251.66078 252.79618 253.63057 253.95896
 254.00836 253.79475 253.16714 252.12754 250.74593 248.91933 246.84072 244.68611
 242.48951 240.30590 238.13830 235.98969 233.86208 231.74148 229.77987 227.94926
 226.24466 224.72905 223.37145 222.15584 221.05023 220.02263 219.13902 218.29242
 217.54681 216.73920 215.84960 215.22599 214.68839 213.73250 211.54056 210.75635
 211.28732 211.76237 212.83467 214.99899 218.34181 222.94829 228.81979 233.73083
 237.52054 241.62648 245.87326 250.03705 254.01991 257.60416 260.46426 263.29712
 265.95996 268.31223 270.50150 272.61481 274.59747 276.33716 278.05798 279.83069
 281.55313 283.08029 284.53818 285.94440 287.33270 288.59390 289.74460 290.78702
 291.72458 292.55948 293.28882 294.21829
 366.78100 356.34907 345.79515 334.67522 323.09229 311.30037 299.18444 287.00151
 274.72758 262.63866 250.66173 239.97680 230.11288 221.23095 213.42702 206.44310
 200.29117 195.24324 191.83932 189.89539 188.94646 189.02453 189.87361 191.19568
 192.93475 195.04383 197.32090 199.69397 202.15305 204.64712 206.74919 208.60527
 210.24534 211.40441 211.64748 211.88956 211.84063 211.55970 211.20678 210.85085
 210.48192 210.20600 210.02807 209.90614 209.84822 210.19329 210.59336 210.99643
 211.80351 212.99558 214.25965 216.05673 217.99880 220.05587 222.16495 224.26202
 226.33609 228.43417 230.54524 232.66531 234.80838 236.99446 239.26453 241.64860
 244.28368 246.54875 248.56482 250.34390 251.77497 252.91204 253.74812 254.07819
 254.12926 253.91733 253.29141 252.25348 250.87355 249.04863 246.97170 244.81877
 242.62385 240.44192 238.27599 236.12907 234.00314 231.88421 229.92428 228.09536
 226.39243 224.87850 223.52258 222.30865 221.20472 220.17880 219.29687 218.45194
 217.70802 216.90209 216.01416 215.39223 214.85631 213.82628 211.46739 210.72142
 211.34460 211.84224 212.91255 215.02324 218.30618 222.88980 228.74852 233.66316
 237.44441 241.55293 245.79924 249.97646 253.95815 257.61346 260.42554 263.26642
 265.94638 268.24945 270.41214 272.55527 274.61182 276.44638 278.18240 279.94250
 281.65759 283.20624 284.64304 286.00427 287.22830 288.39246 289.46375 290.43423
 291.30710 292.08438 292.76343 293.62875
 366.78100 356.34965 345.79630 334.67695 323.09459 311.30324 299.18789 287.00554
 274.73219 262.64384 250.66749 239.98314 230.11978 221.23843 213.43508 206.45173
 200.30038 195.25303 191.84968 189.90632 188.95797 189.03662 189.88627 191.20892
 192.94857 195.05822 197.33586 199.70951 202.16916 204.66381 206.76646 208.62311
 210.26376 211.42341 211.66705 211.90970 211.86135 211.58100 211.22865 210.87330
 210.50495 210.22959 210.05224 209.93089 209.87354 210.21919 210.61984 211.02349
 211.83113 213.02378 214.28843 216.08608 218.02873 220.08638 222.19603 224.29368
 226.36832 228.46697 230.57862 232.69927 234.84292 237.02957 239.30022 241.68486
 244.32051 246.58616 248.60281 250.38246 251.81411 252.95176 253.78840 254.11905
 254.17070 253.95935 253.33400 252.29665 250.91730 249.09295 247.01659 244.86424
 242.66989 240.48854 238.32319 236.17684 234.05149 231.93313 229.97378 228.14543
 226.44308 224.92973 223.57438 222.36103 221.25768 220.23232 219.35097 218.50662
 217.76327 216.95792 216.07057 215.44922 214.91386 213.85738 211.40460 210.68599
 211.49252 211.99889 212.92722 215.01373 218.21036 222.79889 228.68219 233.60040
 237.37296 241.47757 245.71642 249.90727 253.87982 257.49149 260.38623 263.01526
 265.74585 268.06845 270.22800 272.40472 274.52847 276.44235 278.24194 280.03064
 281.72485 283.29446 284.68988 285.92203 287.05954 288.08817 289.02716 289.87439
 290.65244 291.34528 291.95053 292.72186
 366.78100 356.34899 345.79499 334.67498 323.09197 311.29996 299.18396 287.00095
 274.72694 262.63793 250.66093 239.97592 230.11191 221.22990 213.42590 206.44189
 200.28988 195.24188 191.83787 189.89386 188.94485 189.02285 189.87184 191.19383
 192.93282 195.04182 197.31881 199.69180 202.15079 204.64479 206.74678 208.60277
 210.24277 211.40176 211.64475 211.88674 211.83774 211.55673 211.20372 210.84771
 210.47871 210.20270 210.02469 209.90268 209.84468 210.18967 210.58966 210.99266
 211.79965 212.99164 214.25563 216.05263 217.99462 220.05161 222.16060 224.25760
 226.33159 228.42958 230.54057 232.66057 234.80356 236.98955 239.25955 241.64354
 244.27853 246.54352 248.55952 250.33851 251.76950 252.90649 253.74249 254.07248
 254.12347 253.91146 253.28546 252.24745 250.86744 249.04244 246.96543 244.81242
 242.61741 240.43541 238.26940 236.12239 233.99638 231.87738 229.91737 228.08836
 226.38535 224.87135 223.51534 222.30133 221.19733 220.17132 219.28931 218.44430
 217.70030 216.89429 216.00628 215.38427 214.84827 213.83447 211.48070 210.79185
 211.53517 212.03232 212.91882 214.97238 218.14354 222.71783 228.61746 233.53246
 237.29828 241.41266 245.66061 249.86864 253.86624 257.45810 260.43573 263.11145
 265.68948 267.97546 270.10593 272.25861 274.38760 276.27957 278.04044 279.82034
 281.54733 283.16064 284.56393 285.77896 286.86612 287.82422 288.69205 289.46411
 290.19037 290.83713 291.40210 292.12210
 366.78100 356.34734 345.79167 334.67001 323.08535 311.29169 299.17402 286.98936
 274.71370 262.62304 250.64437 239.95771 230.09205 221.20839 213.40272 206.41706
 200.26340 195.21374 191.80807 189.86241 188.91175 188.98809 189.83542 191.15576
 192.89310 195.00043 197.27577 199.64711 202.10445 204.59678 206.69712 208.55146
 210.18980 211.34713 211.58847 211.82881 211.77815 211.49548 211.14082 210.78316
 210.41250 210.13483 209.95517 209.83151 209.77185 210.11518 210.51352 210.91486
 211.72019 212.91053 214.17287 215.96821 217.90854 219.96388 222.07122 224.16656
 226.23889 228.33523 230.44457 232.56291 234.70424 236.88858 239.15692 241.53926
 244.17259 246.43593 248.45027 250.22761 251.65694 252.79228 253.62662 253.95495
 254.00429 253.79063 253.16297 252.12330 250.74164 248.91498 246.83632 244.68165
 242.48499 240.30133 238.13367 235.98500 233.85734 231.73668 229.77502 227.94435
 226.23969 224.72403 223.36637 222.15070 221.04504 220.01738 219.13371 218.28705
 217.54139 216.73373 215.84406 215.22040 214.68274 213.76874 211.65678 210.87833
 211.47775 211.96370 212.94186 214.93364 218.09560 222.67085 228.56210 233.47610
 237.25302 241.37698 245.63940 249.85864 253.90453 257.46008 260.43054 263.21616
 265.83963 268.13318 270.23627 272.35794 274.38391 276.17892 277.98056 279.70178
 281.37585 282.91815 284.25381 285.43741 286.44803 287.44797 288.41873 289.29819
 290.08914 290.79352 291.40881 292.19296
 366.78100 356.34748 345.79196 334.67045 323.08593 311.29241 299.17489 286.99037
 274.71486 262.62434 250.64582 239.95930 230.09378 221.21027 213.40475 206.41923
 200.26571 195.21619 191.81068 189.86516 188.91464 188.99112 189.83861 191.15909
 192.89657 195.00405 197.27953 199.65102 202.10850 204.60098 206.70146 208.55594
 210.19443 211.35191 211.59339 211.83387 211.78335 211.50084 211.14632 210.78880
 210.41828 210.14076 209.96125 209.83773 209.77821 210.12169 210.52017 210.92166
 211.72714 212.91762 214.18010 215.97558 217.91607 219.97155 222.07903 224.17451
 226.24699 228.34348 230.45296 232.57144 234.71292 236.89740 239.16589 241.54837
 244.18185 246.44533 248.45982 250.23730 251.66678 252.80226 253.63674 253.96523
 254.01471 253.80119 253.17367 252.13415 250.75264 248.92612 246.84760 244.69308
 242.49656 240.31305 238.14553 235.99701 233.86949 231.74897 229.78746 227.95694
 226.25242 224.73690 223.37938 222.16387 221.05835 220.03083 219.14731 218.30079
 217.55528 216.74776 215.85824 215.23472 214.69720 213.78804 211.68900 210.90213
 211.52606 212.04593 213.01712 214.94057 218.09259 222.66148 228.54254 233.43089
 237.20381 241.33292 245.61070 249.85907 253.93967 257.51660 260.53308 263.31219
 265.92291 268.16815 270.27533 272.39252 274.44177 276.28876 278.00314 279.76648
 281.40790 282.90552 284.21613 285.35718 286.46527 287.58292 288.62469 289.56848
 290.41733 291.17322 291.83353 292.67505
 366.78100 356.34926 345.79552 334.67578 323.09304 311.30130 299.18556 287.00282
 274.72908 262.64034 250.66360 239.97886 230.11512 221.23338 213.42964 206.44590
 200.29416 195.24641 191.84267 189.89893 188.95019 189.02845 189.87771 191.19997
 192.93923 195.04849 197.32575 199.69901 202.15827 204.65253 206.75479 208.61105
 210.25131 211.41057 211.65383 211.89609 211.84735 211.56661 211.21387 210.85813
 210.48939 210.21365 210.03591 209.91417 209.85643 210.20169 210.60195 211.00521
 211.81247 213.00473 214.26898 216.06624 218.00850 220.06576 222.17502 224.27228
 226.34654 228.44480 230.55606 232.67632 234.81958 237.00584 239.27610 241.66036
 244.29562 246.56088 248.57714 250.35640 251.78766 252.92492 253.76118 254.09144
 254.14270 253.93096 253.30522 252.26748 250.88774 249.06300 246.98626 244.83352
 242.63878 240.45704 238.29129 236.14455 234.01881 231.90007 229.94033 228.11159
 226.40885 224.89511 223.53937 222.32563 221.22189 220.19615 219.31441 218.46967
 217.72593 216.92019 216.03245 215.41071 214.87497 213.87997 211.57448 210.87946
 211.67513 212.19568 213.06453 214.95844 218.02917 222.56755 228.46619 233.34789
 237.10463 241.23457 245.51181 249.77669 253.84935 257.45569 260.42322 263.14191
 265.72534 268.03983 270.20749 272.36792 274.48016 276.38242 278.13943 279.93506
 281.59039 283.07080 284.40305 285.56839 286.59061 287.55869 288.50586 289.40640
 290.22867 290.96088 291.60052 292.41568
 366.78100 356.35044 345.79787 334.67931 323.09774 311.30718 299.19261 287.01105
 274.73848 262.65092 250.67536 239.99179 230.12923 221.24866 213.44610 206.46353
 200.31297 195.26640 191.86384 189.92128 188.97371 189.05315 189.90358 191.22702
 192.96745 195.07789 197.35632 199.73076 202.19120 204.68663 206.79007 208.64750
 210.28894 211.44937 211.69381 211.93724 211.88968 211.61011 211.25855 210.90399
 210.53642 210.26186 210.08529 209.96473 209.90816 210.25460 210.65603 211.06047
 211.86891 213.06234 214.32778 216.12621 218.06965 220.12808 222.23852 224.33695
 226.41239 228.51183 230.62426 232.74570 234.89013 237.07757 239.34900 241.73444
 244.37087 246.63731 248.65475 250.43518 251.86762 253.00605 253.84349 254.17492
 254.22736 254.01679 253.39223 252.35567 250.97710 249.15354 247.07797 244.92641
 242.73284 240.55228 238.38771 236.24215 234.11759 232.00002 230.04146 228.21389
 226.51233 224.99976 223.64520 222.43263 221.33007 220.30550 219.42494 218.58138
 217.83881 217.03425 216.14768 215.52712 214.99255 213.95326 211.54083 210.87535
 211.85553 212.35529 213.13391 215.01286 218.00253 222.48036 228.40292 233.26672
 237.00200 241.12744 245.40413 249.67085 253.72290 257.24292 260.29510 263.16528
 265.68594 267.95694 270.12585 272.25433 274.31207 276.19455 278.00153 279.74118
 281.33746 282.89661 284.20834 285.33041 286.30569 287.22217 288.09900 288.88080
 289.56671 290.17755 290.71115 291.39117
 366.78100 356.35023 345.79746 334.67870 323.09693 311.30616 299.19139 287.00962
 274.73686 262.64909 250.67332 239.98955 230.12678 221.24602 213.44325 206.46048
 200.30971 195.26294 191.86018 189.91741 188.96964 189.04887 189.89910 191.22234
 192.96257 195.07280 197.35103 199.72526 202.18550 204.68073 206.78396 208.64119
 210.28242 211.44266 211.68689 211.93012 211.88235 211.60258 211.25082 210.89605
 210.52828 210.25351 210.07674 209.95598 209.89921 210.24544 210.64667 211.05090
 211.85914 213.05237 214.31760 216.11583 218.05906 220.11730 222.22753 224.32576
 226.40099 228.50022 230.61246 232.73369 234.87792 237.06515 239.33638 241.72162
 244.35785 246.62408 248.64131 250.42154 251.85377 252.99201 253.82924 254.16047
 254.21270 254.00193 253.37717 252.34040 250.96163 249.13786 247.06209 244.91033
 242.71656 240.53579 238.37102 236.22525 234.10049 231.98272 230.02395 228.19618
 226.49441 224.98165 223.62688 222.41411 221.31134 220.28657 219.40581 218.56204
 217.81927 217.01450 216.12773 215.50697 214.97220 213.98003 211.68665 210.85747
 211.77083 212.34955 213.29227 215.17505 218.12027 222.53270 228.37396 233.21762
 236.95778 241.07930 245.36427 249.65228 253.69273 257.12146 260.27835 263.15494
 265.72650 268.06229 270.20816 272.31161 274.26151 276.21130 278.12775 279.71002
 281.08099 282.49197 283.73688 284.79388 285.78104 286.73126 287.59857 288.38431
 289.09097 289.72028 290.27002 290.97061
 366.78100 356.34977 345.79653 334.67730 323.09506 311.30383 299.18859 287.00636
 274.73313 262.64489 250.66866 239.98442 230.12119 221.23995 213.43672 206.45349
 200.30225 195.25502 191.85178 189.90855 188.96031 189.03908 189.88884 191.21161
 192.95138 195.06114 197.33891 199.71267 202.17244 204.66720 206.76997 208.62674
 210.26750 211.42727 211.67103 211.91380 211.86556 211.58533 211.23310 210.87786
 210.50963 210.23439 210.05716 209.93592 209.87869 210.22446 210.62522 211.02899
 211.83675 213.02952 214.29428 216.09205 218.03482 220.09258 222.20235 224.30011
 226.37488 228.47364 230.58541 232.70617 234.84994 237.03671 239.30747 241.69224
 244.32800 246.59377 248.61053 250.39030 251.82207 252.95983 253.79660 254.12736
 254.17913 253.96789 253.34266 252.30543 250.92619 249.10196 247.02572 244.87349
 242.67925 240.49802 238.33279 236.18655 234.06132 231.94308 229.98385 228.15561
 226.45338 224.94015 223.58491 222.37168 221.26844 220.24321 219.36197 218.51774
 217.77450 216.96927 216.08204 215.46080 214.92557 213.99776 211.83755 210.92802
 211.71307 212.43390 213.51389 215.31271 218.13730 222.54364 228.40874 233.19543
 236.91998 241.03696 245.33055 249.64949 253.69339 257.15942 260.25845 263.02850
 265.67520 268.12006 270.26526 272.40143 274.22784 276.24197 278.11899 279.70590
 280.89450 282.18738 283.31848 284.64261 285.82645 286.87384 287.82941 288.69510
 289.47369 290.16705 290.77274 291.54462
 366.78100 356.34878 345.79455 334.67433 323.09110 311.29888 299.18265 286.99943
 274.72520 262.63598 250.65875 239.97353 230.10930 221.22708 213.42286 206.43863
 200.28641 195.23818 191.83396 189.88973 188.94051 189.01828 189.86706 191.18883
 192.92761 195.03638 197.31316 199.68594 202.14471 204.63849 206.74026 208.59604
 210.23581 211.39459 211.63736 211.87914 211.82991 211.54869 211.19546 210.83924
 210.47002 210.19379 210.01557 209.89334 209.83512 210.17989 210.57967 210.98244
 211.78922 212.98099 214.24477 216.04154 217.98332 220.04010 222.14887 224.24565
 226.31942 228.41720 230.52797 232.64775 234.79052 236.97630 239.24607 241.62985
 244.26462 246.52940 248.54518 250.32395 251.75473 252.89150 253.72728 254.05705
 254.10783 253.89560 253.26938 252.23115 250.85093 249.02570 246.94848 244.79526
 242.60003 240.41781 238.25158 236.10436 233.97813 231.85891 229.89868 228.06946
 226.36623 224.85201 223.49578 222.28156 221.17734 220.15111 219.26889 218.42366
 217.67944 216.87321 215.98499 215.36276 214.82654 213.98970 211.99272 211.04080
 211.65550 212.41953 213.56053 215.35178 218.11842 222.45015 228.36119 233.14438
 236.89204 241.01192 245.31351 249.62321 253.62932 257.18967 260.23853 262.92026
 265.54471 267.98904 270.26202 272.35269 274.16412 276.43326 278.20404 279.61813
 280.85257 282.33640 283.87399 285.22412 286.39255 287.42630 288.36945 289.22388
 289.99231 290.67664 291.27444 292.03629
 366.78100 356.34691 345.79081 334.66872 323.08363 311.28953 299.17144 286.98635
 274.71026 262.61916 250.64007 239.95298 230.08688 221.20279 213.39670 206.41060
 200.25651 195.20642 191.80032 189.85423 188.90314 188.97905 189.82595 191.14586
 192.88277 194.98967 197.26458 199.63549 202.09239 204.58430 206.68421 208.53812
 210.17602 211.33293 211.57384 211.81374 211.76265 211.47956 211.12446 210.76637
 210.39528 210.11718 209.93709 209.81300 209.75291 210.09581 210.49372 210.89463
 211.69953 212.88944 214.15135 215.94625 217.88616 219.94107 222.04797 224.14288
 226.21479 228.31070 230.41960 232.53751 234.67842 236.86232 239.13023 241.51214
 244.14504 246.40795 248.42186 250.19877 251.62767 252.76258 253.59649 253.92439
 253.97330 253.75921 253.13111 252.09102 250.70893 248.88183 246.80274 244.64765
 242.45056 240.26646 238.09837 235.94928 233.82118 231.70009 229.73800 227.90690
 226.20181 224.68572 223.32762 222.11153 221.00544 219.97735 219.09325 218.24616
 217.50007 216.69197 215.80188 215.17779 214.63969 213.91603 212.13649 211.12605
 211.57635 212.35074 213.49629 215.41942 218.19560 222.45096 228.30826 233.10567
 236.86110 240.99516 245.30560 249.61520 253.67815 257.28549 260.29715 263.03851
 265.58359 267.97137 270.23874 272.37482 274.24463 276.26929 278.13885 279.61005
 281.25806 283.31366 285.10284 286.67389 288.03348 289.23636 290.33383 291.32803
 292.22223 293.01852 293.71414 294.60062
 366.78100 356.34552 345.78804 334.66456 323.07808 311.28260 299.16312 286.97664
 274.69916 262.60668 250.62620 239.93772 230.07024 221.18476 213.37728 206.38980
 200.23432 195.18284 191.77536 189.82788 188.87540 188.94992 189.79544 191.11396
 192.84948 194.95500 197.22852 199.59804 202.05356 204.54408 206.64260 208.49512
 210.13164 211.28716 211.52668 211.76520 211.71272 211.42824 211.07176 210.71228
 210.33980 210.06032 209.87884 209.75336 209.69188 210.03340 210.42992 210.82944
 211.63296 212.82148 214.08200 215.87552 217.81404 219.86756 221.97308 224.06660
 226.13712 228.23164 230.33916 232.45568 234.59520 236.77772 239.04424 241.42476
 244.05628 246.31780 248.33032 250.10584 251.53336 252.66688 253.49940 253.82593
 253.87345 253.65797 253.02849 251.98701 250.60353 248.77505 246.69457 244.53809
 242.33961 240.15413 237.98465 235.83417 233.70469 231.58221 229.61873 227.78625
 226.07977 224.56229 223.20281 221.98533 220.87785 219.84837 218.96289 218.11441
 217.36693 216.55745 215.66597 215.04049 214.50101 213.83061 212.21735 211.21860
 211.48999 212.27829 213.52057 215.40732 218.12556 222.49365 228.31795 233.06969
 236.81178 240.93832 245.24847 249.54434 253.59062 257.15808 260.21982 262.96957
 265.51535 267.90732 270.19763 272.40540 274.47882 276.40466 278.27448 279.99957
 281.56451 283.20517 284.91098 286.49478 287.86539 289.07803 290.18439 291.18668
 292.08813 292.89087 293.59213 294.48581
 366.78100 356.34295 345.78291 334.65686 323.06782 311.26977 299.14772 286.95868
 274.67863 262.58359 250.60054 239.90949 230.03945 221.15140 213.34136 206.35131
 200.19326 195.13922 191.72917 189.77913 188.82408 188.89603 189.73899 191.05494
 192.78790 194.89085 197.16180 199.52876 201.98171 204.46967 206.56562 208.41557
 210.04953 211.20248 211.43944 211.67539 211.62034 211.33330 210.97425 210.61221
 210.23716 209.95511 209.77107 209.64302 209.57898 209.91793 210.31188 210.70884
 211.50979 212.69575 213.95370 215.74465 217.68061 219.73156 221.83452 223.92547
 225.99342 228.08538 230.19033 232.30429 234.44124 236.62119 238.88515 241.26310
 243.89206 246.15101 248.16096 249.93392 251.35887 252.48983 253.31978 253.64373
 253.68869 253.47064 252.83860 251.79455 250.40850 248.57746 246.49441 244.33537
 242.13432 239.94627 237.77423 235.62118 233.48914 231.36409 229.39804 227.56300
 225.85395 224.33391 222.97186 221.75181 220.64177 219.60972 218.72168 217.87063
 217.12058 216.30854 215.41449 214.78645 214.24440 213.70514 212.37355 211.27940
 211.41925 212.16673 213.48199 215.44255 218.21852 222.50356 228.29683 233.06984
 236.78801 240.90826 245.20839 249.53439 253.58118 257.11038 260.03720 262.70474
 265.44717 267.89432 270.10779 272.27780 274.29816 276.24814 278.09543 279.74539
 281.33270 282.60297 284.07040 285.52795 286.83038 287.98273 289.03406 289.98648
 290.84311 291.60590 292.27228 293.12152
 366.78100 356.34020 345.77739 334.64859 323.05679 311.25599 299.13118 286.93938
 274.65658 262.55877 250.57297 239.87917 230.00637 221.11556 213.30276 206.30996
 200.14916 195.09235 191.67955 189.72675 188.76894 188.83814 189.67834 190.99154
 192.72173 194.82193 197.09013 199.45432 201.90452 204.38972 206.48292 208.33011
 209.96131 211.11151 211.34570 211.57890 211.52110 211.23130 210.86949 210.50469
 210.12689 209.84208 209.65528 209.52448 209.45768 209.79387 210.18507 210.57927
 211.37747 212.56066 213.81586 215.60406 217.53725 219.58545 221.68565 223.77385
 225.83904 227.92824 230.03044 232.14163 234.27583 236.45303 238.71423 241.08942
 243.71562 245.97182 247.97901 249.74921 251.17141 252.29961 253.12680 253.44800
 253.49020 253.26940 252.63459 251.58779 250.19899 248.36518 246.27938 244.11758
 241.91378 239.72297 237.54817 235.39237 233.25756 231.12976 229.16096 227.32316
 225.61135 224.08855 222.72375 221.50094 220.38814 219.35334 218.46254 217.60873
 216.85593 216.04113 215.14433 214.51352 213.96872 213.59473 212.56097 211.33876
 211.36952 212.10512 213.42430 215.42807 218.20456 222.50276 228.28177 233.04527
 236.80562 240.94565 245.26158 249.57585 253.61192 257.14078 260.07077 262.74673
 265.38821 267.84180 270.10223 272.24396 274.24118 276.19431 278.03625 279.61072
 281.08090 282.54095 284.29370 285.88098 287.25461 288.46994 289.57874 290.58325
 291.48666 292.29120 292.99399 293.88965
 366.78100 356.34350 345.78399 334.65849 323.06998 311.27248 299.15097 286.96247
 274.68297 262.58846 250.60596 239.91545 230.04595 221.15844 213.34894 206.35944
 200.20193 195.14843 191.73892 189.78942 188.83491 188.90741 189.75091 191.06740
 192.80090 194.90439 197.17589 199.54338 201.99688 204.48537 206.58187 208.43237
 210.06686 211.22036 211.45785 211.69435 211.63984 211.35334 210.99484 210.63333
 210.25883 209.97732 209.79382 209.66631 209.60281 209.94231 210.33680 210.73430
 211.53579 212.72229 213.98078 215.77228 217.70878 219.76027 221.86377 223.95526
 226.02376 228.11625 230.22175 232.33625 234.47374 236.65424 238.91873 241.29723
 243.92672 246.18622 248.19672 249.97021 251.39571 252.52720 253.35770 253.68219
 253.72769 253.51019 252.87868 251.83518 250.44967 248.61917 246.53666 244.37816
 242.17765 239.99015 237.81865 235.66614 233.53464 231.41013 229.44463 227.61012
 225.90162 224.38212 223.02061 221.80111 220.69160 219.66010 218.77259 217.92209
 217.17259 216.36108 215.46758 214.84007 214.29857 213.75801 212.42923 211.39014
 211.48360 212.15601 213.41211 215.36972 218.13142 222.42577 228.24777 232.96249
 236.70126 240.87981 245.23524 249.61200 253.70676 257.29581 260.22507 262.81717
 265.41595 267.79730 270.00235 272.24939 274.45551 276.44568 278.30859 280.02048
 281.48358 282.77429 284.28122 285.83142 287.19492 288.40125 289.50183 290.49890
 291.39566 292.19424 292.89185 293.78085
 366.78100 356.34614 345.78929 334.66643 323.08057 311.28572 299.16686 286.98100
 274.70415 262.61229 250.63243 239.94458 230.07772 221.19286 213.38601 206.39915
 200.24429 195.19344 191.78658 189.83972 188.88786 188.96301 189.80915 191.12829
 192.86444 194.97058 197.24472 199.61487 202.07101 204.56215 206.66130 208.51444
 210.15158 211.30773 211.54787 211.78701 211.73516 211.45130 211.09544 210.73659
 210.36473 210.08587 209.90502 209.78016 209.71930 210.06145 210.45859 210.85873
 211.66288 212.85202 214.11316 215.90731 217.84645 219.90059 222.00673 224.10088
 226.17202 228.26716 230.37531 232.49245 234.63259 236.81574 239.08288 241.46402
 244.09617 246.35831 248.37145 250.14760 251.57574 252.70988 253.54303 253.87017
 253.91831 253.70346 253.07460 252.03374 250.65089 248.82303 246.74317 244.58732
 242.38946 240.20460 238.03575 235.88589 233.75703 231.63518 229.67232 227.84046
 226.13461 224.61775 223.25889 222.04203 220.93518 219.90632 219.02146 218.17361
 217.42675 216.61789 215.72704 215.10218 214.56332 213.87935 212.27002 211.34964
 211.70154 212.25418 213.34352 215.21571 218.07140 222.25858 228.03481 232.81055
 236.53377 240.71956 245.09839 249.47217 253.56902 257.11011 260.04227 262.64804
 265.21051 267.60333 269.90265 272.24435 274.46759 276.46027 278.18140 279.96564
 281.47958 282.80252 283.94159 284.97964 285.93466 286.85117 287.72635 288.54468
 289.28650 289.94711 290.52423 291.25967
 366.78100 356.34539 345.78778 334.66417 323.07756 311.28195 299.16233 286.97572
 274.69811 262.60550 250.62489 239.93628 230.06867 221.18306 213.37545 206.38784
 200.23223 195.18062 191.77300 189.82539 188.87278 188.94717 189.79256 191.11095
 192.84634 194.95173 197.22512 199.59451 202.04990 204.54029 206.63867 208.49106
 210.12745 211.28284 211.52223 211.76062 211.70801 211.42340 211.06679 210.70718
 210.33457 210.05496 209.87334 209.74773 209.68612 210.02751 210.42390 210.82329
 211.62668 212.81507 214.07546 215.86885 217.80724 219.86062 221.96601 224.05940
 226.12979 228.22418 230.33157 232.44796 234.58735 236.76974 239.03613 241.41652
 244.04791 246.30929 248.32168 250.09707 251.52446 252.65785 253.49024 253.81663
 253.86402 253.64841 253.01880 251.97719 250.59358 248.76496 246.68435 244.52774
 242.32913 240.14352 237.97391 235.82330 233.69369 231.57108 229.60747 227.77486
 226.06825 224.55063 223.19102 221.97341 220.86580 219.83619 218.95058 218.10197
 217.35436 216.54475 215.65314 215.02753 214.48792 213.85600 212.36258 211.31323
 211.87976 212.40311 213.36102 215.27451 218.04347 222.24457 228.03549 232.77974
 236.40930 240.58249 244.96606 249.36119 253.53174 257.05017 259.91492 262.46136
 265.18924 267.62231 269.88245 272.05350 274.14523 276.17230 278.00031 279.66846
 281.18427 282.51877 283.62314 284.52786 285.40594 286.23401 286.97293 287.73230
 288.50635 289.24750 289.90628 290.74582
 366.78100 356.34359 345.78418 334.65877 323.07036 311.27295 299.15153 286.96312
 274.68371 262.58930 250.60689 239.91648 230.04707 221.15966 213.35025 206.36084
 200.20343 195.15001 191.74060 189.79119 188.83678 188.90937 189.75296 191.06955
 192.80314 194.90673 197.17832 199.54590 201.99949 204.48808 206.58467 208.43526
 210.06985 211.22344 211.46103 211.69762 211.64321 211.35680 210.99838 210.63697
 210.26256 209.98115 209.79774 209.67033 209.60692 209.94651 210.34110 210.73869
 211.54028 212.72686 213.98545 215.77704 217.71363 219.76522 221.86881 223.96040
 226.02899 228.12158 230.22717 232.34176 234.47934 236.65993 238.92452 241.30311
 243.93270 246.19229 248.20288 249.97647 251.40206 252.53365 253.36423 253.68882
 253.73441 253.51700 252.88559 251.84218 250.45677 248.62636 246.54395 244.38554
 242.18513 239.99771 237.82630 235.67389 233.54248 231.41807 229.45266 227.61825
 225.90984 224.39043 223.02902 221.80961 220.70019 219.66878 218.78137 217.93096
 217.18155 216.37014 215.47673 214.84932 214.30791 213.82582 212.62340 211.32510
 211.49142 212.29108 213.66472 215.58159 218.33928 222.45491 228.02216 232.71251
 236.40526 240.56232 244.92616 249.32047 253.40340 256.81885 259.56021 262.48383
 265.29321 267.76083 270.04004 272.14368 274.27655 276.31500 278.06372 279.54028
 280.90509 282.16803 283.25531 284.09064 285.07516 286.18591 287.20294 288.12427
 288.95291 289.69080 290.33542 291.15692
 366.78100 356.34219 345.78137 334.65456 323.06475 311.26594 299.14312 286.95331
 274.67250 262.57668 250.59287 239.90106 230.03025 221.14143 213.33062 206.33981
 200.18099 195.12618 191.71537 189.76455 188.80874 188.87993 189.72212 191.03730
 192.76949 194.87168 197.14186 199.50805 201.96024 204.44743 206.54261 208.39180
 210.02499 211.17717 211.41336 211.64855 211.59274 211.30492 210.94511 210.58230
 210.20648 209.92367 209.73886 209.61005 209.54523 209.88342 210.27661 210.67279
 211.47298 212.65817 213.91535 215.70554 217.64073 219.69092 221.79310 223.88329
 225.95048 228.04166 230.14585 232.25904 234.39523 236.57441 238.83760 241.21479
 243.84297 246.10116 248.11035 249.88254 251.30672 252.43691 253.26610 253.58928
 253.63347 253.41466 252.78184 251.73703 250.35022 248.51841 246.43459 244.27478
 242.07297 239.88415 237.71134 235.55753 233.42472 231.29890 229.33209 227.49628
 225.78646 224.26565 222.90284 221.68203 220.57121 219.53840 218.64959 217.79777
 217.04696 216.23415 215.33934 214.71052 214.16771 213.80829 212.79549 211.45065
 211.35699 212.36732 213.88718 215.75313 218.32443 222.40445 228.06549 232.70001
 236.40370 240.55911 244.93475 249.30298 253.32265 256.68033 259.59546 262.50604
 265.25708 267.75281 269.94565 272.15143 274.53018 276.47943 278.10172 279.45117
 280.80643 281.96072 283.57886 285.03180 286.28922 287.40170 288.41666 289.33615
 290.16315 290.89957 291.54291 292.36276
 366.78100 356.34177 345.78054 334.65331 323.06308 311.26385 299.14062 286.95039
 274.66916 262.57293 250.58870 239.89647 230.02524 221.13601 213.32479 206.33356
 200.17433 195.11910 191.70787 189.75664 188.80041 188.87118 189.71295 191.02772
 192.75949 194.86126 197.13103 199.49680 201.94857 204.43534 206.53011 208.37888
 210.01165 211.16342 211.39919 211.63396 211.57773 211.28950 210.92927 210.56604
 210.18982 209.90659 209.72136 209.59213 209.52690 209.86467 210.25744 210.65321
 211.45298 212.63775 213.89452 215.68429 217.61906 219.66883 221.77060 223.86037
 225.92714 228.01791 230.12168 232.23445 234.37022 236.54899 238.81176 241.18853
 243.81630 246.07407 248.08284 249.85462 251.27839 252.40816 253.23693 253.55970
 253.60347 253.38424 252.75101 251.70578 250.31855 248.48632 246.40209 244.24186
 242.03963 239.85040 237.67717 235.52294 233.38971 231.26348 229.29625 227.46002
 225.74979 224.22856 222.86533 221.64410 220.53287 219.49964 218.61042 217.75819
 217.00696 216.19373 215.29850 214.66927 214.12604 213.81651 212.89482 211.59564
 211.29050 212.19142 213.85254 215.87276 218.39200 222.30991 228.02869 232.69455
 236.40541 240.56406 244.94775 249.32451 253.36926 256.73923 259.51553 262.47571
 265.27744 267.69620 269.84537 272.23199 274.58331 276.45612 278.07120 279.47891
 280.87140 282.64856 284.24881 285.65393 286.86996 287.94583 288.92740 289.81662
 290.61639 291.32858 291.95074 292.74362
 366.78100 356.34249 345.78198 334.65547 323.06597 311.26746 299.14495 286.95544
 274.67493 262.57942 250.59592 239.90441 230.03390 221.14539 213.33488 206.34437
 200.18586 195.13136 191.72085 189.77034 188.81483 188.88632 189.72881 191.04430
 192.77680 194.87929 197.14978 199.51627 201.96876 204.45625 206.55175 208.40124
 210.03473 211.18722 211.42371 211.65920 211.60369 211.31619 210.95668 210.59417
 210.21866 209.93615 209.75164 209.62313 209.55863 209.89712 210.29061 210.68710
 211.48759 212.67308 213.93058 215.72107 217.65656 219.70705 221.80954 223.90003
 225.96752 228.05902 230.16351 232.27700 234.41349 236.59298 238.85647 241.23396
 243.86246 246.12095 248.13044 249.90293 251.32742 252.45791 253.28741 253.61090
 253.65539 253.43688 252.80437 251.75986 250.37335 248.54185 246.45834 244.29883
 242.09732 239.90881 237.73630 235.58280 233.45029 231.32478 229.35827 227.52276
 225.81325 224.29274 222.93024 221.70973 220.59922 219.56671 218.67820 217.82669
 217.07618 216.26368 215.36917 214.74066 214.19815 213.87666 212.93152 211.69379
 211.32169 212.09923 213.82437 215.85620 218.42206 222.31758 227.99054 232.67633
 236.40453 240.57712 244.96936 249.35564 253.44867 256.85168 259.45425 262.13690
 265.33258 267.82452 269.93777 272.21988 274.54251 276.38956 277.99921 279.40625
 281.03867 282.79581 284.32224 285.66257 286.82251 287.84875 288.78503 289.63327
 290.39615 291.07547 291.66895 292.42523
 366.78100 356.34175 345.78050 334.65325 323.06301 311.26376 299.14051 286.95026
 274.66901 262.57276 250.58852 239.89627 230.02502 221.13577 213.32452 206.33327
 200.17403 195.11878 191.70753 189.75628 188.80003 188.87078 189.71254 191.02729
 192.75904 194.86079 197.13054 199.49629 201.94805 204.43480 206.52955 208.37830
 210.01105 211.16280 211.39855 211.63331 211.57706 211.28881 210.92856 210.56531
 210.18906 209.90582 209.72057 209.59132 209.52607 209.86382 210.25657 210.65233
 211.45208 212.63683 213.89358 215.68333 217.61808 219.66784 221.76959 223.85934
 225.92609 228.01684 230.12059 232.23334 234.36910 236.54785 238.81060 241.18735
 243.81510 246.07285 248.08161 249.85336 251.27711 252.40686 253.23561 253.55836
 253.60212 253.38287 252.74962 251.70437 250.31712 248.48487 246.40063 244.24038
 242.03813 239.84888 237.67563 235.52138 233.38814 231.26189 229.29464 227.45839
 225.74814 224.22689 222.86364 221.64240 220.53115 219.49790 218.60865 217.75640
 217.00515 216.19191 215.29666 214.66741 214.12416 213.87521 213.03792 211.70651
 211.22221 212.04176 213.81723 215.83281 218.46748 222.36288 227.94225 232.64153
 236.39812 240.60492 245.02107 249.43555 253.57056 257.01877 259.70276 262.42841
 265.35709 267.81903 269.81802 272.33704 274.48276 276.35703 277.94327 279.36783
 281.35593 283.18683 284.77121 286.16238 287.36633 288.43152 289.40335 290.28375
 291.07559 291.78070 292.39670 293.18170
 366.78100 356.34240 345.78180 334.65519 323.06559 311.26699 299.14439 286.95479
 274.67419 262.57858 250.59498 239.90338 230.03278 221.14418 213.33358 206.34297
 200.18437 195.12977 191.71917 189.76857 188.81297 188.88436 189.72676 191.04216
 192.77456 194.87696 197.14736 199.51375 201.96615 204.45355 206.54895 208.39835
 210.03174 211.18414 211.42054 211.65594 211.60034 211.31274 210.95313 210.59053
 210.21493 209.93233 209.74773 209.61913 209.55452 209.89292 210.28632 210.68272
 211.48312 212.66852 213.92591 215.71631 217.65171 219.70211 221.80451 223.89491
 225.96230 228.05370 230.15810 232.27150 234.40790 236.58729 238.85069 241.22809
 243.85649 246.11489 248.12429 249.89668 251.32108 252.45148 253.28088 253.60428
 253.64868 253.43007 252.79747 251.75287 250.36627 248.53467 246.45107 244.29146
 242.08986 239.90126 237.72866 235.57506 233.44246 231.31685 229.35025 227.51465
 225.80505 224.28445 222.92184 221.70124 220.59064 219.55804 218.66944 217.81784
 217.06723 216.25463 215.36003 214.73143 214.18883 213.91003 213.08270 211.82210
 211.18335 211.96973 213.71313 215.66508 218.32436 222.31429 227.88605 232.58690
 236.35014 240.58047 245.03009 249.49400 253.72522 257.26379 260.06091 262.73599
 265.58954 268.16476 270.19705 272.21167 274.39514 276.30850 277.91473 279.61911
 281.70975 283.66953 285.36536 286.85443 288.14313 289.28326 290.32346 291.26581
 292.11337 292.86810 293.52744 294.36768
 366.78100 356.34482 345.78665 334.66247 323.07529 311.27912 299.15894 286.97177
 274.69359 262.60041 250.61924 239.93006 230.06188 221.17571 213.36753 206.37935
 200.22318 195.17100 191.76283 189.81465 188.86147 188.93530 189.78012 191.09794
 192.83277 194.93759 197.21042 199.57924 202.03406 204.52389 206.62171 208.47353
 210.10936 211.26418 211.50300 211.74083 211.68765 211.40248 211.04530 210.68512
 210.31195 210.03177 209.84959 209.72342 209.66124 210.00206 210.39789 210.79671
 211.59954 212.78736 214.04718 215.84001 217.77783 219.83065 221.93548 224.02830
 226.09812 228.19195 230.29877 232.41460 234.55342 236.73524 239.00107 241.38089
 244.01171 246.27254 248.28436 250.05919 251.48601 252.61883 253.45066 253.77648
 253.82330 253.60713 252.97695 251.93477 250.55060 248.72142 246.64025 244.48307
 242.28389 240.09772 237.92754 235.77636 233.64619 231.52301 229.55883 227.72566
 226.01848 224.50031 223.14013 221.92195 220.81378 219.78360 218.89742 218.04825
 217.30007 216.48989 215.59772 214.97154 214.43137 214.01747 213.00305 212.01567
 211.36758 212.00131 213.61006 215.49094 218.15303 222.33000 227.74388 232.47285
 236.21208 240.43123 244.86702 249.26711 253.36592 256.89679 259.85699 262.58441
 265.36865 268.07068 270.36084 272.16614 274.32611 276.24188 278.18600 280.03458
 281.82303 283.59363 285.24646 286.71039 287.97726 289.09814 290.12079 291.04721
 291.88043 292.62244 293.27060 294.09665
 366.78100 356.34624 345.78948 334.66673 323.08097 311.28621 299.16745 286.98169
 274.70493 262.61318 250.63342 239.94566 230.07890 221.19414 213.38739 206.40063
 200.24587 195.19511 191.78835 189.84159 188.88984 188.96508 189.81132 191.13056
 192.86680 194.97305 197.24729 199.61753 202.07377 204.56501 206.66425 208.51750
 210.15474 211.31098 211.55122 211.79046 211.73871 211.45495 211.09919 210.74043
 210.36867 210.08991 209.90916 209.78440 209.72364 210.06588 210.46312 210.86337
 211.66761 212.85685 214.11809 215.91233 217.85157 219.90582 222.01206 224.10630
 226.17754 228.27278 230.38103 232.49827 234.63851 236.82175 239.08899 241.47023
 244.10248 246.36472 248.37796 250.15420 251.58244 252.71668 253.54993 253.87717
 253.92541 253.71065 253.08189 252.04114 250.65838 248.83062 246.75086 244.59510
 242.39734 240.21259 238.04383 235.89407 233.76531 231.64355 229.68080 227.84904
 226.14328 224.62652 223.26776 222.05100 220.94425 219.91549 219.03073 218.18297
 217.43621 216.62746 215.73670 215.11194 214.57318 214.10768 212.98831 212.06371
 211.49850 212.05042 213.66539 215.58447 218.21170 222.35501 227.73114 232.40266
 236.11325 240.32431 244.73901 249.07953 253.06932 256.45239 259.33344 262.14005
 265.09171 267.92807 270.25522 272.18365 274.30377 276.23474 278.03867 279.82455
 281.61926 283.29178 284.86377 286.26819 287.48358 288.55887 289.53995 290.42871
 291.22806 291.93988 292.56171 293.35419
 366.78100 356.34746 345.79192 334.67038 323.08584 311.29229 299.17475 286.99021
 274.71467 262.62413 250.64559 239.95905 230.09351 221.20997 213.40442 206.41888
 200.26534 195.21580 191.81026 189.86472 188.91418 188.99064 189.83809 191.15855
 192.89601 195.00347 197.27893 199.65039 202.10785 204.60031 206.70077 208.55522
 210.19368 211.35114 211.59260 211.83306 211.78252 211.49998 211.14544 210.78790
 210.41735 210.13981 209.96027 209.83673 209.77719 210.12065 210.51911 210.92057
 211.72602 212.91648 214.17894 215.97440 217.91486 219.97032 222.07778 224.17324
 226.24570 228.34215 230.45161 232.57007 234.71153 236.89599 239.16445 241.54691
 244.18037 246.44383 248.45828 250.23574 251.66520 252.80066 253.63512 253.96358
 254.01304 253.79950 253.17196 252.13241 250.75087 248.92433 246.84579 244.69125
 242.49471 240.31117 238.14363 235.99508 233.86754 231.74700 229.78546 227.95492
 226.25038 224.73484 223.37730 222.16176 221.05621 220.02867 219.14513 218.29859
 217.55305 216.74551 215.85597 215.23243 214.69489 214.20624 213.00386 212.02354
 211.54880 211.99152 213.65302 215.64491 218.25255 222.32581 227.83228 232.44431
 236.15797 240.37193 244.78589 249.11444 253.09964 256.47086 259.32239 262.04367
 265.01154 267.86798 270.25653 272.17383 274.27295 276.21896 278.00977 279.74374
 281.58569 283.46567 285.23401 286.78674 288.13049 289.31940 290.40405 291.38672
 292.27048 293.05750 293.74500 294.62115
 366.78100 356.34959 345.79617 334.67676 323.09434 311.30293 299.18752 287.00510
 274.73169 262.64327 250.66686 239.98245 230.11903 221.23762 213.43421 206.45079
 200.29938 195.25196 191.84855 189.90514 188.95672 189.03531 189.88489 191.20748
 192.94707 195.05665 197.33424 199.70782 202.16741 204.66200 206.76458 208.62117
 210.26175 211.42134 211.66493 211.90751 211.85910 211.57868 211.22627 210.87086
 210.50244 210.22703 210.04962 209.92820 209.87079 210.21637 210.61696 211.02055
 211.82813 213.02072 214.28530 216.08289 218.02548 220.08306 222.19265 224.29023
 226.36482 228.46341 230.57499 232.69558 234.83916 237.02575 239.29634 241.68092
 244.31651 246.58210 248.59868 250.37827 251.80985 252.94744 253.78403 254.11461
 254.16620 253.95478 253.32937 252.29196 250.91254 249.08813 247.01171 244.85930
 242.66489 240.48347 238.31806 236.17164 234.04623 231.92782 229.96840 228.13999
 226.43758 224.92416 223.56875 222.35533 221.25192 220.22651 219.34509 218.50068
 217.75726 216.95185 216.06444 215.44302 214.90761 214.33107 212.95193 212.02234
 211.71083 211.98721 213.48808 215.46724 218.18874 222.35269 227.78107 232.42407
 236.14902 240.39117 244.83937 249.20012 253.21602 256.60852 259.43216 262.15024
 265.13852 268.00754 270.29526 272.20581 274.24277 276.25821 278.18164 279.96027
 281.79459 283.59680 285.31241 286.90781 288.28848 289.51004 290.62451 291.63416
 292.54224 293.35086 294.05725 294.95749
 366.78100 356.34863 345.79426 334.67389 323.09052 311.29815 299.18177 286.99840
 274.72403 262.63466 250.65729 239.97192 230.10755 221.22518 213.42081 206.43644
 200.28406 195.23569 191.83132 189.88695 188.93758 189.01521 189.86384 191.18547
 192.92410 195.03273 197.30936 199.68198 202.14061 204.63424 206.73587 208.59150
 210.23113 211.38976 211.63239 211.87402 211.82465 211.54327 211.18990 210.83353
 210.46416 210.18779 210.00942 209.88705 209.82868 210.17331 210.57294 210.97557
 211.78219 212.97382 214.23745 216.03408 217.97571 220.03234 222.14097 224.23760
 226.31123 228.40886 230.51948 232.63911 234.78174 236.96737 239.23700 241.62063
 244.25526 246.51989 248.53552 250.31415 251.74478 252.88140 253.71703 254.04666
 254.09729 253.88492 253.25855 252.22018 250.83981 249.01444 246.93707 244.78369
 242.58832 240.40595 238.23958 236.09221 233.96584 231.84647 229.88610 228.05673
 226.35336 224.83899 223.48261 222.26824 221.16387 220.13750 219.25513 218.40976
 217.66539 216.85902 215.97065 215.34828 214.81190 214.27849 213.00974 212.06267
 211.71315 211.95331 213.28545 215.28793 218.10605 222.24519 227.60109 232.30118
 236.08151 240.33298 244.78139 249.13603 253.12718 256.52664 259.37659 262.09543
 264.96524 267.76422 270.10632 272.16556 274.20963 276.15039 278.16599 280.03891
 281.76019 283.37125 284.86276 286.21878 287.42538 288.55878 289.60577 290.55426
 291.40735 292.16702 292.83063 293.67636
 366.78100 356.34580 345.78859 334.66539 323.07919 311.28398 299.16478 286.97857
 274.70137 262.60917 250.62896 239.94076 230.07356 221.18835 213.38115 206.39394
 200.23874 195.18754 191.78033 189.83313 188.88093 188.95572 189.80152 191.12031
 192.85611 194.96191 197.23570 199.60550 202.06130 204.55209 206.65089 208.50368
 210.14048 211.29628 211.53607 211.77487 211.72267 211.43846 211.08226 210.72305
 210.35085 210.07165 209.89044 209.76524 209.70404 210.04583 210.44263 210.84242
 211.64622 212.83502 214.09581 215.88961 217.82841 219.88220 221.98800 224.08179
 226.15259 228.24739 230.35518 232.47198 234.61178 236.79457 239.06137 241.44216
 244.07396 246.33576 248.34855 250.12435 251.55215 252.68594 253.51874 253.84553
 253.89333 253.67813 253.04892 252.00772 250.62452 248.79631 246.71611 244.55990
 242.36170 240.17650 238.00729 235.85709 233.72789 231.60568 229.64248 227.81027
 226.10407 224.58687 223.22766 222.01046 220.90326 219.87405 218.98885 218.14064
 217.39344 216.58424 215.69303 215.06783 214.52863 214.11784 213.14137 212.22688
 211.63379 211.92357 213.30298 215.29688 218.02319 222.11600 227.55885 232.14923
 236.02205 240.25171 244.69965 249.03542 253.00592 256.42346 259.33157 262.05127
 264.83609 267.59668 270.02338 272.12784 274.15674 276.12903 278.10779 280.02194
 281.69299 283.16769 284.46176 285.55963 286.49200 287.38391 288.31781 289.19473
 290.03818 290.80731 291.47925 292.33554
 366.78100 356.34499 345.78697 334.66296 323.07595 311.27993 299.15992 286.97291
 274.69490 262.60188 250.62087 239.93186 230.06384 221.17783 213.36982 206.38180
 200.22579 195.17378 191.76576 189.81775 188.86474 188.93873 189.78371 191.10170
 192.83669 194.94167 197.21466 199.58365 202.03863 204.52862 206.62661 208.47859
 210.11458 211.26957 211.50856 211.74654 211.69353 211.40852 211.05150 210.69149
 210.31848 210.03846 209.85645 209.73044 209.66842 210.00941 210.40540 210.80439
 211.60737 212.79536 214.05535 215.84833 217.78632 219.83931 221.94429 224.03728
 226.10727 228.20125 230.30824 232.42423 234.56322 236.74520 239.01119 241.39118
 244.02216 246.28315 248.29514 250.07012 251.49711 252.63010 253.46209 253.78807
 253.83506 253.61905 252.98903 251.94702 250.56301 248.73399 246.65298 244.49597
 242.29695 240.11094 237.94093 235.78992 233.65990 231.53689 229.57288 227.73986
 226.03285 224.51484 223.15482 221.93681 220.82880 219.79878 218.91277 218.06376
 217.31575 216.50573 215.61372 214.98771 214.44769 214.08192 213.21501 212.26263
 211.51019 211.89742 213.42725 215.47903 218.14868 222.15561 227.56932 232.06535
 235.96451 240.19127 244.64804 248.97617 252.93556 256.33505 259.23874 261.96490
 264.73669 267.49304 269.96127 272.05432 274.11606 276.08743 278.13388 280.05997
 281.75003 283.19568 284.43954 285.47458 286.31177 287.01395 287.69595 288.54388
 289.33331 290.08456 290.77365 291.65182
 366.78100 356.34507 345.78714 334.66321 323.07628 311.28035 299.16041 286.97348
 274.69555 262.60262 250.62169 239.93276 230.06483 221.17890 213.37097 206.38304
 200.22710 195.17517 191.76724 189.81931 188.86638 188.94045 189.78552 191.10359
 192.83866 194.94373 197.21679 199.58586 202.04093 204.53100 206.62907 208.48114
 210.11721 211.27228 211.51135 211.74942 211.69648 211.41155 211.05462 210.69469
 210.32176 210.04183 209.85990 209.73397 209.67204 210.01311 210.40917 210.80824
 211.61131 212.79938 214.05945 215.85252 217.79059 219.84366 221.94873 224.04180
 226.11187 228.20593 230.31300 232.42907 234.56814 236.75021 239.01628 241.39635
 244.02742 246.28849 248.30056 250.07562 251.50269 252.63576 253.46783 253.79390
 253.84097 253.62504 252.99511 251.95318 250.56925 248.74031 246.65938 244.50245
 242.30352 240.11759 237.94766 235.79673 233.66680 231.54387 229.57994 227.74700
 226.04007 224.52214 223.16221 221.94428 220.83635 219.80642 218.92049 218.07156
 217.32363 216.51370 215.62176 214.99583 214.45590 214.09813 213.25023 212.34476
 211.40317 211.75873 213.42247 215.57622 218.30605 222.26227 227.59291 232.04965
 235.91693 240.14874 244.60107 248.91235 252.84363 256.21933 259.13510 261.90683
 264.69675 267.42859 269.88611 272.02609 274.08527 276.08121 278.14578 280.05432
 281.72296 283.13638 284.33881 285.32285 286.13663 286.84781 287.54028 288.40036
 289.19608 289.95718 290.64890 291.53043
 366.78100 356.34559 345.78818 334.66477 323.07836 311.28295 299.16354 286.97713
 274.69972 262.60731 250.62690 239.93849 230.07108 221.18567 213.37826 206.39085
 200.23544 195.18403 191.77662 189.82921 188.87680 188.95139 189.79698 191.11557
 192.85116 194.95675 197.23033 199.59992 202.05551 204.54610 206.64469 208.49728
 210.13387 211.28946 211.52905 211.76764 211.71523 211.43082 211.07441 210.71500
 210.34259 210.06318 209.88177 209.75636 209.69495 210.03654 210.43313 210.83272
 211.63631 212.82490 214.08549 215.87908 217.81767 219.87126 221.97685 224.07044
 226.14103 228.23562 230.34321 232.45980 234.59939 236.78198 239.04857 241.42916
 244.06075 246.32234 248.33493 250.11052 251.53811 252.67170 253.50429 253.83088
 253.87847 253.66306 253.03365 251.99224 250.60883 248.78041 246.70000 244.54359
 242.34518 240.15977 237.99036 235.83995 233.71054 231.58813 229.62472 227.79231
 226.08590 224.56849 223.20908 221.99167 220.88426 219.85485 218.96944 218.12103
 217.37362 216.56421 215.67280 215.04739 214.50798 214.13222 213.24301 212.42955
 211.54189 211.63870 213.27159 215.51775 218.34650 222.32011 227.62505 232.04947
 235.88565 240.11296 244.56155 248.85672 252.76364 256.12772 259.06464 261.87665
 264.67709 267.37823 269.83075 272.01273 274.04034 276.05869 278.10754 279.98383
 281.62369 283.01456 284.22397 285.17120 285.99881 286.75888 287.47672 288.33902
 289.13577 289.89648 290.58325 291.45847
 366.78100 356.34388 345.78476 334.65964 323.07152 311.27440 299.15328 286.96517
 274.68605 262.59193 250.60981 239.91969 230.05057 221.16345 213.35433 206.36521
 200.20809 195.15497 191.74585 189.79674 188.84262 188.91550 189.75938 191.07626
 192.81014 194.91402 197.18590 199.55378 202.00766 204.49654 206.59342 208.44431
 210.07919 211.23307 211.47095 211.70783 211.65371 211.36759 211.00947 210.64835
 210.27423 209.99311 209.80999 209.68288 209.61976 209.95964 210.35452 210.75240
 211.55428 212.74116 214.00004 215.79192 217.72880 219.78068 221.88456 223.97645
 226.04533 228.13821 230.24409 232.35897 234.49685 236.67773 238.94261 241.32149
 243.95137 246.21125 248.22213 249.99601 251.42190 252.55378 253.38466 253.70954
 253.75542 253.53830 252.90718 251.86406 250.47894 248.64882 246.56670 244.40858
 242.20847 240.02135 237.85023 235.69811 233.56699 231.44287 229.47775 227.64363
 225.93551 224.41639 223.05527 221.83615 220.72704 219.69592 218.80880 217.95868
 217.20956 216.39844 215.50532 214.87820 214.33708 214.06316 213.40427 212.32388
 211.64619 211.70851 213.18056 215.43204 218.31087 222.32330 227.62064 232.08063
 235.84537 240.08882 244.52658 248.80840 252.69127 256.05313 259.01971 261.85956
 264.65436 267.33432 269.77097 271.96930 273.98578 276.00278 278.03311 279.88934
 281.51389 282.89127 284.12628 285.08099 285.88663 286.64536 287.50360 288.37012
 289.19031 289.95993 290.63223 291.48901
 366.78100 356.34339 345.78378 334.65817 323.06956 311.27195 299.15034 286.96173
 274.68212 262.58751 250.60490 239.91429 230.04468 221.15707 213.34746 206.35785
 200.20024 195.14663 191.73702 189.78741 188.83280 188.90520 189.74859 191.06498
 192.79837 194.90176 197.17315 199.54054 201.99393 204.48232 206.57871 208.42910
 210.06349 211.21688 211.45427 211.69066 211.63605 211.34944 210.99083 210.62922
 210.25461 209.97300 209.78939 209.66178 209.59817 209.93756 210.33195 210.72934
 211.53073 212.71712 213.97551 215.76690 217.70329 219.75468 221.85807 223.94946
 226.01785 228.11024 230.21563 232.33002 234.46741 236.64781 238.91220 241.29059
 243.91998 246.17937 248.18976 249.96315 251.38854 252.51993 253.35032 253.67471
 253.72010 253.50249 252.87088 251.82727 250.44166 248.61105 246.52844 244.36983
 242.16922 239.98161 237.81000 235.65739 233.52578 231.40117 229.43556 227.60095
 225.89234 224.37273 223.01112 221.79151 220.68190 219.65029 218.76268 217.91207
 217.16246 216.35085 215.45724 214.82963 214.28802 214.06216 213.49001 212.26520
 211.59488 211.64761 213.17609 215.51102 218.39740 222.35718 227.59459 232.10818
 235.81894 240.07060 244.49741 248.76483 252.62396 255.98370 258.98386 261.83551
 264.61273 267.30688 269.73914 271.94971 273.87256 275.93036 277.95175 279.78244
 281.36978 282.73703 283.95248 284.90622 285.74631 286.76929 287.73898 288.67590
 289.52515 290.28137 290.94202 291.78391
 366.78100 356.34474 345.78647 334.66221 323.07494 311.27868 299.15842 286.97115
 274.69289 262.59962 250.61836 239.92910 230.06083 221.17457 213.36630 206.37804
 200.22177 195.16951 191.76125 189.81298 188.85972 188.93345 189.77819 191.09593
 192.83066 194.93540 197.20813 199.57687 202.03161 204.52134 206.61908 208.47081
 210.10655 211.26129 211.50002 211.73776 211.68449 211.39923 211.04197 210.68170
 210.30844 210.02817 209.84591 209.71964 209.65738 209.99812 210.39385 210.79259
 211.59532 212.78306 214.04280 215.83553 217.77327 219.82600 221.93074 224.02348
 226.09321 228.18695 230.29368 232.40942 234.54816 236.72989 238.99563 241.37536
 244.00610 246.26683 248.27857 250.05331 251.48004 252.61278 253.44451 253.77025
 253.81699 253.60072 252.97046 251.92819 250.54393 248.71467 246.63340 244.47614
 242.27687 240.09061 237.92035 235.76908 233.63882 231.51555 229.55129 227.71803
 226.01076 224.49250 223.13223 221.91397 220.80570 219.77544 218.88918 218.03991
 217.29165 216.48138 215.58912 214.96286 214.42259 214.14752 213.45290 212.32379
 211.54659 211.59523 213.24428 215.60686 218.48135 222.38708 227.55412 232.06287
 235.78699 240.05180 244.47986 248.74110 252.59348 255.96278 258.99710 261.86969
 264.62338 267.30600 269.71860 271.96606 273.86597 275.85623 277.84714 279.64038
 281.19614 282.53156 283.76385 284.78976 285.92142 286.97144 287.97055 288.87567
 289.68973 290.41464 291.04791 291.85495
 366.78100 356.34598 345.78896 334.66594 323.07992 311.28490 299.16588 286.97986
 274.70283 262.61081 250.63079 239.94277 230.07575 221.19073 213.38371 206.39669
 200.24167 195.19065 191.78363 189.83661 188.88459 188.95957 189.80555 191.12453
 192.86050 194.96648 197.24046 199.61044 202.06642 204.55740 206.65638 208.50936
 210.14634 211.30232 211.54230 211.78128 211.72926 211.44524 211.08922 210.73020
 210.35817 210.07915 209.89813 209.77311 209.71209 210.05407 210.45105 210.85103
 211.65501 212.84399 214.10497 215.89895 217.83793 219.89191 221.99789 224.09186
 226.16284 228.25782 230.36580 232.48278 234.62276 236.80574 239.07272 241.45370
 244.08568 246.34766 248.36064 250.13662 251.56460 252.69858 253.53156 253.85853
 253.90651 253.69149 253.06247 252.02145 250.63843 248.81041 246.73039 244.57437
 242.37635 240.19133 238.02231 235.87229 233.74327 231.62125 229.65822 227.82620
 226.12018 224.60316 223.24414 222.02712 220.92010 219.89108 219.00606 218.15804
 217.41102 216.60200 215.71098 215.08596 214.54694 214.21167 213.39941 212.49419
 211.56543 211.61899 213.21387 215.52373 218.42078 222.33495 227.45346 231.95808
 235.72659 240.01157 244.44797 248.70721 252.55980 255.96535 259.05771 261.97183
 264.71515 267.28720 269.73615 271.95670 273.80936 275.82590 277.78128 279.53903
 281.08966 282.42490 283.68350 284.81870 285.93405 286.98730 288.00034 288.91806
 289.74344 290.47845 291.12054 291.93881
 366.78100 356.34631 345.78961 334.66692 323.08123 311.28653 299.16784 286.98214
 274.70545 262.61376 250.63406 239.94637 230.07968 221.19498 213.38829 206.40160
 200.24690 195.19621 191.78951 189.84282 188.89113 188.96643 189.81274 191.13205
 192.86835 194.97466 197.24897 199.61927 202.07558 204.56688 206.66619 208.51950
 210.15680 211.31311 211.55342 211.79272 211.74103 211.45734 211.10164 210.74295
 210.37125 210.09256 209.91187 209.78717 209.72648 210.06879 210.46609 210.86640
 211.67071 212.86001 214.12132 215.91562 217.85493 219.90924 222.01554 224.10985
 226.18116 228.27646 230.38477 232.50208 234.64238 236.82569 239.09299 241.47430
 244.10661 246.36891 248.38222 250.15853 251.58683 252.72114 253.55444 253.88175
 253.93006 253.71536 253.08667 252.04598 250.66328 248.83559 246.75590 244.60020
 242.40251 240.21781 238.04912 235.89943 233.77073 231.64904 229.68635 227.85465
 226.14896 224.63227 223.27357 222.05688 220.95018 219.92149 219.03680 218.18910
 217.44241 216.63372 215.74302 215.11833 214.57964 214.22607 213.38361 212.61613
 211.65398 211.66808 213.13736 215.41481 218.34081 222.26300 227.33342 231.83257
 235.64101 239.93268 244.36209 248.59660 252.43129 255.86790 259.03091 262.00720
 264.77194 267.31085 269.74875 271.95419 273.78113 275.82593 277.75546 279.49030
 281.03677 282.39594 283.63083 284.78986 285.84479 286.89481 287.91827 288.84927
 289.68661 290.43228 291.08365 291.91379
 366.78100 356.34582 345.78863 334.66545 323.07926 311.28408 299.16489 286.97871
 274.70152 262.60934 250.62915 239.94097 230.07378 221.18860 213.38141 206.39423
 200.23904 195.18786 191.78067 189.83349 188.88130 188.95612 189.80193 191.12075
 192.85656 194.96238 197.23619 199.60601 202.06182 204.55264 206.65146 208.50427
 210.14109 211.29690 211.53672 211.77553 211.72335 211.43916 211.08298 210.72379
 210.35161 210.07242 209.89124 209.76605 209.70487 210.04668 210.44350 210.84331
 211.64713 212.83594 214.09676 215.89057 217.82939 219.88320 221.98902 224.08283
 226.15365 228.24847 230.35628 232.47310 234.61291 236.79573 239.06254 241.44336
 244.07517 246.33699 248.34980 250.12562 251.55343 252.68725 253.52006 253.84688
 253.89469 253.67951 253.05032 252.00914 250.62595 248.79777 246.71758 244.56140
 242.36321 240.17803 238.00884 235.85866 233.72947 231.60729 229.64411 227.81192
 226.10574 224.58855 223.22937 222.01218 220.90500 219.87581 218.99063 218.14244
 217.39526 216.58607 215.69489 215.06970 214.53052 214.21214 213.43706 212.57661
 211.75468 211.79198 213.19290 215.46667 218.38657 222.28961 227.28613 231.78122
 235.58464 239.88585 244.31285 248.52426 252.32013 255.75137 258.95422 261.98886
 264.77567 267.31918 269.74411 271.87466 273.80695 275.83350 277.72089 279.41092
 280.94006 282.30444 283.52405 284.81235 285.98788 287.09561 288.12137 289.05063
 289.88638 290.63062 291.28079 292.10934
 366.78100 356.34459 345.78618 334.66177 323.07435 311.27794 299.15753 286.97012
 274.69171 262.59830 250.61689 239.92747 230.05906 221.17265 213.36424 206.37583
 200.21942 195.16700 191.75859 189.81018 188.85677 188.93036 189.77495 191.09254
 192.82712 194.93171 197.20430 199.57289 202.02748 204.51707 206.61466 208.46624
 210.10183 211.25642 211.49501 211.73260 211.67919 211.39378 211.03636 210.67595
 210.30254 210.02213 209.83972 209.71331 209.65089 209.99148 210.38707 210.78566
 211.58825 212.77584 214.03543 215.82801 217.76560 219.81819 221.92278 224.01537
 226.08496 228.17855 230.28513 232.40072 234.53931 236.72090 238.98649 241.36608
 243.99667 246.25725 248.26884 250.04343 251.47002 252.60261 253.43420 253.75979
 253.80637 253.58996 252.95955 251.91714 250.53273 248.70332 246.62190 244.46449
 242.26508 240.07867 237.90826 235.75685 233.62644 231.50302 229.53861 227.70520
 225.99779 224.47938 223.11897 221.90056 220.79214 219.76173 218.87532 218.02591
 217.27750 216.46709 215.57468 214.94826 214.40785 214.16289 213.52647 212.54475
 211.81052 211.88002 213.22768 215.49529 218.42145 222.32458 227.27719 231.79007
 235.57056 239.88115 244.31757 248.53354 252.31683 255.76118 259.00839 262.08856
 264.90125 267.42981 269.74359 271.82297 273.72189 275.67728 277.51178 279.18741
 280.75296 282.16315 283.65256 285.04694 286.32199 287.46622 288.51016 289.45590
 290.30649 291.06393 291.72562 292.56888
 366.78100 356.34433 345.78566 334.66099 323.07332 311.27665 299.15598 286.96831
 274.68964 262.59597 250.61430 239.92463 230.05596 221.16929 213.36062 206.37195
 200.21528 195.16261 191.75394 189.80527 188.85160 188.92493 189.76926 191.08659
 192.82092 194.92525 197.19758 199.56591 202.02024 204.50957 206.60690 208.45823
 210.09356 211.24789 211.48622 211.72355 211.66988 211.38421 211.02654 210.66587
 210.29220 210.01153 209.82886 209.70219 209.63951 209.97984 210.37517 210.77350
 211.57583 212.76316 214.02249 215.81482 217.75215 219.80448 221.90881 224.00114
 226.07047 228.16380 230.27013 232.38546 234.52379 236.70512 238.97045 241.34978
 243.98011 246.24044 248.25177 250.02610 251.45243 252.58476 253.41609 253.74142
 253.78775 253.57108 252.94041 251.89774 250.51307 248.68340 246.60173 244.44406
 242.24439 240.05772 237.88705 235.73538 233.60471 231.48104 229.51637 227.68270
 225.97503 224.45636 223.09569 221.87702 220.76835 219.73768 218.85101 218.00134
 217.25267 216.44200 215.54933 214.92266 214.38199 214.16467 213.56345 212.59927
 211.96054 212.02000 213.24310 215.44763 218.32585 222.24651 227.22128 231.71545
 235.49162 239.81531 244.25194 248.43704 252.19016 255.65500 258.97568 262.13010
 265.03149 267.60342 269.89642 271.96368 273.85480 275.64569 277.37439 279.04080
 280.53775 282.20248 283.85669 285.40909 286.75253 287.94116 289.02560 290.00803
 290.89160 291.67844 292.36578 293.24176
 366.78100 356.34505 345.78710 334.66314 323.07619 311.28024 299.16029 286.97333
 274.69538 262.60243 250.62148 239.93253 230.06457 221.17862 213.37067 206.38272
 200.22676 195.17481 191.76686 189.81891 188.86596 188.94000 189.78505 191.10310
 192.83815 194.94320 197.21624 199.58529 202.04034 204.53039 206.62843 208.48048
 210.11653 211.27158 211.51063 211.74867 211.69572 211.41077 211.05382 210.69386
 210.32091 210.04096 209.85901 209.73306 209.67110 210.01215 210.40820 210.80725
 211.61029 212.79834 214.05839 215.85144 217.78949 219.84253 221.94758 224.04063
 226.11068 228.20473 230.31177 232.42782 234.56687 236.74892 239.01496 241.39501
 244.02606 246.28711 248.29916 250.07420 251.50125 252.63430 253.46635 253.79239
 253.83944 253.62349 252.99354 251.95159 250.56763 248.73868 246.65773 244.50078
 242.30182 240.11587 237.94592 235.79497 233.66502 231.54206 229.57811 227.74516
 226.03821 224.52026 223.16030 221.94235 220.83440 219.80445 218.91849 218.06954
 217.32159 216.51164 215.61969 214.99373 214.45378 214.22806 213.56471 212.60495
 212.04103 212.10936 213.32939 215.50914 218.31752 222.11575 227.18152 231.62796
 235.42285 239.72594 244.12550 248.24686 251.95212 255.40103 258.74661 261.93561
 264.85709 267.50577 269.98398 272.19464 274.19958 276.09903 277.93274 279.49197
 281.17114 283.28995 285.14627 286.77631 288.18692 289.43497 290.57364 291.60516
 292.53293 293.35910 294.08084 295.00058
 366.78100 356.34586 345.78873 334.66559 323.07946 311.28432 299.16518 286.97905
 274.70191 262.60978 250.62964 239.94151 230.07437 221.18923 213.38210 206.39496
 200.23983 195.18869 191.78155 189.83442 188.88228 188.95715 189.80301 191.12188
 192.85774 194.96360 197.23747 199.60733 202.06320 204.55406 206.65292 208.50579
 210.14265 211.29852 211.53838 211.77725 211.72511 211.44097 211.08484 210.72570
 210.35357 210.07443 209.89329 209.76816 209.70702 210.04889 210.44575 210.84562
 211.64948 212.83834 214.09921 215.89307 217.83194 219.88580 221.99166 224.08553
 226.15639 228.25126 230.35912 232.47599 234.61585 236.79871 239.06558 241.44644
 244.07831 246.34017 248.35303 250.12890 251.55676 252.69063 253.52349 253.85036
 253.89822 253.68308 253.05395 252.01281 250.62968 248.80154 246.72140 244.56527
 242.36713 240.18200 238.01286 235.86272 233.73359 231.61145 229.64832 227.81618
 226.11005 224.59291 223.23377 222.01664 220.90950 219.88037 218.99523 218.14709
 217.39996 216.59082 215.69969 215.07455 214.53542 214.27786 213.54501 212.58598
 211.96896 212.04156 213.47537 215.68843 218.45056 222.18602 227.22678 231.65126
 235.42726 239.70593 244.08049 248.18893 251.88174 255.29451 258.58328 261.68600
 264.56085 267.28366 269.78043 272.27789 274.46161 276.34729 278.11337 279.97797
 282.00635 284.02200 285.79486 287.35153 288.69873 289.89062 290.97806 291.96323
 292.84924 293.63824 294.32751 295.20590
 366.78100 356.34721 345.79141 334.66962 323.08483 311.29103 299.17324 286.98845
 274.71265 262.62186 250.64307 239.95627 230.09048 221.20669 213.40089 206.41510
 200.26131 195.21151 191.80572 189.85993 188.90913 188.98534 189.83255 191.15275
 192.88996 194.99717 197.27237 199.64358 202.10079 204.59299 206.69320 208.54741
 210.18561 211.34282 211.58403 211.82423 211.77344 211.49065 211.13585 210.77806
 210.40726 210.12947 209.94968 209.82588 209.76609 210.10930 210.50750 210.90871
 211.71392 212.90412 214.16633 215.96154 217.90174 219.95695 222.06416 224.15936
 226.23157 228.32778 230.43698 232.55519 234.69640 236.88060 239.14881 241.53102
 244.16422 246.42743 248.44164 250.21884 251.64805 252.78326 253.61746 253.94567
 253.99488 253.78108 253.15329 252.11350 250.73170 248.90491 246.82612 244.67132
 242.47453 240.29074 238.12294 235.97415 233.84636 231.72556 229.76377 227.93298
 226.22818 224.71239 223.35460 222.13880 221.03301 220.00522 219.12142 218.27463
 217.52884 216.72104 215.83125 215.20746 214.66966 214.33061 213.47903 212.62546
 211.96674 211.89705 213.48155 215.80669 218.55081 222.31531 227.29027 231.67726
 235.43446 239.71196 244.08905 248.19344 251.88756 255.30255 258.55884 261.63049
 264.51758 267.23639 269.58215 271.83466 274.13705 276.09943 277.91125 279.66803
 281.43756 283.06427 284.41946 285.61304 286.64597 287.55984 288.39362 289.14896
 289.82831 290.43326 290.96176 291.63525
 366.78100 356.34789 345.79278 334.67167 323.08756 311.29445 299.17734 286.99323
 274.71812 262.62801 250.64991 239.96380 230.09869 221.21558 213.41047 206.42536
 200.27225 195.22314 191.81803 189.87292 188.92281 188.99970 189.84759 191.16848
 192.90637 195.01426 197.29015 199.66204 202.11993 204.61283 206.71372 208.56861
 210.20750 211.36539 211.60728 211.84817 211.79806 211.51595 211.16184 210.80473
 210.43462 210.15751 209.97840 209.85529 209.79618 210.14007 210.53896 210.94085
 211.74675 212.93764 214.20053 215.99642 217.93731 219.99320 222.10109 224.19698
 226.26987 228.36676 230.47665 232.59554 234.73743 236.92232 239.19121 241.57410
 244.20799 246.47188 248.48677 250.26467 251.69456 252.83045 253.66534 253.99423
 254.04412 253.83101 253.20390 252.16479 250.78368 248.95757 246.87946 244.72535
 242.52924 240.34613 238.17902 236.03091 233.90380 231.78369 229.82259 227.99248
 226.28837 224.77326 223.41615 222.20104 221.09593 220.06882 219.18571 218.33960
 217.59449 216.78738 215.89827 215.27516 214.73805 214.36682 213.45312 212.63361
 212.03905 211.95499 213.43192 215.75624 218.52852 222.28381 227.28035 231.63901
 235.39322 239.68335 244.06940 248.16597 251.84256 255.28551 258.59613 261.68640
 264.44934 267.19031 269.51285 271.55661 273.72171 275.75012 277.63757 279.28925
 280.61484 282.12128 283.65033 285.03711 286.23727 287.29907 288.26782 289.14545
 289.93478 290.63766 291.25171 292.03424
 366.78100 356.34696 345.79092 334.66888 323.08384 311.28980 299.17176 286.98672
 274.71068 262.61964 250.64060 239.95356 230.08752 221.20348 213.39744 206.41141
 200.25737 195.20733 191.80129 189.85525 188.90421 188.98017 189.82713 191.14709
 192.88405 194.99101 197.26597 199.63693 202.09389 204.58585 206.68581 208.53977
 210.17773 211.33469 211.57565 211.81561 211.76457 211.48153 211.12649 210.76845
 210.39741 210.11937 209.93933 209.81529 209.75526 210.09822 210.49618 210.89714
 211.70210 212.89206 214.15402 215.94898 217.88894 219.94390 222.05086 224.14582
 226.21778 228.31374 230.42270 232.54066 234.68162 236.86558 239.13354 241.51550
 244.14846 246.41142 248.42538 250.20234 251.63130 252.76626 253.60022 253.92818
 253.97715 253.76311 253.13507 252.09503 250.71299 248.88595 246.80691 244.65187
 242.45483 240.27079 238.10275 235.95371 233.82567 231.70463 229.74259 227.91155
 226.20651 224.69047 223.33243 222.11639 221.01035 219.98231 219.09827 218.25123
 217.50519 216.69715 215.80711 215.18307 214.64503 214.33344 213.51605 212.57254
 212.10721 212.13162 213.33733 215.54758 218.38542 222.24973 227.21178 231.62151
 235.39398 239.69376 244.08272 248.17041 251.83975 255.32809 258.73914 261.87064
 264.52893 267.18192 269.54047 271.46622 273.51791 275.52246 277.27551 278.74915
 280.11191 281.79547 283.44217 284.91425 286.18817 287.31528 288.34360 289.27518
 290.11304 290.85916 291.51096 292.34158
 366.78100 356.34569 345.78838 334.66507 323.07876 311.28345 299.16414 286.97784
 274.70053 262.60822 250.62791 239.93960 230.07229 221.18698 213.37967 206.39236
 200.23705 195.18574 191.77843 189.83113 188.87882 188.95351 189.79920 191.11789
 192.85358 194.95927 197.23296 199.60265 202.05834 204.54903 206.64772 208.50042
 210.13711 211.29280 211.53249 211.77118 211.71887 211.43456 211.07825 210.71894
 210.34663 210.06732 209.88601 209.76071 209.69940 210.04109 210.43778 210.83747
 211.64116 212.82985 214.09054 215.88423 217.82292 219.87661 221.98230 224.07599
 226.14669 228.24138 230.34907 232.46576 234.60545 236.78814 239.05483 241.43552
 244.06721 246.32890 248.34159 250.11728 251.54498 252.67867 253.51136 253.83805
 253.88574 253.67043 253.04112 251.99981 250.61650 248.78819 246.70788 244.55157
 242.35327 240.16796 237.99865 235.84834 233.71903 231.59672 229.63341 227.80110
 226.09479 224.57748 223.21817 222.00086 220.89356 219.86425 218.97894 218.13063
 217.38332 216.57401 215.68270 215.05739 214.51808 214.25380 213.57613 212.63048
 212.14844 212.08276 213.07541 215.26215 218.26694 222.20201 227.07210 231.59128
 235.40323 239.69975 244.06021 248.13800 251.84042 255.38843 258.84607 262.01099
 264.80255 267.28619 269.55884 271.62451 273.58667 275.47656 277.15198 278.61435
 279.97821 281.25577 282.62357 284.02386 285.31973 286.49005 287.55777 288.52509
 289.39505 290.16977 290.84656 291.70901
 366.78100 356.34442 345.78584 334.66126 323.07369 311.27711 299.15653 286.96895
 274.69037 262.59679 250.61521 239.92564 230.05706 221.17048 213.36190 206.37332
 200.21674 195.16416 191.75559 189.80701 188.85343 188.92685 189.77127 191.08869
 192.82311 194.92754 197.19996 199.56838 202.02280 204.51222 206.60964 208.46106
 210.09649 211.25091 211.48933 211.72675 211.67317 211.38759 211.03001 210.66944
 210.29586 210.01528 209.83270 209.70612 209.64354 209.98396 210.37939 210.77781
 211.58023 212.76765 214.02707 215.81949 217.75691 219.80934 221.91376 224.00618
 226.07560 228.16902 230.27544 232.39086 234.52929 236.71071 238.97613 241.35555
 243.98597 246.24639 248.25781 250.03224 251.45866 252.59108 253.42250 253.74792
 253.79434 253.57776 252.94719 251.90461 250.52003 248.69045 246.60887 244.45129
 242.25172 240.06514 237.89456 235.74298 233.61240 231.48882 229.52424 227.69067
 225.98309 224.46451 223.10393 221.88535 220.77677 219.74619 218.85962 218.01004
 217.26146 216.45088 215.55830 214.93172 214.39114 214.15231 213.58255 212.83965
 212.30905 212.08778 212.86311 214.98128 218.02092 221.98415 227.04807 231.37975
 235.33882 239.55949 243.87796 247.92723 251.64964 255.19012 258.61960 261.85464
 264.83823 267.45804 269.74753 271.81479 273.73990 275.56525 277.22345 278.67459
 279.97531 281.12244 282.28638 283.35049 284.18863 284.97766 285.89270 286.76175
 287.58032 288.32843 288.98199 289.81485
 366.78100 356.34391 345.78482 334.65974 323.07165 311.27456 299.15347 286.96538
 274.68630 262.59221 250.61012 239.92003 230.05094 221.16386 213.35477 206.36568
 200.20859 195.15550 191.74642 189.79733 188.84324 188.91615 189.76006 191.07697
 192.81089 194.91480 197.18671 199.55462 202.00853 204.49745 206.59436 208.44527
 210.08018 211.23409 211.47201 211.70892 211.65483 211.36874 211.01065 210.64957
 210.27548 209.99439 209.81130 209.68421 209.62113 209.96104 210.35595 210.75386
 211.55577 212.74269 214.00160 215.79351 217.73042 219.78233 221.88625 223.97816
 226.04707 228.13998 230.24589 232.36080 234.49872 236.67963 238.94454 241.32345
 243.95336 246.21328 248.22419 249.99810 251.42401 252.55592 253.38684 253.71175
 253.75766 253.54057 252.90948 251.86640 250.48131 248.65122 246.56913 244.41104
 242.21096 240.02387 237.85278 235.70069 233.56960 231.44552 229.48043 227.64634
 225.93825 224.41916 223.05808 221.83899 220.72990 219.69881 218.81172 217.96163
 217.21255 216.40146 215.50837 214.88128 214.34019 214.11047 213.56773 212.92552
 212.43814 212.22646 212.89426 214.91847 217.93019 221.91725 227.05400 231.21597
 235.28381 239.48175 243.80414 247.82574 251.51886 255.06288 258.50464 261.71655
 264.77997 267.46628 269.77261 271.81619 273.74475 275.57870 277.23428 278.62112
 279.85678 281.03793 282.16782 283.27676 284.19223 284.92270 285.62613 286.36105
 287.05780 287.72021 288.32410 289.11465
 366.78100 356.34231 345.78162 334.65492 323.06523 311.26654 299.14385 286.95416
 274.67346 262.57777 250.59408 239.90239 230.03170 221.14300 213.33231 206.34162
 200.18293 195.12824 191.71754 189.76685 188.81116 188.88247 189.72477 191.04008
 192.77239 194.87470 197.14501 199.51131 201.96362 204.45093 206.54624 208.39555
 210.02885 211.18116 211.41747 211.65278 211.59709 211.30939 210.94970 210.58701
 210.21132 209.92863 209.74393 209.61524 209.55055 209.88886 210.28217 210.67847
 211.47878 212.66409 213.92140 215.71171 217.64701 219.69732 221.79963 223.88994
 225.95724 228.04855 230.15286 232.26617 234.40248 236.58178 238.84509 241.22240
 243.85071 246.10902 248.11832 249.89063 251.31494 252.44525 253.27456 253.59786
 253.64217 253.42348 252.79079 251.74610 250.35940 248.52771 246.44402 244.28433
 242.08264 239.89394 237.72125 235.56756 233.43487 231.30918 229.34248 227.50679
 225.79710 224.27641 222.91371 221.69302 220.58233 219.54964 218.66095 217.80925
 217.05856 216.24587 215.35118 214.72249 214.17979 214.03244 213.68431 212.90259
 212.30748 212.17627 212.93440 214.98189 218.03229 222.03432 227.15247 231.29176
 235.32202 239.49611 243.79156 247.78264 251.45023 255.01469 258.49710 261.71277
 264.81265 267.52490 269.84271 271.87033 273.78317 275.58456 277.14487 278.46967
 279.69315 280.88422 282.03625 283.11862 283.97952 284.64450 285.38251 286.12283
 286.79654 287.45981 288.06311 288.86182
 366.78100 356.33942 345.77585 334.64627 323.05369 311.25212 299.12654 286.93397
 274.65039 262.55181 250.56524 239.87066 229.99708 221.10551 213.29193 206.29836
 200.13678 195.07920 191.66563 189.71205 188.75347 188.82190 189.66132 190.97375
 192.70317 194.80259 197.07002 199.43344 201.88286 204.36729 206.45971 208.30614
 209.93656 211.08598 211.31941 211.55183 211.49325 211.20268 210.84010 210.47453
 210.09595 209.81037 209.62280 209.49122 209.42364 209.75907 210.14949 210.54292
 211.34034 212.52276 213.77719 215.56461 217.49703 219.54446 221.64388 223.73130
 225.79573 227.88415 229.98558 232.09600 234.22942 236.40585 238.66627 241.04069
 243.66612 245.92154 247.92797 249.69739 251.11881 252.24624 253.07266 253.39308
 253.43451 253.21293 252.57736 251.52978 250.14020 248.30563 246.21905 244.05647
 241.85190 239.66032 237.48475 235.32817 233.19259 231.06402 229.09444 227.25586
 225.54329 224.01971 222.65414 221.43056 220.31698 219.28141 218.38983 217.53525
 216.78168 215.96610 215.06853 214.43695 213.89137 213.88783 213.87944 212.99670
 212.16359 211.99773 212.87341 214.95959 218.05232 222.08456 227.19112 231.43449
 235.33481 239.54208 243.80899 247.78604 251.42958 254.98784 258.46051 261.67529
 264.70267 267.45956 269.85574 271.90167 273.79361 275.55386 277.10184 278.44101
 279.64453 280.79187 281.90723 282.93835 283.66748 284.33682 285.06967 285.77872
 286.53940 287.26230 287.91922 288.75638
 366.78100 356.33917 345.77534 334.64552 323.05269 311.25086 299.12503 286.93221
 274.64838 262.54955 250.56272 239.86789 229.99407 221.10224 213.28841 206.29458
 200.13276 195.07493 191.66110 189.70727 188.74845 188.81662 189.65579 190.96796
 192.69713 194.79631 197.06348 199.42665 201.87582 204.36000 206.45217 208.29834
 209.92851 211.07768 211.31086 211.54303 211.48420 211.19337 210.83055 210.46472
 210.08589 209.80006 209.61224 209.48041 209.41258 209.74775 210.13792 210.53110
 211.32827 212.51044 213.76461 215.55179 217.48396 219.53113 221.63030 223.71747
 225.78165 227.86982 229.97099 232.08116 234.21434 236.39051 238.65068 241.02485
 243.65002 245.90520 247.91137 249.68054 251.10171 252.22889 253.05506 253.37523
 253.41640 253.19458 252.55875 251.51092 250.12109 248.28626 246.19944 244.03661
 241.83178 239.63995 237.46413 235.30730 233.17147 231.04264 229.07281 227.23399
 225.52116 223.99733 222.63150 221.40768 220.29385 219.25802 218.36619 217.51136
 216.75754 215.94171 215.04388 214.41205 213.86623 213.88966 213.90401 213.11870
 212.12277 211.79254 212.79095 214.93741 218.03391 222.06953 227.12305 231.56557
 235.34163 239.56003 243.79706 247.75192 251.41185 254.98334 258.41690 261.65518
 264.58945 267.24863 269.68860 271.83835 273.80807 275.60773 277.20227 278.60666
 279.85822 281.04324 282.10730 283.00592 283.87061 284.89340 285.93127 286.89984
 287.77097 288.54669 289.22437 290.08798
 366.78100 356.34100 345.77900 334.65100 323.06000 311.26000 299.13600 286.94499
 274.66299 262.56599 250.58099 239.88799 230.01599 221.12599 213.31399 206.32199
 200.16199 195.10599 191.69399 189.74198 188.78498 188.85498 189.69598 191.00998
 192.74098 194.84198 197.11098 199.47598 201.92698 204.41298 206.50698 208.35498
 209.98697 211.13797 211.37297 211.60697 211.54997 211.26097 210.89997 210.53597
 210.15897 209.87497 209.68897 209.55897 209.49296 209.82996 210.22196 210.61696
 211.41596 212.59996 213.85596 215.64496 217.57896 219.62796 221.72896 223.81796
 225.88396 227.97395 230.07695 232.18895 234.32395 236.50195 238.76395 241.13995
 243.76695 246.02395 248.03195 249.80295 251.22595 252.35494 253.18294 253.50494
 253.54794 253.32794 252.69394 251.64794 250.25994 248.42694 246.34194 244.18094
 241.97794 239.78793 237.61393 235.45893 233.32493 231.19793 229.22993 227.39293
 225.68193 224.15993 222.79593 221.57393 220.46193 219.42793 218.53792 217.68492
 216.93292 216.11892 215.22292 214.59292 214.04892 214.00662 213.84174 213.09544
 212.33664 211.95695 212.88196 215.00058 218.05389 222.06963 227.14879 231.58626
 235.37651 239.62404 243.87813 247.81660 251.42947 255.05161 258.40851 261.55142
 264.48709 267.07794 269.49298 271.72006 273.73706 275.62750 277.29550 278.74567
 280.04477 281.18961 282.47812 283.83777 285.15622 286.34760 287.43457 288.41931
 289.30496 290.09363 290.78259 291.66061
 366.78100 356.34242 345.78183 334.65525 323.06566 311.26708 299.14450 286.95491
 274.67433 262.57874 250.59516 239.90358 230.03299 221.14441 213.33382 206.34324
 200.18466 195.13007 191.71949 189.76890 188.81332 188.88474 189.72715 191.04257
 192.77498 194.87740 197.14782 199.51423 201.96665 204.45406 206.54948 208.39890
 210.03231 211.18473 211.42114 211.65656 211.60098 211.31339 210.95381 210.59122
 210.21564 209.93305 209.74847 209.61989 209.55530 209.89372 210.28713 210.68355
 211.48397 212.66938 213.92680 215.71721 217.65263 219.70305 221.80546 223.89588
 225.96329 228.05471 230.15913 232.27254 234.40896 236.58837 238.85179 241.22921
 243.85762 246.11604 248.12545 249.89787 251.32229 252.45270 253.28212 253.60553
 253.64995 253.43137 252.79878 251.75420 250.36761 248.53603 246.45245 244.29286
 242.09128 239.90269 237.73011 235.57653 233.44394 231.31836 229.35177 227.51619
 225.80661 224.28602 222.92344 221.70285 220.59227 219.55969 218.67110 217.81952
 217.06893 216.25635 215.36177 214.73318 214.19060 214.09889 213.80611 213.07608
 212.39304 211.96313 212.92522 215.09062 218.11197 222.09865 227.25970 231.64516
 235.39534 239.66122 243.97084 247.94656 251.53648 255.05644 258.43329 261.61963
 264.49423 266.98965 269.05286 271.24408 273.43854 275.29163 276.75336 278.29239
 279.73975 281.22604 282.66757 284.01337 285.18405 286.21982 287.16476 288.02084
 288.79080 289.47644 290.07538 290.83871
 366.78100 356.34336 345.78373 334.65809 323.06945 311.27182 299.15018 286.96154
 274.68190 262.58727 250.60463 239.91399 230.04436 221.15672 213.34708 206.35745
 200.19981 195.14617 191.73654 189.78690 188.83226 188.90462 189.74799 191.06435
 192.79771 194.90108 197.17244 199.53980 201.99317 204.48153 206.57789 208.42826
 210.06262 211.21598 211.45335 211.68971 211.63507 211.34843 210.98980 210.62816
 210.25352 209.97189 209.78825 209.66061 209.59698 209.93634 210.33070 210.72807
 211.52943 212.71579 213.97415 215.76552 217.70188 219.75324 221.85661 223.94797
 226.01633 228.10870 230.21406 232.32842 234.46579 236.64615 238.91051 241.28887
 243.91824 246.17760 248.18796 249.96133 251.38669 252.51805 253.34842 253.67278
 253.71814 253.50051 252.86887 251.82523 250.43959 248.60896 246.52632 244.36768
 242.16705 239.97941 237.80777 235.65514 233.52350 231.39886 229.43323 227.59859
 225.88995 224.37031 223.00868 221.78904 220.67940 219.64777 218.76013 217.90949
 217.15986 216.34822 215.45458 214.82695 214.28531 214.17505 213.80804 213.15242
 212.46878 212.02400 212.79022 214.89601 217.97578 221.89629 227.26714 231.71729
 235.48827 239.72441 244.01826 248.04025 251.77309 255.31850 258.64230 261.67340
 264.40503 266.86218 268.86865 270.92542 272.77197 274.85971 276.95840 278.57272
 279.75186 280.57498 281.27713 281.89368 282.42722 282.89929 283.32996 283.72015
 284.07104 284.38354 284.65652 285.00443
 366.78100 356.34471 345.78642 334.66213 323.07484 311.27855 299.15826 286.97097
 274.69268 262.59939 250.61810 239.92881 230.06052 221.17423 213.36594 206.37765
 200.22135 195.16906 191.76077 189.81248 188.85919 188.93290 189.77761 191.09532
 192.83003 194.93474 197.20745 199.57616 202.03087 204.52058 206.61829 208.47000
 210.10571 211.26042 211.49913 211.73684 211.68355 211.39826 211.04097 210.68068
 210.30739 210.02710 209.84481 209.71852 209.65623 209.99694 210.39265 210.79135
 211.59406 212.78177 214.04148 215.83419 217.77190 219.82461 221.92932 224.02203
 226.09174 228.18545 230.29216 232.40787 234.54658 236.72829 238.99400 241.37371
 244.00442 246.26513 248.27684 250.05155 251.47826 252.61097 253.44268 253.76839
 253.81510 253.59881 252.96852 251.92623 250.54194 248.71265 246.63135 244.47406
 242.27477 240.08848 237.91819 235.76690 233.63661 231.51332 229.54903 227.71574
 226.00845 224.49016 223.12987 221.91158 220.80329 219.77300 218.88671 218.03742
 217.28913 216.47884 215.58655 214.96026 214.41997 214.25966 213.79303 213.23955
 212.70305 212.20638 212.55101 214.58496 217.67018 221.74100 226.93620 231.50467
 235.37645 239.70424 244.05846 248.13425 251.93987 255.63005 259.11365 262.24377
 265.05750 267.49191 269.54587 271.38788 272.96838 274.89709 276.96658 278.46518
 279.43951 280.23550 280.92429 281.52911 282.05252 282.51562 282.93811 283.32086
 283.66513 283.97168 284.23947 284.58075
 366.78100 356.34494 345.78687 334.66281 323.07575 311.27968 299.15962 286.97255
 274.69449 262.60143 250.62036 239.93130 230.06324 221.17717 213.36911 206.38104
 200.22498 195.17292 191.76485 189.81679 188.86373 188.93766 189.78260 191.10053
 192.83547 194.94041 197.21334 199.58228 202.03722 204.52715 206.62509 208.47702
 210.11296 211.26790 211.50683 211.74477 211.69171 211.40664 211.04958 210.68951
 210.31645 210.03639 209.85432 209.72826 209.66620 210.00713 210.40307 210.80200
 211.60494 212.79288 214.05281 215.84575 217.78369 219.83662 221.94156 224.03449
 226.10443 228.19837 230.30530 232.42124 234.56018 236.74211 239.00805 241.38798
 244.01892 246.27986 248.29179 250.06673 251.49367 252.62660 253.45854 253.78448
 253.83141 253.61535 252.98528 251.94322 250.55916 248.73009 246.64903 244.49197
 242.29290 240.10684 237.93677 235.78571 233.65565 231.53258 229.56852 227.73546
 226.02839 224.51033 223.15026 221.93220 220.82414 219.79407 218.90801 218.05895
 217.31088 216.50082 215.60875 214.98269 214.44263 214.26282 213.77312 213.20006
 212.91882 212.61510 212.83607 214.46182 217.44386 221.59576 226.53586 231.21812
 235.04054 239.28012 243.52798 247.60275 251.54274 255.42390 259.13892 262.53928
 265.61554 268.35486 270.70175 272.64975 274.18738 275.30643 276.47894 278.34055
 279.62698 280.75269 282.25201 283.56857 284.70792 285.71594 286.63562 287.46878
 288.21814 288.88541 289.46835 290.21121
 366.78100 356.34241 345.78182 334.65523 323.06564 311.26705 299.14446 286.95487
 274.67428 262.57869 250.59510 239.90351 230.03292 221.14433 213.33374 206.34315
 200.18456 195.12997 191.71938 189.76879 188.81320 188.88461 189.72702 191.04243
 192.77484 194.87725 197.14766 199.51407 201.96648 204.45390 206.54931 208.39872
 210.03213 211.18454 211.42095 211.65636 211.60077 211.31318 210.95359 210.59100
 210.21541 209.93282 209.74823 209.61964 209.55505 209.89346 210.28687 210.68328
 211.48369 212.66910 213.92651 215.71692 217.65233 219.70274 221.80515 223.89556
 225.96297 228.05438 230.15879 232.27220 234.40861 236.58802 238.85143 241.22884
 243.85725 246.11566 248.12507 249.89748 251.32189 252.45230 253.28171 253.60512
 253.64953 253.43094 252.79835 251.75376 250.36717 248.53558 246.45199 244.29240
 242.09081 239.90222 237.72963 235.57604 233.44345 231.31787 229.35128 227.51569
 225.80610 224.28551 222.92292 221.70233 220.59174 219.55915 218.67056 217.81897
 217.06838 216.25579 215.36120 214.73261 214.19002 214.11658 213.88705 213.14377
 212.71886 212.55592 213.03032 214.70200 217.68712 221.73877 226.67601 231.23248
 235.00974 239.14534 243.26088 247.18871 250.99779 254.80042 258.50671 261.96997
 265.19247 268.13525 270.71136 272.86575 274.59967 275.97284 277.09375 278.28552
 279.53976 280.77863 281.88293 283.06409 284.26129 285.45947 286.55261 287.54291
 288.43359 289.22672 289.91962 290.80261
 366.78100 356.34143 345.77986 334.65229 323.06173 311.26216 299.13859 286.94802
 274.66645 262.56988 250.58532 239.89275 230.02118 221.13161 213.32004 206.32847
 200.16891 195.11334 191.70177 189.75020 188.79363 188.86406 189.70550 191.01993
 192.75136 194.85279 197.12222 199.48765 201.93909 204.42552 206.51995 208.36838
 210.00081 211.15224 211.38768 211.62211 211.56554 211.27697 210.91640 210.55283
 210.17627 209.89270 209.70713 209.57756 209.51199 209.84942 210.24186 210.63729
 211.43672 212.62115 213.87758 215.66701 217.60144 219.65088 221.75231 223.84174
 225.90817 227.99860 230.10203 232.21447 234.34990 236.52833 238.79076 241.16719
 243.79462 246.05206 248.06049 249.83192 251.25535 252.38478 253.21321 253.53565
 253.57908 253.35951 252.72594 251.68037 250.29280 248.46024 246.37567 244.21510
 242.01253 239.82296 237.64939 235.49483 233.36126 231.23469 229.26712 227.43055
 225.71998 224.19842 222.83485 221.61328 220.50171 219.46814 218.57857 217.72600
 216.97444 216.16087 215.26530 214.63573 214.09216 214.05319 213.93782 213.34932
 212.61581 212.16301 212.73705 214.49899 217.59749 221.75371 226.88545 231.37354
 235.22910 239.38051 243.52812 247.41234 251.08278 254.72517 258.28748 261.62390
 264.79468 267.77176 270.43506 272.69397 274.49411 275.89716 277.00269 278.09268
 279.53687 280.87314 281.95010 282.92960 283.91272 284.82877 285.86462 286.89120
 287.81451 288.63672 289.35498 290.27032
 366.78100 356.34181 345.78061 334.65342 323.06322 311.26403 299.14083 286.95064
 274.66944 262.57325 250.58906 239.89686 230.02567 221.13647 213.32528 206.33408
 200.17489 195.11970 191.70850 189.75731 188.80111 188.87192 189.71372 191.02853
 192.76033 194.86214 197.13195 199.49775 201.94956 204.43636 206.53117 208.37997
 210.01278 211.16459 211.40039 211.63520 211.57900 211.29081 210.93061 210.56742
 210.19122 209.90803 209.72284 209.59364 209.52845 209.86625 210.25906 210.65486
 211.45467 212.63948 213.89628 215.68609 217.62089 219.67070 221.77250 223.86231
 225.92911 228.01992 230.12373 232.23653 234.37234 236.55114 238.81395 241.19075
 243.81856 246.07637 248.08517 249.85698 251.28078 252.41059 253.23939 253.56220
 253.60600 253.38681 252.75362 251.70842 250.32123 248.48903 246.40484 244.24464
 242.04245 239.85326 237.68006 235.52587 233.39267 231.26648 229.29928 227.46309
 225.75289 224.23170 222.86851 221.64731 220.53612 219.50292 218.61373 217.76153
 217.01034 216.19715 215.30195 214.67276 214.12956 214.08452 213.94762 213.41859
 212.72394 212.10466 212.63211 214.45990 217.53673 221.68353 226.82561 231.40276
 235.25493 239.48546 243.69186 247.61423 251.26988 254.86987 258.36328 261.60052
 264.68240 267.60910 270.27487 272.58060 274.45642 275.93106 277.05606 278.14365
 279.61377 280.97491 282.03436 283.16833 284.34268 285.55392 286.72421 287.78439
 288.73795 289.58707 290.32883 291.27414
 366.78100 356.34101 345.77903 334.65104 323.06005 311.26007 299.13608 286.94509
 274.66310 262.56612 250.58113 239.88814 230.01616 221.12617 213.31418 206.32220
 200.16221 195.10622 191.69424 189.74225 188.78526 188.85527 189.69629 191.01030
 192.74131 194.84233 197.11134 199.47635 201.92737 204.41338 206.50739 208.35541
 209.98742 211.13843 211.37344 211.60746 211.55047 211.26148 210.90050 210.53651
 210.15952 209.87554 209.68955 209.55956 209.49358 209.83059 210.22260 210.61761
 211.41663 212.60064 213.85665 215.64567 217.57968 219.62869 221.72971 223.81872
 225.88473 227.97475 230.07776 232.18977 234.32478 236.50280 238.76481 241.14082
 243.76784 246.02485 248.03286 249.80388 251.22689 252.35590 253.18392 253.50593
 253.54894 253.32896 252.69497 251.64898 250.26099 248.42801 246.34302 244.18203
 241.97905 239.78906 237.61507 235.46009 233.32610 231.19911 229.23113 227.39414
 225.68315 224.16116 222.79718 221.57519 220.46320 219.42922 218.53923 217.68624
 216.93426 216.12027 215.22428 214.59430 214.05031 214.05853 214.02135 213.37912
 212.77390 212.10921 212.63060 214.52383 217.57750 221.67520 226.79541 231.36009
 235.21814 239.48969 243.74290 247.70628 251.37656 254.97740 258.46667 261.64944
 264.64630 267.49933 270.14694 272.46933 274.36267 275.82690 276.89713 278.16534
 279.65521 281.01199 282.35498 283.75375 285.05997 286.31619 287.46231 288.50061
 289.43445 290.26605 290.99249 291.91830
 366.78100 356.34078 345.77855 334.65033 323.05911 311.25888 299.13466 286.94343
 274.66121 262.56399 250.57876 239.88554 230.01332 221.12309 213.31087 206.31864
 200.15842 195.10220 191.68997 189.73775 188.78053 188.85030 189.69108 191.00485
 192.73563 194.83641 197.10518 199.46996 201.92074 204.40651 206.50029 208.34806
 209.97984 211.13062 211.36539 211.59917 211.54195 211.25272 210.89150 210.52727
 210.15005 209.86583 209.67960 209.54938 209.48316 209.81993 210.21171 210.60648
 211.40526 212.58904 213.84481 215.63359 217.56737 219.61614 221.71692 223.80569
 225.87147 227.96125 230.06402 232.17580 234.31058 236.48835 238.75013 241.12590
 243.75268 246.00946 248.01723 249.78801 251.21079 252.33956 253.16734 253.48911
 253.53189 253.31167 252.67744 251.63122 250.24300 248.40977 246.32455 244.16333
 241.96010 239.76988 237.59565 235.44043 233.30621 231.17898 229.21076 227.37354
 225.66231 224.14009 222.77586 221.55364 220.44142 219.40719 218.51697 217.66375
 216.91152 216.09730 215.20107 214.57085 214.02663 214.04750 214.05057 213.52628
 212.83130 212.00995 212.47162 214.45387 217.55565 221.65601 226.78897 231.33284
 235.17393 239.44818 243.71471 247.70578 251.41884 255.07198 258.61835 261.83234
 264.78094 267.55521 270.14270 272.45035 274.27234 275.50513 276.30731 277.84756
 279.59842 281.04996 282.42764 283.81396 285.06229 286.20386 287.24533 288.18887
 289.03745 289.79312 290.45328 291.29456
 366.78100 356.34368 345.78436 334.65904 323.07072 311.27341 299.15209 286.96377
 274.68445 262.59013 250.60781 239.91749 230.04817 221.16085 213.35154 206.36222
 200.20490 195.15158 191.74226 189.79294 188.83862 188.91130 189.75498 191.07166
 192.80535 194.90903 197.18071 199.54839 202.00207 204.49075 206.58743 208.43811
 210.07279 211.22648 211.46416 211.70084 211.64652 211.36020 211.00188 210.64056
 210.26624 209.98492 209.80161 209.67429 209.61097 209.95065 210.34533 210.74301
 211.54469 212.73137 213.99005 215.78174 217.71842 219.77010 221.87378 223.96546
 226.03414 228.12682 230.23250 232.34718 234.48486 236.66555 238.93023 241.30891
 243.93859 246.19827 248.20895 249.98263 251.40831 252.53999 253.37068 253.69536
 253.74104 253.52372 252.89240 251.84908 250.46376 248.63344 246.55112 244.39281
 242.19249 240.00517 237.83385 235.68153 233.55021 231.42589 229.46057 227.62625
 225.91794 224.39862 223.03730 221.81798 220.70866 219.67734 218.79002 217.93970
 217.19038 216.37906 215.48575 214.85843 214.31711 214.19777 213.92783 213.74539
 212.99319 212.03616 212.37393 214.30934 217.43694 221.56393 226.72255 231.23657
 235.08342 239.35742 243.60483 247.57692 251.30110 255.03059 258.65714 261.97546
 265.00705 267.82123 270.42642 272.77530 274.68079 275.96066 276.83554 278.13931
 279.63223 281.06268 282.56229 284.04733 285.54218 286.86475 288.07135 289.16449
 290.14761 291.02313 291.78793 292.76260
 366.78100 356.34524 345.78747 334.66371 323.07695 311.28118 299.16142 286.97466
 274.69689 262.60413 250.62337 239.93461 230.06684 221.18108 213.37332 206.38555
 200.22979 195.17803 191.77026 189.82250 188.86974 188.94397 189.78921 191.10745
 192.84268 194.94792 197.22116 199.59040 202.04563 204.53587 206.63411 208.48634
 210.12258 211.27782 211.51705 211.75529 211.70253 211.41776 211.06100 210.70124
 210.32847 210.04871 209.86695 209.74119 209.67942 210.02066 210.41690 210.81613
 211.61937 212.80761 214.06784 215.86108 217.79932 219.85255 221.95779 224.05103
 226.12126 228.21550 230.32274 232.43898 234.57821 236.76045 239.02669 241.40692
 244.03816 246.29940 248.31163 250.08687 251.51411 252.64734 253.47958 253.80582
 253.85305 253.63729 253.00753 251.96577 250.58200 248.75324 246.67248 244.51571
 242.31695 240.13119 237.96142 235.81066 233.68090 231.55813 229.59437 227.76161
 226.05484 224.53708 223.17732 221.95955 220.85179 219.82203 218.93627 218.08750
 217.33974 216.52998 215.63821 215.01245 214.47269 214.28444 213.86403 213.73441
 213.11232 212.12706 212.41972 214.26175 217.36610 221.49965 226.65057 231.17378
 235.00111 239.24817 243.44380 247.35637 251.06299 254.80833 258.47638 261.83820
 264.91638 267.79898 270.51093 272.97800 275.01758 276.56683 277.74088 278.98901
 280.24261 281.51071 283.01230 284.46933 285.93240 287.27502 288.49997 289.60968
 290.60776 291.49652 292.27295 293.26242
 366.78100 356.34319 345.78337 334.65756 323.06875 311.27093 299.14912 286.96031
 274.68049 262.58568 250.60287 239.91206 230.04224 221.15443 213.34462 206.35480
 200.19699 195.14318 191.73336 189.78355 188.82874 188.90092 189.74411 191.06030
 192.79348 194.89667 197.16786 199.53504 201.98823 204.47642 206.57261 208.42279
 210.05698 211.21017 211.44735 211.68354 211.62873 211.34191 210.98310 210.62129
 210.24647 209.96466 209.78085 209.65303 209.58922 209.92841 210.32260 210.71978
 211.52097 212.70716 213.96534 215.75653 217.69272 219.74390 221.84709 223.93828
 226.00646 228.09865 230.20384 232.31802 234.45521 236.63540 238.89958 241.27777
 243.90696 246.16615 248.17633 249.94952 251.37471 252.50589 253.33608 253.66027
 253.70545 253.48764 252.85583 251.81201 250.42620 248.59539 246.51257 244.35376
 242.15295 239.96513 237.79332 235.64051 233.50870 231.38388 229.41807 227.58326
 225.87444 224.35463 222.99282 221.77300 220.66319 219.63138 218.74356 217.89275
 217.14294 216.33112 215.43731 214.80950 214.26768 214.18539 213.98003 213.64125
 213.12149 212.00319 212.37416 214.32245 217.40259 221.52515 226.68385 231.20949
 235.01822 239.22673 243.37138 247.23349 250.91937 254.62305 258.21359 261.49380
 264.48074 267.26743 269.86127 272.20047 274.22031 275.98212 277.56650 279.06433
 280.52606 281.90628 283.32382 284.71338 285.93976 287.04236 288.15469 289.16238
 290.06870 290.87579 291.58084 292.47934
 366.78100 356.34055 345.77810 334.64965 323.05820 311.25775 299.13329 286.94184
 274.65939 262.56194 250.57649 239.88304 230.01059 221.12014 213.30769 206.31524
 200.15479 195.09833 191.68588 189.73343 188.77598 188.84553 189.68608 190.99963
 192.73018 194.83073 197.09928 199.46382 201.91437 204.39992 206.49347 208.34102
 209.97257 211.12312 211.35767 211.59122 211.53377 211.24432 210.88286 210.51841
 210.14096 209.85651 209.67006 209.53961 209.47316 209.80971 210.20126 210.59581
 211.39435 212.57790 213.83345 215.62200 217.55555 219.60410 221.70465 223.79320
 225.85875 227.94830 230.05085 232.16239 234.29694 236.47449 238.73604 241.11159
 243.73814 245.99469 248.00224 249.77279 251.19534 252.32389 253.15143 253.47298
 253.51553 253.29508 252.66063 251.61418 250.22573 248.39228 246.30683 244.14538
 241.94192 239.75147 237.57702 235.42157 233.28712 231.15967 229.19122 227.35377
 225.64232 224.11987 222.75542 221.53296 220.42051 219.38606 218.49561 217.64216
 216.88971 216.07526 215.17881 214.54836 214.00391 214.07332 214.17355 213.57863
 213.19456 212.04037 212.34427 214.36049 217.47612 221.58098 226.77390 231.29161
 235.07817 239.30823 243.48094 247.33679 250.96169 254.60593 258.18842 261.48718
 264.44089 267.13239 269.57468 271.71030 273.44080 274.91202 276.59338 278.42599
 280.21637 281.95343 283.51733 284.96469 286.24661 287.44559 288.53946 289.53046
 290.42175 291.21542 291.90878 292.79239
 366.78100 356.33951 345.77602 334.64653 323.05404 311.25255 299.12707 286.93458
 274.65109 262.55260 250.56611 239.87162 229.99813 221.10664 213.29315 206.29966
 200.13817 195.08068 191.66720 189.71371 188.75522 188.82373 189.66324 190.97575
 192.70526 194.80477 197.07228 199.43579 201.88530 204.36981 206.46233 208.30884
 209.93935 211.08886 211.32237 211.55488 211.49639 211.20590 210.84341 210.47792
 210.09943 209.81395 209.62646 209.49497 209.42748 209.76299 210.15350 210.54701
 211.34452 212.52703 213.78154 215.56905 217.50156 219.54908 221.64859 223.73610
 225.80061 227.88912 229.99063 232.10114 234.23465 236.41116 238.67167 241.04618
 243.67169 245.92721 247.93372 249.70323 251.12474 252.25225 253.07876 253.39927
 253.44078 253.21929 252.58380 251.53631 250.14682 248.31234 246.22585 244.06336
 241.85887 239.66738 237.49189 235.33540 233.19991 231.07142 229.10193 227.26344
 225.55096 224.02747 222.66198 221.43849 220.32500 219.28951 218.39802 217.54353
 216.79004 215.97455 215.07706 214.44557 213.90009 214.06471 214.26399 213.61334
 213.15808 212.22595 212.41632 214.25887 217.35155 221.47395 226.81374 231.31055
 235.11374 239.34325 243.53641 247.44740 251.14177 254.78722 258.34830 261.66608
 264.65338 267.32684 269.68408 271.63623 273.14725 274.50485 276.04425 278.27316
 280.45865 282.45264 284.41324 286.13483 287.62469 288.94284 290.14545 291.23492
 292.21481 293.08737 293.84964 294.82108
 366.78100 356.34272 345.78245 334.65617 323.06689 311.26862 299.14634 286.95707
 274.67679 262.58151 250.59824 239.90696 230.03668 221.14841 213.33813 206.34786
 200.18958 195.13530 191.72503 189.77475 188.81947 188.89120 189.73392 191.04965
 192.78237 194.88509 197.15582 199.52254 201.97526 204.46299 206.55871 208.40844
 210.04216 211.19488 211.43161 211.66733 211.61205 211.32478 210.96550 210.60323
 210.22795 209.94567 209.76140 209.63312 209.56884 209.90757 210.30129 210.69802
 211.49874 212.68446 213.94219 215.73291 217.66863 219.71936 221.82208 223.91281
 225.98053 228.07225 230.17698 232.29070 234.42742 236.60715 238.87087 241.24860
 243.87732 246.13604 248.14577 249.91849 251.34321 252.47394 253.30366 253.62739
 253.67211 253.45383 252.82156 251.77728 250.39100 248.55973 246.47645 244.31718
 242.11590 239.92762 237.75535 235.60207 233.46979 231.34452 229.37824 227.54297
 225.83369 224.31341 222.95114 221.73086 220.62058 219.58831 218.70003 217.84876
 217.09848 216.28620 215.39193 214.76365 214.22137 214.24664 214.18690 213.74283
 213.11348 212.32117 212.30914 214.15338 217.20461 221.29042 226.61383 231.16862
 235.03661 239.31747 243.55585 247.52180 251.26979 254.98422 258.61884 262.03232
 265.15009 267.91833 270.30923 272.19467 273.53500 274.50793 276.01746 278.46585
 281.30643 283.80939 285.97528 287.87708 289.52292 290.97910 292.30762 293.51117
 294.59363 295.55756 296.39963 297.47278
 366.78100 356.34685 345.79070 334.66855 323.08340 311.28925 299.17110 286.98595
 274.70980 262.61865 250.63950 239.95235 230.08619 221.20204 213.39589 206.40974
 200.25559 195.20544 191.79929 189.85314 188.90199 188.97784 189.82469 191.14454
 192.88139 194.98824 197.26309 199.63394 202.09079 204.58264 206.68249 208.53634
 210.17419 211.33104 211.57189 211.81173 211.76058 211.47743 211.12228 210.76413
 210.39298 210.11483 209.93468 209.81053 209.75038 210.09323 210.49108 210.89193
 211.69678 212.88663 214.14848 215.94333 217.88318 219.93803 222.04488 224.13973
 226.21158 228.30743 230.41628 232.53412 234.67497 236.85882 239.12667 241.50852
 244.14137 246.40422 248.41807 250.19492 251.62377 252.75862 253.59247 253.92032
 253.96917 253.75502 253.12687 252.08672 250.70457 248.87742 246.79827 244.64312
 242.44597 240.26182 238.09366 235.94451 233.81636 231.69521 229.73306 227.90191
 226.19676 224.68061 223.32246 222.10631 221.00016 219.97201 219.08786 218.24071
 217.49456 216.68641 215.79626 215.17211 214.63396 214.44676 214.07050 213.89120
 213.14900 212.41867 212.40714 214.11516 217.09050 221.15579 226.39722 230.97173
 234.84918 239.11816 243.32056 247.26434 251.03674 254.81677 258.54993 262.10120
 265.40866 268.45038 271.16415 273.41870 274.99927 275.84702 276.53583 278.73526
 281.58978 284.21890 286.49399 288.49167 290.22052 291.75006 293.14557 294.40979
 295.54684 296.55936 297.44391 298.57114
 366.78100 356.34803 345.79307 334.67210 323.08814 311.29517 299.17821 286.99424
 274.71928 262.62931 250.65135 239.96538 230.10041 221.21745 213.41248 206.42752
 200.27455 195.22559 191.82062 189.87566 188.92569 189.00273 189.85076 191.17180
 192.90983 195.01786 197.29390 199.66593 202.12397 204.61700 206.71804 208.57307
 210.21211 211.37014 211.61218 211.85321 211.80324 211.52128 211.16731 210.81035
 210.44038 210.16342 209.98445 209.86149 209.80252 210.14656 210.54559 210.94762
 211.75366 212.94469 214.20773 216.00376 217.94480 220.00083 222.10887 224.20490
 226.27794 228.37497 230.48500 232.60404 234.74607 236.93111 239.20014 241.58318
 244.21721 246.48125 248.49628 250.27432 251.70435 252.84039 253.67542 254.00445
 254.05449 253.84152 253.21456 252.17559 250.79463 248.96866 246.89070 244.73673
 242.54077 240.35780 238.19083 236.04287 233.91590 231.79594 229.83497 228.00501
 226.30104 224.78608 223.42911 222.21415 221.10918 220.08221 219.19925 218.35328
 217.60832 216.80135 215.91239 215.28942 214.75246 214.50438 214.00108 213.94496
 213.26158 212.38983 212.58438 214.23962 217.12428 221.23936 226.39566 230.92709
 234.74400 238.96786 243.11221 246.99396 250.71013 254.40137 258.03384 261.50821
 264.79749 267.89935 270.73947 273.14563 274.97488 276.24768 277.29337 279.00452
 281.15027 283.48657 285.70746 287.65756 289.34518 290.83832 292.20056 293.43469
 294.54462 295.53305 296.39648 297.49686
 366.78100 356.34589 345.78878 334.66567 323.07956 311.28445 299.16534 286.97922
 274.70211 262.61000 250.62989 239.94178 230.07467 221.18956 213.38245 206.39534
 200.24023 195.18912 191.78201 189.83489 188.88278 188.95767 189.80356 191.12245
 192.85834 194.96423 197.23812 199.60801 202.06390 204.55479 206.65368 208.50656
 210.14345 211.29934 211.53923 211.77812 211.72601 211.44190 211.08579 210.72668
 210.35457 210.07546 209.89435 209.76923 209.70812 210.05001 210.44690 210.84679
 211.65068 212.83957 214.10046 215.89435 217.83324 219.88713 221.99302 224.08690
 226.15779 228.25268 230.36057 232.47746 234.61735 236.80024 239.06713 241.44802
 244.07991 246.34180 248.35469 250.13058 251.55846 252.69235 253.52524 253.85213
 253.90002 253.68491 253.05580 252.01469 250.63158 248.80347 246.72336 244.56725
 242.36913 240.18402 238.01491 235.86480 233.73569 231.61358 229.65047 227.81836
 226.11225 224.59514 223.23603 222.01892 220.91180 219.88269 218.99758 218.14947
 217.40236 216.59325 215.70214 215.07703 214.53792 214.42641 214.12090 213.83578
 213.39348 212.39873 212.43085 214.21014 217.20882 221.30832 226.52112 230.99657
 234.78876 239.01062 243.17982 247.07761 250.76752 254.39217 257.92908 261.26410
 264.38300 267.32486 270.02374 272.24127 273.85809 275.17242 276.85223 279.17453
 281.38678 283.58636 285.55249 287.27887 288.77292 290.09479 291.30075 292.39328
 293.37592 294.25095 295.01535 295.98950
 366.78100 356.34203 345.78106 334.65409 323.06412 311.26514 299.14217 286.95220
 274.67123 262.57526 250.59129 239.89932 230.02835 221.13938 213.32840 206.33743
 200.17846 195.12349 191.71252 189.76155 188.80558 188.87661 189.71863 191.03366
 192.76569 194.86772 197.13775 199.50378 201.95581 204.44284 206.53787 208.38689
 210.01992 211.17195 211.40798 211.64301 211.58704 211.29907 210.93910 210.57613
 210.20015 209.91718 209.73221 209.60324 209.53827 209.87630 210.26933 210.66536
 211.46539 212.65041 213.90744 215.69747 217.63250 219.68253 221.78456 223.87459
 225.94162 228.03265 230.13667 232.24970 234.38573 236.56476 238.82779 241.20482
 243.83285 246.09088 248.09990 249.87193 251.29596 252.42599 253.25502 253.57805
 253.62208 253.40311 252.77014 251.72516 250.33819 248.50622 246.42225 244.26228
 242.06031 239.87134 237.69837 235.54440 233.41142 231.28545 229.31848 227.48251
 225.77254 224.25157 222.88860 221.66763 220.55666 219.52368 218.63471 217.78274
 217.03177 216.21880 215.32383 214.69486 214.15189 214.27924 214.32263 213.70494
 213.46350 212.46220 212.20522 214.07004 217.15475 221.25052 226.53960 230.99750
 234.80591 239.05287 243.27469 247.25296 251.00641 254.66835 258.20789 261.51620
 264.56454 267.38766 269.91092 271.97272 273.34277 274.58649 276.75388 279.22537
 281.71179 284.04288 286.06009 287.83133 289.36417 290.72034 291.95767 293.07858
 294.08673 294.98447 295.76874 296.76819
 366.78100 356.34141 345.77981 334.65222 323.06162 311.26203 299.13843 286.94784
 274.66624 262.56965 250.58505 239.89246 230.02086 221.13127 213.31967 206.32808
 200.16848 195.11289 191.70129 189.74970 188.79310 188.86351 189.70492 191.01932
 192.75073 194.85213 197.12154 199.48694 201.93835 204.42475 206.51916 208.36756
 209.99997 211.15137 211.38678 211.62118 211.56459 211.27599 210.91540 210.55180
 210.17521 209.89161 209.70602 209.57643 209.51083 209.84824 210.24064 210.63605
 211.43545 212.61986 213.87626 215.66567 217.60007 219.64948 221.75088 223.84029
 225.90669 227.99710 230.10050 232.21291 234.34831 236.52672 238.78912 241.16553
 243.79293 246.05034 248.05875 249.83015 251.25356 252.38296 253.21137 253.53377
 253.57718 253.35758 252.72399 251.67839 250.29080 248.45820 246.37361 244.21301
 242.01042 239.82082 237.64723 235.49263 233.35904 231.23244 229.26485 227.42826
 225.71766 224.19607 222.83247 221.61088 220.49928 219.46569 218.57609 217.72350
 216.97190 216.15831 215.26271 214.63312 214.08952 214.26122 214.39644 213.69600
 213.50168 212.61754 212.17326 213.88268 217.01378 221.17287 226.40971 230.89204
 234.70511 238.95679 243.19853 247.22589 251.05507 254.79314 258.40350 261.77118
 264.85657 267.68246 270.17932 272.19519 273.43271 274.46973 276.55252 279.00684
 281.47296 283.86374 285.93253 287.74911 289.32117 290.71207 291.98105 293.13065
 294.16458 295.08533 295.88965 296.91467
 366.78100 356.34371 345.78443 334.65914 323.07085 311.27357 299.15228 286.96400
 274.68471 262.59042 250.60814 239.91785 230.04856 221.16128 213.35199 206.36271
 200.20542 195.15213 191.74285 189.79356 188.83927 188.91199 189.75570 191.07242
 192.80613 194.90984 197.18156 199.54927 202.00298 204.49170 206.58841 208.43913
 210.07384 211.22755 211.46527 211.70198 211.64769 211.36141 211.00312 210.64184
 210.26755 209.98626 209.80298 209.67569 209.61240 209.95212 210.34683 210.74455
 211.54626 212.73297 213.99169 215.78340 217.72011 219.77183 221.87554 223.96726
 226.03597 228.12868 230.23440 232.34911 234.48682 236.66754 238.93225 241.31097
 243.94068 246.20039 248.21111 249.98482 251.41053 252.54225 253.37296 253.69768
 253.74339 253.52610 252.89482 251.85153 250.46624 248.63596 246.55367 244.39539
 242.19510 240.00781 237.83653 235.68424 233.55295 231.42867 229.46338 227.62909
 225.92081 224.40152 223.04024 221.82095 220.71166 219.68038 218.79309 217.94280
 217.19352 216.38223 215.48895 214.86166 214.32037 214.37453 214.35098 213.80841
 213.49486 212.75667 212.28607 213.78458 216.90224 221.10361 226.28226 230.77281
 234.58296 238.82684 243.05725 247.08563 250.93919 254.71916 258.37805 261.79086
 264.92072 267.77777 270.29123 272.29474 273.44693 274.35608 276.35947 278.81219
 281.19370 283.53030 285.55225 287.32767 288.86417 290.22354 291.46378 292.58734
 293.59787 294.49774 295.28387 296.28568
 366.78100 356.34623 345.78945 334.66668 323.08091 311.28613 299.16736 286.98159
 274.70481 262.61304 250.63327 239.94549 230.07872 221.19395 213.38717 206.40040
 200.24563 195.19485 191.78808 189.84131 188.88953 188.96476 189.81099 191.13021
 192.86644 194.97267 197.24689 199.61712 202.07335 204.56457 206.66380 208.51703
 210.15425 211.31048 211.55071 211.78993 211.73816 211.45439 211.09861 210.73984
 210.36807 210.08929 209.90852 209.78375 209.72298 210.06520 210.46243 210.86266
 211.66688 212.85611 214.11734 215.91156 217.85079 219.90502 222.01124 224.10547
 226.17670 228.27192 230.38015 232.49738 234.63760 236.82083 239.08806 241.46928
 244.10151 246.36374 248.37696 250.15319 251.58142 252.71564 253.54887 253.87610
 253.92432 253.70955 253.08078 252.04000 250.65723 248.82946 246.74968 244.59391
 242.39614 240.21136 238.04259 235.89282 233.76404 231.64227 229.67950 227.84772
 226.14195 224.62518 223.26640 222.04963 220.94286 219.91408 219.02931 218.18154
 217.43476 216.62599 215.73522 215.11044 214.57167 214.51157 214.30586 213.90814
 213.45213 212.73807 212.34544 213.86823 216.88968 221.03870 226.19650 230.67995
 234.50349 238.75604 242.99597 247.05045 250.93518 254.74991 258.43521 261.88016
 265.04657 267.90323 270.40491 272.34607 273.44104 274.35602 276.36893 278.88977
 281.64969 284.08844 286.19879 288.05182 289.65546 291.07428 292.36871 293.54141
 294.59610 295.53531 296.35580 297.40140
 366.78100 356.34640 345.78981 334.66721 323.08161 311.28702 299.16842 286.98282
 274.70622 262.61463 250.63503 239.94743 230.08084 221.19624 213.38964 206.40305
 200.24845 195.19785 191.79126 189.84466 188.89306 188.96847 189.81487 191.13427
 192.87067 194.97708 197.25148 199.62188 202.07829 204.56969 206.66909 208.52250
 210.15990 211.31630 211.55671 211.79611 211.74451 211.46091 211.10532 210.74672
 210.37512 210.09653 209.91593 209.79133 209.73074 210.07314 210.47054 210.87095
 211.67535 212.86475 214.12615 215.92056 217.85996 219.91436 222.02077 224.11517
 226.18657 228.28198 230.39038 232.50778 234.64819 236.83159 239.09899 241.48040
 244.11280 246.37520 248.38860 250.16501 251.59341 252.72781 253.56122 253.88862
 253.93702 253.72243 253.09383 252.05323 250.67064 248.84304 246.76344 244.60784
 242.41025 240.22565 238.05705 235.90746 233.77886 231.65726 229.69467 227.86307
 226.15747 224.64088 223.28228 222.06568 220.95908 219.93049 219.04589 218.19829
 217.45170 216.64310 215.75250 215.12791 214.58931 214.54080 214.34332 213.93559
 213.41570 212.64749 212.45126 213.96327 216.91910 221.02856 226.13666 230.60515
 234.42477 238.67715 242.91473 246.96997 250.88045 254.73518 258.47018 261.97281
 265.21381 268.14484 270.72589 272.77646 273.94925 274.65338 276.51578 279.06424
 281.87640 284.31747 286.42981 288.28461 289.88980 291.30994 292.60562 293.77945
 294.83514 295.77524 296.59650 297.64310
 366.78100 356.34502 345.78705 334.66307 323.07609 311.28011 299.16014 286.97316
 274.69518 262.60221 250.62123 239.93225 230.06428 221.17830 213.37032 206.38234
 200.22637 195.17439 191.76641 189.81844 188.86546 188.93948 189.78450 191.10253
 192.83755 194.94257 197.21560 199.58462 202.03964 204.52967 206.62769 208.47971
 210.11573 211.27076 211.50978 211.74780 211.69483 211.40985 211.05287 210.69289
 210.31992 210.03994 209.85796 209.73199 209.67001 210.01103 210.40706 210.80608
 211.60910 212.79712 214.05715 215.85017 217.78819 219.84122 221.94624 224.03926
 226.10928 228.20331 230.31033 232.42635 234.56538 236.74740 239.01342 241.39345
 244.02447 246.28549 248.29751 250.07254 251.49956 252.63258 253.46461 253.79063
 253.83765 253.62167 252.99170 251.94972 250.56574 248.73677 246.65579 244.49881
 242.29984 240.11386 237.94388 235.79290 233.66293 231.53995 229.57597 227.74300
 226.03602 224.51804 223.15806 221.94009 220.83211 219.80213 218.91616 218.06718
 217.31920 216.50923 215.61725 214.99127 214.45129 214.48523 214.42502 213.92509
 213.48799 212.60977 212.42418 213.94554 216.94629 221.08145 226.13821 230.61522
 234.38165 238.58461 242.78824 246.81747 250.71393 254.55507 258.29385 261.81943
 265.10913 268.14087 270.81158 272.96884 274.28790 275.01923 276.59293 278.99835
 281.32834 283.61771 285.59882 287.33835 288.84375 290.17566 291.39084 292.49170
 293.48178 294.36346 295.13370 296.11526
 366.78100 356.34282 345.78265 334.65647 323.06730 311.26912 299.14695 286.95777
 274.67760 262.58242 250.59925 239.90807 230.03790 221.14972 213.33955 206.34937
 200.19120 195.13702 191.72685 189.77667 188.82150 188.89332 189.73614 191.05197
 192.78479 194.88762 197.15844 199.52527 201.97809 204.46592 206.56174 208.41157
 210.04539 211.19822 211.43504 211.67087 211.61569 211.32852 210.96934 210.60717
 210.23199 209.94982 209.76564 209.63746 209.57329 209.91211 210.30594 210.70276
 211.50359 212.68941 213.94724 215.73806 217.67389 219.72471 221.82754 223.91836
 225.98619 228.07801 230.18284 232.29666 234.43349 236.61331 238.87714 241.25496
 243.88378 246.14261 248.15243 249.92526 251.35008 252.48091 253.31073 253.63456
 253.67938 253.46121 252.82903 251.78486 250.39868 248.56751 246.48433 244.32516
 242.12398 239.93581 237.76363 235.61045 233.47828 231.35310 229.38693 227.55175
 225.84258 224.32240 222.96023 221.74005 220.62988 219.59770 218.70953 217.85835
 217.10818 216.29600 215.40183 214.77365 214.23148 214.39777 214.55920 213.85088
 213.63426 212.74171 212.30881 213.76646 216.84406 221.08080 226.09085 230.59959
 234.34569 238.54391 242.75478 246.78838 250.67702 254.49231 258.19778 261.69897
 264.99066 268.04535 270.78281 272.98962 274.36279 275.12210 276.56088 278.94006
 281.12482 283.26581 285.17343 286.84848 288.29807 289.58060 290.75070 291.81073
 292.76413 293.61313 294.35477 295.29996
 366.78100 356.34183 345.78066 334.65349 323.06332 311.26415 299.14098 286.95081
 274.66964 262.57346 250.58929 239.89712 230.02595 221.13678 213.32561 206.33444
 200.17527 195.12010 191.70893 189.75776 188.80159 188.87242 189.71425 191.02908
 192.76091 194.86274 197.13257 199.49839 201.95022 204.43705 206.53188 208.38071
 210.01354 211.16537 211.40120 211.63603 211.57986 211.29169 210.93152 210.56835
 210.19218 209.90901 209.72384 209.59467 209.52949 209.86732 210.26015 210.65598
 211.45581 212.64064 213.89747 215.68730 217.62213 219.67196 221.77379 223.86362
 225.93045 228.02128 230.12511 232.23794 234.37377 236.55260 238.81542 241.19225
 243.82008 246.07791 248.08674 249.85857 251.28240 252.41223 253.24106 253.56389
 253.60772 253.38855 252.75538 251.71021 250.32304 248.49087 246.40670 244.24652
 242.04435 239.85518 237.68201 235.52784 233.39467 231.26850 229.30133 227.46516
 225.75499 224.23382 222.87065 221.64948 220.53831 219.50514 218.61597 217.76380
 217.01263 216.19945 215.30428 214.67511 214.13194 214.36440 214.66418 213.78958
 213.59747 213.03856 212.43282 213.66162 216.70723 220.97491 225.93051 230.49599
 234.24925 238.46774 242.70181 246.76468 250.68077 254.50334 258.19531 261.68030
 264.98102 268.06998 270.86676 273.23074 274.77814 275.63336 276.79337 278.98798
 281.13892 283.13965 284.99988 286.63330 288.04691 289.29758 290.43860 291.47232
 292.40204 293.22992 293.95319 294.87488
 366.78100 356.34449 345.78597 334.66146 323.07394 311.27743 299.15692 286.96940
 274.69089 262.59738 250.61586 239.92635 230.05783 221.17132 213.36281 206.37429
 200.21778 195.16526 191.75675 189.80824 188.85472 188.92821 189.77269 191.09018
 192.82467 194.92915 197.20164 199.57013 202.02461 204.51410 206.61158 208.46307
 210.09856 211.25304 211.49153 211.72901 211.67550 211.38999 211.03247 210.67196
 210.29845 210.01793 209.83542 209.70890 209.64639 209.98688 210.38236 210.78085
 211.58333 212.77082 214.03031 215.82279 217.76028 219.81277 221.91725 224.00974
 226.07922 228.17271 230.27920 232.39468 234.53317 236.71465 238.98014 241.35963
 243.99011 246.25060 248.26208 250.03657 251.46306 252.59554 253.42703 253.75252
 253.79900 253.58249 252.95197 251.90946 250.52495 248.69543 246.61392 244.45640
 242.25689 240.07038 237.89986 235.74835 233.61784 231.49432 229.52981 227.69629
 225.98878 224.47027 223.10975 221.89124 220.78272 219.75221 218.86570 218.01618
 217.26767 216.45716 215.56464 214.93813 214.39761 214.49161 214.59724 213.91460
 213.35081 213.07292 212.73842 213.83968 216.75705 220.93376 225.80988 230.40021
 234.13977 238.36865 242.60846 246.68121 250.61131 254.42726 258.09152 261.55377
 264.84714 267.95572 270.80731 273.25406 274.99850 275.91724 277.11520 279.03244
 281.12976 282.98099 284.72946 286.30154 287.66202 288.86572 289.96390 290.95877
 291.85355 292.65036 293.34644 294.23349
 366.78100 356.34646 345.78991 334.66737 323.08182 311.28728 299.16873 286.98319
 274.70664 262.61510 250.63556 239.94801 230.08147 221.19692 213.39038 206.40383
 200.24929 195.19874 191.79220 189.84566 188.89411 188.96957 189.81602 191.13548
 192.87193 194.97839 197.25285 199.62330 202.07976 204.57121 206.67067 208.52412
 210.16158 211.31803 211.55849 211.79795 211.74640 211.46286 211.10731 210.74877
 210.37722 210.09868 209.91813 209.79359 209.73305 210.07550 210.47296 210.87341
 211.67787 212.86732 214.12878 215.92323 217.86269 219.91715 222.02360 224.11806
 226.18951 228.28497 230.39342 232.51088 234.65134 236.83479 239.10225 241.48370
 244.11616 246.37861 248.39207 250.16852 251.59698 252.73144 253.56489 253.89235
 253.94080 253.72626 253.09771 252.05717 250.67462 248.84708 246.76754 244.61199
 242.41445 240.22990 238.06136 235.91181 233.78327 231.66172 229.69918 227.86764
 226.16209 224.64555 223.28700 222.07046 220.96391 219.93537 219.05083 218.20328
 217.45674 216.64819 215.75765 215.13310 214.59456 214.58994 214.54100 214.07843
 213.17961 212.72696 212.76289 214.05367 216.95003 221.03413 225.89355 230.40987
 234.11426 238.35236 242.59406 246.67337 250.61256 254.41167 258.02795 261.42889
 264.66220 267.74133 270.61581 273.05930 274.73447 275.80765 277.17557 278.97189
 280.95001 282.75906 284.36261 285.87839 287.20300 288.37500 289.44424 290.41290
 291.28409 292.05991 292.73764 293.60135
 366.78100 356.34516 345.78732 334.66349 323.07665 311.28081 299.16097 286.97414
 274.69630 262.60346 250.62262 239.93379 230.06595 221.18011 213.37227 206.38444
 200.22860 195.17676 191.76892 189.82109 188.86825 188.94241 189.78757 191.10574
 192.84090 194.94606 197.21922 199.58838 202.04355 204.53371 206.63187 208.48403
 210.12020 211.27536 211.51452 211.75268 211.69985 211.41501 211.05817 210.69833
 210.32550 210.04566 209.86382 209.73798 209.67615 210.01731 210.41347 210.81263
 211.61580 212.80396 214.06412 215.85728 217.79545 219.84861 221.95377 224.04693
 226.11709 228.21126 230.31842 232.43458 234.57374 236.75591 239.02207 241.40223
 244.03339 246.29456 248.30672 250.08188 251.50904 252.64221 253.47437 253.80053
 253.84769 253.63186 253.00202 251.96018 250.57634 248.74751 246.66667 244.50983
 242.31099 240.12515 237.95532 235.80448 233.67464 231.55180 229.58797 227.75513
 226.04829 224.53045 223.17062 221.95278 220.84494 219.81510 218.92927 218.08043
 217.33259 216.52275 215.63092 215.00508 214.46524 214.53120 214.64145 214.15544
 213.17159 212.33960 212.48941 214.03625 217.03770 221.11516 226.03038 230.45839
 234.17386 238.36238 242.61165 246.72583 250.69177 254.49440 258.07547 261.40717
 264.57056 267.59439 270.41052 272.82968 274.58316 275.79764 277.26215 279.06406
 280.78970 282.34595 283.83319 285.22491 286.52625 287.70441 288.77930 289.75311
 290.62891 291.40884 292.09015 292.95840
 366.78100 356.34435 345.78570 334.66105 323.07341 311.27676 299.15611 286.96846
 274.68981 262.59616 250.61451 239.92487 230.05622 221.16957 213.36092 206.37227
 200.21562 195.16297 191.75433 189.80568 188.85203 188.92538 189.76973 191.08708
 192.82143 194.92579 197.19814 199.56649 202.02084 204.51019 206.60754 208.45889
 210.09424 211.24860 211.48695 211.72430 211.67065 211.38500 211.02735 210.66670
 210.29306 210.01241 209.82976 209.70311 209.64046 209.98081 210.37616 210.77452
 211.57687 212.76422 214.02357 215.81592 217.75327 219.80562 221.90998 224.00233
 226.07168 228.16503 230.27138 232.38673 234.52508 236.70644 238.97179 241.35114
 243.98149 246.24184 248.25319 250.02754 251.45390 252.58625 253.41760 253.74295
 253.78930 253.57265 252.94200 251.89936 250.51471 248.68506 246.60341 244.44576
 242.24611 240.05946 237.88881 235.73717 233.60652 231.48287 229.51822 227.68457
 225.97692 224.45827 223.09763 221.87898 220.77033 219.73968 218.85303 218.00338
 217.25473 216.44409 215.55144 214.92479 214.38414 214.50165 214.72890 214.19507
 213.33257 212.19655 212.18834 213.84067 216.96344 221.08920 226.04726 230.44405
 234.16058 238.32797 242.58455 246.73116 250.74010 254.57079 258.15149 261.44547
 264.55573 267.52667 270.30179 272.71008 274.45636 275.73615 277.25711 279.13974
 280.89014 282.34735 283.56494 284.80603 285.98926 287.02676 287.97278 288.82977
 289.60059 290.28699 290.88660 291.65076
 366.78100 356.34425 345.78551 334.66076 323.07302 311.27627 299.15553 286.96778
 274.68904 262.59529 250.61355 239.92380 230.05506 221.16831 213.35957 206.37082
 200.21408 195.16133 191.75259 189.80384 188.85010 188.92335 189.76761 191.08486
 192.81912 194.92337 197.19563 199.56388 202.01814 204.50739 206.60465 208.45590
 210.09116 211.24541 211.48367 211.72092 211.66718 211.38143 211.02369 210.66294
 210.28920 210.00845 209.82571 209.69896 209.63622 209.97647 210.37173 210.76998
 211.57224 212.75949 214.01875 215.81100 217.74826 219.80051 221.90477 223.99702
 226.06628 228.15953 230.26579 232.38104 234.51930 236.70055 238.96581 241.34506
 243.97532 246.23557 248.24683 250.02108 251.44734 252.57959 253.41085 253.73610
 253.78236 253.56561 252.93487 251.89212 250.50738 248.67763 246.59589 244.43814
 242.23840 240.05165 237.88091 235.72916 233.59842 231.47467 229.50993 227.67618
 225.96844 224.44969 223.08895 221.87020 220.76146 219.73071 218.84397 217.99422
 217.24548 216.43473 215.54199 214.91524 214.37450 214.52119 214.79008 214.18056
 213.43484 212.27634 212.16092 213.80357 216.92731 221.06796 226.04381 230.41643
 234.10756 238.27638 242.52014 246.67384 250.71712 254.58644 258.18488 261.47565
 264.56311 267.49609 270.25180 272.67249 274.46799 275.84738 277.40921 279.13843
 280.81119 282.23022 283.44238 284.75443 285.98553 287.09216 288.10181 289.01645
 289.83908 290.57166 291.21161 292.02713
 366.78100 356.34379 345.78457 334.65936 323.07115 311.27393 299.15272 286.96451
 274.68529 262.59108 250.60887 239.91865 230.04944 221.16222 213.35301 206.36380
 200.20658 195.15337 191.74416 189.79494 188.84073 188.91352 189.75730 191.07409
 192.80788 194.91166 197.18345 199.55124 202.00502 204.49381 206.59060 208.44138
 210.07617 211.22996 211.46774 211.70453 211.65031 211.36410 211.00589 210.64467
 210.27046 209.98925 209.80603 209.67882 209.61561 209.95539 210.35018 210.74797
 211.54975 212.73654 213.99533 215.78711 217.72390 219.77569 221.87947 223.97126
 226.04005 228.13283 230.23862 232.35340 234.49119 236.67198 238.93676 241.31555
 243.94534 246.20512 248.21591 249.98970 251.41548 252.54727 253.37806 253.70284
 253.74863 253.53142 252.90020 251.85699 250.47178 248.64156 246.55935 244.40114
 242.20092 240.01371 237.84249 235.69028 233.55907 231.43485 229.46964 227.63543
 225.92721 224.40800 223.04679 221.82757 220.71836 219.68715 218.79993 217.94972
 217.20051 216.38929 215.49608 214.86887 214.32765 214.52649 214.86800 214.18605
 213.36830 212.31490 212.21127 213.85922 216.97269 221.10114 226.13573 230.43304
 234.09462 238.25105 242.47899 246.61574 250.65338 254.52686 258.13245 261.43344
 264.51367 267.42935 270.19589 272.62912 274.51724 276.10327 277.74548 279.40924
 280.96106 282.26248 283.76108 285.31116 286.65265 287.83951 288.92233 289.90329
 290.78555 291.57123 292.25757 293.13223
 366.78100 356.34561 345.78822 334.66483 323.07844 311.28305 299.16366 286.97726
 274.69987 262.60748 250.62709 239.93870 230.07131 221.18592 213.37853 206.39114
 200.23575 195.18436 191.77697 189.82957 188.87718 188.95179 189.79740 191.11601
 192.85162 194.95723 197.23084 199.60045 202.05606 204.54667 206.64528 208.49788
 210.13449 211.29010 211.52971 211.76832 211.71593 211.43154 211.07515 210.71576
 210.34337 210.06398 209.88259 209.75719 209.69580 210.03741 210.43402 210.83363
 211.63724 212.82585 214.08646 215.88007 217.81868 219.87229 221.97790 224.07151
 226.14211 228.23672 230.34433 232.46094 234.60055 236.78316 239.04977 241.43038
 244.06199 246.32360 248.33621 250.11182 251.53942 252.67303 253.50564 253.83225
 253.87986 253.66447 253.03508 251.99369 250.61030 248.78191 246.70152 244.54513
 242.34673 240.16134 237.99195 235.84156 233.71217 231.58978 229.62639 227.79400
 226.08761 224.57022 223.21083 221.99344 220.88604 219.85665 218.97126 218.12287
 217.37548 216.56609 215.67470 215.04931 214.50992 214.63753 214.82378 214.24475
 213.36852 212.27617 212.14087 213.81009 216.96013 221.10316 226.23735 230.50055
 234.13577 238.25145 242.46048 246.58894 250.61798 254.49225 258.09882 261.38922
 264.44302 267.32495 270.06537 272.50253 274.43396 276.10629 277.84067 279.54340
 281.20737 282.91644 284.62051 286.13113 287.43842 288.59506 289.65030 290.60626
 291.46606 292.23172 292.90057 293.75296
 366.78100 356.34769 345.79237 334.67106 323.08675 311.29343 299.17612 286.99181
 274.71649 262.62618 250.64787 239.96155 230.09624 221.21292 213.40761 206.42230
 200.26898 195.21967 191.81436 189.86904 188.91873 188.99542 189.84310 191.16379
 192.90148 195.00916 197.28485 199.65654 202.11422 204.60691 206.70760 208.56228
 210.20097 211.35865 211.60034 211.84103 211.79071 211.50840 211.15409 210.79677
 210.42646 210.14915 209.96983 209.84652 209.78721 210.13089 210.52958 210.93127
 211.73695 212.92764 214.19033 215.98601 217.92670 219.98239 222.09007 224.18576
 226.25844 228.35513 230.46482 232.58350 234.72519 236.90988 239.17856 241.56125
 244.19494 246.45862 248.47331 250.25100 251.68068 252.81637 253.65106 253.97974
 254.02943 253.81612 253.18880 252.14949 250.76818 248.94186 246.86355 244.70923
 242.51292 240.32961 238.16229 236.01398 233.88667 231.76635 229.80504 227.97473
 226.27041 224.75510 223.39779 222.18247 221.07716 220.04985 219.16653 218.32022
 217.57491 216.76759 215.87828 215.25496 214.71765 214.75906 214.76205 214.22375
 213.47911 212.29265 212.05263 213.76283 216.94026 221.10442 226.22639 230.49611
 234.12839 238.24400 242.45230 246.57977 250.61493 254.50015 258.11227 261.39578
 264.43900 267.30301 270.03210 272.47577 274.39877 276.01270 277.53540 278.91544
 280.37518 282.04517 283.77341 285.30313 286.62695 287.79822 288.86682 289.83490
 290.70557 291.48093 292.15823 293.02142
 366.78100 356.34695 345.79090 334.66886 323.08381 311.28976 299.17171 286.98667
 274.71062 262.61957 250.64052 239.95348 230.08743 221.20338 213.39733 206.41129
 200.25724 195.20719 191.80114 189.85510 188.90405 188.98000 189.82695 191.14691
 192.88386 194.99081 197.26576 199.63672 202.09367 204.58562 206.68557 208.53952
 210.17748 211.33443 211.57538 211.81533 211.76429 211.48124 211.12619 210.76814
 210.39710 210.11905 209.93900 209.81495 209.75491 210.09786 210.49581 210.89676
 211.70172 212.89167 214.15362 215.94857 217.88853 219.94348 222.05043 224.14538
 226.21734 228.31329 230.42224 232.54019 234.68114 236.86510 239.13305 241.51500
 244.14795 246.41091 248.42486 250.20181 251.63076 252.76572 253.59967 253.92762
 253.97657 253.76253 253.13448 252.09443 250.71238 248.88534 246.80629 244.65124
 242.45419 240.27015 238.10210 235.95305 233.82500 231.70396 229.74191 227.91086
 226.20581 224.68976 223.33172 222.11567 221.00962 219.98157 219.09753 218.25048
 217.50443 216.69638 215.80634 215.18229 214.64424 214.73517 214.84372 214.14973
 213.46527 212.35017 212.05627 213.74663 216.91473 221.06007 226.11737 230.45567
 234.09196 238.22932 242.44241 246.56038 250.58905 254.46419 258.06772 261.35870
 264.41919 267.31137 270.05814 272.55322 274.55554 276.19299 277.66913 278.86777
 279.55951 279.91171 281.21564 282.87192 284.32816 285.61655 286.79202 287.85690
 288.81467 289.66754 290.41263 291.36212
 366.78100 356.34513 345.78726 334.66338 323.07651 311.28064 299.16077 286.97390
 274.69602 262.60315 250.62228 239.93341 230.06554 221.17966 213.37179 206.38392
 200.22805 195.17617 191.76830 189.82043 188.86756 188.94169 189.78681 191.10494
 192.84007 194.94520 197.21833 199.58745 202.04258 204.53271 206.63084 208.48297
 210.11909 211.27422 211.51335 211.75148 211.69861 211.41373 211.05686 210.69699
 210.32412 210.04424 209.86237 209.73650 209.67463 210.01576 210.41188 210.81101
 211.61414 212.80227 214.06240 215.85552 217.79365 219.84678 221.95191 224.04504
 226.11516 228.20929 230.31642 232.43255 234.57168 236.75380 239.01993 241.40006
 244.03119 246.29231 248.30444 250.07957 251.50670 252.63983 253.47195 253.79808
 253.84521 253.62934 252.99947 251.95759 250.57372 248.74485 246.66398 244.50711
 242.30823 240.12236 237.95249 235.80162 233.67175 231.54887 229.58500 227.75213
 226.04526 224.52738 223.16751 221.94964 220.84177 219.81190 218.92602 218.07715
 217.32928 216.51941 215.62754 215.00166 214.46179 214.64456 214.98605 214.14966
 213.32161 212.27805 211.95993 213.59235 216.81171 220.98355 226.06636 230.46790
 234.12271 238.23631 242.44984 246.57513 250.59108 254.44786 258.03183 261.30002
 264.35275 267.25854 270.01413 272.53012 274.61011 276.27328 277.70911 278.87259
 279.55356 279.70694 280.20532 281.51691 282.83475 284.11465 285.28238 286.34027
 287.29172 288.13898 288.87912 289.82239
 366.78100 356.34390 345.78480 334.65970 323.07160 311.27450 299.15340 286.96530
 274.68620 262.59210 250.61000 239.91990 230.05080 221.16370 213.35460 206.36550
 200.20840 195.15530 191.74620 189.79710 188.84300 188.91590 189.75980 191.07670
 192.81060 194.91450 197.18641 199.55431 202.00821 204.49711 206.59401 208.44491
 210.07981 211.23371 211.47161 211.70851 211.65441 211.36831 211.01021 210.64911
 210.27501 209.99391 209.81081 209.68371 209.62061 209.96051 210.35541 210.75331
 211.55521 212.74211 214.00101 215.79291 217.72981 219.78171 221.88561 223.97751
 226.04641 228.13931 230.24521 232.36011 234.49801 236.67891 238.94381 241.32271
 243.95261 246.21251 248.22341 249.99731 251.42321 252.55511 253.38601 253.71091
 253.75681 253.53971 252.90861 251.86551 250.48042 248.65032 246.56822 244.41012
 242.21002 240.02292 237.85182 235.69972 233.56862 231.44452 229.47942 227.64532
 225.93722 224.41812 223.05702 221.83792 220.72882 219.69772 218.81062 217.96052
 217.21142 216.40032 215.50722 214.88012 214.33902 214.57526 215.08525 214.24242
 213.16595 211.99289 211.74597 213.38731 216.71129 220.92940 226.09898 230.48993
 234.17162 238.27570 242.50439 246.64079 250.64331 254.47121 258.02353 261.26859
 264.29852 267.18826 269.94415 272.49594 274.63394 276.31638 277.69690 278.77759
 279.46243 279.70285 279.92651 280.77127 281.96255 283.06250 284.14426 285.13885
 286.03336 286.82996 287.52582 288.41263
 366.78100 356.34501 345.78701 334.66302 323.07603 311.28004 299.16004 286.97305
 274.69506 262.60207 250.62107 239.93208 230.06409 221.17810 213.37010 206.38211
 200.22612 195.17413 191.76613 189.81814 188.86515 188.93915 189.78416 191.10217
 192.83718 194.94218 197.21519 199.58420 202.03921 204.52921 206.62722 208.47923
 210.11524 211.27024 211.50925 211.74726 211.69427 211.40927 211.05228 210.69229
 210.31930 210.03930 209.85731 209.73132 209.66932 210.01033 210.40634 210.80535
 211.60835 212.79636 214.05637 215.84938 217.78738 219.84039 221.94540 224.03841
 226.10841 228.20242 230.30943 232.42544 234.56444 236.74645 239.01246 241.39246
 244.02347 246.28448 248.29649 250.07149 251.49850 252.63151 253.46352 253.78952
 253.83653 253.62054 252.99055 251.94855 250.56456 248.73557 246.65458 244.49758
 242.29859 240.11260 237.94260 235.79161 233.66162 231.53863 229.57463 227.74164
 226.03465 224.51666 223.15666 221.93867 220.83068 219.80069 218.91469 218.06570
 217.31771 216.50772 215.61572 214.98973 214.44974 214.62689 215.03145 214.39301
 213.27837 211.88004 211.62463 213.26021 216.64075 220.88741 226.13409 230.48352
 234.19130 238.29741 242.54219 246.68921 250.68997 254.49890 258.02377 261.23773
 264.23889 267.11349 269.87033 272.42911 274.60739 276.34650 277.71960 278.75381
 279.38974 279.71396 279.93295 280.43713 281.51077 282.58102 283.58667 284.48203
 285.31396 286.05481 286.70200 287.52673
 366.78100 356.34669 345.79038 334.66806 323.08275 311.28844 299.17013 286.98482
 274.70851 262.61719 250.63788 239.95057 230.08426 221.19995 213.39364 206.40732
 200.25301 195.20270 191.79639 189.85008 188.89877 188.97445 189.82114 191.14083
 192.87752 194.98421 197.25890 199.62958 202.08627 204.57796 206.67765 208.53134
 210.16903 211.32571 211.56640 211.80609 211.75478 211.47147 211.11615 210.75784
 210.38653 210.10822 209.92791 209.80360 209.74328 210.08597 210.48366 210.88435
 211.68904 212.87873 214.14041 215.93510 217.87479 219.92948 222.03617 224.13086
 226.20254 228.29823 230.40692 232.52461 234.66530 236.84899 239.11667 241.49836
 244.13105 246.39374 248.40743 250.18412 251.61280 252.74749 253.58118 253.90887
 253.95756 253.74324 253.11493 252.07462 250.69231 248.86500 246.78569 244.63037
 242.43306 240.24875 238.08044 235.93113 233.80282 231.68150 229.71919 227.88788
 226.18257 224.66626 223.30795 222.09163 220.98532 219.95701 219.07270 218.22539
 217.47908 216.67076 215.78045 215.15614 214.61783 214.71777 214.94786 214.46494
 213.36107 211.79774 211.53116 213.19620 216.60956 220.86154 226.12067 230.46149
 234.17636 238.28918 242.54434 246.70793 250.72078 254.52032 258.02197 261.20779
 264.18680 267.04874 269.81116 272.40414 274.62988 276.39365 277.73520 278.69519
 279.32349 279.66028 279.88089 280.30988 281.24350 282.30707 283.30722 284.21109
 285.09070 285.87399 286.55826 287.43027
 366.78100 356.34717 345.79134 334.66951 323.08469 311.29086 299.17303 286.98820
 274.71237 262.62154 250.64271 239.95589 230.09006 221.20623 213.40040 206.41457
 200.26074 195.21091 191.80508 189.85926 188.90843 188.98460 189.83177 191.15194
 192.88911 194.99628 197.27146 199.64263 202.09980 204.59197 206.69214 208.54631
 210.18448 211.34166 211.58283 211.82300 211.77217 211.48934 211.13451 210.77668
 210.40586 210.12803 209.94820 209.82437 209.76454 210.10771 210.50588 210.90705
 211.71223 212.90240 214.16457 215.95974 217.89991 219.95508 222.06225 224.15743
 226.22960 228.32577 230.43494 232.55311 234.69428 236.87845 239.14663 241.52880
 244.16197 246.42514 248.43931 250.21648 251.64565 252.78083 253.61500 253.94317
 253.99234 253.77851 253.15068 252.11085 250.72902 248.90220 246.82337 244.66854
 242.47171 240.28788 238.12005 235.97122 233.84340 231.72257 229.76074 227.92991
 226.22508 224.70925 223.35142 222.13560 221.02977 220.00194 219.11811 218.27128
 217.52545 216.71762 215.82779 215.20397 214.66614 214.74806 214.93796 214.50632
 213.36868 211.71190 211.45946 213.17386 216.58376 220.83372 226.10854 230.45456
 234.17087 238.28777 242.54742 246.72453 250.75037 254.54410 258.02731 261.19077
 264.15280 267.00488 269.77255 272.39398 274.64957 276.41309 277.72095 278.64835
 279.26404 279.57739 279.72961 280.10361 280.97015 282.01941 283.02411 283.95499
 284.85486 285.66364 286.37018 287.27057
 366.78100 356.34717 345.79133 334.66950 323.08467 311.29084 299.17300 286.98817
 274.71234 262.62151 250.64267 239.95584 230.09001 221.20618 213.40034 206.41451
 200.26068 195.21085 191.80501 189.85918 188.90835 188.98452 189.83168 191.15185
 192.88902 194.99619 197.27135 199.64252 202.09969 204.59185 206.69202 208.54619
 210.18436 211.34152 211.58269 211.82286 211.77203 211.48919 211.13436 210.77653
 210.40570 210.12786 209.94803 209.82420 209.76437 210.10753 210.50570 210.90687
 211.71204 212.90220 214.16437 215.95954 217.89971 219.95487 222.06204 224.15721
 226.22937 228.32554 230.43471 232.55288 234.69404 236.87821 239.14638 241.52855
 244.16171 246.42488 248.43905 250.21622 251.64538 252.78055 253.61472 253.94289
 253.99205 253.77822 253.15039 252.11056 250.72872 248.90189 246.82306 244.66823
 242.47139 240.28756 238.11973 235.97090 233.84306 231.72223 229.76040 227.92956
 226.22473 224.70890 223.35107 222.13523 221.02940 220.00157 219.11774 218.27090
 217.52507 216.71724 215.82741 215.20357 214.66574 214.75063 214.95018 214.55434
 213.39203 211.61772 211.35818 213.13036 216.54378 220.79387 226.10808 230.46382
 234.18001 238.29668 242.55559 246.73694 250.77039 254.55701 258.02396 261.16913
 264.11746 266.96182 269.73227 272.37033 274.64066 276.40012 277.68417 278.58978
 279.18338 279.48404 279.64294 280.07922 280.80930 281.78882 282.77985 283.70779
 284.59634 285.40784 286.11670 287.02011
 366.78100 356.34726 345.79153 334.66979 323.08506 311.29132 299.17359 286.98885
 274.71311 262.62238 250.64364 239.95691 230.09117 221.20744 213.40170 206.41596
 200.26223 195.21249 191.80676 189.86102 188.91029 188.98655 189.83381 191.15408
 192.89134 194.99861 197.27387 199.64514 202.10240 204.59466 206.69493 208.54919
 210.18746 211.34472 211.58599 211.82625 211.77551 211.49278 211.13804 210.78031
 210.40957 210.13184 209.95210 209.82837 209.76863 210.11189 210.51016 210.91142
 211.71669 212.90695 214.16922 215.96448 217.90474 219.96001 222.06727 224.16254
 226.23480 228.33107 230.44033 232.55859 234.69986 236.88412 239.15239 241.53465
 244.16792 246.43118 248.44544 250.22271 251.65197 252.78724 253.62150 253.94977
 253.99903 253.78529 253.15756 252.11782 250.73609 248.90935 246.83062 244.67588
 242.47914 240.29541 238.12767 235.97894 233.85120 231.73047 229.76873 227.93799
 226.23326 224.71752 223.35979 222.14405 221.03832 220.01058 219.12684 218.28011
 217.53437 216.72664 215.83690 215.21317 214.67543 214.75688 214.94931 214.56535
 213.47995 211.54852 211.20656 213.03461 216.49565 220.75073 226.12381 230.47855
 234.19798 238.31084 242.56458 246.74463 250.78528 254.57005 258.02667 261.15628
 264.09116 266.92465 269.68951 272.33359 274.60718 276.35675 277.61633 278.49591
 279.07883 279.40939 279.63580 280.08881 280.82150 281.79971 282.78546 283.70041
 284.53305 285.32593 286.01859 286.90128
 366.78100 356.34708 345.79115 334.66923 323.08430 311.29038 299.17245 286.98753
 274.71160 262.62068 250.64175 239.95483 230.08890 221.20498 213.39906 206.41313
 200.25921 195.20928 191.80336 189.85743 188.90651 188.98258 189.82966 191.14973
 192.88681 194.99388 197.26896 199.64004 202.09711 204.58919 206.68926 208.54334
 210.18141 211.33849 211.57956 211.81964 211.76871 211.48579 211.13087 210.77294
 210.40202 210.12409 209.94417 209.82024 209.76032 210.10339 210.50147 210.90254
 211.70762 212.89769 214.15977 215.95485 217.89492 219.95000 222.05707 224.15215
 226.22422 228.32030 230.42937 232.54745 234.68852 236.87260 239.14067 241.52275
 244.15583 246.41890 248.43298 250.21005 251.63913 252.77420 253.60828 253.93635
 253.98543 253.77150 253.14358 252.10365 250.72173 248.89481 246.81588 244.66096
 242.46403 240.28011 238.11218 235.96326 233.83533 231.71441 229.75248 227.92156
 226.21664 224.70071 223.34279 222.12686 221.02094 219.99301 219.10909 218.26216
 217.51624 216.70831 215.81839 215.19446 214.65654 214.74770 214.96309 214.52423
 213.59354 211.58389 211.06145 212.90929 216.45546 220.70285 226.13902 230.47542
 234.20868 238.31892 242.56694 246.74452 250.79657 254.58743 258.04431 261.16397
 264.08563 266.90137 269.64978 272.29205 274.55612 276.28513 277.51743 278.37921
 278.99564 279.40070 279.73212 280.20932 280.91058 281.84286 282.82166 283.73117
 284.53571 285.26291 285.93024 286.78070
 366.78100 356.34659 345.79017 334.66776 323.08234 311.28793 299.16951 286.98410
 274.70769 262.61627 250.63686 239.94944 230.08303 221.19861 213.39220 206.40579
 200.25137 195.20096 191.79454 189.84813 188.89671 188.97230 189.81889 191.13847
 192.87506 194.98164 197.25623 199.62682 202.08340 204.57499 206.67457 208.52816
 210.16574 211.32233 211.56292 211.80250 211.75109 211.46767 211.11226 210.75384
 210.38243 210.10402 209.92360 209.79919 209.73877 210.08136 210.47894 210.87953
 211.68412 212.87370 214.13529 215.92987 217.86946 219.92404 222.03063 224.12522
 226.19680 228.29239 230.40097 232.51856 234.65914 236.84273 239.11032 241.49190
 244.12449 246.38707 248.40066 250.17724 251.60583 252.74042 253.57400 253.90159
 253.95017 253.73576 253.10735 252.06693 250.68452 248.85710 246.77769 244.62227
 242.42486 240.24045 238.07203 235.92262 233.79420 231.67279 229.71037 227.87896
 226.17355 224.65713 223.29872 222.08230 220.97589 219.94747 219.06306 218.21565
 217.46923 216.66082 215.77040 215.14599 214.60757 214.72507 215.00267 214.46053
 213.70937 211.63388 210.96100 212.85837 216.43465 220.65375 226.11197 230.44275
 234.19150 238.30222 242.54936 246.72974 250.79681 254.60167 258.06940 261.18896
 264.10364 266.90152 269.62888 272.26559 274.51086 276.21320 277.40540 278.25662
 278.92447 279.39203 279.78430 280.29190 281.06262 282.04941 283.03748 283.93628
 284.72998 285.43527 286.08228 286.92032
 366.78100 356.34612 345.78923 334.66635 323.08046 311.28558 299.16669 286.98081
 274.70392 262.61204 250.63215 239.94427 230.07739 221.19250 213.38562 206.39873
 200.24385 195.19296 191.78608 189.83919 188.88731 188.96242 189.80854 191.12766
 192.86377 194.96989 197.24400 199.61412 202.07023 204.56135 206.66046 208.51358
 210.15069 211.30681 211.54693 211.78604 211.73416 211.45027 211.09439 210.73550
 210.36362 210.08473 209.90385 209.77897 209.71808 210.06020 210.45731 210.85743
 211.66154 212.85066 214.11177 215.90589 217.84500 219.89912 222.00524 224.09935
 226.17047 228.26558 230.37370 232.49081 234.63093 236.81404 239.08116 241.46227
 244.09439 246.35651 248.36962 250.14574 251.57385 252.70797 253.54108 253.86820
 253.91631 253.70143 253.07254 252.03166 250.64878 248.82089 246.74101 244.58512
 242.38724 240.20235 238.03347 235.88358 233.75470 231.63281 229.66993 227.83805
 226.13216 224.61528 223.25639 222.03951 220.93262 219.90374 219.01885 218.17097
 217.42408 216.61520 215.72432 215.09943 214.56055 214.70573 215.04875 214.39961
 213.78818 211.68216 210.84764 212.80443 216.42073 220.58626 226.03435 230.38591
 234.14647 238.26445 242.51677 246.71049 250.79349 254.61765 258.10529 261.23874
 264.15204 266.93427 269.63675 272.24625 274.45004 276.10858 277.25458 278.11169
 278.84549 279.41562 279.91333 280.48062 281.25909 282.23505 283.22827 284.12592
 284.91525 285.62183 286.27344 287.11047
 366.78100 356.34623 345.78946 334.66669 323.08092 311.28614 299.16737 286.98160
 274.70483 262.61306 250.63329 239.94552 230.07875 221.19397 213.38720 206.40043
 200.24566 195.19489 191.78812 189.84135 188.88958 188.96481 189.81103 191.13026
 192.86649 194.97272 197.24695 199.61718 202.07341 204.56464 206.66387 208.51709
 210.15432 211.31055 211.55078 211.79001 211.73824 211.45447 211.09870 210.73992
 210.36815 210.08938 209.90861 209.78384 209.72307 210.06530 210.46253 210.86276
 211.66698 212.85621 214.11744 215.91167 217.85090 219.90513 222.01136 224.10559
 226.17682 228.27204 230.38027 232.49750 234.63773 236.82096 239.08819 241.46942
 244.10165 246.36387 248.37710 250.15333 251.58156 252.71579 253.54902 253.87625
 253.92448 253.70971 253.08093 252.04016 250.65739 248.82962 246.74985 244.59408
 242.39631 240.21154 238.04277 235.89299 233.76422 231.64245 229.67968 227.84791
 226.14214 224.62537 223.26660 222.04982 220.94305 219.91428 219.02951 218.18174
 217.43497 216.62620 215.73543 215.11066 214.57188 214.71472 215.05219 214.40977
 213.77255 211.69623 210.82674 212.77271 216.36993 220.51315 225.94411 230.32855
 234.10068 238.22726 242.48932 246.69687 250.79060 254.63162 258.14185 261.29639
 264.21277 266.98019 269.65503 272.22070 274.36838 275.97546 277.09967 277.98730
 278.78275 279.43741 280.00403 280.62247 281.47778 282.50601 283.48962 284.22803
 284.98694 285.69745 286.34134 287.16193
 366.78100 356.34686 345.79072 334.66857 323.08343 311.28929 299.17115 286.98601
 274.70986 262.61872 250.63958 239.95244 230.08630 221.20215 213.39601 206.40987
 200.25573 195.20559 191.79944 189.85330 188.90216 188.97802 189.82488 191.14473
 192.88159 194.98845 197.26331 199.63416 202.09102 204.58288 206.68274 208.53660
 210.17445 211.33131 211.57217 211.81203 211.76089 211.47774 211.12260 210.76446
 210.39332 210.11518 209.93503 209.81089 209.75075 210.09361 210.49147 210.89232
 211.69718 212.88704 214.14890 215.94376 217.88361 219.93847 222.04533 224.14019
 226.21205 228.30790 230.41676 232.53462 234.67548 236.85934 239.12719 241.50905
 244.14191 246.40477 248.41863 250.19548 251.62434 252.75920 253.59306 253.92092
 253.96977 253.75563 253.12749 252.08735 250.70521 248.87806 246.79892 244.64378
 242.44664 240.26249 238.09435 235.94521 233.81707 231.69593 229.73378 227.90264
 226.19750 224.68136 223.32322 222.10707 221.00093 219.97279 219.08865 218.24151
 217.49536 216.68722 215.79708 215.17294 214.63480 214.74736 215.01328 214.48384
 213.73547 211.64793 210.80334 212.78868 216.35602 220.44569 225.85985 230.27583
 234.06084 238.19656 242.46762 246.68622 250.78384 254.63553 258.16553 261.34155
 264.26212 267.01581 269.66141 272.18115 274.27542 275.83841 276.95093 277.86621
 278.72510 279.48526 280.16373 280.84317 281.69427 282.71954 283.70538 284.48318
 285.25186 285.96829 286.62000 287.45050
 366.78100 356.34704 345.79109 334.66913 323.08417 311.29021 299.17226 286.98730
 274.71134 262.62038 250.64143 239.95447 230.08851 221.20455 213.39860 206.41264
 200.25868 195.20872 191.80277 189.85681 188.90585 188.98189 189.82894 191.14898
 192.88602 194.99306 197.26811 199.63915 202.09619 204.58824 206.68828 208.54232
 210.18036 211.33741 211.57845 211.81849 211.76753 211.48458 211.12962 210.77166
 210.40070 210.12275 209.94279 209.81883 209.75887 210.10192 210.49996 210.90100
 211.70604 212.89609 214.15813 215.95317 217.89321 219.94826 222.05530 224.15034
 226.22239 228.31843 230.42747 232.54551 234.68656 236.87060 239.13864 241.52068
 244.15373 246.41677 248.43081 250.20785 251.63690 252.77194 253.60598 253.93402
 253.98307 253.76911 253.14115 252.10119 250.71924 248.89228 246.81332 244.65836
 242.46141 240.27745 238.10949 235.96054 233.83258 231.71162 229.74966 227.91871
 226.21375 224.69779 223.33983 222.12388 221.01792 219.98996 219.10600 218.25905
 217.51309 216.70513 215.81517 215.19122 214.65326 214.75714 215.00256 214.50142
 213.76358 211.72389 210.76611 212.65083 216.28642 220.40427 225.78616 230.23058
 234.03255 238.17548 242.45407 246.67920 250.77667 254.63879 258.19119 261.38831
 264.31186 267.04819 269.65988 272.12509 274.15543 275.66733 276.77167 277.72009
 278.67221 279.59213 280.43796 281.21375 281.98959 282.93677 283.90616 284.64041
 285.40884 286.12686 286.77750 287.60666
 366.78100 356.34698 345.79097 334.66895 323.08393 311.28991 299.17190 286.98688
 274.71086 262.61984 250.64083 239.95381 230.08779 221.20377 213.39776 206.41174
 200.25772 195.20770 191.80169 189.85567 188.90465 188.98064 189.82762 191.14760
 192.88458 194.99157 197.26655 199.63753 202.09451 204.58650 206.68648 208.54046
 210.17844 211.33543 211.57641 211.81639 211.76537 211.48236 211.12734 210.76932
 210.39831 210.12029 209.94027 209.81625 209.75624 210.09922 210.49720 210.89818
 211.70317 212.89315 214.15513 215.95011 217.89010 219.94508 222.05206 224.14704
 226.21903 228.31501 230.42399 232.54197 234.68296 236.86694 239.13492 241.51691
 244.14989 246.41287 248.42685 250.20384 251.63282 252.76780 253.60178 253.92977
 253.97875 253.76473 253.13671 252.09670 250.71468 248.88766 246.80864 244.65363
 242.45661 240.27259 238.10458 235.95556 233.82754 231.70652 229.74451 227.91349
 226.20847 224.69245 223.33444 222.11842 221.01240 219.98438 219.10037 218.25335
 217.50733 216.69931 215.80930 215.18528 214.64726 214.75656 215.01477 214.47031
 213.83134 211.81367 210.70760 212.47243 216.17825 220.37538 225.71671 230.20381
 234.01053 238.15784 242.44055 246.67606 250.77422 254.64928 258.22559 261.44952
 264.37433 267.08691 269.65607 272.05386 274.01425 275.47079 276.57098 277.57898
 278.64905 279.70850 280.68182 281.55435 282.33994 283.15790 284.08356 284.87921
 285.64795 286.37112 287.01273 287.83038
 366.78100 356.34623 345.78946 334.66669 323.08092 311.28615 299.16738 286.98161
 274.70484 262.61307 250.63330 239.94553 230.07876 221.19399 213.38722 206.40045
 200.24568 195.19491 191.78814 189.84137 188.88960 188.96483 189.81106 191.13029
 192.86652 194.97275 197.24698 199.61721 202.07344 204.56467 206.66390 208.51713
 210.15436 211.31059 211.55082 211.79005 211.73828 211.45451 211.09874 210.73997
 210.36820 210.08943 209.90866 209.78389 209.72312 210.06535 210.46258 210.86281
 211.66704 212.85627 214.11750 215.91173 217.85096 219.90519 222.01142 224.10565
 226.17688 228.27211 230.38034 232.49757 234.63780 236.82103 239.08826 241.46949
 244.10172 246.36395 248.37718 250.15341 251.58164 252.71587 253.54910 253.87633
 253.92456 253.70979 253.08102 252.04025 250.65748 248.82971 246.74994 244.59417
 242.39640 240.21164 238.04287 235.89310 233.76433 231.64256 229.67979 227.84802
 226.14225 224.62548 223.26671 222.04994 220.94317 219.91440 219.02963 218.18186
 217.43509 216.62632 215.73555 215.11078 214.57201 214.72469 215.08537 214.39529
 213.91756 211.84186 210.69505 212.41086 216.07233 220.33743 225.63286 230.19142
 233.97826 238.14241 242.43077 246.67542 250.77275 254.65796 258.25229 261.49649
 264.42728 267.13281 269.68805 272.03168 273.92618 275.32224 276.40866 277.46802
 278.60995 279.71960 280.76782 281.72549 282.54953 283.37469 284.31219 285.15009
 285.95993 286.70499 287.35587 288.18530
 366.78100 356.34561 345.78822 334.66484 323.07845 311.28306 299.16367 286.97729
 274.69990 262.60751 250.62712 239.93874 230.07135 221.18596 213.37857 206.39119
 200.23580 195.18441 191.77702 189.82964 188.87725 188.95186 189.79747 191.11608
 192.85170 194.95731 197.23092 199.60053 202.05615 204.54676 206.64537 208.49798
 210.13460 211.29021 211.52982 211.76843 211.71605 211.43166 211.07527 210.71588
 210.34350 210.06411 209.88272 209.75733 209.69595 210.03756 210.43417 210.83378
 211.63739 212.82601 214.08662 215.88023 217.81884 219.87246 221.97807 224.07168
 226.14229 228.23691 230.34452 232.46113 234.60074 236.78336 239.04997 241.43058
 244.06219 246.32381 248.33642 250.11203 251.53964 252.67325 253.50587 253.83248
 253.88009 253.66470 253.03532 251.99393 250.61054 248.78215 246.70177 244.54538
 242.34699 240.16160 237.99222 235.84183 233.71244 231.59005 229.62667 227.79428
 226.08789 224.57050 223.21111 221.99373 220.88634 219.85695 218.97156 218.12318
 217.37579 216.56640 215.67501 215.04963 214.51024 214.69986 215.12772 214.39500
 213.78477 211.84608 210.79968 212.33775 215.95564 220.33963 225.59955 230.20633
 233.96414 238.12193 242.40169 246.63962 250.72383 254.61272 258.24664 261.55081
 264.51651 267.21198 269.72470 271.99667 273.83765 275.24438 276.31619 277.33432
 278.45233 279.60300 280.78680 281.85074 282.67828 283.76129 284.77023 285.60257
 286.35794 287.03061 287.61823 288.36707
 366.78100 356.34487 345.78674 334.66260 323.07547 311.27934 299.15921 286.97207
 274.69394 262.60081 250.61968 239.93055 230.06241 221.17628 213.36815 206.38002
 200.22388 195.17175 191.76362 189.81549 188.86236 188.93622 189.78109 191.09896
 192.83383 194.93869 197.21156 199.58043 202.03530 204.52516 206.62303 208.47490
 210.11077 211.26564 211.50450 211.74237 211.68924 211.40411 211.04697 210.68684
 210.31371 210.03358 209.85145 209.72531 209.66318 210.00405 210.39992 210.79878
 211.60165 212.78952 214.04939 215.84226 217.78012 219.83299 221.93786 224.03073
 226.10059 228.19446 230.30133 232.41720 234.55607 236.73793 239.00380 241.38367
 244.01454 246.27540 248.28727 250.06214 251.48901 252.62188 253.45374 253.77961
 253.82648 253.61035 252.98021 251.93808 250.55395 248.72482 246.64369 244.48655
 242.28742 240.10129 237.93116 235.78002 233.64989 231.52676 229.56263 227.72949
 226.02236 224.50423 223.14410 221.92597 220.81783 219.78770 218.90157 218.05244
 217.30430 216.49417 215.60204 214.97591 214.43578 214.63550 215.07100 214.40985
 213.64284 211.89911 210.94383 212.26161 215.87086 220.35086 225.59129 230.20300
 233.95375 238.09547 242.36971 246.60518 250.67790 254.56866 258.24542 261.60782
 264.59109 267.25214 269.68893 271.89377 273.66064 275.00455 276.05383 277.07077
 278.24127 279.54047 280.88654 282.03595 283.08075 284.16916 285.21121 286.13351
 286.96301 287.70172 288.34702 289.16937
 366.78100 356.34408 345.78516 334.66024 323.07232 311.27540 299.15448 286.96656
 274.68764 262.59372 250.61180 239.92188 230.05296 221.16604 213.35712 206.36820
 200.21128 195.15836 191.74944 189.80052 188.84660 188.91968 189.76376 191.08084
 192.81492 194.91899 197.19107 199.55915 202.01323 204.50231 206.59939 208.45047
 210.08555 211.23963 211.47771 211.71479 211.66087 211.37495 211.01703 210.65611
 210.28219 210.00127 209.81835 209.69143 209.62851 209.96859 210.36367 210.76175
 211.56383 212.75091 214.00999 215.80207 217.73915 219.79123 221.89531 223.98739
 226.05647 228.14955 230.25563 232.37071 234.50879 236.68987 238.95495 241.33403
 243.96411 246.22419 248.23527 250.00935 251.43543 252.56751 253.39859 253.72367
 253.76975 253.55282 252.92190 251.87898 250.49406 248.66414 246.58222 244.42430
 242.22438 240.03746 237.86654 235.71462 233.58370 231.45978 229.49486 227.66094
 225.95302 224.43410 223.07318 221.85426 220.74534 219.71442 218.82750 217.97758
 217.22866 216.41774 215.52482 214.89790 214.35698 214.54979 214.96832 214.40558
 213.61513 212.00945 211.05072 212.19185 215.80101 220.33504 225.56332 230.17828
 233.93616 238.07175 242.35091 246.59108 250.65475 254.54750 258.25439 261.65378
 264.63498 267.26105 269.63293 271.77621 273.48962 274.79871 275.85413 276.90723
 278.19278 279.58026 281.01562 282.39145 283.58267 284.62796 285.52521 286.33801
 287.06906 287.72006 288.28879 289.01352
 354.97500 345.04800 334.58700 324.11500 313.32600 302.53700 291.65000 280.76700
 269.93100 259.19300 248.62200 238.61700 229.08700 220.35500 212.54000 205.53500
 199.46400 194.49300 191.14300 189.19000 188.08900 188.01400 188.72400 189.90600
 191.46900 193.38200 195.40300 197.55600 199.80700 202.06000 204.28800 206.47900
 208.55200 210.37800 212.02500 213.65900 214.99800 216.11800 217.17200 218.25900
 219.49400 220.64500 221.67900 222.61400 223.54500 224.98200 226.57100 228.19000
 229.79700 231.81100 233.86500 235.97200 238.24200 240.55300 242.89900 245.25300
 247.48800 249.53500 251.36600 252.84800 254.09800 255.16700 256.02700 256.25300
 256.09500 255.54300 253.93500 252.56600 251.38400 250.24500 249.05200 247.70100
 246.01600 243.99600 241.78400 239.39300 236.81300 234.22300 231.65800 229.14400
 226.74000 224.47300 222.33500 220.32500 218.44000 216.67700 214.96200 213.47200
 212.20000 211.10800 210.26000 209.63900 209.24400 209.03100 209.05800 209.33300
 209.78400 210.62600 211.33100 212.39100 213.62500 214.84668 217.72949 219.47640
 220.32566 220.86828 220.88710 220.27371 219.43733 218.84250 219.04934 220.86203
 222.60583 225.72206 229.03064 232.61777 236.12270 239.51333 242.70767 245.68587
 248.41061 250.90679 253.19353 254.91714 256.48655 257.94920 259.39966 260.69384
 261.81714 262.77997 263.71679 264.54570 265.26305 265.89772 266.47676 267.00133
 267.47312 267.89325 268.26027 268.72800
