|-------------------------------------------------------------------------|
|   File Name : in_temp.dat
|   Subject   : temperature profiles used for initial guess atmosphere
|   File Type : input of gmtr
|   Data Type : atmospherical data
|   Author/s  : WRF-Chem
|   Date      : Fri Jul 26 15:39:24 2024
|-------------------------------------------------------------------------|

 WRF-Chem temperature
#
 values of T (K)    (8f10.5)
#
 354.97500 345.04800 334.58700 324.11500 313.32600 302.53700 291.65000 280.76700
 269.93100 259.19300 248.62200 238.61700 229.08700 220.35500 212.54000 205.53500
 199.46400 194.49300 191.14300 189.19000 188.08900 188.01400 188.72400 189.90600
 191.46900 193.38200 195.40300 197.55600 199.80700 202.06000 204.28800 206.47900
 208.55200 210.37800 212.02500 213.65900 214.99800 216.11800 217.17200 218.25900
 219.49400 220.64500 221.67900 222.61400 223.54500 224.98200 226.57100 228.19000
 229.79700 231.81100 233.86500 235.97200 238.24200 240.55300 242.89900 245.25300
 247.48800 249.53500 251.36600 252.84800 254.09800 255.16700 256.02700 256.25300
 256.09500 255.54300 253.93500 252.56600 251.38400 250.24500 249.05200 247.70100
 246.01600 243.99600 241.78400 239.39300 236.81300 234.22300 231.65800 229.14400
 226.74000 224.47300 222.33500 220.32500 218.44000 216.67700 214.96200 213.47200
 212.20000 211.10800 210.26000 209.63900 209.24400 209.03100 209.05800 209.33300
 209.78400 210.62600 211.33100 212.39100 213.62500 214.84668 217.72949 219.47640
 220.32566 220.86828 220.88710 220.27371 219.43733 218.84250 219.04934 220.86203
 222.60583 225.72206 229.03064 232.61777 236.12270 239.51333 242.70767 245.68587
 248.41061 250.90679 253.19353 254.91714 256.48655 257.94920 259.39966 260.69384
 261.81714 262.77997 263.71679 264.54570 265.26305 265.89772 266.47676 267.00133
 267.47312 267.89325 268.26027 268.72800
 366.78100 356.33500 345.76700 334.63300 323.03600 311.23000 299.10000 286.90300
 274.61500 262.51200 250.52100 239.82200 229.94400 221.04800 213.23000 206.23200
 200.06600 195.00400 191.58600 189.62800 188.66500 188.72900 189.56400 190.87200
 192.59700 194.69200 196.95500 199.31400 201.75900 204.23900 206.32700 208.16900
 209.79500 210.94000 211.16900 211.39700 211.33400 211.03900 210.67200 210.30200
 209.91900 209.62900 209.43700 209.30100 209.22900 209.56000 209.94600 210.33500
 211.12800 212.30600 213.55600 215.33900 217.26700 219.31000 221.40500 223.48800
 225.54800 227.63200 229.72900 231.83500 233.96400 236.13600 238.39200 240.76200
 243.38300 245.63400 247.63600 249.40100 250.81800 251.94100 252.76300 253.07900
 253.11600 252.89000 252.25000 251.19800 249.80400 247.96500 245.87400 243.70700
 241.49800 239.30200 237.12200 234.96100 232.82100 230.68800 228.71400 226.87100
 225.15400 223.62600 222.25600 221.02800 219.91000 218.87000 217.97400 217.11500
 216.35700 215.53700 214.63500 213.99900 213.44900 212.85855 212.01316 212.61654
 214.26826 216.08686 218.14273 220.53346 223.40855 226.78828 231.49734 235.90155
 239.42278 243.28576 247.23140 251.11907 254.80144 258.23331 261.38913 264.27520
 266.89312 269.26852 271.44504 273.08845 274.58484 275.98591 277.39845 278.65879
 279.75272 280.69038 281.56708 282.34086 283.01050 283.60295 284.14348 284.63317
 285.07358 285.46577 285.80838 286.24500
 381.81900 372.39900 361.20600 349.77600 337.62200 324.85300 311.81000 298.35300
 284.86000 271.32400 258.56100 246.30400 236.08700 226.79600 218.44800 211.29000
 205.52200 200.89400 197.38100 194.84800 193.01500 192.31500 192.25000 192.43100
 192.91200 193.53700 194.13600 194.71200 195.26200 195.83100 196.39300 196.97600
 197.60400 198.14900 198.58400 199.05700 199.69500 200.37800 201.05400 201.70800
 202.31300 202.85700 203.35500 203.86200 204.56900 205.29700 206.02600 206.98700
 208.19300 209.44100 210.96900 212.57600 214.46200 216.51300 218.63000 220.85300
 223.34100 225.96200 228.73900 231.69700 234.70600 237.70600 240.69200 243.65700
 246.73700 249.69900 252.52100 255.06300 257.29000 259.23300 260.63300 261.68000
 262.46100 262.79800 262.69100 262.22400 261.06900 259.52500 257.70700 255.50700
 253.00100 250.30200 247.39800 244.45200 241.65400 239.05400 236.73300 234.59000
 232.59500 230.72500 228.83400 226.82600 224.66600 222.38700 220.10400 217.71500
 215.45900 213.06600 210.54600 208.09300 205.35400 202.08130 196.05959 200.71215
 209.01611 216.90438 223.84126 229.78593 235.00632 240.20838 245.98943 250.68668
 254.32982 257.93487 261.55666 264.96801 268.15192 271.06452 273.76717 276.25691
 278.57680 280.74479 282.77456 284.60533 286.27232 287.81705 289.31715 290.65561
 291.81734 292.81312 293.70701 294.49387 295.17482 295.77730 296.32696 296.82492
 297.27278 297.67160 298.02000 298.46400
 399.33000 389.90700 379.81300 368.66800 357.52200 345.30100 333.07400 320.22700
 307.21600 293.84800 280.37600 267.29600 254.61000 242.98700 232.15100 221.97700
 212.67200 204.28600 197.66900 192.82100 189.48600 187.45200 186.81400 187.08900
 187.78100 189.05400 190.64800 192.54200 194.63000 196.75200 198.67100 200.15800
 201.53500 202.48700 202.97500 203.34000 203.53900 203.49700 203.38500 203.24700
 203.00500 202.78600 202.60300 202.43700 202.42600 202.88800 203.42000 203.95100
 204.89500 205.99200 207.30100 208.95800 210.73800 213.10000 215.56400 218.18000
 220.96600 223.91800 226.96100 230.09200 233.29300 236.55700 239.95500 243.53700
 246.84500 249.39000 251.54200 253.47400 255.19500 256.48400 257.43100 258.05900
 258.21200 258.04000 257.58200 256.64300 255.23900 253.50700 251.40800 249.05600
 246.57600 243.99400 241.38900 238.83000 236.34400 233.98600 231.96900 230.11800
 228.42300 226.89900 225.54800 224.29700 223.10500 221.96500 220.95800 220.11300
 219.49000 218.92000 218.32500 217.88100 217.42300 216.96366 216.35568 216.80261
 217.73415 218.28582 218.64258 219.10077 220.44626 222.53987 226.38451 230.35736
 233.59734 237.39164 241.29814 245.22796 248.98002 252.51130 255.78595 258.80109
 261.54781 264.05210 266.34239 268.04198 269.58951 271.01303 272.35754 273.55718
 274.59842 275.49092 276.28989 276.99307 277.60161 278.14001 278.63122 279.07623
 279.47646 279.83287 280.14422 280.54100
 399.73800 389.78500 379.66200 368.15100 356.64100 344.35000 331.79200 318.88800
 305.72600 292.49300 279.20900 266.73800 254.69600 244.21100 234.45700 225.43300
 217.56900 210.45100 204.30000 199.30600 195.45800 192.57600 191.02700 190.38600
 190.23900 190.53400 191.16600 191.92500 192.79500 193.76600 194.73200 195.31200
 195.80000 196.05200 196.11500 196.11500 196.03900 195.72300 195.34000 194.98900
 194.75100 194.79200 195.13300 195.59800 196.50600 198.13600 199.85800 201.56600
 204.17900 206.82300 209.89300 213.28400 216.82800 220.60500 224.38700 228.20900
 232.03200 235.82500 239.56000 243.25800 246.84500 250.20100 253.70900 257.46800
 261.53000 264.22100 266.60100 268.68100 270.32900 271.74100 272.83600 273.47400
 273.89800 274.00200 273.75700 273.28800 272.37100 271.10000 269.58900 267.77900
 265.81600 263.72100 261.39300 258.91600 256.29800 253.42300 250.33100 247.11400
 243.83700 240.52900 237.24900 233.99900 230.72800 227.51500 224.25400 220.95200
 217.62700 213.65600 210.12100 206.78900 204.01000 201.99491 199.07309 198.76551
 199.40006 200.48994 201.46112 202.31912 203.45100 204.96110 207.47502 210.85391
 213.70530 217.29629 220.99574 224.72316 228.28753 231.64854 234.68024 237.40893
 239.70644 241.60899 243.46854 245.67368 247.68154 249.52395 251.24767 252.78566
 254.12057 255.26479 256.23740 257.09036 257.82852 258.48160 259.07744 259.61723
 260.10271 260.53504 260.91270 261.39400
 399.73800 389.78500 379.66200 368.15100 356.64100 344.35000 331.79200 318.88800
 305.72600 292.49300 279.20900 266.73800 254.69600 244.21100 234.45700 225.43300
 217.56900 210.45100 204.30000 199.30600 195.45800 192.57600 191.02700 190.38600
 190.23900 190.53400 191.16600 191.92500 192.79500 193.76600 194.73200 195.31200
 195.80000 196.05200 196.11500 196.11500 196.03900 195.72300 195.34000 194.98900
 194.75100 194.79200 195.13300 195.59800 196.50600 198.13600 199.85800 201.56600
 204.17900 206.82300 209.89300 213.28400 216.82800 220.60500 224.38700 228.20900
 232.03200 235.82500 239.56000 243.25800 246.84500 250.20100 253.70900 257.46800
 261.53000 264.22100 266.60100 268.68100 270.32900 271.74100 272.83600 273.47400
 273.89800 274.00200 273.75700 273.28800 272.37100 271.10000 269.58900 267.77900
 265.81600 263.72100 261.39300 258.91600 256.29800 253.42300 250.33100 247.11400
 243.83700 240.52900 237.24900 233.99900 230.72800 227.51500 224.25400 220.95200
 217.62700 213.65600 210.12100 206.78900 204.01000 201.99491 199.07309 198.76551
 199.40006 200.48994 201.46112 202.31912 203.45100 204.96110 207.47502 210.85391
 213.70530 217.29629 220.99574 224.72316 228.28753 231.64854 234.68024 237.40893
 239.70644 241.60899 243.46854 245.67368 247.68154 249.52395 251.24767 252.78566
 254.12057 255.26479 256.23740 257.09036 257.82852 258.48160 259.07744 259.61723
 260.10271 260.53504 260.91270 261.39400
 399.33000 389.90700 379.81300 368.66800 357.52200 345.30100 333.07400 320.22700
 307.21600 293.84800 280.37600 267.29600 254.61000 242.98700 232.15100 221.97700
 212.67200 204.28600 197.66900 192.82100 189.48600 187.45200 186.81400 187.08900
 187.78100 189.05400 190.64800 192.54200 194.63000 196.75200 198.67100 200.15800
 201.53500 202.48700 202.97500 203.34000 203.53900 203.49700 203.38500 203.24700
 203.00500 202.78600 202.60300 202.43700 202.42600 202.88800 203.42000 203.95100
 204.89500 205.99200 207.30100 208.95800 210.73800 213.10000 215.56400 218.18000
 220.96600 223.91800 226.96100 230.09200 233.29300 236.55700 239.95500 243.53700
 246.84500 249.39000 251.54200 253.47400 255.19500 256.48400 257.43100 258.05900
 258.21200 258.04000 257.58200 256.64300 255.23900 253.50700 251.40800 249.05600
 246.57600 243.99400 241.38900 238.83000 236.34400 233.98600 231.96900 230.11800
 228.42300 226.89900 225.54800 224.29700 223.10500 221.96500 220.95800 220.11300
 219.49000 218.92000 218.32500 217.88100 217.42300 216.96366 216.35568 216.80261
 217.73415 218.28582 218.64258 219.10077 220.44626 222.53987 226.38451 230.35736
 233.59734 237.39164 241.29814 245.22796 248.98002 252.51130 255.78595 258.80109
 261.54781 264.05210 266.34239 268.04198 269.58951 271.01303 272.35754 273.55718
 274.59842 275.49092 276.28989 276.99307 277.60161 278.14001 278.63122 279.07623
 279.47646 279.83287 280.14422 280.54100
 381.81900 372.39900 361.20600 349.77600 337.62200 324.85300 311.81000 298.35300
 284.86000 271.32400 258.56100 246.30400 236.08700 226.79600 218.44800 211.29000
 205.52200 200.89400 197.38100 194.84800 193.01500 192.31500 192.25000 192.43100
 192.91200 193.53700 194.13600 194.71200 195.26200 195.83100 196.39300 196.97600
 197.60400 198.14900 198.58400 199.05700 199.69500 200.37800 201.05400 201.70800
 202.31300 202.85700 203.35500 203.86200 204.56900 205.29700 206.02600 206.98700
 208.19300 209.44100 210.96900 212.57600 214.46200 216.51300 218.63000 220.85300
 223.34100 225.96200 228.73900 231.69700 234.70600 237.70600 240.69200 243.65700
 246.73700 249.69900 252.52100 255.06300 257.29000 259.23300 260.63300 261.68000
 262.46100 262.79800 262.69100 262.22400 261.06900 259.52500 257.70700 255.50700
 253.00100 250.30200 247.39800 244.45200 241.65400 239.05400 236.73300 234.59000
 232.59500 230.72500 228.83400 226.82600 224.66600 222.38700 220.10400 217.71500
 215.45900 213.06600 210.54600 208.09300 205.35400 202.08130 196.05959 200.71215
 209.01611 216.90438 223.84126 229.78593 235.00632 240.20838 245.98943 250.68668
 254.32982 257.93487 261.55666 264.96801 268.15192 271.06452 273.76717 276.25691
 278.57680 280.74479 282.77456 284.60533 286.27232 287.81705 289.31715 290.65561
 291.81734 292.81312 293.70701 294.49387 295.17482 295.77730 296.32696 296.82492
 297.27278 297.67160 298.02000 298.46400
 366.78100 356.33506 345.76712 334.63318 323.03625 311.23031 299.10037 286.90343
 274.61549 262.51255 250.52162 239.82268 229.94474 221.04880 213.23086 206.23292
 200.06698 195.00505 191.58711 189.62917 188.66623 188.73029 189.56535 190.87342
 192.59848 194.69354 196.95660 199.31566 201.76072 204.24078 206.32885 208.17091
 209.79697 210.94203 211.17109 211.39915 211.33622 211.04128 210.67434 210.30440
 209.92146 209.63152 209.43958 209.30365 209.23171 209.56277 209.94883 210.33789
 211.13095 212.30902 213.55908 215.34214 217.27020 219.31326 221.40832 223.49138
 225.55145 227.63551 229.73257 231.83863 233.96769 236.13975 238.39582 240.76588
 243.38694 245.63800 247.64006 249.40512 250.82219 251.94525 252.76731 253.08337
 253.12043 252.89449 252.25455 251.20262 249.80868 247.96974 245.87880 243.71186
 241.50292 239.30699 237.12705 234.96611 232.82617 230.69323 228.71929 226.87635
 225.15942 223.63148 222.26154 221.03360 219.91566 218.87572 217.97979 217.12085
 216.36291 215.54297 214.64103 214.00509 213.45515 213.01636 211.99359 213.10536
 214.92702 216.71913 217.72221 217.98979 219.02342 222.82532 228.38770 233.14485
 236.90730 240.66524 244.38109 247.99457 251.42615 254.27713 256.80209 259.46902
 262.36179 264.91623 267.11075 269.10895 271.09125 273.05518 274.72299 276.29135
 277.87851 279.51462 281.04974 282.41333 283.59763 284.64883 285.61151 286.48856
 287.28091 287.99252 288.62158 289.45715
 366.78100 356.33486 345.76671 334.63257 323.03543 311.22929 299.09914 286.90200
 274.61386 262.51072 250.51957 239.82043 229.94229 221.04614 213.22800 206.22986
 200.06372 195.00157 191.58343 189.62529 188.66214 188.72600 189.56086 190.86872
 192.59357 194.68843 196.95129 199.31015 201.75500 204.23486 206.32272 208.16457
 209.79043 210.93529 211.16415 211.39200 211.32886 211.03372 210.66657 210.29643
 209.91329 209.62315 209.43100 209.29486 209.22272 209.55358 209.93943 210.32829
 211.12115 212.29900 213.54886 215.33172 217.25958 219.30243 221.39729 223.48015
 225.54000 227.62386 229.72072 231.82658 233.95543 236.12729 238.38315 240.75301
 243.37386 245.62472 247.62658 249.39143 250.80829 251.93115 252.75301 253.06886
 253.10572 252.87958 252.23943 251.18729 249.79315 247.95401 245.86286 243.69572
 241.48658 239.29044 237.11029 234.94915 232.80901 230.67586 228.70172 226.85858
 225.14144 223.61329 222.24315 221.01501 219.89687 218.85672 217.96058 217.10144
 216.34329 215.52315 214.62101 213.98487 213.43472 213.02463 212.06821 213.23796
 215.03230 216.80321 217.79834 218.12050 219.16504 222.83794 228.32671 233.04279
 236.78740 240.54646 244.26759 247.86642 251.23021 254.03445 256.60538 259.36496
 262.21671 264.71503 266.91989 268.96140 270.96884 272.93344 274.59106 276.15906
 277.74985 279.42578 280.96417 282.32773 283.51215 284.56345 285.52597 286.40204
 287.19476 287.90649 288.53574 289.37338
 366.78100 356.33454 345.76607 334.63161 323.03415 311.22768 299.09722 286.89975
 274.61129 262.50783 250.51636 239.81690 229.93844 221.04197 213.22351 206.22505
 200.05858 194.99612 191.57765 189.61919 188.65573 188.71926 189.55380 190.86134
 192.58587 194.68041 196.94294 199.30148 201.74602 204.22555 206.31309 208.15463
 209.78016 210.92470 211.15324 211.38077 211.31731 211.02184 210.65438 210.28392
 209.90045 209.60999 209.41753 209.28106 209.20860 209.53914 209.92467 210.31321
 211.10574 212.28328 213.53282 215.31535 217.24289 219.28543 221.37996 223.46250
 225.52203 227.60557 229.70211 231.80764 233.93618 236.10772 238.36325 240.73279
 243.35333 245.60386 247.60540 249.36993 250.78647 251.90901 252.73054 253.04608
 253.08262 252.85615 252.21569 251.16323 249.76876 247.92930 245.83783 243.67037
 241.46091 239.26444 237.08398 234.92252 232.78205 230.64859 228.67412 226.83066
 225.11320 223.58473 222.21427 220.98581 219.86734 218.82688 217.93042 217.07095
 216.31249 215.49202 214.58956 213.95310 213.40263 213.02905 212.15714 213.35913
 215.12909 216.87465 217.90131 218.24637 219.30391 222.85858 228.28114 232.94447
 236.66432 240.41907 244.14545 247.73174 251.02959 253.79153 256.41129 259.26038
 262.06976 264.50992 266.71997 268.80475 270.84204 272.80783 274.45837 276.02649
 277.63052 279.33926 280.87936 282.24316 283.42896 284.48026 285.44211 286.31882
 287.11188 287.82428 288.45117 289.29239
 366.78100 356.33436 345.76573 334.63109 323.03346 311.22682 299.09618 286.89855
 274.60991 262.50628 250.51464 239.81500 229.93637 221.03973 213.22109 206.22246
 200.05582 194.99319 191.57455 189.61591 188.65228 188.71564 189.55001 190.85737
 192.58173 194.67610 196.93846 199.29683 201.74119 204.22055 206.30792 208.14928
 209.77465 210.91901 211.14737 211.37474 211.31110 211.01546 210.64783 210.27719
 209.89356 209.60292 209.41028 209.27365 209.20101 209.53138 209.91674 210.30510
 211.09747 212.27483 213.52420 215.30656 217.23392 219.27629 221.37065 223.45302
 225.51238 227.59574 229.69211 231.79747 233.92583 236.09720 238.35256 240.72193
 243.34229 245.59265 247.59402 249.35838 250.77475 251.89711 252.71847 253.03384
 253.07020 252.84357 252.20293 251.15029 249.75566 247.91602 245.82439 243.65675
 241.44711 239.25048 237.06984 234.90820 232.76757 230.63393 228.65930 226.81566
 225.09802 223.56939 222.19875 220.97012 219.85148 218.81084 217.91421 217.05457
 216.29594 215.47530 214.57266 213.93603 213.38539 213.04283 212.24255 213.48254
 215.21477 216.93303 218.00995 218.38156 219.44624 222.88890 228.24643 232.85086
 236.54124 240.29099 244.02272 247.59093 250.82153 253.54515 256.21579 259.15063
 261.92007 264.30243 266.51389 268.64023 270.70886 272.67923 274.32471 275.89273
 277.52573 279.24820 280.79160 282.15759 283.34348 284.39557 285.35818 286.23557
 287.02887 287.74271 288.37079 289.21088
 366.78100 356.33431 345.76563 334.63094 323.03325 311.22657 299.09588 286.89819
 274.60951 262.50582 250.51413 239.81445 229.93576 221.03907 213.22039 206.22170
 200.05501 194.99233 191.57364 189.61495 188.65127 188.71458 189.54889 190.85620
 192.58052 194.67483 196.93714 199.29546 201.73977 204.21908 206.30640 208.14771
 209.77302 210.91734 211.14565 211.37296 211.30928 211.01359 210.64590 210.27522
 209.89153 209.60084 209.40816 209.27147 209.19878 209.52910 209.91441 210.30272
 211.09504 212.27235 213.52166 215.30398 217.23129 219.27360 221.36792 223.45023
 225.50954 227.59286 229.68917 231.79448 233.92280 236.09411 238.34942 240.71873
 243.33905 245.58936 247.59067 249.35499 250.77130 251.89361 252.71493 253.03024
 253.06655 252.83987 252.19918 251.14649 249.75181 247.91212 245.82043 243.65275
 241.44306 239.24637 237.06569 234.90400 232.76331 230.62963 228.65494 226.81125
 225.09357 223.56488 222.19419 220.96551 219.84682 218.80613 217.90945 217.04976
 216.29107 215.47039 214.56770 213.93101 213.38033 213.06454 212.32590 213.60672
 215.29008 216.98161 218.11424 218.52609 219.60262 222.92708 228.21654 232.76318
 236.42000 240.16740 243.90088 247.44249 250.60623 253.29738 256.01917 259.03271
 261.76532 264.09412 266.30246 268.46826 270.57043 272.54779 274.19119 275.75897
 277.42734 279.15662 280.70288 282.06827 283.25467 284.30783 285.27124 286.14789
 286.94272 287.65619 288.28445 289.12674
 366.78100 356.33428 345.76555 334.63083 323.03311 311.22639 299.09566 286.89794
 274.60922 262.50549 250.51377 239.81405 229.93533 221.03860 213.21988 206.22116
 200.05443 194.99171 191.57299 189.61426 188.65054 188.71382 189.54810 190.85537
 192.57965 194.67393 196.93620 199.29448 201.73876 204.21804 206.30531 208.14659
 209.77187 210.91614 211.14442 211.37170 211.30798 211.01225 210.64453 210.27381
 209.89008 209.59936 209.40664 209.26991 209.19719 209.52747 209.91275 210.30102
 211.09330 212.27058 213.51985 215.30213 217.22941 219.27169 221.36596 223.44824
 225.50752 227.59079 229.68707 231.79235 233.92063 236.09190 238.34718 240.71646
 243.33673 245.58701 247.58829 249.35257 250.76884 251.89112 252.71240 253.02767
 253.06395 252.83723 252.19650 251.14378 249.74906 247.90934 245.81761 243.64989
 241.44017 239.24344 237.06272 234.90100 232.76028 230.62655 228.65183 226.80811
 225.09038 223.56166 222.19094 220.96222 219.84349 218.80277 217.90605 217.04632
 216.28760 215.46688 214.56415 213.92743 213.37671 213.08879 212.41425 213.72554
 215.35574 217.02609 218.21587 218.67628 219.77415 222.96973 228.18921 232.68263
 236.30595 240.04939 243.77734 247.28596 250.38770 253.05153 255.82011 258.90350
 261.60391 263.88364 266.08820 268.28915 270.42642 272.41321 274.05960 275.62958
 277.33041 279.06537 280.61127 281.97708 283.16306 284.21765 285.18079 286.05893
 286.85263 287.56537 288.19666 289.03659
 366.78100 356.33421 345.76541 334.63062 323.03282 311.22603 299.09523 286.89744
 274.60864 262.50485 250.51306 239.81326 229.93447 221.03767 213.21888 206.22008
 200.05329 194.99049 191.57170 189.61290 188.64911 188.71232 189.54652 190.85373
 192.57793 194.67214 196.93434 199.29255 201.73675 204.21596 206.30317 208.14437
 209.76958 210.91378 211.14199 211.36919 211.30540 211.00960 210.64181 210.27102
 209.88722 209.59643 209.40363 209.26684 209.19404 209.52425 209.90945 210.29766
 211.08987 212.26707 213.51628 215.29848 217.22569 219.26789 221.36210 223.44430
 225.50351 227.58671 229.68292 231.78813 233.91633 236.08754 238.34274 240.71195
 243.33215 245.58236 247.58356 249.34777 250.76398 251.88618 252.70739 253.02259
 253.05880 252.83200 252.19121 251.13841 249.74362 247.90383 245.81203 243.64424
 241.43444 239.23765 237.05685 234.89506 232.75426 230.62047 228.64568 226.80188
 225.08409 223.55529 222.18450 220.95570 219.83691 218.79611 217.89932 217.03952
 216.28073 215.45994 214.55714 213.92035 213.36955 213.11258 212.50935 213.83772
 215.41055 217.06891 218.32010 218.82568 219.95638 223.01485 228.16377 232.60780
 236.20210 239.93979 243.65285 247.12294 250.16698 252.80974 255.61961 258.76093
 261.43314 263.67184 265.87192 268.10614 270.27835 272.27884 273.93250 275.50894
 277.23398 278.96930 280.51471 281.87961 283.06805 284.11987 285.08438 285.96100
 286.75775 287.47116 288.10199 288.94193
 366.78100 356.33410 345.76520 334.63030 323.03239 311.22549 299.09459 286.89669
 274.60779 262.50389 250.51199 239.81209 229.93318 221.03628 213.21738 206.21848
 200.05158 194.98868 191.56978 189.61088 188.64697 188.71007 189.54417 190.85127
 192.57537 194.66947 196.93157 199.28967 201.73376 204.21286 206.29996 208.14106
 209.76616 210.91026 211.13836 211.36546 211.30155 211.00565 210.63775 210.26685
 209.88295 209.59205 209.39915 209.26224 209.18934 209.51944 209.90454 210.29264
 211.08474 212.26184 213.51094 215.29303 217.22013 219.26223 221.35633 223.43843
 225.49753 227.58063 229.67673 231.78182 233.90992 236.08102 238.33612 240.70522
 243.32532 245.57542 247.57652 249.34061 250.75671 251.87881 252.69991 253.01501
 253.05111 252.82421 252.18330 251.13040 249.73550 247.89560 245.80370 243.63580
 241.42590 239.22900 237.04809 234.88619 232.74529 230.61139 228.63649 226.79259
 225.07469 223.54579 222.17488 220.94598 219.82708 218.78618 217.88928 217.02938
 216.27048 215.44958 214.54667 213.90977 213.35887 213.13565 212.61041 213.94502
 215.45468 217.11137 218.43066 218.96965 220.14664 223.06216 228.14131 232.53569
 236.10599 239.83922 243.53148 246.95605 249.94324 252.57103 255.41782 258.60480
 261.25375 263.45941 265.65869 267.92435 270.13138 272.14731 273.81454 275.40210
 277.13370 278.86743 280.41217 281.77820 282.96530 284.01837 284.98361 285.86002
 286.65640 287.37100 288.00220 288.84317
 366.78100 356.33396 345.76492 334.62988 323.03184 311.22480 299.09376 286.89572
 274.60668 262.50263 250.51059 239.81055 229.93151 221.03447 213.21543 206.21639
 200.04935 194.98631 191.56727 189.60823 188.64419 188.70715 189.54111 190.84807
 192.57203 194.66599 196.92794 199.28590 201.72986 204.20882 206.29578 208.13674
 209.76170 210.90566 211.13362 211.36058 211.29654 211.00050 210.63246 210.26142
 209.87738 209.58634 209.39329 209.25625 209.18321 209.51317 209.89813 210.28609
 211.07805 212.25501 213.50397 215.28593 217.21289 219.25485 221.34881 223.43077
 225.48973 227.57269 229.66865 231.77360 233.90156 236.07252 238.32748 240.69644
 243.31640 245.56636 247.56732 249.33128 250.74724 251.86920 252.69016 253.00512
 253.04108 252.81404 252.17300 251.11996 249.72491 247.88487 245.79283 243.62479
 241.41475 239.21771 237.03667 234.87463 232.73359 230.59955 228.62451 226.78047
 225.06243 223.53339 222.16235 220.93331 219.81426 218.77322 217.87618 217.01614
 216.25710 215.43606 214.53302 213.89598 213.34494 213.15781 212.71616 214.04761
 215.48805 217.15562 218.54765 219.10875 220.33949 223.11606 228.11743 232.46935
 236.01480 239.74615 243.41324 246.78450 249.71512 252.33415 255.21509 258.43680
 261.06677 263.24704 265.44943 267.74603 269.98785 272.02356 273.70853 275.31116
 277.02890 278.76111 280.30539 281.67169 282.85944 283.91351 284.87817 285.75653
 286.55377 287.26825 287.90033 288.74225
 366.78100 356.33383 345.76466 334.62949 323.03132 311.22415 299.09298 286.89481
 274.60564 262.50148 250.50931 239.80914 229.92997 221.03280 213.21363 206.21446
 200.04729 194.98412 191.56495 189.60578 188.64161 188.70444 189.53827 190.84510
 192.56893 194.66277 196.92460 199.28243 201.72626 204.20509 206.29192 208.13275
 209.75758 210.90141 211.12924 211.35607 211.29190 210.99573 210.62756 210.25639
 209.87222 209.58106 209.38789 209.25072 209.17755 209.50738 209.89221 210.28004
 211.07187 212.24870 213.49753 215.27936 217.20619 219.24802 221.34185 223.42368
 225.48251 227.56535 229.66118 231.76601 233.89384 236.06467 238.31950 240.68833
 243.30816 245.55799 247.55882 249.32265 250.73848 251.86031 252.68114 252.99597
 253.03180 252.80464 252.16347 251.11030 249.71513 247.87496 245.78279 243.61462
 241.40445 239.20728 237.02611 234.86394 232.72277 230.58860 228.61343 226.76926
 225.05109 223.52192 222.15076 220.92159 219.80242 218.76125 217.86408 217.00391
 216.24474 215.42357 214.52040 213.88323 213.33206 213.18121 212.82478 214.14960
 215.51550 217.19562 218.67119 219.24561 220.54137 223.16472 228.09593 232.40660
 235.92329 239.65659 243.29976 246.61343 249.48683 252.09940 255.00928 258.25388
 260.86777 263.03391 265.24780 267.57690 269.85202 271.91055 273.61749 275.23257
 276.92435 278.65402 280.19730 281.56421 282.75226 283.80603 284.77176 285.65036
 286.44766 287.16196 287.79694 288.63956
 366.78100 356.33377 345.76455 334.62932 323.03110 311.22387 299.09265 286.89442
 274.60520 262.50097 250.50875 239.80852 229.92930 221.03207 213.21285 206.21362
 200.04640 194.98317 191.56395 189.60472 188.64050 188.70327 189.53705 190.84382
 192.56760 194.66137 196.92315 199.28092 201.72470 204.20347 206.29025 208.13102
 209.75580 210.89957 211.12735 211.35412 211.28990 210.99367 210.62545 210.25422
 209.87000 209.57877 209.38555 209.24832 209.17510 209.50487 209.88965 210.27742
 211.06920 212.24597 213.49475 215.27652 217.20330 219.24507 221.33885 223.42062
 225.47940 227.56217 229.65795 231.76272 233.89050 236.06127 238.31605 240.68482
 243.30460 245.55437 247.55514 249.31892 250.73469 251.85647 252.67724 252.99202
 253.02779 252.80057 252.15934 251.10612 249.71089 247.87067 245.77844 243.61022
 241.39999 239.20277 237.02154 234.85932 232.71809 230.58387 228.60864 226.76442
 225.04619 223.51697 222.14574 220.91652 219.79729 218.75607 217.85884 216.99862
 216.23939 215.41817 214.51494 213.87772 213.32649 213.20871 212.93042 214.25679
 215.53687 217.23370 218.78802 219.38713 220.73114 223.23405 228.07005 232.34621
 235.84085 239.57710 243.19183 246.43806 249.25009 251.85733 254.79515 258.05499
 260.66049 262.82928 265.06290 267.42050 269.72644 271.80844 273.53659 275.15826
 276.82391 278.54718 280.09042 281.45630 282.64462 283.69897 284.66534 285.54480
 286.34280 287.05997 287.69269 288.53812
 366.78100 356.33379 345.76459 334.62938 323.03118 311.22397 299.09277 286.89456
 274.60536 262.50115 250.50895 239.80874 229.92954 221.03233 213.21312 206.21392
 200.04671 194.98351 191.56430 189.60510 188.64089 188.70369 189.53748 190.84428
 192.56807 194.66187 196.92366 199.28145 201.72525 204.20404 206.29084 208.13163
 209.75643 210.90022 211.12802 211.35481 211.29061 210.99440 210.62620 210.25499
 209.87078 209.57958 209.38637 209.24917 209.17596 209.50576 209.89055 210.27835
 211.07014 212.24694 213.49573 215.27752 217.20432 219.24611 221.33991 223.42170
 225.48050 227.56329 229.65909 231.76388 233.89168 236.06247 238.31727 240.68606
 243.30585 245.55565 247.55644 249.32024 250.73603 251.85783 252.67862 252.99342
 253.02921 252.80201 252.16080 251.10760 249.71239 247.87218 245.77998 243.61177
 241.40157 239.20436 237.02316 234.86095 232.71975 230.58554 228.61034 226.76613
 225.04793 223.51872 222.14751 220.91831 219.79910 218.75790 217.86069 217.00049
 216.24128 215.42008 214.51687 213.87967 213.32846 213.23972 213.03008 214.37422
 215.55788 217.23726 218.91592 219.52730 220.97375 223.27469 228.05434 232.30962
 235.77327 239.50162 243.07784 246.24959 249.00092 251.60870 254.57576 257.84720
 260.45465 262.63849 264.89227 267.27347 269.60620 271.71127 273.46240 275.08917
 276.72934 278.44434 279.98621 281.35245 282.53970 283.59464 284.56000 285.44131
 286.23883 286.95798 287.59012 288.44272
 366.78100 356.33381 345.76462 334.62943 323.03124 311.22405 299.09287 286.89468
 274.60549 262.50130 250.50911 239.80892 229.92973 221.03254 213.21335 206.21416
 200.04697 194.98379 191.56460 189.60541 188.64122 188.70403 189.53784 190.84465
 192.56846 194.66227 196.92408 199.28190 201.72571 204.20452 206.29133 208.13214
 209.75695 210.90076 211.12857 211.35538 211.29119 210.99500 210.62682 210.25563
 209.87144 209.58025 209.38706 209.24987 209.17668 209.50649 209.89130 210.27911
 211.07092 212.24774 213.49655 215.27836 217.20517 219.24698 221.34079 223.42260
 225.48141 227.56422 229.66003 231.76485 233.89266 236.06347 238.31828 240.68709
 243.30690 245.55671 247.55752 249.32133 250.73714 251.85895 252.67977 252.99458
 253.03039 252.80320 252.16201 251.10882 249.71363 247.87344 245.78125 243.61306
 241.40287 239.20569 237.02450 234.86231 232.72112 230.58693 228.61174 226.76755
 225.04936 223.52017 222.14898 220.91979 219.80061 218.75942 217.86223 217.00204
 216.24285 215.42166 214.51847 213.88128 213.33009 213.27098 213.13132 214.46669
 215.65492 217.21188 218.92313 219.74916 221.15099 223.49176 228.03525 232.21873
 235.67363 239.40126 242.94032 246.04156 248.74042 251.35646 254.35590 257.63855
 260.25854 262.46432 264.73737 267.13873 269.49536 271.62320 273.39554 275.02069
 276.63687 278.34747 279.88943 281.25525 282.44299 283.49838 284.46521 285.34668
 286.14651 286.86475 287.49850 288.35034
 366.78100 356.33335 345.76370 334.62804 323.02939 311.22174 299.09009 286.89144
 274.60179 262.49713 250.50448 239.80383 229.92418 221.02653 213.20687 206.20722
 200.03957 194.97592 191.55627 189.59661 188.63196 188.69431 189.52766 190.83401
 192.55736 194.65070 196.91205 199.26940 201.71275 204.19110 206.27744 208.11779
 209.74214 210.88549 211.11284 211.33918 211.27453 210.97788 210.60923 210.23758
 209.85293 209.56127 209.36762 209.22997 209.15632 209.48567 209.87001 210.25736
 211.04871 212.22506 213.47341 215.25475 217.18110 219.22245 221.31580 223.39715
 225.45550 227.53784 229.63319 231.73754 233.86489 236.03524 238.28958 240.65793
 243.27728 245.52663 247.52698 249.29033 250.70567 251.82702 252.64737 252.96172
 252.99707 252.76941 252.12776 251.07411 249.67846 247.83781 245.74515 243.57650
 241.36585 239.16820 236.98655 234.82390 232.68224 230.54759 228.57194 226.72729
 225.00864 223.47898 222.10733 220.87768 219.75803 218.71638 217.81872 216.95807
 216.19842 215.37677 214.47312 213.83547 213.28381 213.27811 213.26459 214.55638
 215.69273 217.22180 218.96637 219.96422 221.31293 223.67944 228.01155 232.12021
 235.57607 239.30811 242.80736 245.83275 248.47577 251.10278 254.13644 257.42938
 260.06879 262.30310 264.59903 267.02054 269.39893 271.55121 273.34842 274.97882
 276.56146 278.24716 279.78635 281.15234 282.33957 283.39557 284.36151 285.24402
 286.04401 286.76385 287.39801 288.25006
 366.78100 356.33303 345.76306 334.62708 323.02811 311.22014 299.08817 286.88920
 274.59923 262.49425 250.50128 239.80031 229.92034 221.02237 213.20240 206.20242
 200.03445 194.97048 191.55051 189.59054 188.62557 188.68759 189.52062 190.82665
 192.54968 194.64271 196.90374 199.26076 201.70379 204.18182 206.26785 208.10788
 209.73191 210.87493 211.10196 211.32799 211.26302 210.96605 210.59708 210.22510
 209.84013 209.54816 209.35419 209.21622 209.14225 209.47127 209.85530 210.24233
 211.03336 212.20939 213.45742 215.23844 217.16447 219.20550 221.29853 223.37956
 225.43759 227.51961 229.61464 231.71867 233.84570 236.01573 238.26976 240.63778
 243.25681 245.50584 247.50587 249.26890 250.68393 251.80495 252.62498 252.93901
 252.97404 252.74607 252.10409 251.05012 249.65415 247.81318 245.72021 243.55124
 241.34026 239.14229 236.96032 234.79735 232.65538 230.52041 228.54443 226.69946
 224.98049 223.45052 222.07855 220.84858 219.72860 218.68663 217.78866 216.92769
 216.16772 215.34575 214.44177 213.80380 213.25183 213.29176 213.38614 214.65576
 215.73480 217.24606 219.03517 220.16382 221.46681 223.82631 227.98360 232.03674
 235.49409 239.22279 242.66774 245.60634 248.19673 250.84322 253.91655 257.21875
 259.88184 262.15021 264.47412 266.91476 269.31335 271.48935 273.31082 274.94611
 276.48825 278.16690 279.70398 281.06992 282.25806 283.31409 284.28421 285.17111
 285.98273 286.70877 287.35172 288.19708
 366.78100 356.33281 345.76263 334.62644 323.02725 311.21907 299.08688 286.88769
 274.59751 262.49232 250.49913 239.79794 229.91776 221.01957 213.19938 206.19920
 200.03101 194.96682 191.54664 189.58645 188.62126 188.68308 189.51589 190.82170
 192.54452 194.63733 196.89814 199.25496 201.69777 204.17558 206.26139 208.10121
 209.72502 210.86783 211.09465 211.32046 211.25527 210.95809 210.58890 210.21671
 209.83153 209.53934 209.34515 209.20697 209.13278 209.46159 209.84541 210.23222
 211.02303 212.19884 213.44666 215.22747 217.15328 219.19410 221.28691 223.36772
 225.42554 227.50735 229.60216 231.70598 233.83279 236.00260 238.25642 240.62423
 243.24304 245.49186 247.49167 249.25448 250.66929 251.79011 252.60992 252.92373
 252.95855 252.73036 252.08817 251.03399 249.63780 247.79661 245.70343 243.53424
 241.32305 239.12487 236.94268 234.77949 232.63731 230.50212 228.52593 226.68075
 224.96156 223.43137 222.05918 220.82900 219.70881 218.66662 217.76844 216.90725
 216.14706 215.32488 214.42069 213.78250 213.23032 213.30968 213.49718 214.76175
 215.79152 217.28229 219.11620 220.35214 221.62454 223.94745 227.95255 231.96547
 235.41640 239.12617 242.50429 245.35957 247.91162 250.58641 253.70129 257.01019
 259.70215 262.01010 264.36288 266.82092 269.23627 271.43402 273.27972 274.92123
 276.41922 278.09995 279.63800 281.00269 282.19113 283.24796 284.21915 285.10855
 285.91898 286.64929 287.28979 288.14328
 366.78100 356.33253 345.76205 334.62558 323.02610 311.21763 299.08516 286.88568
 274.59521 262.48973 250.49626 239.79479 229.91431 221.01584 213.19536 206.19489
 200.02642 194.96194 191.54147 189.58099 188.61552 188.67705 189.50957 190.81510
 192.53762 194.63015 196.89068 199.24720 201.68973 204.16725 206.25278 208.09231
 209.71583 210.85836 211.08488 211.31041 211.24494 210.94746 210.57799 210.20551
 209.82004 209.52757 209.33309 209.19462 209.12014 209.44867 209.83220 210.21872
 211.00925 212.18477 213.43230 215.21283 217.13835 219.17888 221.27140 223.35193
 225.40946 227.49098 229.58551 231.68903 233.81556 235.98509 238.23861 240.60614
 243.22466 245.47319 247.47272 249.23524 250.64977 251.77029 252.58982 252.90335
 252.93787 252.70940 252.06692 251.01245 249.61598 247.77450 245.68103 243.51155
 241.30008 239.10161 236.91913 234.75566 232.61318 230.47771 228.50124 226.65576
 224.93629 223.40581 222.03334 220.80287 219.68239 218.63992 217.74144 216.87997
 216.11950 215.29702 214.39255 213.75407 213.20160 213.32196 213.60635 214.87476
 215.85257 217.33276 219.20616 220.53035 221.79402 224.05270 227.92697 231.89511
 235.32738 239.00362 242.31262 245.09814 247.62386 250.33084 253.48965 256.80667
 259.53442 261.88785 264.27121 266.74393 269.17142 271.38623 273.25244 274.90228
 276.36786 278.04016 279.57745 280.94186 282.13007 283.18692 284.15842 285.04581
 285.85904 286.58948 287.23059 288.08185
 366.78100 356.33203 345.76106 334.62409 323.02412 311.21516 299.08219 286.88222
 274.59125 262.48528 250.49131 239.78934 229.90837 221.00940 213.18844 206.18747
 200.01850 194.95353 191.53256 189.57159 188.60562 188.66665 189.49869 190.80372
 192.52575 194.61778 196.87781 199.23384 201.67587 204.15290 206.23793 208.07697
 209.70000 210.84203 211.06806 211.29309 211.22712 210.92915 210.55918 210.18621
 209.80025 209.50728 209.31231 209.17334 209.09837 209.42640 209.80943 210.19546
 210.98550 212.16053 213.40756 215.18759 217.11262 219.15265 221.24468 223.32471
 225.38174 227.46278 229.55681 231.65984 233.78587 235.95490 238.20793 240.57496
 243.19299 245.44102 247.44006 249.20209 250.61612 251.73615 252.55518 252.86821
 252.90224 252.67327 252.03031 250.97534 249.57837 247.73640 245.64243 243.47246
 241.26049 239.06152 236.87855 234.71459 232.57162 230.43565 228.45868 226.61271
 224.89274 223.36177 221.98880 220.75783 219.63687 218.59390 217.69493 216.83296
 216.07199 215.24902 214.34405 213.70508 213.15211 213.32101 213.72005 214.99380
 215.91695 217.39441 219.30342 220.69533 221.96942 224.15285 227.91168 231.81749
 235.22337 238.85654 242.09662 244.82184 247.33000 250.07478 253.28070 256.60977
 259.37558 261.77698 264.19302 266.68213 269.12012 271.35132 273.23785 274.90186
 276.34070 278.00552 279.51544 280.87338 282.05966 283.11676 284.08875 284.97766
 285.79193 286.52194 287.16464 288.01624
 366.78100 356.33132 345.75964 334.62196 323.02128 311.21160 299.07792 286.87724
 274.58557 262.47889 250.48421 239.78153 229.89985 221.00017 213.17849 206.17681
 200.00713 194.94145 191.51977 189.55809 188.59141 188.65173 189.48306 190.78738
 192.50870 194.60002 196.85934 199.21466 201.65598 204.13230 206.21662 208.05494
 209.67726 210.81858 211.04390 211.26822 211.20155 210.90287 210.53219 210.15851
 209.77183 209.47815 209.28247 209.14279 209.06711 209.39443 209.77675 210.16207
 210.95139 212.12571 213.37203 215.15136 217.07568 219.11500 221.20632 223.28564
 225.34196 227.42228 229.51560 231.61792 233.74324 235.91156 238.16388 240.53020
 243.14752 245.39485 247.39317 249.15449 250.56781 251.68713 252.50545 252.81777
 252.85109 252.62141 251.97773 250.92205 249.52437 247.68169 245.58701 243.41634
 241.20366 239.00398 236.82030 234.65562 232.51194 230.37526 228.39758 226.55090
 224.83022 223.29854 221.92486 220.69318 219.57150 218.52783 217.62815 216.76547
 216.00379 215.18011 214.27443 213.63475 213.08107 213.30659 213.83942 215.12003
 215.99330 217.46486 219.40530 220.84608 222.14157 224.24940 227.90256 231.73364
 235.10942 238.68857 241.85175 244.52133 247.02441 249.81880 253.07816 256.42471
 259.23013 261.67838 264.12585 266.63013 269.07510 271.31873 273.22495 274.91046
 276.42264 277.92194 279.44107 280.81042 282.00027 283.05920 284.03333 284.92102
 285.73712 286.46783 287.11063 287.96289
 366.78100 356.33031 345.75762 334.61893 323.01724 311.20656 299.07187 286.87018
 274.57749 262.46980 250.47411 239.77042 229.88773 220.98705 213.16436 206.16167
 199.99098 194.92429 191.50160 189.53891 188.57122 188.63053 189.46085 190.76416
 192.48447 194.57478 196.83309 199.18740 201.62771 204.10302 206.18634 208.02365
 209.64496 210.78527 211.00958 211.23289 211.16520 210.86551 210.49382 210.11914
 209.73145 209.43676 209.24007 209.09938 209.02269 209.34900 209.73031 210.11463
 210.90294 212.07625 213.32156 215.09987 217.02318 219.06149 221.15180 223.23011
 225.28543 227.36474 229.45705 231.55836 233.68267 235.84998 238.10129 240.46660
 243.08292 245.32923 247.32654 249.08685 250.49916 251.61747 252.43478 252.74609
 252.77840 252.54772 251.90303 250.84634 249.44765 247.60396 245.50827 243.33658
 241.12289 238.92221 236.73752 234.57183 232.42714 230.28945 228.31076 226.46307
 224.74138 223.20869 221.83401 220.60132 219.47863 218.43394 217.53325 216.66956
 215.90687 215.08218 214.17550 213.53481 212.98012 213.27437 213.96956 215.25302
 216.07866 217.54123 219.50899 220.99292 222.31923 224.35069 227.90135 231.65666
 234.99146 238.49864 241.57103 244.18544 246.69946 249.55833 252.87845 256.25024
 259.09732 261.59509 264.07639 266.59229 269.03751 271.28189 273.19781 274.89432
 276.41238 277.90552 279.42398 280.79318 281.98340 283.04330 284.01627 284.90735
 285.72235 286.45822 287.10129 287.95407
 366.78100 356.32949 345.75598 334.61646 323.01395 311.20244 299.06693 286.86442
 274.57090 262.46239 250.46588 239.76137 229.87786 220.97634 213.15283 206.14932
 199.97781 194.91030 191.48678 189.52327 188.55476 188.61325 189.44274 190.74522
 192.46471 194.55420 196.81169 199.16518 201.60466 204.07915 206.16164 207.99813
 209.61861 210.75810 210.98159 211.20408 211.13557 210.83505 210.46254 210.08703
 209.69852 209.40301 209.20549 209.06398 208.98647 209.31196 209.69245 210.07593
 210.86342 212.03591 213.28040 215.05789 216.98037 219.01786 221.10735 223.18484
 225.23933 227.31781 229.40930 231.50979 233.63328 235.79977 238.05025 240.41474
 243.03023 245.27572 247.27221 249.03169 250.44318 251.56067 252.37716 252.68765
 252.71913 252.48762 251.84211 250.78460 249.38509 247.54057 245.44406 243.27155
 241.05704 238.85553 236.67001 234.50350 232.35799 230.21948 228.23997 226.39145
 224.66894 223.13543 221.75992 220.52640 219.40289 218.35738 217.45587 216.59136
 215.82784 215.00233 214.09482 213.45331 212.89780 213.25081 214.08484 215.39554
 216.18352 217.60576 219.59280 221.11006 222.47015 224.42368 227.87523 231.59290
 234.86926 238.28290 241.24937 243.81445 246.35632 249.29675 252.69133 256.10168
 258.99127 261.53186 264.03311 266.55835 269.00287 271.24533 273.16248 274.85349
 276.34515 277.89053 279.43594 280.80536 281.99643 283.05673 284.03143 284.92667
 285.74640 286.48624 287.14871 288.00513
 366.78100 356.33067 345.75833 334.62000 323.01866 311.20833 299.07399 286.87266
 274.58033 262.47299 250.47766 239.77432 229.89199 220.99165 213.16932 206.16698
 199.99665 194.93032 191.50798 189.54565 188.57831 188.63798 189.46864 190.77231
 192.49298 194.58364 196.84231 199.19697 201.63764 204.11330 206.19697 208.03463
 209.65630 210.79697 211.02163 211.24530 211.17796 210.87863 210.50729 210.13296
 209.74563 209.45129 209.25496 209.11462 209.03829 209.36495 209.74662 210.13129
 210.91995 212.09362 213.33928 215.11795 217.04161 219.08028 221.17094 223.24961
 225.30528 227.38494 229.47761 231.57927 233.70394 235.87160 238.12327 240.48894
 243.10560 245.35227 247.34993 249.11060 250.52326 251.64193 252.45959 252.77126
 252.80393 252.57359 251.92926 250.87292 249.47459 247.63125 245.53592 243.36459
 241.15125 238.95092 236.76658 234.60125 232.45691 230.31958 228.34125 226.49391
 224.77258 223.24024 221.86591 220.63357 219.51124 218.46690 217.56657 216.70324
 215.94090 215.11657 214.21023 213.56990 213.01556 213.33755 214.11855 215.45409
 216.37697 217.74626 219.68100 221.19690 222.57231 224.41991 227.75156 231.51517
 234.70544 238.02052 240.85335 243.36380 245.95369 249.00577 252.48752 255.94080
 258.86389 261.59106 264.13684 266.63782 269.02661 271.20154 273.10757 274.69235
 276.27176 277.89893 279.43671 280.80460 281.99646 283.05640 284.03281 284.92828
 285.77374 286.55865 287.24435 288.11819
 366.78100 356.33160 345.76020 334.62280 323.02240 311.21300 299.07960 286.87920
 274.58781 262.48141 250.48701 239.78461 229.90321 221.00381 213.18241 206.18101
 200.01161 194.94621 191.52481 189.56341 188.59701 188.65761 189.48922 190.79382
 192.51542 194.60702 196.86662 199.22222 201.66382 204.14042 206.22502 208.06362
 209.68622 210.82782 211.05342 211.27802 211.21163 210.91323 210.54283 210.16943
 209.78303 209.48963 209.29423 209.15483 209.07943 209.40703 209.78963 210.17523
 210.96483 212.13943 213.38603 215.16564 217.09024 219.12984 221.22144 223.30104
 225.35764 227.43824 229.53184 231.63444 233.76004 235.92864 238.18124 240.54784
 243.16544 245.41305 247.41165 249.17325 250.58685 251.70645 252.52505 252.83765
 252.87125 252.64185 251.99845 250.94305 249.54565 247.70325 245.60885 243.43846
 241.22606 239.02666 236.84326 234.67886 232.53546 230.39906 228.42166 226.57526
 224.85486 223.32346 221.95006 220.71866 219.59726 218.55386 217.65447 216.79207
 216.03067 215.20727 214.30187 213.66247 213.10907 213.41736 214.18605 215.46086
 216.52449 217.89424 219.73624 221.28453 222.73854 224.57448 227.77167 231.50232
 234.53839 237.68701 240.42673 242.96170 245.66333 248.82730 252.34525 255.71909
 258.80328 261.65488 264.22739 266.69214 269.03513 271.15976 273.03479 274.62418
 276.19189 277.78055 279.32108 280.69586 281.89819 282.98181 284.00195 284.98801
 285.87482 286.66455 287.35443 288.23361
 366.78100 356.33067 345.75833 334.62000 323.01866 311.20833 299.07399 286.87266
 274.58032 262.47299 250.47765 239.77432 229.89198 220.99165 213.16931 206.16698
 199.99664 194.93031 191.50797 189.54564 188.57830 188.63797 189.46863 190.77230
 192.49296 194.58363 196.84229 199.19696 201.63762 204.11329 206.19695 208.03462
 209.65628 210.79695 211.02161 211.24528 211.17794 210.87861 210.50727 210.13294
 209.74560 209.45127 209.25493 209.11460 209.03826 209.36493 209.74659 210.13126
 210.91992 212.09359 213.33925 215.11792 217.04158 219.08025 221.17091 223.24958
 225.30524 227.38491 229.47757 231.57924 233.70390 235.87157 238.12323 240.48890
 243.10556 245.35223 247.34989 249.11056 250.52322 251.64189 252.45955 252.77122
 252.80388 252.57355 251.92921 250.87288 249.47454 247.63121 245.53587 243.36454
 241.15120 238.95087 236.76653 234.60120 232.45686 230.31953 228.34119 226.49386
 224.77252 223.24019 221.86585 220.63352 219.51118 218.46685 217.56651 216.70318
 215.94084 215.11651 214.21017 213.56984 213.01550 213.39363 214.33423 215.59752
 216.57327 217.93460 219.80812 221.43608 222.96355 224.79820 227.87741 231.51277
 234.42793 237.41028 240.04553 242.56883 245.34354 248.59767 252.18365 255.52173
 258.77246 261.68069 264.25610 266.70328 269.03537 271.13821 272.99200 274.60367
 276.17871 277.76614 279.30832 280.69424 281.92160 283.04877 284.14725 285.14240
 286.03741 286.83441 287.53070 288.41800
 366.78100 356.32876 345.75452 334.61427 323.01103 311.19879 299.06255 286.85930
 274.56506 262.45582 250.45858 239.75334 229.86909 220.96685 213.14261 206.13837
 199.96613 194.89788 191.47364 189.50940 188.54016 188.59791 189.42667 190.72843
 192.44719 194.53595 196.79270 199.14546 201.58422 204.05798 206.13973 207.97549
 209.59525 210.73401 210.95677 211.17852 211.10928 210.80804 210.43480 210.05856
 209.66931 209.37307 209.17483 209.03259 208.95434 209.27910 209.65886 210.04162
 210.82838 212.00013 213.24389 215.02065 216.94241 218.97917 221.06792 223.14468
 225.19844 227.27620 229.36695 231.46671 233.58947 235.75523 238.00499 240.36874
 242.98350 245.22826 247.22402 248.98277 250.39353 251.51029 252.32605 252.63581
 252.66656 252.43432 251.78808 250.72984 249.32960 247.48435 245.38711 243.21387
 240.99863 238.79638 236.61014 234.44290 232.29666 230.15742 228.17717 226.32793
 224.60469 223.07045 221.69420 220.45996 219.33572 218.28948 217.38724 216.52199
 215.75775 214.93151 214.02327 213.38103 212.82478 213.31242 214.49556 215.74324
 216.57816 217.96051 219.91292 221.57494 223.13445 224.98415 227.98164 231.53963
 234.36038 237.19075 239.67548 242.15602 244.97585 248.29762 252.00424 255.47002
 258.68512 261.56036 264.15829 266.65857 269.01215 271.10797 272.95813 274.62271
 276.21222 277.82288 279.37653 280.75867 281.97223 283.07190 284.15335 285.13745
 286.02255 286.81073 287.49927 288.37674
 366.78100 356.32729 345.75159 334.60988 323.00517 311.19146 299.05376 286.84905
 274.55334 262.44263 250.44393 239.73722 229.85151 220.94780 213.12210 206.11639
 199.94268 194.87297 191.44727 189.48156 188.51085 188.56714 189.39444 190.69473
 192.41202 194.49931 196.75461 199.10590 201.54319 204.01548 206.09578 207.93007
 209.54836 210.68565 210.90695 211.12724 211.05653 210.75382 210.37912 210.00141
 209.61070 209.31299 209.11329 208.96958 208.88987 209.21316 209.59146 209.97275
 210.75804 211.92833 213.17063 214.94592 216.86621 218.90150 220.98880 223.06409
 225.11638 227.19267 229.28197 231.38026 233.50155 235.66584 237.91414 240.27643
 242.88972 245.13301 247.12731 248.88460 250.29389 251.40918 252.22348 252.53177
 252.56106 252.32735 251.67965 250.61994 249.21823 247.37152 245.27282 243.09811
 240.88140 238.67770 236.48999 234.32128 232.17357 230.03287 228.05116 226.20045
 224.47574 222.94004 221.56233 220.32662 219.20091 218.15321 217.24950 216.38279
 215.61708 214.78938 213.87967 213.23596 212.67825 213.25531 214.63373 215.84470
 216.72250 217.98453 219.88487 221.66789 223.36748 225.22104 228.09232 231.57979
 234.27725 236.90404 239.22052 241.67934 244.57703 248.01344 251.85004 255.42485
 258.60632 261.44403 264.07584 266.63727 269.01743 271.11523 272.98126 274.68134
 276.25662 277.83875 279.40005 280.78244 281.99805 283.09631 284.16113 285.15274
 286.04459 286.83878 287.53256 288.41672
 366.78100 356.32725 345.75149 334.60974 323.00499 311.19123 299.05348 286.84873
 274.55297 262.44222 250.44347 239.73671 229.85096 220.94721 213.12145 206.11570
 199.94195 194.87219 191.44644 189.48069 188.50994 188.56618 189.39343 190.69368
 192.41092 194.49817 196.75342 199.10466 201.54191 204.01416 206.09440 207.92865
 209.54690 210.68414 210.90539 211.12564 211.05488 210.75213 210.37738 209.99962
 209.60887 209.31112 209.11136 208.96761 208.88786 209.21110 209.58935 209.97060
 210.75584 211.92609 213.16834 214.94358 216.86383 218.89908 220.98632 223.06157
 225.11382 227.19007 229.27931 231.37756 233.49881 235.66305 237.91130 240.27355
 242.88679 245.13004 247.12429 248.88153 250.29078 251.40603 252.22027 252.52852
 252.55777 252.32401 251.67626 250.61651 249.21475 247.36800 245.26925 243.09449
 240.87774 238.67399 236.48623 234.31748 232.16973 230.02897 228.04722 226.19647
 224.47171 222.93596 221.55821 220.32245 219.19670 218.14895 217.24520 216.37844
 215.61269 214.78494 213.87518 213.23143 212.67368 213.27103 214.70555 215.97594
 216.86145 218.21518 220.12019 221.89861 223.57660 225.40042 228.18056 231.55246
 234.09102 236.52913 238.73895 241.20627 244.20264 247.76321 251.65660 255.32686
 258.45868 261.29492 264.00711 266.63968 269.05396 271.17618 273.08441 274.79471
 276.37982 277.88983 279.45096 280.85107 282.10010 283.28265 284.40082 285.41379
 286.32486 287.13614 287.84488 288.74811
 366.78100 356.32733 345.75166 334.60998 323.00531 311.19164 299.05397 286.84930
 274.55362 262.44295 250.44428 239.73761 229.85194 220.94827 213.12259 206.11692
 199.94325 194.87358 191.44791 189.48223 188.51156 188.56789 189.39522 190.69555
 192.41287 194.50020 196.75553 199.10686 201.54419 204.01651 206.09684 207.93117
 209.54950 210.68683 210.90815 211.12848 211.05781 210.75514 210.38047 210.00280
 209.61212 209.31445 209.11478 208.97111 208.89144 209.21476 209.59309 209.97442
 210.75975 211.93008 213.17240 214.94773 216.86806 218.90339 220.99072 223.06604
 225.11837 227.19470 229.28403 231.38236 233.50369 235.66801 237.91634 240.27867
 242.89200 245.13533 247.12965 248.88698 250.29631 251.41164 252.22597 252.53429
 252.56362 252.32995 251.68228 250.62261 249.22093 247.37426 245.27559 243.10092
 240.88425 238.68057 236.49290 234.32423 232.17656 230.03589 228.05422 226.20354
 224.47887 222.94320 221.56553 220.32986 219.20418 218.15651 217.25284 216.38617
 215.62050 214.79282 213.88315 213.23948 212.68181 213.29414 214.77733 216.12860
 216.95428 218.44005 220.37695 222.05832 223.64859 225.51193 228.34702 231.49210
 233.92686 236.23125 238.33098 240.74397 243.81789 247.51160 251.46010 255.12842
 258.25409 261.19516 264.01392 266.67468 269.09708 271.22873 273.13751 274.86270
 276.44943 278.09537 279.67249 281.09439 282.38690 283.61551 284.73642 285.75189
 286.66519 287.47849 288.18896 289.09439
 366.78100 356.32748 345.75196 334.61044 323.00592 311.19240 299.05488 286.85036
 274.55483 262.44431 250.44579 239.73927 229.85375 220.95023 213.12471 206.11919
 199.94567 194.87615 191.45063 189.48511 188.51459 188.57107 189.39854 190.69902
 192.41650 194.50398 196.75946 199.11094 201.54842 204.02090 206.10138 207.93586
 209.55434 210.69182 210.91330 211.13378 211.06325 210.76073 210.38621 210.00869
 209.61817 209.32065 209.12113 208.97761 208.89809 209.22157 209.60005 209.98153
 210.76701 211.93749 213.17996 214.95544 216.87592 218.91140 220.99888 223.07436
 225.12684 227.20332 229.29280 231.39128 233.51276 235.67724 237.92572 240.28820
 242.90168 245.14515 247.13963 248.89711 250.30659 251.42207 252.23655 252.54503
 252.57451 252.34099 251.69347 250.63395 249.23243 247.38591 245.28739 243.11286
 240.89634 238.69282 236.50530 234.33678 232.18926 230.04874 228.06722 226.21670
 224.49218 222.95666 221.57914 220.34362 219.21810 218.17057 217.26705 216.40053
 215.63501 214.80749 213.89797 213.25445 212.69693 213.31540 214.82896 216.26781
 217.09918 218.67616 220.50984 222.08905 223.64952 225.58452 228.44528 231.42583
 233.80630 235.97026 237.93004 240.31262 243.50307 247.34692 251.34515 255.02356
 258.20865 261.17920 264.00903 266.66891 269.07568 271.17993 273.05081 274.76517
 276.56067 278.35925 279.94830 281.38315 282.72235 283.94186 285.05450 286.06247
 286.96902 287.77631 288.48154 289.38028
 366.78100 356.32875 345.75449 334.61424 323.01098 311.19873 299.06247 286.85922
 274.56496 262.45571 250.45845 239.75320 229.86895 220.96669 213.14244 206.13818
 199.96593 194.89767 191.47342 189.50916 188.53991 188.59765 189.42640 190.72815
 192.44689 194.53564 196.79238 199.14513 201.58387 204.05762 206.13936 207.97511
 209.59486 210.73360 210.95635 211.17809 211.10884 210.80758 210.43433 210.05807
 209.66882 209.37256 209.17431 209.03206 208.95380 209.27855 209.65829 210.04104
 210.82778 211.99953 213.24327 215.02002 216.94176 218.97851 221.06726 223.14400
 225.19775 227.27549 229.36624 231.46598 233.58873 235.75447 238.00422 240.36796
 242.98271 245.22746 247.22320 248.98195 250.39269 251.50944 252.32518 252.63493
 252.66567 252.43342 251.78717 250.72891 249.32866 247.48340 245.38615 243.21289
 240.99764 238.79538 236.60913 234.44187 232.29562 230.15637 228.17611 226.32686
 224.60360 223.06935 221.69309 220.45884 219.33458 218.28833 217.38607 216.52082
 215.75657 214.93031 214.02206 213.37980 212.82355 213.38954 214.79460 216.33685
 217.29419 218.84897 220.64107 222.20679 223.73933 225.65259 228.47336 231.34915
 233.62605 235.62367 237.47740 239.91982 243.27783 247.22797 251.27444 255.02013
 258.24588 261.23373 264.03961 266.67929 269.05383 271.11649 272.97696 274.69827
 276.63934 278.44006 280.02023 281.44159 282.75412 283.98056 285.09952 286.11319
 287.02490 287.83676 288.54602 289.44986
 366.78100 356.32660 345.75020 334.60781 323.00241 311.18801 299.04961 286.84421
 274.54782 262.43642 250.43702 239.72962 229.84322 220.93882 213.11243 206.10603
 199.93163 194.86123 191.43483 189.46844 188.49704 188.55264 189.37924 190.67884
 192.39545 194.48205 196.73665 199.08725 201.52385 203.99546 206.07506 207.90866
 209.52626 210.66286 210.88347 211.10307 211.03167 210.72827 210.35287 209.97447
 209.58308 209.28468 209.08428 208.93988 208.85948 209.18209 209.55969 209.94029
 210.72489 211.89449 213.13610 214.91070 216.83030 218.86490 220.95150 223.02611
 225.07771 227.15331 229.24191 231.33951 233.46012 235.62372 237.87132 240.23292
 242.84552 245.08812 247.08173 248.83833 250.24693 251.36153 252.17513 252.48274
 252.51134 252.27694 251.62854 250.56814 249.16575 247.31835 245.21895 243.04355
 240.82615 238.62176 236.43336 234.26396 232.11556 229.97416 227.99177 226.14037
 224.41497 222.87857 221.50017 220.26377 219.13738 218.08898 217.18458 216.31718
 215.55078 214.72239 213.81199 213.16759 212.60919 213.29465 214.93517 216.36241
 217.24596 218.80376 220.69060 222.38879 223.93927 225.78014 228.56155 231.29829
 233.52103 235.34775 237.07724 239.55450 243.00919 247.06219 251.14441 254.88101
 258.17239 261.21066 264.05569 266.74374 269.16113 271.24911 273.12961 274.88281
 276.56665 278.34970 279.91452 281.30258 282.51981 283.62057 284.72571 285.72690
 286.62732 287.42917 288.12967 289.02234
 366.78100 356.32214 345.74128 334.59442 322.98456 311.16570 299.02284 286.81298
 274.51213 262.39627 250.39241 239.68055 229.78969 220.88083 213.04997 206.03911
 199.86025 194.78539 191.35453 189.38367 188.40781 188.45895 189.28110 190.57624
 192.28838 194.37052 196.62066 198.96680 201.39894 203.86608 205.94122 207.77036
 209.38350 210.51564 210.73178 210.94692 210.87107 210.56321 210.18335 209.80049
 209.40463 209.10177 208.89691 208.74805 208.66319 208.98133 209.35447 209.73061
 210.51075 211.67589 212.91304 214.68318 216.59832 218.62846 220.71060 222.78074
 224.82788 226.89902 228.98316 231.07630 233.19244 235.35158 237.59472 239.95186
 242.56001 244.79815 246.78729 248.53943 249.94357 251.05371 251.86285 252.16599
 252.19013 251.95127 251.29841 250.23355 248.82669 246.97483 244.87098 242.69112
 240.46926 238.26040 236.06754 233.89368 231.74082 229.59496 227.60810 225.75224
 224.02238 222.48152 221.09866 219.85780 218.72695 217.67409 216.76523 215.89337
 215.12251 214.28965 213.37479 212.72593 212.16307 213.06639 215.19844 216.64088
 217.12329 218.64902 220.71228 222.56265 224.15393 225.96364 228.79434 231.39992
 233.57983 235.16595 236.65814 239.09581 242.66269 246.84921 250.94604 254.66066
 257.99847 261.08627 264.01999 266.76227 269.23596 271.39258 273.30688 275.06781
 276.71869 278.30276 279.85483 281.23151 282.43173 283.51245 284.51205 285.43600
 286.31348 287.09485 287.77744 288.64734
 366.78100 356.32152 345.74004 334.59256 322.98208 311.16260 299.01912 286.80864
 274.50716 262.39068 250.38620 239.67371 229.78223 220.87275 213.04127 206.02979
 199.85031 194.77483 191.34335 189.37187 188.39539 188.44591 189.26743 190.56195
 192.27347 194.35499 196.60451 198.95003 201.38155 203.84807 205.92259 207.75111
 209.36362 210.49514 210.71066 210.92518 210.84870 210.54022 210.15974 209.77626
 209.37978 209.07630 208.87082 208.72134 208.63586 208.95338 209.32590 209.70142
 210.48094 211.64546 212.88198 214.65150 216.56602 218.59553 220.67705 222.74657
 224.79309 226.86361 228.94713 231.03965 233.15517 235.31369 237.55621 239.91273
 242.52025 244.75777 246.74629 248.49781 249.90133 251.01085 251.81937 252.12189
 252.14541 251.90593 251.25244 250.18696 248.77948 246.92700 244.82252 242.64204
 240.41956 238.21008 236.01660 233.84212 231.68864 229.54216 227.55468 225.69820
 223.96772 222.42624 221.04276 219.80128 218.66980 217.61632 216.70684 215.83435
 215.06287 214.22939 213.31391 212.66443 212.10095 213.02724 215.21570 216.94189
 217.39824 218.73175 220.76266 222.59743 224.20619 226.10133 228.95764 231.41818
 233.35210 234.84991 236.34633 238.82410 242.48557 246.72559 250.83159 254.57425
 257.92734 261.01917 263.96628 266.71774 269.19946 271.36765 273.32184 275.13397
 276.83069 278.37769 279.81970 281.18637 282.37872 283.44891 284.43301 285.30258
 286.08057 286.78864 287.43491 288.26965
 366.78100 356.32155 345.74009 334.59264 322.98218 311.16273 299.01927 286.80882
 274.50736 262.39091 250.38645 239.67400 229.78254 220.87309 213.04163 206.03018
 199.85072 194.77527 191.34382 189.37236 188.39591 188.44645 189.26800 190.56254
 192.27409 194.35563 196.60518 198.95072 201.38227 203.84881 205.92336 207.75190
 209.36445 210.49600 210.71154 210.92609 210.84963 210.54118 210.16072 209.77727
 209.38081 209.07736 208.87190 208.72245 208.63699 208.95454 209.32708 209.70263
 210.48217 211.64672 212.88327 214.65281 216.56736 218.59690 220.67845 222.74799
 224.79454 226.86508 228.94863 231.04117 233.15672 235.31526 237.55781 239.91435
 242.52190 244.75945 246.74799 248.49954 249.90308 251.01263 251.82117 252.12372
 252.14726 251.90781 251.25435 250.18890 248.78144 246.92899 244.82453 242.64408
 240.42162 238.21217 236.01872 233.84426 231.69081 229.54435 227.55690 225.70044
 223.96999 222.42853 221.04508 219.80362 218.67217 217.61871 216.70926 215.83680
 215.06535 214.23189 213.31644 212.66699 212.10353 213.03085 215.22174 217.05225
 217.70808 218.95692 220.89415 222.63358 224.18239 226.07556 228.91202 231.27089
 233.05083 234.44060 235.94115 238.54095 242.37900 246.67159 250.80687 254.61945
 258.00787 261.08676 263.99182 266.71243 269.14395 271.26154 273.17197 274.97833
 276.72614 278.30975 279.75827 281.11517 282.30310 283.36435 284.34372 285.22430
 286.00000 286.69437 287.30756 288.13028
 366.78100 356.32062 345.73823 334.58985 322.97847 311.15808 299.01370 286.80231
 274.49993 262.38255 250.37716 239.66378 229.77140 220.86101 213.02863 206.01625
 199.83586 194.75948 191.32709 189.35471 188.37733 188.42694 189.24756 190.54118
 192.25179 194.33241 196.58103 198.92564 201.35626 203.82187 205.89549 207.72311
 209.33472 210.46534 210.67996 210.89357 210.81619 210.50681 210.12542 209.74104
 209.34365 209.03927 208.83289 208.68250 208.59612 208.91274 209.28435 209.65897
 210.43758 211.60120 212.83682 214.60543 216.51905 218.54767 220.62828 222.69690
 224.74252 226.81213 228.89475 230.98636 233.10098 235.25860 237.50021 239.85583
 242.46245 244.69906 246.68668 248.43730 249.83991 250.94853 251.75614 252.05776
 252.08038 251.83999 251.18561 250.11923 248.71084 246.85746 244.75208 242.57069
 240.34731 238.13692 235.94254 233.76716 231.61277 229.46539 227.47701 225.61962
 223.88824 222.34586 220.96147 219.71909 218.58670 217.53232 216.62194 215.74855
 214.97617 214.14179 213.22540 212.57502 212.01064 212.99016 215.30435 217.13441
 217.86932 219.10840 221.02901 222.73059 224.24034 226.10016 228.89735 231.18156
 232.82196 234.09337 235.59227 238.30196 242.28111 246.60033 250.76862 254.63513
 258.06082 261.14551 264.02841 266.72617 269.13397 271.22235 273.07950 274.84372
 276.60010 278.18802 279.69891 281.06061 282.24600 283.30304 284.27731 285.15778
 285.93546 286.63293 287.24490 288.07205
 366.78100 356.31969 345.73638 334.58707 322.97476 311.15345 299.00814 286.79583
 274.49252 262.37421 250.36790 239.65359 229.76028 220.84897 213.01566 206.00235
 199.82104 194.74373 191.31042 189.33711 188.35880 188.40749 189.22718 190.51987
 192.22956 194.30925 196.55694 198.90063 201.33032 203.79501 205.86770 207.69439
 209.30508 210.43477 210.64846 210.86115 210.78284 210.47253 210.09022 209.70491
 209.30660 209.00129 208.79398 208.64267 208.55536 208.87105 209.24174 209.61543
 210.39312 211.55581 212.79050 214.55819 216.47088 218.49857 220.57826 222.64595
 224.69064 226.75933 228.84102 230.93171 233.04540 235.20209 237.44278 239.79747
 242.40316 244.63885 246.62554 248.37523 249.77692 250.88461 251.69130 251.99199
 252.01368 251.77237 251.11706 250.04975 248.64044 246.78613 244.67982 242.49751
 240.27320 238.06189 235.86658 233.69027 231.53496 229.38665 227.39734 225.53903
 223.80672 222.26341 220.87810 219.63479 218.50148 217.44617 216.53486 215.66055
 214.88724 214.05193 213.13462 212.48331 211.91800 212.95020 215.38889 217.24664
 218.04309 219.22090 221.09212 222.80215 224.33205 226.16594 228.88303 231.10001
 232.57906 233.71709 235.23599 238.09329 242.17488 246.51031 250.71062 254.62042
 258.07611 261.17160 264.04559 266.72534 269.11960 271.19485 273.01151 274.73883
 276.49564 278.12378 279.66074 281.02921 282.22018 283.27948 284.25427 285.13666
 285.91998 286.61630 287.23199 288.06451
 366.78100 356.31905 345.73510 334.58515 322.97220 311.15025 299.00430 286.79136
 274.48741 262.36846 250.36151 239.64656 229.75261 220.84066 213.00671 205.99276
 199.81081 194.73286 191.29891 189.32497 188.34602 188.39407 189.21312 190.50517
 192.21422 194.29327 196.54032 198.88337 201.31242 203.77647 205.84852 207.67457
 209.28463 210.41368 210.62673 210.83878 210.75983 210.44888 210.06593 209.67998
 209.28103 208.97508 208.76713 208.61518 208.52724 208.84229 209.21234 209.58539
 210.36244 211.52449 212.75854 214.52559 216.43764 218.46469 220.54374 222.61079
 224.65484 226.72290 228.80395 230.89400 233.00705 235.16310 237.40315 239.75720
 242.36225 244.59730 246.58335 248.33240 249.73345 250.84051 251.64656 251.94661
 251.96766 251.72571 251.06976 250.00181 248.59186 246.73691 244.62996 242.44701
 240.22206 238.01011 235.81417 233.63722 231.48127 229.33232 227.34237 225.48342
 223.75047 222.20652 220.82057 219.57662 218.44267 217.38672 216.47478 215.59983
 214.82588 213.98993 213.07198 212.42003 211.85408 212.92273 215.44753 217.38385
 218.21721 219.32970 221.13782 222.86684 224.44438 226.24631 228.87259 231.03305
 232.31819 233.29454 234.87755 237.92169 242.07446 246.43359 250.66515 254.60289
 258.08020 261.18652 264.04959 266.71246 269.10269 271.18805 272.99139 274.69235
 276.44589 278.06122 279.59323 280.96198 282.15109 283.20987 284.18481 285.06824
 285.86218 286.55905 287.17880 288.01648
 366.78100 356.31854 345.73407 334.58361 322.97015 311.14768 299.00122 286.78775
 274.48329 262.36383 250.35636 239.64090 229.74644 220.83397 212.99951 205.98504
 199.80258 194.72412 191.28965 189.31519 188.33573 188.38326 189.20180 190.49333
 192.20187 194.28041 196.52694 198.86948 201.29802 203.76155 205.83309 207.65862
 209.26816 210.39670 210.60923 210.82077 210.74131 210.42984 210.04638 209.65991
 209.26045 208.95399 208.74552 208.59306 208.50460 208.81913 209.18867 209.56120
 210.33774 211.49928 212.73281 214.49935 216.41089 218.43742 220.51596 222.58250
 224.62603 226.69357 228.77410 230.86364 232.97618 235.13171 237.37125 239.72479
 242.32932 244.56386 246.54939 248.29793 249.69847 250.80500 251.61054 251.91008
 251.93061 251.68815 251.03168 249.96322 248.55276 246.69729 244.58983 242.40637
 240.18090 237.96844 235.77197 233.59451 231.43805 229.28858 227.29812 225.43866
 223.70519 222.16073 220.77426 219.52980 218.39534 217.33887 216.42641 215.55095
 214.77648 213.94002 213.02156 212.36909 211.80263 212.89948 215.49092 217.54158
 218.36221 219.42889 221.21239 222.95532 224.55698 226.31587 228.87025 230.94568
 232.03336 232.86330 234.55757 237.76450 241.96291 246.36678 250.62251 254.58260
 258.08304 261.20175 264.05353 266.69992 269.09177 271.19769 272.98904 274.65366
 276.37933 277.98672 279.51599 280.88187 282.06647 283.11679 284.07159 284.95187
 285.77011 286.48334 287.10669 287.95117
 366.78100 356.31831 345.73361 334.58292 322.96923 311.14654 298.99984 286.78615
 274.48146 262.36177 250.35407 239.63838 229.74369 220.83099 212.99630 205.98161
 199.79892 194.72022 191.28553 189.31084 188.33114 188.37845 189.19676 190.48807
 192.19637 194.27468 196.52099 198.86330 201.29160 203.75491 205.82622 207.65152
 209.26083 210.38914 210.60145 210.81275 210.73306 210.42137 210.03768 209.65098
 209.25129 208.94460 208.73590 208.58321 208.49452 208.80883 209.17813 209.55044
 210.32675 211.48805 212.72136 214.48767 216.39898 218.42528 220.50359 222.56990
 224.61321 226.68051 228.76082 230.85013 232.96243 235.11774 237.35705 239.71036
 242.31466 244.54897 246.53428 248.28259 249.68289 250.78920 251.59451 251.89381
 251.91412 251.67143 251.01474 249.94604 248.53535 246.67966 244.57196 242.38827
 240.16258 237.94989 235.75319 233.57550 231.41881 229.26912 227.27842 225.41873
 223.68504 222.14034 220.75365 219.50896 218.37427 217.31757 216.40488 215.52919
 214.75450 213.91780 212.99911 212.34642 211.77972 212.89461 215.52864 217.64944
 218.54767 219.55046 221.31233 223.03050 224.64055 226.39574 228.89778 230.77716
 231.69472 232.44400 234.21945 237.59995 241.86572 246.31773 250.59406 254.56709
 258.08749 261.21677 264.05890 266.68719 269.07767 271.19540 272.96326 274.58908
 276.29623 277.93350 279.46884 280.83521 282.02216 283.07364 284.03088 284.91101
 285.72626 286.45300 287.07593 287.92923
 366.78100 356.31785 345.73271 334.58156 322.96742 311.14427 298.99713 286.78298
 274.47783 262.35769 250.34954 239.63340 229.73825 220.82510 212.98996 205.97481
 199.79167 194.71252 191.27738 189.30223 188.32208 188.36894 189.18679 190.47765
 192.18550 194.26336 196.50921 198.85106 201.27892 203.74177 205.81263 207.63748
 209.24633 210.37419 210.58604 210.79690 210.71675 210.40461 210.02046 209.63331
 209.23317 208.92602 208.71688 208.56373 208.47459 208.78844 209.15729 209.52915
 210.30500 211.46586 212.69871 214.46456 216.37542 218.40127 220.47913 222.54498
 224.58784 226.65469 228.73454 230.82340 232.93525 235.09011 237.32896 239.68182
 242.28567 244.51952 246.50438 248.25223 249.65209 250.75794 251.56279 251.86165
 251.88150 251.63836 250.98121 249.91207 248.50092 246.64477 244.53663 242.35248
 240.12634 237.91319 235.71605 233.53790 231.38075 229.23061 227.23946 225.37932
 223.64517 222.10002 220.71288 219.46773 218.33259 217.27544 216.36230 215.48615
 214.71100 213.87386 212.95471 212.30157 211.73442 212.88245 215.59474 217.72624
 218.61014 219.87862 221.51865 223.03206 224.64697 226.39651 228.91006 230.68765
 231.30803 231.87643 233.94389 237.51346 241.82410 246.29417 250.57182 254.54922
 258.08685 261.22830 264.06583 266.67010 269.05099 271.17770 272.92502 274.52197
 276.18295 277.91269 279.45959 280.82608 282.01218 283.06543 284.02487 284.90814
 285.72174 286.45920 287.08313 287.94058
 366.78100 356.31788 345.73276 334.58163 322.96751 311.14439 298.99727 286.78315
 274.47802 262.35790 250.34978 239.63366 229.73853 220.82541 212.99029 205.97517
 199.79205 194.71292 191.27780 189.30268 188.32256 188.36944 189.18731 190.47819
 192.18607 194.26395 196.50982 198.85170 201.27958 203.74246 205.81334 207.63821
 209.24709 210.37497 210.58685 210.79773 210.71760 210.40548 210.02136 209.63424
 209.23411 208.92699 208.71787 208.56475 208.47563 208.78950 209.15838 209.53026
 210.30614 211.46702 212.69989 214.46577 216.37665 218.40253 220.48040 222.54628
 224.58916 226.65604 228.73592 230.82479 232.93667 235.09155 237.33043 239.68331
 242.28718 244.52106 246.50594 248.25382 249.65369 250.75957 251.56445 251.86333
 251.88321 251.64008 250.98296 249.91384 248.50272 246.64660 244.53847 242.35435
 240.12823 237.91511 235.71798 233.53986 231.38274 229.23262 227.24150 225.38137
 223.64725 222.10213 220.71501 219.46989 218.33476 217.27764 216.36452 215.48840
 214.71327 213.87615 212.95703 212.30391 211.73679 212.89670 215.63710 217.82083
 218.68445 220.10951 221.74220 223.14896 224.62057 226.31770 228.88167 230.61145
 230.96788 231.37569 233.72217 237.44652 241.79187 246.26598 250.54376 254.52802
 258.08344 261.23837 264.07074 266.64478 269.01331 271.15195 272.88672 274.46600
 276.13742 277.88501 279.43942 280.80701 281.99670 283.05353 284.01495 284.89789
 285.71320 286.45068 287.08038 287.94223
 366.78100 356.31820 345.73339 334.58259 322.96878 311.14598 298.99917 286.78537
 274.48056 262.36076 250.35295 239.63715 229.74234 220.82954 212.99473 205.97993
 199.79712 194.71832 191.28351 189.30871 188.32890 188.37610 189.19429 190.48549
 192.19368 194.27188 196.51807 198.86027 201.28846 203.75166 205.82285 207.64805
 209.25724 210.38544 210.59763 210.80883 210.72902 210.41722 210.03341 209.64661
 209.24680 208.94000 208.73119 208.57839 208.48958 208.80378 209.17297 209.54517
 210.32136 211.48256 212.71575 214.48195 216.39314 218.41934 220.49753 222.56373
 224.60692 226.67412 228.75432 230.84351 232.95571 235.11090 237.35010 239.70329
 242.30749 244.54168 246.52688 248.27507 249.67527 250.78146 251.58666 251.88585
 251.90605 251.66324 251.00644 249.93763 248.52683 246.67102 244.56322 242.37941
 240.15361 237.94080 235.74400 233.56619 231.40939 229.25958 227.26878 225.40897
 223.67517 222.13036 220.74356 219.49875 218.36395 217.30714 216.39434 215.51853
 214.74373 213.90692 212.98812 212.33531 211.76851 212.92685 215.66357 217.90894
 218.80624 220.26129 221.92801 223.33934 224.66833 226.24965 228.79071 230.44670
 230.64082 230.96362 233.52087 237.37775 241.75478 246.23582 250.51483 254.50735
 258.07874 261.24417 264.07053 266.61224 268.97238 271.13046 272.85861 274.42960
 276.10541 277.85358 279.40930 280.77905 281.96930 283.02740 283.99203 284.87689
 285.69110 286.42804 287.06604 287.93646
 366.78100 356.31841 345.73382 334.58323 322.96964 311.14705 299.00046 286.78687
 274.48228 262.36269 250.35510 239.63951 229.74492 220.83233 212.99774 205.98315
 199.80056 194.72197 191.28738 189.31279 188.33320 188.38061 189.19903 190.49044
 192.19885 194.27726 196.52367 198.86608 201.29449 203.75790 205.82931 207.65472
 209.26413 210.39254 210.60495 210.81636 210.73677 210.42518 210.04159 209.65500
 209.25541 208.94882 208.74023 208.58764 208.49905 208.81346 209.18287 209.55528
 210.33169 211.49310 212.72651 214.49292 216.40433 218.43074 220.50915 222.57556
 224.61897 226.68638 228.76679 230.85620 232.96861 235.12402 237.36343 239.71684
 242.32126 244.55567 246.54108 248.28949 249.68990 250.79631 251.60172 251.90113
 251.92154 251.67895 251.02236 249.95377 248.54318 246.68759 244.58000 242.39641
 240.17082 237.95823 235.76164 233.58405 231.42746 229.27787 227.28728 225.42769
 223.69410 222.14951 220.76292 219.51833 218.38374 217.32715 216.41456 215.53897
 214.76438 213.92779 213.00920 212.35661 211.79002 212.95297 215.70058 217.98317
 218.95097 220.39024 222.05307 223.51930 224.80022 226.24496 228.66812 230.19032
 230.31166 230.63474 233.32997 237.30257 241.71893 246.20975 250.48569 254.48169
 258.06619 261.24179 264.06494 266.57840 268.93466 271.11215 272.83084 274.37726
 276.08350 277.83817 279.39508 280.76562 281.95911 283.01779 283.98859 284.87625
 285.69363 286.43570 287.09100 287.98605
 366.78100 356.31853 345.73405 334.58358 322.97011 311.14764 299.00116 286.78769
 274.48322 262.36375 250.35627 239.64080 229.74633 220.83386 212.99938 205.98491
 199.80244 194.72397 191.28949 189.31502 188.33555 188.38308 189.20160 190.49313
 192.20166 194.28019 196.52671 198.86924 201.29777 203.76130 205.83282 207.65835
 209.26788 210.39641 210.60893 210.82046 210.74099 210.42951 210.04604 209.65957
 209.26010 208.95362 208.74515 208.59268 208.50421 208.81873 209.18826 209.56079
 210.33732 211.49884 212.73237 214.49890 216.41043 218.43695 220.51548 222.58201
 224.62554 226.69306 228.77359 230.86312 232.97565 235.13117 237.37070 239.72423
 242.32876 244.56328 246.54881 248.29734 249.69786 250.80439 251.60992 251.90945
 251.92997 251.68750 251.03103 249.96256 248.55208 246.69661 244.58914 242.40567
 240.18019 237.96772 235.77125 233.59378 231.43730 229.28783 227.29736 225.43789
 223.70441 222.15994 220.77347 219.52900 218.39452 217.33805 216.42558 215.55011
 214.77563 213.93916 213.02069 212.36822 211.80174 212.97418 215.74419 218.05061
 219.08556 220.52316 222.14879 223.66144 224.94876 226.28326 228.55524 229.90369
 229.98470 230.36154 233.14238 237.22211 241.68744 246.18399 250.45319 254.44971
 258.04449 261.22998 264.05292 266.54343 268.90005 271.09491 272.80835 274.38693
 276.05246 277.80966 279.37180 280.74606 281.94205 283.00534 283.97830 284.86652
 285.68384 286.42612 287.08093 287.98224
 366.78100 356.31871 345.73443 334.58414 322.97086 311.14857 299.00229 286.78900
 274.48472 262.36543 250.35815 239.64286 229.74858 220.83629 213.00201 205.98772
 199.80544 194.72715 191.29287 189.31858 188.33930 188.38701 189.20573 190.49744
 192.20616 194.28487 196.53158 198.87430 201.30301 203.76673 205.83844 207.66416
 209.27387 210.40259 210.61530 210.82702 210.74773 210.43645 210.05316 209.66688
 209.26759 208.96131 208.75302 208.60074 208.51245 208.82717 209.19688 209.56960
 210.34631 211.50803 212.74174 214.50845 216.42017 218.44688 220.52560 222.59231
 224.63603 226.70374 228.78446 230.87417 232.98689 235.14260 237.38232 239.73603
 242.34075 244.57546 246.56118 248.30989 249.71061 250.81732 251.62304 251.92275
 251.94347 251.70118 251.04490 249.97661 248.56633 246.71104 244.60375 242.42047
 240.19518 237.98290 235.78661 233.60933 231.45304 229.30376 227.31347 225.45419
 223.72090 222.17662 220.79033 219.54605 218.41176 217.35548 216.44319 215.56791
 214.79362 213.95734 213.03905 212.38677 211.82048 212.99883 215.78284 218.11967
 219.20345 220.66031 222.25101 223.77678 225.07196 226.33331 228.46136 229.62636
 229.65950 230.11237 232.95801 237.13963 241.65819 246.15376 250.41739 254.41620
 258.02243 261.22150 264.05142 266.52585 268.88376 271.09012 272.78479 274.21207
 276.09116 277.85178 279.39352 280.75806 281.94733 283.00620 283.97458 284.86374
 285.67886 286.41638 287.06955 287.98026
 366.78100 356.31903 345.73506 334.58509 322.97213 311.15016 299.00419 286.79122
 274.48725 262.36828 250.36131 239.64634 229.75238 220.84041 213.00644 205.99247
 199.81050 194.73253 191.29856 189.32459 188.34563 188.39366 189.21269 190.50472
 192.21375 194.29278 196.53981 198.88284 201.31188 203.77591 205.84794 207.67397
 209.28400 210.41303 210.62606 210.83809 210.75913 210.44816 210.06519 209.67922
 209.28025 208.97428 208.76631 208.61434 208.52638 208.84141 209.21144 209.58447
 210.36150 211.52353 212.75756 214.52459 216.43663 218.46366 220.54269 222.60972
 224.65375 226.72178 228.80281 230.89284 233.00588 235.16191 237.40194 239.75597
 242.36100 244.59603 246.58206 248.33110 249.73213 250.83916 251.64519 251.94522
 251.96625 251.72428 251.06831 250.00035 248.59038 246.73541 244.62844 242.44547
 240.22050 238.00853 235.81256 233.63560 231.47963 229.33066 227.34069 225.48172
 223.74875 222.20478 220.81881 219.57485 218.44088 217.38491 216.47294 215.59797
 214.82400 213.98803 213.07006 212.41810 211.85213 213.03238 215.82086 218.18530
 219.31363 220.79196 222.36928 223.88145 225.17055 226.38283 228.38136 229.37395
 229.35066 229.88564 232.78903 237.06160 241.62544 246.11481 250.37398 254.37311
 257.98721 261.19775 264.03342 266.49539 268.85559 271.06427 272.76584 274.24518
 276.08838 277.85059 279.39536 280.75873 281.94730 283.00275 283.97134 284.85666
 285.66794 286.40347 287.05396 287.96671
 366.78100 356.31943 345.73586 334.58629 322.97371 311.15214 299.00657 286.79400
 274.49043 262.37186 250.36529 239.65071 229.75714 220.84557 213.01200 205.99843
 199.81686 194.73929 191.30571 189.33214 188.35357 188.40200 189.22143 190.51386
 192.22329 194.30272 196.55014 198.89357 201.32300 203.78743 205.85986 207.68629
 209.29672 210.42614 210.63957 210.85200 210.77343 210.46286 210.08029 209.69472
 209.29614 208.99057 208.78300 208.63143 208.54386 208.85929 209.22972 209.60314
 210.38057 211.54300 212.77743 214.54486 216.45729 218.48472 220.56414 222.63157
 224.67600 226.74443 228.82586 230.91629 233.02972 235.18615 237.42657 239.78100
 242.38643 244.62186 246.60829 248.35772 249.75915 250.86657 251.67300 251.97343
 251.99486 251.75329 251.09772 250.03015 248.62057 246.76600 244.65943 242.47686
 240.25229 238.04072 235.84515 233.66857 231.51300 229.36443 227.37486 225.51629
 223.78372 222.24015 220.85457 219.61100 218.47743 217.42186 216.51029 215.63572
 214.86215 214.02658 213.10900 212.45743 211.89186 213.07162 215.85892 218.24294
 219.42052 220.91609 222.49910 223.98155 225.25244 226.42136 228.30035 229.12691
 229.04802 229.68140 232.64143 236.98903 241.58827 246.07405 250.33070 254.32893
 257.95105 261.17667 264.02408 266.48441 268.84879 271.06894 272.78918 274.18811
 276.07193 277.84088 279.38788 280.75275 281.93976 282.99670 283.96445 284.85135
 285.66263 286.40158 287.05048 287.97302
 366.78100 356.31992 345.73684 334.58776 322.97569 311.15461 299.00953 286.79745
 274.49437 262.37629 250.37021 239.65613 229.76306 220.85198 213.01890 206.00582
 199.82474 194.74766 191.31458 189.34151 188.36343 188.41235 189.23227 190.52519
 192.23511 194.31503 196.56295 198.90688 201.33680 203.80172 205.87464 207.70156
 209.31248 210.44240 210.65632 210.86925 210.79117 210.48109 210.09901 209.71393
 209.31585 209.01077 208.80370 208.65262 208.56554 208.88146 209.25238 209.62630
 210.40422 211.56714 212.80207 214.56999 216.48291 218.51083 220.59075 222.65867
 224.70359 226.77252 228.85444 230.94536 233.05928 235.21620 237.45712 239.81204
 242.41796 244.65389 246.64081 248.39073 249.79265 250.90057 251.70749 252.00841
 252.03033 251.78926 251.13418 250.06710 248.65802 246.80394 244.69786 242.51578
 240.29171 238.08063 235.88555 233.70947 231.55439 229.40631 227.41723 225.55915
 223.82708 222.28400 220.89892 219.65584 218.52276 217.46768 216.55660 215.68253
 214.90945 214.07437 213.15729 212.50621 211.94113 213.11687 215.89467 218.29402
 219.52504 221.04024 222.63576 224.08487 225.32686 226.44945 228.21645 228.87346
 228.75145 229.50746 232.51894 236.92166 241.54886 246.03537 250.29106 254.28479
 257.91000 261.14972 264.00912 266.47055 268.83615 271.04443 272.74640 274.32028
 276.03363 277.79041 279.34845 280.71954 281.91214 282.97437 283.94592 284.83621
 285.65109 286.38904 287.04654 287.96634
 366.78100 356.32058 345.73816 334.58974 322.97832 311.15790 299.01348 286.80206
 274.49964 262.38222 250.37680 239.66338 229.77096 220.86054 213.02812 206.01570
 199.83528 194.75886 191.32644 189.35402 188.37660 188.42618 189.24676 190.54034
 192.25092 194.33150 196.58008 198.92467 201.35525 203.82083 205.89441 207.72199
 209.33357 210.46415 210.67873 210.89231 210.81489 210.50547 210.12405 209.73963
 209.34221 209.03779 208.83137 208.68095 208.59453 208.91111 209.28269 209.65727
 210.43585 211.59943 212.83501 214.60359 216.51717 218.54575 220.62633 222.69491
 224.74049 226.81007 228.89265 230.98423 233.09881 235.25639 237.49797 239.85355
 242.46013 244.69671 246.68429 248.43487 249.83745 250.94603 251.75361 252.05519
 252.07777 251.83735 251.18293 250.11651 248.70809 246.85467 244.74925 242.56784
 240.34442 238.13400 235.93958 233.76416 231.60974 229.46232 227.47390 225.61648
 223.88506 222.34264 220.95822 219.71580 218.58338 217.52896 216.61854 215.74512
 214.97270 214.13828 213.22186 212.57144 212.00702 213.17073 215.92012 218.33563
 219.62547 221.16949 222.77509 224.19090 225.39618 226.46985 228.12958 228.60860
 228.45587 229.35471 232.41058 236.85320 241.50465 245.99402 250.24986 254.23885
 257.86456 261.11826 263.99509 266.46918 268.83905 271.04645 272.74323 274.17563
 276.08252 277.84778 279.39017 280.75470 281.94272 283.00043 283.97153 284.85733
 285.67160 286.41031 287.06317 287.98761
 366.78100 356.32136 345.73972 334.59208 322.98144 311.16180 299.01816 286.80752
 274.50588 262.38924 250.38459 239.67195 229.78031 220.87067 213.03903 206.02739
 199.84775 194.77211 191.34047 189.36883 188.39219 188.44255 189.26391 190.55827
 192.26963 194.35099 196.60035 198.94571 201.37706 203.84342 205.91778 207.74614
 209.35850 210.48986 210.70522 210.91958 210.84294 210.53430 210.15366 209.77002
 209.37338 209.06974 208.86410 208.71446 208.62882 208.94618 209.31854 209.69389
 210.47325 211.63761 212.87397 214.64333 216.55769 218.58705 220.66841 222.73777
 224.78413 226.85449 228.93785 231.03021 233.14557 235.30393 237.54629 239.90265
 242.51001 244.74736 246.73572 248.48708 249.89044 250.99980 251.80816 252.11052
 252.13388 251.89424 251.24060 250.17496 248.76732 246.91468 244.81004 242.62940
 240.40676 238.19712 236.00348 233.82883 231.67519 229.52855 227.54091 225.68427
 223.95363 222.41199 221.02835 219.78671 218.65507 217.60143 216.69179 215.81915
 215.04751 214.21387 213.29823 212.64859 212.08495 213.23209 215.94232 218.36629
 219.72488 221.30577 222.91202 224.30052 225.45892 226.49051 228.04108 228.33252
 228.16768 229.22365 232.31749 236.78664 241.45920 245.95261 250.21127 254.19559
 257.81927 261.08469 263.97986 266.47083 268.83929 271.03149 272.74149 274.13339
 276.07742 277.86285 279.41324 280.77896 281.96747 283.02597 283.99588 284.88443
 285.69714 286.43701 287.09085 288.01657
 366.78100 356.32225 345.74150 334.59476 322.98501 311.16626 299.02351 286.81376
 274.51302 262.39727 250.39352 239.68177 229.79102 220.88228 213.05153 206.04078
 199.86203 194.78728 191.35653 189.38579 188.41004 188.46129 189.28354 190.57879
 192.29105 194.37330 196.62355 198.96980 201.40205 203.86931 205.94456 207.77381
 209.38706 210.51931 210.73557 210.95082 210.87507 210.56732 210.18757 209.80483
 209.40908 209.10633 208.90158 208.75283 208.66809 208.98634 209.35959 209.73584
 210.51609 211.68135 212.91860 214.68885 216.60410 218.63435 220.71660 222.78686
 224.83411 226.90536 228.98961 231.08286 233.19912 235.35837 237.60162 239.95887
 242.56712 244.80538 246.79463 248.54688 249.95113 251.06138 251.87064 252.17389
 252.19814 251.95939 251.30664 250.24190 248.83515 246.98340 244.87965 242.69990
 240.47816 238.26941 236.07666 233.90291 231.75016 229.60442 227.61767 225.76192
 224.03217 222.49142 221.10867 219.86793 218.73718 217.68443 216.77568 215.90393
 215.13319 214.30044 213.38569 212.73694 212.17419 213.30046 215.96141 218.39796
 219.82066 221.44086 223.05215 224.41820 225.52470 226.51489 227.95335 228.06059
 227.89232 229.10677 232.23299 236.72021 241.41028 245.90802 250.16924 254.14769
 257.76825 261.04251 263.95599 266.46951 268.83575 271.00818 272.73401 274.18988
 276.10654 277.89182 279.44427 280.81097 282.00000 283.05850 284.02847 284.91690
 285.73050 286.46872 287.12311 288.05157
 366.78100 356.32296 345.74291 334.59687 322.98783 311.16978 299.02774 286.81870
 274.51865 262.40361 250.40057 239.68952 229.79948 220.89144 213.06139 206.05135
 199.87331 194.79926 191.36922 189.39918 188.42413 188.47609 189.29905 190.59501
 192.30796 194.39092 196.64188 198.98883 201.42179 203.88975 205.96570 207.79566
 209.40962 210.54257 210.75953 210.97549 210.90044 210.59340 210.21436 209.83231
 209.43727 209.13523 208.93118 208.78314 208.69910 209.01805 209.39201 209.76897
 210.54992 211.71588 212.95384 214.72479 216.64075 218.67171 220.75466 222.82562
 224.87358 226.94553 229.03049 231.12445 233.24140 235.40136 237.64532 240.00328
 242.61223 244.85119 246.84115 248.59410 249.99906 251.11002 251.91997 252.22393
 252.24889 252.01084 251.35880 250.29476 248.88871 247.03767 244.93463 242.75558
 240.53454 238.32650 236.13445 233.96141 231.80937 229.66432 227.67828 225.82324
 224.09419 222.55415 221.17211 219.93206 218.80202 217.74998 216.84193 215.97089
 215.20085 214.36880 213.45476 212.80672 212.24467 213.35938 215.99298 218.41994
 219.90979 221.57132 223.19214 224.54250 225.58733 226.53854 227.86041 227.80380
 227.63989 228.99661 232.16191 236.65984 241.35841 245.85896 250.12444 254.10101
 257.71890 261.00067 263.93326 266.46881 268.82632 270.96738 272.63181 274.26501
 276.14633 277.92328 279.47937 280.84869 282.03903 283.09811 284.06995 284.95673
 285.76892 286.50677 287.15955 288.08386
 366.78100 356.32369 345.74438 334.59907 322.99076 311.17345 299.03214 286.82382
 274.52451 262.41020 250.40789 239.69758 229.80827 220.90096 213.07165 206.06234
 199.88503 194.81172 191.38241 189.41309 188.43878 188.49147 189.31516 190.61185
 192.32554 194.40923 196.66092 199.00861 201.44230 203.91099 205.98768 207.81836
 209.43305 210.56674 210.78443 211.00112 210.92681 210.62050 210.24219 209.86088
 209.46657 209.16526 208.96195 208.81463 208.73132 209.05101 209.42570 209.80339
 210.58508 211.75177 212.99046 214.76215 216.67884 218.71053 220.79422 222.86590
 224.91459 226.98728 229.07297 231.16766 233.28535 235.44604 237.69073 240.04942
 242.65911 244.89880 246.88949 248.64317 250.04886 251.16055 251.97124 252.27593
 252.30162 252.06431 251.41300 250.34969 248.94438 247.09407 244.99176 242.81344
 240.59313 238.38582 236.19451 234.02220 231.87089 229.72658 227.74127 225.88696
 224.15865 222.61934 221.23803 219.99871 218.86940 217.81809 216.91078 216.04047
 215.27116 214.43985 213.52654 212.87923 212.31792 213.41847 216.01866 218.43265
 219.99844 221.69763 223.32115 224.65645 225.66913 226.59233 227.77211 227.50981
 227.35619 228.90883 232.10173 236.59641 241.30394 245.80998 250.08313 254.05827
 257.67340 260.96304 263.91577 266.48047 268.83331 270.95267 272.60703 274.28436
 276.16055 277.94519 279.50714 280.87973 282.07251 283.13278 284.10437 284.99164
 285.80365 286.54044 287.19107 288.12076
 366.78100 356.32458 345.74615 334.60173 322.99431 311.17788 299.03746 286.83004
 274.53161 262.41819 250.41676 239.70734 229.81892 220.91249 213.08407 206.07565
 199.89922 194.82680 191.39838 189.42995 188.45653 188.51011 189.33468 190.63226
 192.34684 194.43141 196.68399 199.03256 201.46714 203.93672 206.01429 207.84587
 209.46145 210.59602 210.81460 211.03218 210.95875 210.65333 210.27591 209.89548
 209.50206 209.20164 208.99921 208.85279 208.77036 209.09094 209.46652 209.84509
 210.62767 211.79525 213.03482 214.80740 216.72498 218.75755 220.84213 222.91471
 224.96428 227.03786 229.12444 231.22001 233.33859 235.50016 237.74574 240.10532
 242.71589 244.95647 246.94805 248.70262 250.10920 251.22178 252.03335 252.33893
 252.36551 252.12908 251.47866 250.41624 249.01181 247.16239 245.06096 242.88354
 240.66412 238.45769 236.26727 234.09585 231.94542 229.80200 227.81758 225.96415
 224.23673 222.69831 221.31788 220.07946 218.95103 217.90061 216.99419 216.12476
 215.35634 214.52592 213.61349 212.96707 212.40665 213.48592 216.03581 218.45341
 220.05968 221.83138 223.48871 224.78995 225.70810 226.60577 227.69965 227.33662
 227.12718 228.72551 232.03418 236.55573 241.25682 245.76884 250.04611 254.01419
 257.62247 260.91562 263.88562 266.47806 268.82312 270.91428 272.63431 274.39182
 276.17490 277.95209 279.51996 280.89691 282.09308 283.15625 284.12738 285.01599
 285.82797 286.56424 287.21237 288.14429
 366.78100 356.32558 345.74817 334.60475 322.99834 311.18292 299.04351 286.83709
 274.53968 262.42726 250.42684 239.71843 229.83101 220.92560 213.09818 206.09077
 199.91535 194.84394 191.41652 189.44910 188.47669 188.53127 189.35686 190.65544
 192.37103 194.45661 196.71020 199.05978 201.49536 203.96595 206.04453 207.87712
 209.49370 210.62929 210.84887 211.06746 210.99504 210.69063 210.31421 209.93479
 209.54238 209.24296 209.04155 208.89613 208.81472 209.13630 209.51289 209.89247
 210.67605 211.84464 213.08522 214.85881 216.77739 218.81098 220.89656 222.97015
 225.02073 227.09531 229.18290 231.27948 233.39907 235.56165 237.80824 240.16882
 242.78041 245.02199 247.01457 248.77016 250.17774 251.29133 252.10391 252.41050
 252.43808 252.20267 251.55325 250.49183 249.08842 247.24000 245.13959 242.96317
 240.74476 238.53934 236.34993 234.17951 232.03009 229.88768 227.90426 226.05185
 224.32543 222.78802 221.40860 220.17119 219.04377 217.99436 217.08894 216.22052
 215.45311 214.62369 213.71228 213.06686 212.50745 213.55782 216.03943 218.48080
 220.12550 221.94952 223.63922 224.91360 225.74593 226.59450 227.60406 227.19858
 226.95227 228.56615 231.97974 236.52449 241.21669 245.73343 250.01389 253.97754
 257.58112 260.87885 263.86551 266.48090 268.80637 270.85638 272.57947 274.40463
 276.18246 277.96356 279.53452 280.91315 282.11121 283.17294 284.14606 285.03436
 285.84491 286.58072 287.22992 288.16486
 366.78100 356.32658 345.75016 334.60775 323.00233 311.18791 299.04949 286.84407
 274.54766 262.43624 250.43682 239.72940 229.84298 220.93857 213.11215 206.10573
 199.93131 194.86089 191.43447 189.46806 188.49664 188.55222 189.37880 190.67838
 192.39497 194.48155 196.73613 199.08671 201.52329 203.99488 206.07446 207.90804
 209.52562 210.66220 210.88279 211.10237 211.03095 210.72753 210.35211 209.97370
 209.58228 209.28386 209.08344 208.93902 208.85860 209.18119 209.55877 209.93935
 210.72393 211.89351 213.13510 214.90968 216.82926 218.86384 220.95042 223.02501
 225.07659 227.15217 229.24075 231.33833 233.45892 235.62250 237.87008 240.23166
 242.84424 245.08683 247.08041 248.83699 250.24557 251.36015 252.17374 252.48132
 252.50990 252.27548 251.62706 250.56664 249.16423 247.31681 245.21739 243.04197
 240.82455 238.62014 236.43172 234.26230 232.11388 229.97246 227.99005 226.13863
 224.41321 222.87679 221.49837 220.26196 219.13554 218.08712 217.18270 216.31528
 215.54887 214.72045 213.81003 213.16561 212.60719 213.62987 216.04605 218.49323
 220.21851 222.04253 223.75757 225.04190 225.82440 226.60577 227.49988 227.04796
 226.78661 228.43845 231.93405 236.49164 241.17407 245.69012 249.97099 253.93007
 257.52887 260.83118 263.83600 266.48029 268.79767 270.81976 272.52588 274.37662
 276.18402 277.97192 279.54596 280.92603 282.12393 283.18796 284.15973 285.04800
 285.85764 286.59103 287.24152 288.16876
 366.78100 356.32734 345.75167 334.61001 323.00535 311.19168 299.05402 286.84935
 274.55369 262.44303 250.44436 239.73770 229.85204 220.94837 213.12271 206.11704
 199.94338 194.87372 191.44805 189.48239 188.51173 188.56806 189.39540 190.69574
 192.41307 194.50041 196.75574 199.10708 201.54442 204.01675 206.09709 207.93143
 209.54976 210.68710 210.90844 211.12877 211.05811 210.75544 210.38078 210.00312
 209.61245 209.31479 209.11513 208.97146 208.89180 209.21513 209.59347 209.97481
 210.76014 211.93048 213.17282 214.94815 216.86849 218.90383 220.99116 223.06650
 225.11883 227.19517 229.28451 231.38284 233.50418 235.66852 237.91685 240.27919
 242.89252 245.13586 247.13020 248.88753 250.29687 251.41221 252.22654 252.53488
 252.56422 252.33055 251.68289 250.62322 249.22156 247.37490 245.27623 243.10157
 240.88491 238.68124 236.49358 234.32491 232.17725 230.03659 228.05492 226.20426
 224.47960 222.94393 221.56627 220.33061 219.20494 218.15728 217.25361 216.38695
 215.62129 214.79362 213.88396 213.24030 212.68263 213.68948 216.06831 218.49898
 220.31480 222.11984 223.83676 225.15814 225.93051 226.64934 227.40434 226.89619
 226.63326 228.33846 231.90128 236.46049 241.13057 245.64430 249.92569 253.88058
 257.47433 260.77948 263.79996 266.47015 268.77530 270.76779 272.46884 274.34180
 276.20093 277.99283 279.56363 280.94269 282.13931 283.20236 284.17349 285.05884
 285.86890 286.59985 287.24722 288.17514
 366.78100 356.32795 345.75290 334.61185 323.00780 311.19475 299.05770 286.85365
 274.55860 262.44855 250.45050 239.74445 229.85940 220.95635 213.13130 206.12625
 199.95320 194.88415 191.45910 189.49405 188.52400 188.58095 189.40890 190.70985
 192.42780 194.51575 196.77170 199.12366 201.56161 204.03456 206.11551 207.95046
 209.56941 210.70736 210.92931 211.15026 211.08021 210.77816 210.40411 210.02706
 209.63701 209.33996 209.14091 208.99786 208.91881 209.24276 209.62171 210.00366
 210.78961 211.96056 213.20351 214.97946 216.90041 218.93636 221.02431 223.10026
 225.15321 227.23016 229.32011 231.41906 233.54101 235.70596 237.95491 240.31786
 242.93181 245.17576 247.17071 248.92866 250.33861 251.45456 252.26951 252.57846
 252.60841 252.37536 251.72831 250.66926 249.26821 247.42216 245.32411 243.15006
 240.93401 238.73097 236.54392 234.37587 232.22882 230.08877 228.10772 226.25767
 224.53362 222.99857 221.62152 220.38647 219.26142 218.21437 217.31132 216.44527
 215.68022 214.85317 213.94412 213.30107 212.74402 213.73820 216.08705 218.51805
 220.40167 222.20380 223.89000 225.23849 226.03595 226.71169 227.31273 226.75394
 226.50143 228.25789 231.87949 236.43364 241.08997 245.60207 249.88426 253.83562
 257.42184 260.72595 263.75864 266.45206 268.74677 270.70706 272.36337 274.27225
 276.21732 278.01251 279.57776 280.95193 282.14532 283.20581 284.17551 285.06076
 285.86810 286.59949 287.24667 288.17236
 366.78100 356.32879 345.75459 334.61438 323.01117 311.19896 299.06276 286.85955
 274.56534 262.45613 250.45893 239.75372 229.86951 220.96731 213.14310 206.13889
 199.96668 194.89848 191.47427 189.51006 188.54086 188.59865 189.42744 190.72923
 192.44803 194.53682 196.79361 199.14640 201.58520 204.05899 206.14078 207.97658
 209.59637 210.73516 210.95795 211.17975 211.11054 210.80933 210.43613 210.05992
 209.67071 209.37450 209.17630 209.03409 208.95588 209.28067 209.66047 210.04326
 210.83005 212.00185 213.24564 215.02243 216.94422 218.98102 221.06981 223.14660
 225.20040 227.27819 229.36898 231.46877 233.59157 235.75736 238.00715 240.37094
 242.98574 245.23053 247.22632 248.98512 250.39591 251.51270 252.32849 252.63829
 252.66908 252.43687 251.79067 250.73246 249.33225 247.48704 245.38984 243.21663
 241.00142 238.79921 236.61301 234.44580 232.29959 230.16039 228.18018 226.33097
 224.60776 223.07356 221.69735 220.46314 219.33894 218.29273 217.39052 216.52531
 215.76111 214.93490 214.02669 213.38448 212.82828 213.79671 216.08470 218.54105
 220.49301 222.30948 223.94672 225.28731 226.12457 226.77487 227.21759 226.61612
 226.37933 228.17854 231.85832 236.40959 241.05318 245.56447 249.84882 253.79836
 257.37964 260.67969 263.72244 266.43677 268.71927 270.65509 272.35666 274.26437
 276.20441 277.99600 279.56039 280.93442 282.12912 283.18973 284.16074 285.04514
 285.85422 286.58780 287.23535 288.16064
 366.78100 356.32981 345.75662 334.61743 323.01524 311.20404 299.06885 286.86666
 274.57347 262.46528 250.46909 239.76490 229.88171 220.98052 213.15732 206.15413
 199.98294 194.91575 191.49256 189.52937 188.56118 188.61999 189.44979 190.75260
 192.47241 194.56222 196.82003 199.17384 201.61365 204.08846 206.17127 208.00807
 209.62888 210.76869 210.99250 211.21531 211.14712 210.84693 210.47474 210.09955
 209.71135 209.41616 209.21897 209.07778 209.00059 209.32640 209.70721 210.09102
 210.87883 212.05163 213.29644 215.07425 216.99706 219.03487 221.12468 223.20249
 225.25730 227.33610 229.42791 231.52872 233.65253 235.81934 238.07015 240.43496
 243.05077 245.29658 247.29338 249.05319 250.46500 251.58281 252.39962 252.71043
 252.74224 252.51105 251.86586 250.80866 249.40947 247.56528 245.46909 243.29690
 241.08271 238.88152 236.69633 234.53014 232.38494 230.24675 228.26756 226.41937
 224.69718 223.16399 221.78880 220.55561 219.43241 218.38722 217.48603 216.62184
 215.85865 215.03346 214.12627 213.48508 212.92989 213.86595 216.07751 218.55153
 220.58670 222.42435 224.01666 225.32706 226.20677 226.84607 227.13962 226.49205
 226.26131 228.09229 231.83086 236.38498 241.01765 245.52751 249.81219 253.75946
 257.33597 260.63199 263.67902 266.41034 268.68304 270.58374 272.12946 274.25793
 276.22852 278.00354 279.55634 280.92529 282.11447 283.17310 284.14117 285.02655
 285.83463 286.56949 287.21829 288.14490
 366.78100 356.33069 345.75837 334.62006 323.01874 311.20843 299.07412 286.87280
 274.58049 262.47318 250.47786 239.77455 229.89223 220.99192 213.16961 206.16729
 199.99698 194.93067 191.50835 189.54604 188.57872 188.63841 189.46910 190.77278
 192.49347 194.58416 196.84284 199.19753 201.63821 204.11390 206.19759 208.03527
 209.65696 210.79765 211.02233 211.24602 211.17870 210.87939 210.50808 210.13376
 209.74645 209.45214 209.25582 209.11551 209.03919 209.36588 209.74757 210.13225
 210.92094 212.09463 213.34031 215.11900 217.04268 219.08137 221.17206 223.25074
 225.30643 227.38612 229.47880 231.58049 233.70517 235.87286 238.12455 240.49023
 243.10692 245.35361 247.35129 249.11198 250.52466 251.64335 252.46104 252.77272
 252.80541 252.57510 251.93078 250.87447 249.47615 247.63284 245.53753 243.36621
 241.15290 238.95259 236.76827 234.60296 232.45864 230.32133 228.34302 226.49570
 224.77439 223.24208 221.86776 220.63545 219.51313 218.46882 217.56851 216.70519
 215.94288 215.11857 214.21225 213.57194 213.01762 213.92937 216.08348 218.55742
 220.67230 222.52599 224.08289 225.36124 226.28638 226.92722 227.09433 226.39354
 226.15346 228.00623 231.79945 236.36003 240.98225 245.48576 249.76527 253.70541
 257.27307 260.56339 263.61707 266.37125 268.65067 270.53012 272.10507 274.24741
 276.22305 277.98407 279.53232 280.89920 282.08762 283.14398 284.11267 284.99704
 285.80545 286.53876 287.18933 288.11224
 366.78100 356.33131 345.75962 334.62193 323.02125 311.21156 299.07787 286.87718
 274.58549 262.47880 250.48411 239.78143 229.89974 221.00005 213.17836 206.17667
 200.00698 194.94129 191.51961 189.55792 188.59123 188.65154 189.48285 190.78716
 192.50847 194.59978 196.85910 199.21441 201.65572 204.13203 206.21634 208.05465
 209.67696 210.81828 211.04359 211.26790 211.20121 210.90252 210.53183 210.15814
 209.77146 209.47777 209.28208 209.14239 209.06670 209.39401 209.77632 210.16164
 210.95095 212.12526 213.37157 215.15088 217.07519 219.11450 221.20582 223.28513
 225.34144 227.42175 229.51506 231.61737 233.74268 235.91099 238.16331 240.52962
 243.14693 245.39424 247.39255 249.15386 250.56717 251.68649 252.50480 252.81711
 252.85042 252.62073 251.97704 250.92135 249.52367 247.68098 245.58629 243.41560
 241.20291 239.00322 236.81953 234.65485 232.51116 230.37447 228.39678 226.55009
 224.82940 223.29771 221.92403 220.69234 219.57065 218.52696 217.62727 216.76458
 216.00289 215.17920 214.27352 213.63383 213.08014 213.97650 216.09427 218.56499
 220.75009 222.60620 224.12871 225.38387 226.35594 227.01205 227.08739 226.33023
 226.06721 227.93300 231.77098 236.33861 240.94998 245.44197 249.71024 253.63774
 257.19104 260.46976 263.52393 266.29446 268.57382 270.43457 272.21570 274.19702
 276.20157 277.95688 279.49680 280.85925 282.04587 283.10141 284.06894 284.95404
 285.76254 286.49582 287.14655 288.06610
 366.78100 356.33188 345.76076 334.62364 323.02353 311.21441 299.08129 286.88117
 274.59005 262.48393 250.48981 239.78770 229.90658 221.00746 213.18634 206.18522
 200.01610 194.95098 191.52987 189.56875 188.60263 188.66351 189.49539 190.80027
 192.52216 194.61404 196.87392 199.22980 201.67168 204.14856 206.23344 208.07233
 209.69521 210.83709 211.06297 211.28785 211.22173 210.92361 210.55350 210.18038
 209.79426 209.50114 209.30602 209.16690 209.09178 209.41967 209.80255 210.18843
 210.97831 212.15319 213.40007 215.17995 217.10484 219.14472 221.23660 223.31648
 225.37336 227.45424 229.54812 231.65101 233.77689 235.94577 238.19865 240.56553
 243.18341 245.43129 247.43018 249.19206 250.60594 251.72582 252.54470 252.85758
 252.89147 252.66235 252.01923 250.96411 249.56699 247.72487 245.63075 243.46064
 241.24852 239.04940 236.86628 234.70216 232.55904 230.42292 228.44581 226.59969
 224.87957 223.34845 221.97533 220.74421 219.62309 218.57998 217.68086 216.81874
 216.05762 215.23450 214.32938 213.69026 213.13715 214.01964 216.10461 218.58562
 220.82594 222.67368 224.15521 225.38803 226.40877 227.09192 227.10170 226.28532
 225.99339 227.87213 231.74844 236.32394 240.92528 245.40335 249.65779 253.57265
 257.11032 260.37442 263.42468 266.20657 268.48813 270.34860 272.17572 274.13962
 276.13223 277.89038 279.43063 280.79303 281.97961 283.03726 284.00418 284.88934
 285.69827 286.43423 287.08475 288.00229
 366.78100 356.33241 345.76182 334.62523 323.02564 311.21706 299.08447 286.88488
 274.59429 262.48870 250.49511 239.79352 229.91293 221.01435 213.19376 206.19317
 200.02458 194.95999 191.53940 189.57881 188.61322 188.67464 189.50705 190.81246
 192.53487 194.62728 196.88769 199.24410 201.68651 204.16393 206.24934 208.08875
 209.71216 210.85457 211.08098 211.30639 211.24080 210.94322 210.57363 210.20104
 209.81545 209.52286 209.32827 209.18968 209.11509 209.44351 209.82692 210.21333
 211.00374 212.17915 213.42656 215.20697 217.13238 219.17280 221.26521 223.34562
 225.40303 227.48444 229.57885 231.68226 233.80867 235.97809 238.23150 240.59891
 243.21732 245.46573 247.46514 249.22755 250.64196 251.76238 252.58179 252.89520
 252.92961 252.70102 252.05843 251.00384 249.60725 247.76567 245.67208 243.50249
 241.29090 239.09231 236.90972 234.74613 232.60354 230.46796 228.49137 226.64578
 224.92619 223.39560 222.02301 220.79242 219.67183 218.62925 217.73066 216.86907
 216.10848 215.28589 214.38130 213.74271 213.19012 214.05992 216.11491 218.61395
 220.91103 222.73015 224.16902 225.38205 226.44240 227.16380 227.13228 226.25345
 225.92870 227.82173 231.73151 236.31610 240.90733 245.36852 249.60651 253.50711
 257.02924 260.27686 263.32245 266.11816 268.40610 270.26837 272.15656 274.06827
 276.07126 277.80869 279.34799 280.71265 281.90021 282.95703 283.92532 284.81018
 285.62109 286.35718 287.00803 287.92233
 366.78100 356.33292 345.76284 334.62676 323.02768 311.21960 299.08752 286.88844
 274.59836 262.49328 250.50020 239.79912 229.91905 221.02097 213.20089 206.20081
 200.03273 194.96865 191.54857 189.58849 188.62341 188.68533 189.51825 190.82417
 192.54709 194.64001 196.90093 199.25785 201.70077 204.17869 206.26461 208.10453
 209.72845 210.87137 211.09829 211.32422 211.25914 210.96206 210.59298 210.22090
 209.83582 209.54374 209.34966 209.21158 209.13750 209.46642 209.85034 210.23726
 211.02818 212.20410 213.45202 215.23294 217.15886 219.19978 221.29270 223.37362
 225.43154 227.51346 229.60838 231.71231 233.83923 236.00915 238.26307 240.63099
 243.24991 245.49883 247.49875 249.26167 250.67659 251.79751 252.61743 252.93135
 252.96627 252.73819 252.09611 251.04203 249.64595 247.80487 245.71179 243.54271
 241.33163 239.13355 236.95148 234.78840 232.64632 230.51124 228.53516 226.69008
 224.97100 223.44092 222.06884 220.83876 219.71868 218.67660 217.77852 216.91744
 216.15736 215.33528 214.43120 213.79312 213.24104 214.09749 216.12093 218.64745
 220.99426 222.78719 224.16408 225.35738 226.46649 227.23212 227.17081 226.23979
 225.88234 227.78198 231.71797 236.31311 240.89568 245.33751 249.55722 253.44226
 256.94708 260.17450 263.21106 266.02051 268.31534 270.16827 272.12415 273.98465
 275.97812 277.72076 279.26031 280.62579 281.81390 282.87109 283.84109 284.72577
 285.53497 286.27307 286.92581 287.83499
 366.78100 356.33363 345.76426 334.62889 323.03052 311.22315 299.09178 286.89341
 274.60404 262.49967 250.50730 239.80693 229.92756 221.03019 213.21082 206.21144
 200.04407 194.98070 191.56133 189.60196 188.63759 188.70022 189.53385 190.84048
 192.56411 194.65774 196.91937 199.27700 201.72063 204.19926 206.28589 208.12652
 209.75115 210.89478 211.12241 211.34904 211.28467 210.98830 210.61993 210.24856
 209.86419 209.57282 209.37945 209.24208 209.16871 209.49833 209.88296 210.27059
 211.06222 212.23885 213.48748 215.26911 217.19574 219.23737 221.33100 223.41263
 225.47126 227.55389 229.64952 231.75415 233.88178 236.05241 238.30704 240.67567
 243.29530 245.54493 247.54556 249.30919 250.72482 251.84645 252.66708 252.98171
 253.01734 252.78997 252.14859 251.09522 249.69985 247.85948 245.76711 243.59874
 241.38837 239.19100 237.00963 234.84726 232.70589 230.57152 228.59615 226.75178
 225.03341 223.50404 222.13267 220.90330 219.78393 218.74256 217.84519 216.98482
 216.22545 215.40408 214.50071 213.86334 213.31197 214.14441 216.11116 218.69731
 221.08275 222.82172 224.16338 225.32991 226.46368 227.29082 227.21747 226.22855
 225.83702 227.74590 231.70712 236.31601 240.88977 245.31107 249.51231 253.38316
 256.87015 260.07510 263.10117 265.92801 268.24121 270.11111 272.06366 273.89468
 275.86633 277.61502 279.15781 280.52451 281.71371 282.77066 283.74081 284.62729
 285.43738 286.17438 286.82642 287.73502
 366.78100 356.33416 345.76532 334.63048 323.03265 311.22581 299.09497 286.89713
 274.60829 262.50445 250.51261 239.81277 229.93394 221.03710 213.21826 206.21942
 200.05258 194.98974 191.57090 189.61206 188.64823 188.71139 189.54555 190.85271
 192.57687 194.67103 196.93319 199.29135 201.73552 204.21468 206.30184 208.14300
 209.76816 210.91232 211.14048 211.36764 211.30381 211.00797 210.64013 210.26929
 209.88545 209.59461 209.40177 209.26493 209.19210 209.52226 209.90742 210.29558
 211.08774 212.26490 213.51406 215.29623 217.22339 219.26555 221.35971 223.44187
 225.50103 227.58419 229.68035 231.78552 233.91368 236.08484 238.34000 240.70916
 243.32932 245.57948 247.58064 249.34481 250.76097 251.88313 252.70429 253.01945
 253.05561 252.82877 252.18793 251.13510 249.74026 247.90042 245.80858 243.64074
 241.43090 239.23406 237.05322 234.89139 232.75055 230.61671 228.64187 226.79803
 225.08019 223.55135 222.18051 220.95168 219.83284 218.79200 217.89516 217.03532
 216.27648 215.45564 214.55281 213.91597 213.36513 214.18170 216.11090 218.73238
 221.19836 222.86354 224.10912 225.29384 226.48749 227.35078 227.25281 226.21729
 225.80154 227.72148 231.70026 236.32445 240.89146 245.29105 249.47253 253.32921
 256.79816 259.97897 262.99146 265.83243 268.16312 270.04559 271.98401 273.81381
 275.74780 277.49747 279.04178 280.41000 281.60016 282.65915 283.63000 284.51706
 285.32480 286.06494 286.71613 287.61996
 366.78100 356.33442 345.76583 334.63125 323.03366 311.22708 299.09650 286.89891
 274.61033 262.50675 250.51516 239.81558 229.93699 221.04041 213.22183 206.22324
 200.05666 194.99408 191.57549 189.61691 188.65332 188.71674 189.55116 190.85857
 192.58299 194.67741 196.93982 199.29824 201.74265 204.22207 206.30949 208.15090
 209.77632 210.92074 211.14915 211.37657 211.31298 211.01740 210.64982 210.27923
 209.89565 209.60507 209.41248 209.27590 209.20332 209.53373 209.91915 210.30756
 211.09998 212.27740 213.52681 215.30923 217.23664 219.27906 221.37348 223.45589
 225.51531 227.59873 229.69514 231.80056 233.92897 236.10039 238.35581 240.72522
 243.34564 245.59606 247.59747 249.36189 250.77831 251.90072 252.72214 253.03755
 253.07397 252.84739 252.20680 251.15422 249.75964 247.92005 245.82847 243.66088
 241.45130 239.25472 237.07413 234.91255 232.77196 230.63838 228.66380 226.82021
 225.10263 223.57405 222.20346 220.97488 219.85629 218.81571 217.91913 217.05954
 216.30096 215.48038 214.57779 213.94121 213.39062 214.20335 216.12354 218.75638
 221.30531 222.93776 224.07349 225.25089 226.48457 227.36603 227.25891 226.22467
 225.80341 227.71658 231.69934 236.33832 240.89999 245.27596 249.43623 253.27791
 256.72879 259.88434 262.88257 265.74188 268.09592 269.98535 271.88815 273.72571
 275.63205 277.37888 278.92410 280.29172 281.48322 282.54309 283.51328 284.40063
 285.21063 285.95255 286.60480 287.50815
 366.78100 356.33476 345.76652 334.63229 323.03505 311.22881 299.09857 286.90134
 274.61310 262.50986 250.51862 239.81939 229.94115 221.04491 213.22667 206.22844
 200.06220 194.99996 191.58172 189.62349 188.66025 188.72401 189.55877 190.86654
 192.59130 194.68606 196.94882 199.30759 201.75235 204.23211 206.31987 208.16164
 209.78740 210.93216 211.16092 211.38869 211.32545 211.03021 210.66297 210.29274
 209.90950 209.61926 209.42702 209.29079 209.21855 209.54931 209.93507 210.32384
 211.11660 212.29436 213.54412 215.32689 217.25465 219.29741 221.39217 223.47494
 225.53470 227.61846 229.71522 231.82099 233.94975 236.12151 238.37727 240.74704
 243.36780 245.61856 247.62032 249.38509 250.80185 251.92461 252.74637 253.06214
 253.09890 252.87266 252.23242 251.18019 249.78595 247.94671 245.85547 243.68824
 241.47900 239.28276 237.10252 234.94129 232.80105 230.66781 228.69357 226.85034
 225.13310 223.60486 222.23462 221.00638 219.88815 218.84791 217.95167 217.09243
 216.33420 215.51396 214.61172 213.97548 213.42525 214.22891 216.12766 218.79375
 221.39783 223.01199 224.06496 225.20801 226.44623 227.34019 227.25056 226.25839
 225.84174 227.72488 231.70117 236.35561 240.91241 245.26414 249.40337 253.23123
 256.66336 259.79089 262.77325 265.64825 268.02155 269.92191 271.82465 273.67505
 275.52798 277.26602 278.81085 280.17764 281.36987 282.42792 283.39914 284.28485
 285.09619 285.83453 286.48798 287.38406
 366.78100 356.33531 345.76763 334.63394 323.03726 311.23157 299.10188 286.90520
 274.61751 262.51483 250.52414 239.82545 229.94777 221.05208 213.23439 206.23671
 200.07102 195.00934 191.59165 189.63396 188.67128 188.73559 189.57091 190.87922
 192.60453 194.69985 196.96316 199.32248 201.76779 204.24810 206.33642 208.17873
 209.80505 210.95036 211.17967 211.40799 211.34530 211.05062 210.68393 210.31424
 209.93156 209.64187 209.45018 209.31450 209.24281 209.57413 209.96044 210.34975
 211.14307 212.32138 213.57170 215.35501 217.28332 219.32664 221.42195 223.50527
 225.56558 227.64989 229.74721 231.85352 233.98284 236.15515 238.41146 240.78178
 243.40309 245.65441 247.65672 249.42203 250.83935 251.96266 252.78497 253.10129
 253.13860 252.91292 252.27323 251.22154 249.82786 247.98917 245.89849 243.73180
 241.52311 239.32743 237.14774 234.98706 232.84737 230.71468 228.74100 226.89831
 225.18163 223.65394 222.28425 221.05657 219.93888 218.89919 218.00351 217.14482
 216.38714 215.56745 214.66576 214.03008 213.48039 214.26472 216.11780 218.83923
 221.49237 223.07901 224.06718 225.16179 226.38316 227.29041 227.23407 226.29994
 225.89661 227.74263 231.70697 236.37791 240.93292 245.26173 249.38135 253.19942
 256.61475 259.71317 262.67136 265.55267 267.93689 269.84326 271.79291 273.61676
 275.42490 277.15564 278.69812 280.06445 281.25412 282.31253 283.28146 284.16730
 284.97488 285.71484 286.36487 287.25421
 366.78100 356.33590 345.76880 334.63570 323.03960 311.23450 299.10540 286.90930
 274.62220 262.52010 250.53000 239.83190 229.95479 221.05969 213.24259 206.24549
 200.08039 195.01929 191.60219 189.64509 188.68299 188.74789 189.58379 190.89269
 192.61859 194.71449 196.97839 199.33829 201.78419 204.26509 206.35399 208.19689
 209.82379 210.96969 211.19958 211.42848 211.36638 211.07228 210.70618 210.33708
 209.95498 209.66588 209.47478 209.33968 209.26858 209.60048 209.98738 210.37728
 211.17118 212.35008 213.60098 215.38488 217.31378 219.35768 221.45358 223.53748
 225.59838 227.68327 229.78117 231.88807 234.01797 236.19087 238.44777 240.81867
 243.44057 245.69247 247.69537 249.46127 250.87917 252.00307 252.82597 253.14287
 253.18077 252.95567 252.31657 251.26547 249.87237 248.03427 245.94417 243.77806
 241.56996 239.37486 237.19576 235.03566 232.89656 230.76446 228.79136 226.94926
 225.23316 223.70606 222.33696 221.10986 219.99276 218.95366 218.05856 217.20046
 216.44336 215.62426 214.72316 214.08806 213.53896 214.30241 216.10619 218.87585
 221.59119 223.15186 224.07690 225.11455 226.31078 227.22769 227.20702 226.32535
 225.94037 227.76053 231.71405 236.40289 240.95995 245.27010 249.37392 253.18706
 256.59143 259.66238 262.59265 265.48041 267.89319 269.83704 271.62079 273.46140
 275.32758 277.04608 278.58066 279.94354 281.13058 282.18835 283.15591 284.03870
 284.84595 285.58334 286.23120 287.11469
 366.78100 356.33637 345.76973 334.63710 323.04147 311.23683 299.10820 286.91257
 274.62594 262.52430 250.53467 239.83704 229.96040 221.06577 213.24914 206.25250
 200.08787 195.02724 191.61060 189.65397 188.69234 188.75771 189.59407 190.90344
 192.62981 194.72617 196.99054 199.35091 201.79727 204.27864 206.36801 208.21137
 209.83874 210.98511 211.21548 211.44484 211.38321 211.08958 210.72394 210.35531
 209.97368 209.68504 209.49441 209.35978 209.28915 209.62151 210.00888 210.39925
 211.19361 212.37298 213.62435 215.40871 217.33808 219.38245 221.47881 223.56318
 225.62455 227.70992 229.80828 231.91565 234.04602 236.21938 238.47675 240.84812
 243.47048 245.72285 247.72622 249.49258 250.91095 252.03532 252.85869 253.17605
 253.21442 252.98979 252.35115 251.30052 249.90789 248.07025 245.98062 243.81499
 241.60735 239.41272 237.23409 235.07446 232.93582 230.80419 228.83156 226.98992
 225.27429 223.74766 222.37902 221.15239 220.03576 218.99712 218.10249 217.24486
 216.48823 215.66959 214.76896 214.13433 213.58569 214.33475 216.10448 218.90181
 221.68053 223.23169 224.09859 225.07704 226.24612 227.15779 227.15993 226.32904
 225.97276 227.77800 231.72021 236.42612 240.98854 245.28307 249.37393 253.18335
 256.57892 259.62366 262.52399 265.41837 267.86023 269.83929 271.51578 273.41498
 275.24881 276.93259 278.45343 279.81296 280.99808 282.05399 283.01947 283.90140
 284.70523 285.44153 286.08771 286.96371
 366.78100 356.33676 345.77053 334.63829 323.04306 311.23882 299.11059 286.91535
 274.62912 262.52788 250.53865 239.84141 229.96518 221.07094 213.25471 206.25847
 200.09424 195.03400 191.61777 189.66153 188.70029 188.76606 189.60282 190.91259
 192.63935 194.73612 197.00088 199.36165 201.80841 204.29018 206.37994 208.22371
 209.85147 210.99824 211.22900 211.45877 211.39753 211.10430 210.73906 210.37082
 209.98959 209.70135 209.51112 209.37688 209.30665 209.63941 210.02718 210.41794
 211.21271 212.39247 213.64424 215.42900 217.35877 219.40353 221.50030 223.58506
 225.64682 227.73259 229.83135 231.93912 234.06988 236.24365 238.50141 240.87318
 243.49594 245.74871 247.75247 249.51924 250.93800 252.06277 252.88653 253.20430
 253.24306 253.01883 252.38059 251.33035 249.93812 248.10088 246.01165 243.84641
 241.63918 239.44494 237.26671 235.10747 232.96924 230.83800 228.86577 227.02453
 225.30930 223.78306 222.41483 221.18859 220.07236 219.03412 218.13988 217.28265
 216.52641 215.70818 214.80794 214.17371 213.62547 214.36333 216.10660 218.92801
 221.76369 223.30948 224.12405 225.04518 226.18568 227.08476 227.10355 226.31244
 225.98792 227.79350 231.72812 236.45059 241.02280 245.30675 249.38580 253.19164
 256.57852 259.59814 262.46994 265.36551 267.81680 269.80719 271.55328 273.31802
 275.15936 276.81326 278.32089 279.67853 280.86160 281.91479 282.87891 283.75998
 284.56155 285.29211 285.93732 286.80460
 366.78100 356.33734 345.77169 334.64003 323.04538 311.24172 299.11407 286.91941
 274.63375 262.53310 250.54444 239.84779 229.97213 221.07848 213.26282 206.26716
 200.10351 195.04385 191.62820 189.67254 188.71189 188.77823 189.61557 190.92592
 192.65326 194.75061 197.01595 199.37729 201.82464 204.30698 206.39733 208.24167
 209.87002 211.01736 211.24870 211.47905 211.41839 211.12574 210.76108 210.39343
 210.01277 209.72511 209.53546 209.40180 209.33215 209.66549 210.05384 210.44518
 211.24052 212.42087 213.67321 215.45856 217.38890 219.43425 221.53159 223.61693
 225.67928 227.76562 229.86497 231.97331 234.10466 236.27900 238.53734 240.90969
 243.53303 245.78638 247.79072 249.55807 250.97741 252.10275 252.92710 253.24544
 253.28479 253.06113 252.42348 251.37382 249.98216 248.14551 246.05685 243.89220
 241.68554 239.49188 237.31423 235.15557 233.01792 230.88726 228.91561 227.07495
 225.36029 223.83464 222.46698 221.24133 220.12567 219.08802 218.19436 217.33770
 216.58205 215.76439 214.86474 214.23108 213.68343 214.40361 216.10513 218.94153
 221.85213 223.39928 224.14984 225.00667 226.11719 226.99529 227.02786 226.30736
 226.02237 227.81082 231.73328 236.47154 241.05542 245.33130 249.40065 253.20811
 256.59586 259.59644 262.43216 265.32126 267.78818 269.77408 271.54553 273.25821
 275.06082 276.70370 278.20795 279.56326 280.74567 281.79782 282.76004 283.63986
 284.44327 285.17575 285.82611 286.68112
 366.78100 356.33795 345.77290 334.64185 323.04780 311.24475 299.11770 286.92365
 274.63860 262.53855 250.55050 239.85445 229.97940 221.08635 213.27130 206.27625
 200.11320 195.05415 191.63910 189.68405 188.72400 188.79095 189.62890 190.93985
 192.66780 194.76575 197.03170 199.39366 201.84161 204.32456 206.41551 208.26046
 209.88941 211.03736 211.26931 211.50026 211.44021 211.14816 210.78411 210.41706
 210.03701 209.74996 209.56091 209.42786 209.35881 209.69276 210.08171 210.47366
 211.26961 212.45056 213.70351 215.48946 217.42041 219.46636 221.56431 223.65026
 225.71321 227.80016 229.90011 232.00906 234.14101 236.31596 238.57491 240.94786
 243.57181 245.82576 247.83071 249.59866 251.01861 252.14456 252.96951 253.28846
 253.32841 253.10536 252.46831 251.41926 250.02821 248.19216 246.10411 243.94006
 241.73401 239.54097 237.36392 235.20587 233.06882 230.93877 228.96772 227.12767
 225.41362 223.88857 222.52152 221.29647 220.18142 219.14437 218.25132 217.39527
 216.64022 215.82317 214.92412 214.29107 213.74402 214.44603 216.10463 218.94682
 221.91388 223.50131 224.23157 225.00638 226.03316 226.85512 226.91901 226.26099
 226.04135 227.85710 231.75668 236.49727 241.09555 245.37865 249.44334 253.24001
 256.60846 259.58475 262.41107 265.30057 267.74561 269.74182 271.54562 273.28705
 275.03546 276.61508 278.06573 279.39151 280.56494 281.61145 282.56812 283.44727
 284.25687 285.01138 285.65466 286.50119
 366.78100 356.33704 345.77108 334.63912 323.04416 311.24020 299.11224 286.91727
 274.63131 262.53035 250.54139 239.84443 229.96847 221.07451 213.25855 206.26259
 200.09863 195.03867 191.62271 189.66675 188.70578 188.77182 189.60886 190.91890
 192.64594 194.74298 197.00802 199.36906 201.81610 204.29814 206.38818 208.23222
 209.86026 211.00729 211.23833 211.46837 211.40741 211.11445 210.74949 210.38153
 210.00057 209.71261 209.52265 209.38869 209.31873 209.65177 210.03980 210.43084
 211.22588 212.40592 213.65796 215.44300 217.37304 219.41808 221.51512 223.60016
 225.66220 227.74824 229.84728 231.95531 234.08635 236.26039 238.51843 240.89047
 243.51351 245.76655 247.77059 249.53763 250.95667 252.08171 252.90575 253.22379
 253.26282 253.03886 252.40090 251.35094 249.95898 248.12202 246.03306 243.86810
 241.66114 239.46718 237.28922 235.13026 232.99230 230.86134 228.88937 227.04841
 225.33345 223.80749 222.43953 221.21357 220.09761 219.05965 218.16569 217.30873
 216.55277 215.73481 214.83485 214.20088 213.65292 214.41017 216.19923 218.91833
 221.92612 223.57541 224.26237 225.03787 226.07539 226.84302 226.80228 226.11705
 225.93541 227.81635 231.76068 236.53575 241.17477 245.45892 249.51804 253.33649
 256.74313 259.70258 262.43048 265.25903 267.74680 269.71030 271.41577 273.13730
 274.82419 276.50720 278.03952 279.40497 280.59534 281.65665 282.63989 283.53937
 284.34619 285.05688 285.67834 286.52185
 366.78100 356.33691 345.77082 334.63873 323.04365 311.23956 299.11147 286.91638
 274.63029 262.52920 250.54012 239.84303 229.96694 221.07285 213.25676 206.26067
 200.09658 195.03650 191.62041 189.66432 188.70323 188.76914 189.60605 190.91596
 192.64288 194.73979 197.00470 199.36561 201.81252 204.29443 206.38435 208.22826
 209.85617 211.00308 211.23399 211.46390 211.40281 211.10973 210.74464 210.37655
 209.99546 209.70737 209.51728 209.38320 209.31311 209.64602 210.03393 210.42484
 211.21975 212.39966 213.65158 215.43649 217.36640 219.41131 221.50822 223.59313
 225.65505 227.74096 229.83987 231.94778 234.07869 236.25260 238.51051 240.88243
 243.50534 245.75825 247.76216 249.52907 250.94798 252.07289 252.89681 253.21472
 253.25363 253.02954 252.39145 251.34136 249.94928 248.11219 246.02310 243.85801
 241.65092 239.45683 237.27874 235.11966 232.98157 230.85048 228.87839 227.03730
 225.32221 223.79613 222.42804 221.20195 220.08586 219.04777 218.15368 217.29659
 216.54051 215.72242 214.82233 214.18824 213.64015 214.41640 216.26904 218.95110
 221.79144 223.27235 224.21625 225.20337 226.33322 227.03780 226.68810 225.99442
 225.64589 227.65497 231.68196 236.52626 241.18193 245.53992 249.63425 253.48137
 256.91092 259.89618 262.60452 265.29358 267.67123 269.62625 271.31781 273.11270
 274.83850 276.43945 277.86047 279.10681 280.25534 281.30484 282.28241 283.17804
 283.97696 284.68661 285.30655 286.09656
 366.78100 356.33510 345.76720 334.63329 323.03639 311.23049 299.10059 286.90369
 274.61578 262.51288 250.52198 239.82308 229.94518 221.04927 213.23137 206.23347
 200.06757 195.00567 191.58776 189.62986 188.66696 188.73106 189.56616 190.87425
 192.59935 194.69445 196.95755 199.31665 201.76174 204.24184 206.32994 208.17204
 209.79814 210.94323 211.17233 211.40043 211.33753 211.04263 210.67572 210.30582
 209.92292 209.63302 209.44112 209.30521 209.23331 209.56441 209.95051 210.33961
 211.13270 212.31080 213.56090 215.34400 217.27210 219.31519 221.41029 223.49339
 225.55349 227.63759 229.73468 231.84078 233.96988 236.14198 238.39808 240.76817
 243.38927 245.64037 247.64247 249.40757 250.82466 251.94776 252.76986 253.08596
 253.12306 252.89715 252.25725 251.20535 249.81145 247.97255 245.88164 243.71474
 241.50584 239.30994 237.13004 234.96914 232.82923 230.69633 228.72243 226.87953
 225.16263 223.63472 222.26482 221.03692 219.91902 218.87912 217.98321 217.12431
 216.36641 215.54651 214.64461 214.00870 213.45880 214.33240 216.44388 219.03850
 221.42743 223.15114 224.32687 225.19308 226.30342 227.08073 226.87341 226.14809
 225.41072 227.45760 231.57726 236.43452 241.11546 245.46570 249.59966 253.43398
 256.85217 259.84784 262.64264 265.37567 267.79538 269.76749 271.44781 273.21936
 274.92401 276.45163 277.72675 278.93570 280.10895 281.16962 282.18329 283.13544
 283.99179 284.75439 285.42059 286.26956
 366.78100 356.33675 345.77050 334.63824 323.04299 311.23874 299.11049 286.91524
 274.62898 262.52773 250.53848 239.84123 229.96498 221.07072 213.25447 206.25822
 200.09397 195.03372 191.61746 189.66121 188.69996 188.76571 189.60245 190.91220
 192.63895 194.73570 197.00045 199.36119 201.80794 204.28969 206.37944 208.22319
 209.85093 210.99768 211.22843 211.45818 211.39693 211.10367 210.73842 210.37017
 209.98892 209.70067 209.51041 209.37616 209.30591 209.63866 210.02641 210.41715
 211.21190 212.39165 213.64340 215.42815 217.35789 219.40264 221.49939 223.58414
 225.64588 227.73163 229.83038 231.93813 234.06888 236.24262 238.50037 240.87212
 243.49487 245.74762 247.75136 249.51811 250.93686 252.06161 252.88536 253.20310
 253.24185 253.01760 252.37935 251.32910 249.93684 248.09959 246.01034 243.84509
 241.63784 239.44358 237.26533 235.10608 232.96783 230.83658 228.86432 227.02307
 225.30782 223.78157 222.41332 221.18706 220.07081 219.03256 218.13831 217.28105
 216.52480 215.70655 214.80630 214.17205 213.62379 214.41602 216.28931 219.14952
 221.70406 223.42094 224.41779 225.12090 225.97209 226.73280 226.99272 226.11377
 225.89989 227.70284 231.61139 236.36937 241.04622 245.45596 249.55492 253.34613
 256.72379 259.73260 262.56155 265.25143 267.66510 269.71329 271.53339 273.25531
 274.90207 276.38971 277.70337 278.88641 280.00998 281.03629 281.95996 282.79962
 283.58347 284.32224 284.96762 285.79007
 366.78100 356.33864 345.77428 334.64392 323.05056 311.24821 299.12185 286.92849
 274.64413 262.54477 250.55741 239.86205 229.98769 221.09533 213.28098 206.28662
 200.12426 195.06590 191.65154 189.69718 188.73782 188.80546 189.64410 190.95575
 192.68439 194.78303 197.04967 199.41231 201.86095 204.34459 206.43623 208.28187
 209.91152 211.06016 211.29280 211.52444 211.46508 211.17372 210.81036 210.44400
 210.06464 209.77829 209.58993 209.45757 209.38921 209.72385 210.11349 210.50613
 211.30277 212.48441 213.73806 215.52470 217.45634 219.50298 221.60162 223.68826
 225.75190 227.83954 229.94018 232.04983 234.18247 236.35811 238.61775 240.99139
 243.61603 245.87067 247.87631 249.64495 251.06560 252.19224 253.01788 253.33752
 253.37816 253.15580 252.51944 251.47108 250.08072 248.24536 246.15801 243.99465
 241.78929 239.59693 237.42057 235.26321 233.12685 230.99749 229.02713 227.18778
 225.47442 223.95006 222.58370 221.35934 220.24498 219.20862 218.31626 217.46090
 216.70655 215.89019 214.99183 214.35947 213.81311 214.53159 216.25696 219.07516
 221.84406 223.52211 224.29472 224.98491 225.90173 226.64647 226.88988 226.25723
 225.92078 227.69633 231.58836 236.36458 241.09157 245.48370 249.61017 253.41092
 256.78033 259.73422 262.49939 265.16281 267.52548 269.49454 271.27368 273.01926
 274.67215 276.15335 277.44211 278.61862 279.75891 280.80167 281.74545 282.61530
 283.44321 284.18045 284.82449 285.64526
 366.78100 356.33782 345.77264 334.64146 323.04728 311.24410 299.11692 286.92274
 274.63756 262.53737 250.54919 239.85301 229.97783 221.08465 213.26947 206.27429
 200.11111 195.05193 191.63675 189.68157 188.72139 188.78821 189.62603 190.93685
 192.66467 194.76249 197.02830 199.39012 201.83794 204.32076 206.41158 208.25640
 209.88522 211.03304 211.26486 211.49568 211.43550 211.14332 210.77914 210.41196
 210.03178 209.74460 209.55542 209.42223 209.35305 209.68687 210.07569 210.46751
 211.26333 212.44415 213.69697 215.48279 217.41361 219.45943 221.55725 223.64307
 225.70589 227.79271 229.89253 232.00135 234.13317 236.30798 238.56680 240.93962
 243.56344 245.81726 247.82208 249.58990 251.00972 252.13554 252.96036 253.27918
 253.31900 253.09582 252.45864 251.40946 250.01828 248.18210 246.09391 243.92973
 241.72355 239.53037 237.35319 235.19501 233.05783 230.92765 228.95647 227.11629
 225.40211 223.87693 222.50975 221.28457 220.16939 219.13221 218.23903 217.38284
 216.62766 215.81048 214.91130 214.27812 213.73094 214.51004 216.45233 219.06747
 221.65933 223.40434 224.40544 225.07207 225.94061 226.85408 226.93437 226.34122
 225.80319 227.73311 231.64616 236.36839 241.08688 245.50702 249.66057 253.48888
 256.86230 259.83102 262.60764 265.21063 267.48532 269.44836 271.27249 273.02969
 274.64529 276.05038 277.35754 278.69971 279.96753 281.18903 282.30347 283.31308
 284.22110 285.02972 285.73608 286.63629
 366.78100 356.33785 345.77271 334.64156 323.04742 311.24427 299.11713 286.92298
 274.63784 262.53769 250.54955 239.85340 229.97826 221.08511 213.26997 206.27482
 200.11167 195.05253 191.63738 189.68224 188.72209 188.78895 189.62680 190.93766
 192.66551 194.76337 197.02922 199.39108 201.83893 204.32179 206.41264 208.25749
 209.88635 211.03420 211.26606 211.49691 211.43677 211.14462 210.78048 210.41333
 210.03319 209.74604 209.55690 209.42375 209.35461 209.68846 210.07731 210.46917
 211.26502 212.44588 213.69873 215.48459 217.41544 219.46130 221.55915 223.64501
 225.70786 227.79472 229.89457 232.00343 234.13528 236.31013 238.56899 240.94184
 243.56570 245.81955 247.82441 249.59226 251.01212 252.13797 252.96283 253.28168
 253.32154 253.09839 252.46125 251.41210 250.02095 248.18481 246.09666 243.93252
 241.72637 239.53323 237.35608 235.19794 233.06079 230.93065 228.95950 227.11936
 225.40521 223.88007 222.51292 221.28777 220.17263 219.13548 218.24234 217.38619
 216.63105 215.81390 214.91476 214.28161 213.73447 214.52179 216.47655 219.10187
 221.71291 223.22623 224.34854 225.14484 225.97432 227.02397 227.09659 226.31580
 225.63908 227.52695 231.59822 236.37263 241.02534 245.42972 249.62671 253.47687
 256.88370 259.85840 262.66061 265.37753 267.66196 269.50839 271.22571 272.99915
 274.61542 275.91379 277.33362 278.71201 279.96954 281.21503 282.35132 283.38074
 284.30658 285.13107 285.85129 286.76917
 366.78100 356.33974 345.77648 334.64722 323.05496 311.25370 299.12845 286.93619
 274.65293 262.55467 250.56841 239.87415 230.00089 221.10963 213.29637 206.30311
 200.14186 195.08460 191.67134 189.71808 188.75982 188.82856 189.66830 190.98104
 192.71078 194.81052 197.07826 199.44201 201.89175 204.37649 206.46923 208.31597
 209.94671 211.09645 211.33019 211.56293 211.50467 211.21442 210.85216 210.48690
 210.10864 209.82338 209.63612 209.50486 209.43760 209.77334 210.16408 210.55782
 211.35557 212.53831 213.79305 215.58079 217.51353 219.56127 221.66101 223.74875
 225.81349 227.90223 230.00398 232.11472 234.24846 236.42520 238.68594 241.06068
 243.68642 245.94216 247.94890 249.71864 251.14039 252.26813 253.09487 253.41561
 253.45735 253.23609 252.60083 251.55357 250.16431 248.33005 246.24379 244.08154
 241.87728 239.68602 237.51076 235.35450 233.21924 231.09098 229.12172 227.28346
 225.57120 224.04795 222.68269 221.45943 220.34617 219.31091 218.41965 217.56539
 216.81213 215.99687 215.09961 214.46835 213.92310 214.64659 216.49706 219.07765
 221.82047 223.37018 224.56892 225.31114 225.99246 226.64555 226.76752 226.20477
 226.00493 227.88136 231.64597 236.32228 241.05498 245.51634 249.67651 253.48090
 256.77646 259.75662 262.53375 265.20032 267.53775 269.40707 271.13351 272.73218
 274.16760 275.47665 276.97821 278.60837 280.06000 281.34433 282.51611 283.57764
 284.53238 285.38257 286.12531 287.07178
 366.78100 356.34003 345.77705 334.64808 323.05610 311.25513 299.13015 286.93818
 274.65520 262.55723 250.57125 239.87728 230.00430 221.11333 213.30036 206.30738
 200.14641 195.08943 191.67646 189.72348 188.76551 188.83453 189.67456 190.98758
 192.71761 194.81763 197.08566 199.44969 201.89971 204.38474 206.47776 208.32479
 209.95581 211.10584 211.33986 211.57289 211.51491 211.22494 210.86296 210.49799
 210.12002 209.83504 209.64807 209.51709 209.45012 209.78614 210.17717 210.57119
 211.36922 212.55224 213.80727 215.59529 217.52832 219.57635 221.67637 223.76440
 225.82942 227.91845 230.02047 232.13150 234.26552 236.44255 238.70357 241.07860
 243.70462 245.96065 247.96768 249.73770 251.15973 252.28775 253.11478 253.43580
 253.47783 253.25685 252.62188 251.57490 250.18593 248.35195 246.26598 244.10401
 241.90003 239.70906 237.53408 235.37811 233.24313 231.11516 229.14618 227.30821
 225.59623 224.07326 222.70828 221.48531 220.37234 219.33736 218.44639 217.59241
 216.83944 216.02446 215.12749 214.49651 213.95154 214.70816 216.64256 219.05675
 221.69916 223.71327 224.92903 225.35321 225.95012 226.14925 226.88339 225.77524
 226.11635 228.23607 231.97360 236.51472 241.17320 245.64534 249.83269 253.57852
 256.90784 259.85379 262.57278 265.04297 267.12378 268.85782 271.15222 272.79123
 274.15903 275.33334 276.34952 277.24179 278.01398 278.69717 279.32050 279.88516
 280.39304 280.84528 281.24036 281.74384
 366.78100 356.34001 345.77702 334.64804 323.05605 311.25506 299.13007 286.93808
 274.65510 262.55711 250.57112 239.87713 230.00414 221.11316 213.30017 206.30718
 200.14619 195.08920 191.67622 189.72323 188.76524 188.83425 189.67426 190.98727
 192.71729 194.81730 197.08531 199.44932 201.89933 204.38435 206.47736 208.32437
 209.95538 211.10539 211.33941 211.57242 211.51443 211.22444 210.86245 210.49747
 210.11948 209.83449 209.64750 209.51651 209.44953 209.78554 210.17655 210.57056
 211.36857 212.55159 213.80660 215.59461 217.52762 219.57563 221.67565 223.76366
 225.82867 227.91768 230.01969 232.13071 234.26472 236.44173 238.70274 241.07775
 243.70377 245.95978 247.96679 249.73680 251.15881 252.28682 253.11384 253.43485
 253.47686 253.25587 252.62088 251.57390 250.18491 248.35092 246.26493 244.10294
 241.89896 239.70797 237.53298 235.37699 233.24200 231.11402 229.14503 227.30704
 225.59505 224.07206 222.70708 221.48409 220.37110 219.33611 218.44512 217.59114
 216.83815 216.02316 215.12617 214.49518 213.95020 214.72284 216.72218 219.02914
 221.56352 223.76900 224.97777 225.37949 225.94099 226.37007 226.79294 225.43607
 225.68976 227.96761 231.92819 236.57634 241.28220 245.78923 250.02885 253.89392
 257.28506 260.25595 263.00171 265.56085 267.71127 269.30563 271.06421 273.45694
 276.25851 278.65988 280.73788 282.56250 284.14157 285.53864 286.81323 287.96796
 289.00647 289.93127 290.73920 291.76877
 366.78100 356.34090 345.77880 334.65069 323.05959 311.25949 299.13539 286.94428
 274.66218 262.56508 250.57998 239.88687 230.01477 221.12467 213.31257 206.32047
 200.16036 195.10426 191.69216 189.74006 188.78295 188.85285 189.69375 191.00765
 192.73855 194.83944 197.10834 199.47324 201.92414 204.41003 206.50393 208.35183
 209.98373 211.13462 211.36952 211.60342 211.54632 211.25722 210.89611 210.53201
 210.15491 209.87081 209.68470 209.55460 209.48850 209.82540 210.21730 210.61219
 211.41109 212.59499 213.85089 215.63978 217.57368 219.62258 221.72348 223.81237
 225.87827 227.96817 230.07107 232.18297 234.31786 236.49576 238.75766 241.13356
 243.76045 246.01735 248.02525 249.79615 251.21905 252.34794 253.17584 253.49774
 253.54064 253.32053 252.68643 251.64033 250.25223 248.41912 246.33402 244.17292
 241.96982 239.77972 237.60561 235.45051 233.31641 231.18931 229.22120 227.38410
 225.67300 224.15090 222.78680 221.56469 220.45259 219.41849 218.52839 217.67528
 216.92318 216.10908 215.21298 214.58287 214.03877 214.75949 216.68494 219.09686
 221.52371 223.72398 224.90846 225.39458 226.02594 226.64836 226.61443 225.34534
 225.46185 227.79466 231.89645 236.56590 241.25804 245.75761 249.97191 253.78432
 257.15561 260.20828 263.05170 265.69186 268.08707 270.10455 271.60794 273.35559
 275.85446 278.55231 280.88684 282.93674 284.71075 286.28030 287.71228 289.00955
 290.17630 291.21530 292.12296 293.27963
 366.78100 356.34045 345.77790 334.64935 323.05780 311.25725 299.13270 286.94115
 274.65860 262.56105 250.57550 239.88195 230.00940 221.11885 213.30630 206.31375
 200.15320 195.09665 191.68410 189.73155 188.77400 188.84345 189.68390 190.99735
 192.72780 194.82825 197.09670 199.46116 201.91161 204.39706 206.49051 208.33796
 209.96941 211.11986 211.35431 211.58776 211.53021 211.24066 210.87911 210.51456
 210.13701 209.85246 209.66591 209.53536 209.46881 209.80526 210.19671 210.59116
 211.38961 212.57306 213.82851 215.61696 217.55041 219.59886 221.69931 223.78776
 225.85321 227.94266 230.04511 232.15656 234.29101 236.46846 238.72991 241.10536
 243.73181 245.98826 247.99571 249.76616 251.18861 252.31706 253.14451 253.46596
 253.50841 253.28786 252.65331 251.60676 250.21821 248.38466 246.29911 244.13756
 241.93401 239.74347 237.56892 235.41337 233.27882 231.15127 229.18272 227.34517
 225.63362 224.11107 222.74652 221.52397 220.41142 219.37687 218.48632 217.63277
 216.88022 216.06567 215.16912 214.53857 213.99402 214.74571 216.68979 219.10277
 221.52544 223.57426 224.90401 225.42471 225.96951 226.69264 226.52025 225.23807
 225.19414 227.54283 231.81691 236.55225 241.28194 245.80269 250.02682 253.87439
 257.23117 260.12482 262.88156 265.51172 267.88458 269.87561 271.66235 273.28387
 275.38245 277.43698 279.35782 281.04446 282.50409 283.79550 284.97369 286.04108
 287.00107 287.85596 288.60275 289.55444
 366.78100 356.33986 345.77673 334.64759 323.05546 311.25432 299.12918 286.93705
 274.65391 262.55578 250.56964 239.87551 230.00237 221.11123 213.29810 206.30496
 200.14383 195.08669 191.67355 189.72042 188.76228 188.83115 189.67101 190.98387
 192.71374 194.81360 197.08147 199.44533 201.89519 204.38006 206.47292 208.31979
 209.95065 211.10052 211.33438 211.56724 211.50911 211.21897 210.85684 210.49170
 210.11356 209.82843 209.64129 209.51016 209.44302 209.77888 210.16975 210.56361
 211.36148 212.54434 213.79920 215.58707 217.51993 219.56780 221.66766 223.75553
 225.82039 227.90925 230.01112 232.12198 234.25585 236.43271 238.69357 241.06844
 243.69430 245.95017 247.95703 249.72689 251.14876 252.27662 253.10349 253.42435
 253.46621 253.24508 252.60994 251.56281 250.17367 248.33954 246.25340 244.09126
 241.88713 239.69599 237.52086 235.36472 233.22958 231.10145 229.13231 227.29418
 225.58204 224.05890 222.69377 221.47063 220.35750 219.32236 218.43122 217.57709
 216.82395 216.00882 215.11168 214.48055 213.93541 214.73143 216.73253 219.05609
 221.51158 223.56444 224.88834 225.36926 225.79655 226.58194 226.59189 225.39195
 225.28839 227.56326 231.76831 236.49815 241.25047 245.80951 250.07884 253.94513
 257.31573 260.25137 262.95657 265.52734 267.81537 269.74060 271.53790 273.27307
 275.28091 277.14783 278.93491 280.54428 281.93704 283.16928 284.29349 285.31198
 286.22797 287.04367 287.75626 288.66437
 366.78100 356.33963 345.77626 334.64689 323.05452 311.25315 299.12778 286.93541
 274.65205 262.55368 250.56731 239.87294 229.99957 221.10820 213.29483 206.30146
 200.14009 195.08272 191.66935 189.71598 188.75761 188.82624 189.66587 190.97850
 192.70814 194.80777 197.07540 199.43903 201.88866 204.37329 206.46592 208.31255
 209.94318 211.09281 211.32644 211.55907 211.50070 211.21033 210.84796 210.48259
 210.10423 209.81886 209.63149 209.50012 209.43275 209.76838 210.15901 210.55264
 211.35027 212.53290 213.78753 215.57516 217.50779 219.55542 221.65505 223.74268
 225.80732 227.89595 229.99758 232.10821 234.24184 236.41847 238.67910 241.05373
 243.67936 245.93499 247.94162 249.71125 251.13288 252.26051 253.08714 253.40778
 253.44941 253.22804 252.59267 251.54530 250.15593 248.32156 246.23519 244.07282
 241.86845 239.67708 237.50171 235.34534 233.20997 231.08160 229.11223 227.27387
 225.56150 224.03813 222.67276 221.44939 220.33602 219.30065 218.40928 217.55491
 216.80154 215.98617 215.08880 214.45743 213.91206 214.73320 216.76939 219.02193
 221.41008 223.64069 224.96786 225.35239 225.62347 226.31363 226.48691 225.54901
 225.58861 227.70596 231.77640 236.46016 241.17715 245.70909 249.94847 253.79620
 257.20035 260.22717 262.99725 265.56787 267.83377 269.77164 271.57855 273.33795
 275.19852 277.01865 278.68155 280.29822 281.69733 282.93515 284.06448 285.08759
 286.00778 286.82718 287.54300 288.45526
 366.78100 356.33968 345.77637 334.64705 323.05473 311.25342 299.12810 286.93578
 274.65247 262.55415 250.56783 239.87352 230.00020 221.10888 213.29557 206.30225
 200.14093 195.08362 191.67030 189.71699 188.75867 188.82735 189.66704 190.97972
 192.70940 194.80909 197.07677 199.44045 201.89014 204.37482 206.46750 208.31419
 209.94487 211.09455 211.32824 211.56092 211.50260 211.21229 210.84997 210.48465
 210.10634 209.82102 209.63370 209.50239 209.43507 209.77075 210.16144 210.55512
 211.35280 212.53549 213.79017 215.57786 217.51054 219.55822 221.65791 223.74559
 225.81027 227.89896 230.00064 232.11132 234.24501 236.42169 238.68237 241.05706
 243.68274 245.93842 247.94511 249.71479 251.13647 252.26416 253.09084 253.41152
 253.45321 253.23189 252.59657 251.54926 250.15994 248.32562 246.23931 244.07699
 241.87267 239.68136 237.50604 235.34972 233.21441 231.08609 229.11678 227.27846
 225.56614 224.04283 222.67751 221.45419 220.34088 219.30556 218.41424 217.55993
 216.80661 215.99129 215.09398 214.46266 213.91734 214.74677 216.80469 219.04506
 221.29686 223.61136 225.13499 225.49281 225.59358 226.13539 226.24545 225.43712
 225.70917 227.88280 231.86234 236.51295 241.21320 245.73589 249.94501 253.73651
 257.06973 260.07153 262.89175 265.51904 267.79123 269.67847 271.47372 273.28391
 275.24762 277.06573 278.71332 280.27197 281.62085 282.81427 283.90308 284.88947
 285.77661 286.56662 287.25677 288.13626
 366.78100 356.33941 345.77583 334.64624 323.05365 311.25206 299.12648 286.93389
 274.65030 262.55172 250.56513 239.87054 229.99695 221.10537 213.29178 206.29819
 200.13661 195.07902 191.66543 189.71184 188.75326 188.82167 189.66108 190.97350
 192.70291 194.80232 197.06974 199.43315 201.88256 204.36697 206.45939 208.30580
 209.93621 211.08563 211.31904 211.55145 211.49286 211.20228 210.83969 210.47410
 210.09552 209.80993 209.62234 209.49075 209.42317 209.75858 210.14899 210.54241
 211.33982 212.52223 213.77664 215.56406 217.49647 219.54388 221.64330 223.73071
 225.79512 227.88353 229.98495 232.09536 234.22877 236.40519 238.66560 241.04001
 243.66543 245.92084 247.92725 249.69666 251.11808 252.24549 253.07190 253.39232
 253.43373 253.21214 252.57655 251.52897 250.13938 248.30479 246.21821 244.05562
 241.85103 239.65944 237.48386 235.32727 233.19168 231.06310 229.09351 227.25492
 225.54233 224.01875 222.65316 221.42957 220.31599 219.28040 218.38881 217.53422
 216.78064 215.96505 215.06746 214.43588 213.89029 214.75456 216.90350 219.04570
 221.29263 223.62709 225.24780 225.59483 225.59891 226.12376 226.36157 225.22552
 225.44156 227.77437 231.83252 236.52171 241.25742 245.81491 250.06596 253.89571
 257.20367 260.13199 262.83270 265.36020 267.58844 269.48254 271.21817 273.36575
 275.53125 277.61652 279.44406 281.04880 282.43753 283.66623 284.78720 285.80273
 286.71613 287.52948 288.23999 289.14548
 366.78100 356.34100 345.77900 334.65099 323.05999 311.25999 299.13599 286.94499
 274.66298 262.56598 250.58098 239.88798 230.01598 221.12597 213.31397 206.32197
 200.16197 195.10597 191.69396 189.74196 188.78496 188.85496 189.69596 191.00995
 192.74095 194.84195 197.11095 199.47595 201.92694 204.41294 206.50694 208.35494
 209.98694 211.13793 211.37293 211.60693 211.54993 211.26093 210.89992 210.53592
 210.15892 209.87492 209.68891 209.55891 209.49291 209.82991 210.22191 210.61690
 211.41590 212.59990 213.85590 215.64490 217.57889 219.62789 221.72889 223.81789
 225.88389 227.97388 230.07688 232.18888 234.32388 236.50188 238.76387 241.13987
 243.76687 246.02387 248.03187 249.80286 251.22586 252.35486 253.18286 253.50486
 253.54785 253.32785 252.69385 251.64785 250.25985 248.42684 246.34184 244.18084
 241.97784 239.78784 237.61383 235.45883 233.32483 231.19783 229.22983 227.39282
 225.68182 224.15982 222.79582 221.57382 220.46181 219.42781 218.53781 217.68481
 216.93281 216.11880 215.22280 214.59280 214.04880 214.85110 216.90991 219.09882
 221.22961 223.38919 225.28433 225.75308 225.62964 226.01228 226.58847 225.35493
 225.63545 227.83597 231.78075 236.46388 241.22975 245.81714 250.10428 253.97696
 257.33182 260.25562 262.95883 265.51401 267.69501 269.47708 271.52011 274.26300
 276.89178 279.14505 281.09488 282.80698 284.28864 285.59955 286.79553 287.87903
 288.85352 289.72128 290.47937 291.44543
 366.78100 356.34181 345.78062 334.65343 323.06324 311.26405 299.14086 286.95067
 274.66948 262.57329 250.58910 239.89691 230.02572 221.13653 213.32534 206.33415
 200.17496 195.11977 191.70858 189.75739 188.80120 188.87201 189.71382 191.02863
 192.76044 194.86226 197.13207 199.49788 201.94969 204.43650 206.53131 208.38012
 210.01293 211.16474 211.40055 211.63536 211.57917 211.29098 210.93079 210.56760
 210.19141 209.90822 209.72303 209.59384 209.52865 209.86646 210.25927 210.65508
 211.45489 212.63970 213.89651 215.68632 217.62113 219.67094 221.77275 223.86256
 225.92937 228.02018 230.12399 232.23680 234.37261 236.55142 238.81423 241.19104
 243.81885 246.07666 248.08547 249.85728 251.28109 252.41090 253.23971 253.56252
 253.60633 253.38714 252.75395 251.70877 250.32158 248.48939 246.40520 244.24501
 242.04282 239.85363 237.68044 235.52625 233.39306 231.26687 229.29968 227.46349
 225.75330 224.23211 222.86892 221.64773 220.53654 219.50335 218.61416 217.76197
 217.01078 216.19759 215.30240 214.67321 214.13002 214.89583 216.86128 219.08882
 221.28020 223.41977 225.08144 225.61404 225.59534 226.02881 226.19513 225.64049
 225.77252 227.84140 231.74742 236.40448 241.11765 245.65349 249.89650 253.73802
 257.13095 260.19650 263.02274 265.58765 267.85101 269.93344 272.06241 274.35132
 276.54776 278.67087 280.51877 282.14136 283.54556 284.78793 285.92142 286.94824
 287.87180 288.69418 289.41263 290.32822
 366.78100 356.34006 345.77713 334.64819 323.05625 311.25532 299.13038 286.93844
 274.65551 262.55757 250.57163 239.87770 230.00476 221.11382 213.30089 206.30795
 200.14701 195.09008 191.67714 189.72420 188.76627 188.83533 189.67539 190.98846
 192.71852 194.81858 197.08665 199.45071 201.90077 204.38584 206.47890 208.32596
 209.95703 211.10709 211.34115 211.57422 211.51628 211.22634 210.86441 210.49947
 210.12154 209.83660 209.64966 209.51873 209.45179 209.78785 210.17892 210.57298
 211.37104 212.55411 213.80917 215.59723 217.53030 219.57836 221.67842 223.76649
 225.83155 227.92061 230.02268 232.13374 234.26780 236.44487 238.70593 241.08099
 243.70706 245.96312 247.97018 249.74025 251.16231 252.29037 253.11744 253.43850
 253.48056 253.25963 252.62469 251.57775 250.18882 248.35488 246.26894 244.10701
 241.90307 239.71213 237.53720 235.38126 233.24632 231.11839 229.14945 227.31151
 225.59958 224.07664 222.71170 221.48877 220.37583 219.34089 218.44996 217.59602
 216.84308 216.02815 215.13121 214.50027 213.95534 214.80345 216.86513 219.10110
 220.99959 223.17436 225.05165 225.63080 225.52635 225.58536 225.98434 225.49861
 226.25539 228.07637 231.83574 236.42323 241.10963 245.62912 249.84146 253.64839
 257.03610 260.10266 262.94373 265.56702 267.92944 270.06961 272.08087 273.99997
 275.76151 277.33035 278.74255 280.07822 281.30576 282.46616 283.52628 284.48669
 285.35046 286.11966 286.79160 287.64792
 366.78100 356.33981 345.77661 334.64742 323.05523 311.25404 299.12884 286.93665
 274.65346 262.55526 250.56907 239.87488 230.00168 221.11049 213.29730 206.30411
 200.14291 195.08572 191.67253 189.71933 188.76114 188.82995 189.66975 190.98256
 192.71237 194.81218 197.07998 199.44379 201.89360 204.37840 206.47121 208.31802
 209.94882 211.09863 211.33244 211.56525 211.50705 211.21686 210.85467 210.48947
 210.11128 209.82609 209.63890 209.50770 209.44051 209.77632 210.16712 210.56093
 211.35874 212.54154 213.79635 215.58416 217.51697 219.56477 221.66458 223.75239
 225.81719 227.90600 230.00781 232.11861 234.25242 236.42923 238.69004 241.06484
 243.69065 245.94646 247.95326 249.72307 251.14488 252.27268 253.09949 253.42030
 253.46211 253.24091 252.60572 251.55853 250.16933 248.33514 246.24895 244.08676
 241.88256 239.69137 237.51618 235.35998 233.22479 231.09660 229.12740 227.28921
 225.57702 224.05383 222.68863 221.46544 220.35225 219.31705 218.42586 217.57167
 216.81847 216.00328 215.10609 214.47490 213.92970 214.79112 216.85033 219.14305
 221.01521 222.94569 224.89619 225.63422 225.52802 225.55713 225.99734 225.46599
 226.13266 227.63538 231.75243 236.41519 241.14699 245.70035 249.94528 253.76585
 257.12540 260.12610 262.91418 265.52368 267.89487 270.03320 272.04187 273.98419
 275.77335 277.34830 278.70804 279.82971 280.86755 281.90555 282.87570 283.85410
 284.74063 285.53009 286.21976 287.09863
 366.78100 356.33954 345.77607 334.64661 323.05415 311.25268 299.12722 286.93476
 274.65129 262.55283 250.56637 239.87190 229.99844 221.10698 213.29352 206.30005
 200.13859 195.08113 191.66766 189.71420 188.75574 188.82427 189.66381 190.97635
 192.70588 194.80542 197.07296 199.43649 201.88603 204.37057 206.46310 208.30964
 209.94018 211.08971 211.32325 211.55579 211.49732 211.20686 210.84440 210.47893
 210.10047 209.81501 209.62755 209.49608 209.42862 209.76416 210.15469 210.54823
 211.34577 212.52830 213.78284 215.57038 217.50291 219.55045 221.64999 223.73752
 225.80206 227.89060 229.99213 232.10267 234.23621 236.41274 238.67328 241.04782
 243.67335 245.92889 247.93543 249.70497 251.12650 252.25404 253.08058 253.40111
 253.44265 253.22119 252.58572 251.53826 250.14880 248.31433 246.22787 244.06541
 241.86094 239.66948 237.49402 235.33755 233.20209 231.07363 229.10416 227.26570
 225.55324 224.02977 222.66431 221.44085 220.32739 219.29192 218.40046 217.54600
 216.79253 215.97707 215.07961 214.44814 213.90268 214.78795 216.90987 219.11594
 220.96082 222.80051 224.86626 225.58292 225.43431 225.45723 225.82457 225.83775
 226.22350 227.76750 231.76709 236.42073 241.15819 245.72279 249.97496 253.79404
 257.13245 260.11627 262.90326 265.52734 267.91077 270.04880 272.07291 274.00726
 275.78827 277.36801 278.71808 279.90189 281.10385 282.21317 283.26376 284.22345
 285.08658 285.85522 286.52667 287.38235
 366.78100 356.34006 345.77711 334.64817 323.05623 311.25528 299.13034 286.93839
 274.65545 262.55751 250.57156 239.87762 230.00468 221.11373 213.30079 206.30785
 200.14690 195.08996 191.67701 189.72407 188.76613 188.83518 189.67524 190.98830
 192.71835 194.81841 197.08647 199.45052 201.90058 204.38563 206.47869 208.32575
 209.95680 211.10686 211.34092 211.57397 211.51603 211.22609 210.86414 210.49920
 210.12125 209.83631 209.64937 209.51842 209.45148 209.78754 210.17859 210.57265
 211.37071 212.55376 213.80882 215.59687 217.52993 219.57799 221.67804 223.76610
 225.83116 227.92021 230.02227 232.13333 234.26738 236.44444 238.70549 241.08055
 243.70661 245.96266 247.96972 249.73978 251.16183 252.28989 253.11694 253.43800
 253.48006 253.25911 252.62417 251.57723 250.18828 248.35434 246.26840 244.10645
 241.90251 239.71156 237.53662 235.38068 233.24573 231.11779 229.14885 227.31090
 225.59896 224.07602 222.71107 221.48813 220.37518 219.34024 218.44930 217.59535
 216.84241 216.02747 215.13052 214.49958 213.95464 214.82008 216.89908 219.19868
 220.83157 222.77094 224.96677 225.43478 225.26381 225.27199 225.70540 226.01877
 226.33263 227.87845 231.81531 236.43951 241.17668 245.73509 249.97617 253.77898
 257.10236 260.09988 262.92795 265.59317 267.99808 270.12903 272.12631 274.03168
 275.78543 277.32455 278.74246 280.09821 281.30991 282.41479 283.45224 284.39984
 285.25211 286.01105 286.67404 287.51895
 366.78100 356.34120 345.77940 334.65160 323.06080 311.26100 299.13719 286.94639
 274.66459 262.56779 250.58299 239.89019 230.01839 221.12859 213.31679 206.32499
 200.16519 195.10938 191.69758 189.74578 188.78898 188.85918 189.70038 191.01458
 192.74578 194.84698 197.11618 199.48138 201.93257 204.41877 206.51297 208.36117
 209.99337 211.14457 211.37977 211.61397 211.55717 211.26837 210.90757 210.54376
 210.16696 209.88316 209.69736 209.56756 209.50176 209.83896 210.23116 210.62636
 211.42556 212.60976 213.86595 215.65515 217.58935 219.63855 221.73975 223.82895
 225.89515 227.98535 230.08855 232.20075 234.33595 236.51414 238.77634 241.15254
 243.77974 246.03694 248.04514 249.81634 251.23954 252.36874 253.19694 253.51914
 253.56233 253.34253 252.70873 251.66293 250.27513 248.44233 246.35753 244.19673
 241.99393 239.80413 237.63033 235.47552 233.34172 231.21492 229.24712 227.41032
 225.69952 224.17772 222.81392 221.59212 220.48032 219.44652 218.55671 217.70391
 216.95211 216.13831 215.24251 214.61271 214.06891 214.88481 216.82579 219.24644
 220.92809 222.88612 224.93207 225.32710 225.13016 225.09096 225.57985 225.96819
 226.49286 228.08162 231.89055 236.46379 241.20976 245.76501 249.99861 253.80016
 257.12415 260.11465 262.94534 265.60770 268.02090 270.17853 272.18320 274.08664
 275.84854 277.41776 278.76901 279.99063 281.14581 282.20566 283.21771 284.13495
 284.95615 285.68741 286.32623 287.14032
 366.78100 356.34102 345.77904 334.65107 323.06009 311.26011 299.13613 286.94515
 274.66318 262.56620 250.58122 239.88824 230.01626 221.12629 213.31431 206.32233
 200.16235 195.10637 191.69439 189.74242 188.78544 188.85546 189.69648 191.01050
 192.74153 194.84255 197.11157 199.47659 201.92761 204.41364 206.50766 208.35568
 209.98770 211.13872 211.37375 211.60777 211.55079 211.26181 210.90083 210.53686
 210.15988 209.87590 209.68992 209.55994 209.49397 209.83099 210.22301 210.61803
 211.41705 212.60107 213.85710 215.64612 217.58014 219.62916 221.73018 223.81921
 225.88523 227.97525 230.07827 232.19029 234.32532 236.50334 238.76536 241.14138
 243.76840 246.02543 248.03345 249.80447 251.22749 252.35651 253.18454 253.50656
 253.54958 253.32960 252.69562 251.64964 250.26167 248.42869 246.34371 244.18273
 241.97975 239.78978 237.61580 235.46082 233.32684 231.19986 229.23189 227.39491
 225.68393 224.16195 222.79797 221.57600 220.46402 219.43004 218.54006 217.68708
 216.93511 216.12113 215.22515 214.59517 214.05119 214.88785 216.86795 219.15862
 221.02837 222.93166 224.79193 225.30659 225.07039 224.95773 225.39294 225.96085
 226.56522 228.22820 231.95920 236.51593 241.25169 245.81343 250.04514 253.85765
 257.18509 260.16843 262.98135 265.62341 268.01752 270.16422 272.17636 274.09009
 275.87473 277.46826 278.86038 280.06604 281.17032 282.22269 283.21432 284.13159
 284.94348 285.66898 286.30276 287.11047
 366.78100 356.34122 345.77944 334.65165 323.06087 311.26109 299.13731 286.94652
 274.66474 262.56796 250.58318 239.89039 230.01861 221.12883 213.31705 206.32526
 200.16548 195.10970 191.69792 189.74613 188.78935 188.85957 189.70079 191.01500
 192.74622 194.84744 197.11666 199.48187 201.93309 204.41931 206.51353 208.36174
 209.99396 211.14518 211.38040 211.61461 211.55783 211.26905 210.90827 210.54448
 210.16770 209.88392 209.69814 209.56835 209.50257 209.83979 210.23201 210.62722
 211.42644 212.61066 213.86688 215.65610 217.59031 219.63953 221.74075 223.82997
 225.89618 227.98640 230.08962 232.20184 234.33705 236.51527 238.77749 241.15371
 243.78092 246.03814 248.04636 249.81758 251.24079 252.37001 253.19823 253.52045
 253.56366 253.34388 252.71010 251.66432 250.27653 248.44375 246.35897 244.19819
 241.99540 239.80562 237.63184 235.47706 233.34327 231.21649 229.24871 227.41193
 225.70114 224.17936 222.81558 221.59380 220.48201 219.44823 218.55845 217.70567
 216.95388 216.14010 215.24432 214.61454 214.07076 214.90904 216.89671 219.14003
 221.00359 222.86253 224.70364 225.28313 224.97530 224.81792 225.19897 225.97563
 226.63661 228.32822 232.00703 236.56145 241.30128 245.86420 250.09572 253.91054
 257.24384 260.23047 263.03497 265.65906 268.02591 270.15594 272.16803 274.08685
 275.88232 277.48685 278.89990 280.13245 281.27643 282.33426 283.32648 284.25409
 285.09799 285.84976 286.50647 287.34338
 366.78100 356.34176 345.78052 334.65329 323.06305 311.26381 299.14057 286.95033
 274.66909 262.57286 250.58862 239.89638 230.02514 221.13590 213.32466 206.33343
 200.17419 195.11895 191.70771 189.75647 188.80023 188.87100 189.71276 191.02752
 192.75928 194.86104 197.13080 199.49657 201.94833 204.43509 206.52985 208.37861
 210.01137 211.16314 211.39890 211.63366 211.57742 211.28918 210.92894 210.56571
 210.18947 209.90623 209.72099 209.59175 209.52651 209.86428 210.25704 210.65280
 211.45256 212.63732 213.89408 215.68385 217.61861 219.66837 221.77013 223.85989
 225.92665 228.01742 230.12118 232.23394 234.36970 236.54846 238.81122 241.18799
 243.81575 246.07351 248.08227 249.85403 251.27779 252.40756 253.23632 253.55908
 253.60284 253.38360 252.75036 251.70513 250.31789 248.48565 246.40141 244.24117
 242.03893 239.84970 237.67646 235.52222 233.38898 231.26274 229.29550 227.45927
 225.74903 224.22779 222.86455 221.64331 220.53207 219.49884 218.60960 217.75736
 217.00612 216.19288 215.29764 214.66841 214.12517 214.94557 216.88559 219.16841
 220.98604 222.86415 224.66322 225.18352 224.84410 224.65926 225.05843 225.93219
 226.71715 228.47916 232.09470 236.63249 241.36626 245.93382 250.16283 253.97893
 257.30542 260.28375 263.08148 265.69595 268.05029 270.17227 272.18274 274.10010
 275.88937 277.48032 278.87537 280.15518 281.33884 282.39697 283.38467 284.30182
 285.13309 285.87244 286.51831 287.34140
 366.78100 356.34187 345.78074 334.65362 323.06349 311.26436 299.14123 286.95111
 274.66998 262.57385 250.58972 239.89759 230.02647 221.13734 213.32621 206.33508
 200.17595 195.12083 191.70970 189.75857 188.80244 188.87332 189.71519 191.03006
 192.76193 194.86380 197.13368 199.49955 201.95142 204.43829 206.53316 208.38204
 210.01491 211.16678 211.40265 211.63753 211.58140 211.29327 210.93314 210.57001
 210.19389 209.91076 209.72563 209.59650 209.53137 209.86925 210.26212 210.65799
 211.45786 212.64274 213.89961 215.68948 217.62435 219.67422 221.77610 223.86597
 225.93284 228.02371 230.12758 232.24046 234.37633 236.55520 238.81807 241.19495
 243.82282 246.08069 248.08956 249.86143 251.28531 252.41518 253.24405 253.56692
 253.61079 253.39167 252.75854 251.71341 250.32628 248.49416 246.41003 244.24990
 242.04777 239.85864 237.68552 235.53139 233.39826 231.27213 229.30501 227.46888
 225.75875 224.23762 222.87449 221.65337 220.54224 219.50911 218.61998 217.76785
 217.01673 216.20360 215.30847 214.67934 214.13622 214.95970 216.90530 219.16379
 221.00735 222.90778 224.60919 225.05687 224.71173 224.50821 224.94028 225.87219
 226.76659 228.61435 232.19350 236.72017 241.44337 246.00850 250.23582 254.05588
 257.37399 260.33850 263.12570 265.72821 268.07495 270.19315 272.21085 274.13498
 275.91177 277.48447 278.85443 280.14066 281.31503 282.36984 283.35522 284.26410
 285.08313 285.81027 286.44516 287.25427
 366.78100 356.34188 345.78075 334.65363 323.06351 311.26439 299.14126 286.95114
 274.67002 262.57390 250.58977 239.89765 230.02653 221.13741 213.32628 206.33516
 200.17604 195.12091 191.70979 189.75867 188.80255 188.87342 189.71530 191.03018
 192.76206 194.86393 197.13381 199.49969 201.95157 204.43844 206.53332 208.38220
 210.01507 211.16695 211.40283 211.63771 211.58158 211.29346 210.93334 210.57022
 210.19409 209.91097 209.72585 209.59673 209.53160 209.86948 210.26236 210.65823
 211.45811 212.64299 213.89987 215.68974 217.62462 219.67450 221.77638 223.86625
 225.93313 228.02401 230.12789 232.24076 234.37664 236.55552 238.81840 241.19527
 243.82315 246.08103 248.08990 249.86178 251.28566 252.41554 253.24441 253.56729
 253.61117 253.39205 252.75892 251.71380 250.32668 248.49456 246.41043 244.25031
 242.04819 239.85906 237.68594 235.53182 233.39870 231.27257 229.30545 227.46933
 225.75921 224.23808 222.87496 221.65384 220.54272 219.50959 218.62047 217.76835
 217.01722 216.20410 215.30898 214.67986 214.13673 214.96933 216.93642 219.14159
 221.03049 222.93074 224.52843 224.93549 224.58646 224.36511 224.81947 225.82326
 226.78432 228.70636 232.29095 236.81949 241.53642 246.09406 250.31169 254.11726
 257.43408 260.40042 263.18112 265.76608 268.09381 270.20563 272.23389 274.16812
 275.94128 277.49539 278.83954 280.09167 281.27026 282.32440 283.30612 284.20816
 285.02209 285.73309 286.36667 287.17407
 366.78100 356.34197 345.78094 334.65390 323.06387 311.26484 299.14181 286.95178
 274.67075 262.57471 250.59068 239.89865 230.02762 221.13859 213.32756 206.33652
 200.17749 195.12246 191.71143 189.76040 188.80437 188.87533 189.71730 191.03227
 192.76424 194.86621 197.13618 199.50214 201.95411 204.44108 206.53605 208.38502
 210.01799 211.16995 211.40592 211.64089 211.58486 211.29683 210.93679 210.57376
 210.19773 209.91470 209.72967 209.60064 209.53560 209.87357 210.26654 210.66251
 211.46248 212.64745 213.90441 215.69438 217.62935 219.67932 221.78129 223.87126
 225.93822 228.02919 230.13316 232.24613 234.38210 236.56107 238.82403 241.20100
 243.82897 246.08694 248.09591 249.86787 251.29184 252.42181 253.25078 253.57375
 253.61772 253.39868 252.76565 251.72062 250.33359 248.50156 246.41753 244.25749
 242.05546 239.86643 237.69340 235.53937 233.40634 231.28030 229.31327 227.47724
 225.76721 224.24618 222.88315 221.66211 220.55108 219.51805 218.62902 217.77699
 217.02596 216.21292 215.31789 214.68886 214.14583 214.98280 216.96027 219.12105
 221.04718 222.93463 224.43222 224.81244 224.47610 224.23700 224.68089 225.76129
 226.79178 228.77643 232.39307 236.92963 241.63971 246.18610 250.39326 254.18509
 257.49612 260.46274 263.23984 265.80502 268.11560 270.23117 272.27039 274.20877
 275.96671 277.47937 278.78900 280.03030 281.21069 282.26437 283.24478 284.14630
 284.95544 285.66708 286.29202 287.09714
 366.78100 356.34212 345.78123 334.65435 323.06446 311.26558 299.14269 286.95281
 274.67192 262.57604 250.59215 239.90027 230.02938 221.14050 213.32961 206.33873
 200.17984 195.12496 191.71407 189.76319 188.80730 188.87842 189.72053 191.03565
 192.76777 194.86988 197.14000 199.50611 201.95823 204.44534 206.54046 208.38957
 210.02269 211.17480 211.41092 211.64603 211.59015 211.30226 210.94238 210.57949
 210.20361 209.92072 209.73584 209.60695 209.54207 209.88019 210.27330 210.66942
 211.46953 212.65465 213.91176 215.70188 217.63699 219.68711 221.78922 223.87934
 225.94645 228.03757 230.14168 232.25480 234.39091 236.57003 238.83314 241.21026
 243.83837 246.09649 248.10560 249.87772 251.30184 252.43195 253.26107 253.58418
 253.62830 253.40941 252.77653 251.73164 250.34476 248.51287 246.42899 244.26910
 242.06722 239.87833 237.70545 235.55156 233.41868 231.29279 229.32591 227.49002
 225.78014 224.25925 222.89637 221.67549 220.56460 219.53172 218.64283 217.79095
 217.04006 216.22718 215.33229 214.70341 214.16052 214.99811 216.97699 219.10701
 221.04881 222.92932 224.35271 224.69083 224.34448 224.08835 224.56442 225.69431
 226.77718 228.83730 232.50182 237.04716 241.74968 246.28378 250.47774 254.25607
 257.55630 260.52054 263.29135 265.83676 268.13544 270.26523 272.32761 274.27817
 276.03308 277.54782 278.85275 279.99182 281.01520 282.01801 282.96707 283.84201
 284.66650 285.40808 286.03253 286.82581
 366.78100 356.34238 345.78176 334.65514 323.06552 311.26690 299.14428 286.95467
 274.67405 262.57843 250.59481 239.90319 230.03257 221.14395 213.33333 206.34271
 200.18409 195.12947 191.71885 189.76823 188.81261 188.88400 189.72638 191.04176
 192.77414 194.87652 197.14690 199.51328 201.96566 204.45304 206.54842 208.39780
 210.03118 211.18356 211.41994 211.65533 211.59971 211.31209 210.95247 210.58985
 210.21423 209.93161 209.74699 209.61837 209.55375 209.89213 210.28551 210.68189
 211.48227 212.66766 213.92504 215.71542 217.65080 219.70118 221.80356 223.89394
 225.96132 228.05270 230.15708 232.27046 234.40684 236.58622 238.84961 241.22699
 243.85537 246.11375 248.12313 249.89551 251.31989 252.45027 253.27965 253.60303
 253.64741 253.42879 252.79617 251.75155 250.36494 248.53332 246.44970 244.29008
 242.08846 239.89984 237.72722 235.57360 233.44098 231.31536 229.34874 227.51312
 225.80350 224.28288 222.92027 221.69965 220.58903 219.55641 218.66779 217.81617
 217.06555 216.25293 215.35831 214.72969 214.18707 215.01985 216.98738 219.10612
 221.04007 222.89697 224.28532 224.60983 224.23439 223.88098 224.35922 225.66998
 226.86627 228.91824 232.60153 237.16577 241.86314 246.38553 250.56572 254.32880
 257.61819 260.57974 263.34439 265.86829 268.15219 270.28964 272.36588 274.31723
 276.04822 277.52734 278.79083 279.89700 280.95993 281.99615 282.95071 283.82169
 284.63583 285.38202 286.00394 286.79642
 366.78100 356.34292 345.78284 334.65676 323.06768 311.26960 299.14752 286.95844
 274.67836 262.58328 250.60020 239.90911 230.03903 221.15095 213.34087 206.35079
 200.19271 195.13863 191.72855 189.77847 188.82339 188.89531 189.73823 191.05415
 192.78707 194.88999 197.16091 199.52783 201.98075 204.46867 206.56459 208.41450
 210.04842 211.20134 211.43826 211.67418 211.61910 211.33202 210.97294 210.61086
 210.23578 209.95370 209.76962 209.64154 209.57746 209.91638 210.31030 210.70722
 211.50814 212.69406 213.95198 215.74290 217.67881 219.72973 221.83265 223.92357
 225.99149 228.08341 230.18833 232.30225 234.43917 236.61909 238.88301 241.26093
 243.88985 246.14877 248.15869 249.93161 251.35653 252.48745 253.31737 253.64129
 253.68621 253.46812 252.83604 251.79196 250.40588 248.57480 246.49172 244.33264
 242.13156 239.94348 237.77140 235.61832 233.48624 231.36116 229.39508 227.56000
 225.85092 224.33084 222.96876 221.74868 220.63860 219.60651 218.71843 217.86735
 217.11727 216.30519 215.41111 214.78303 214.24095 215.05711 216.98538 219.11790
 221.03677 222.82840 224.18607 224.54678 224.19279 223.72423 224.13451 225.45111
 226.81367 229.07213 232.76895 237.30917 241.99210 246.49786 250.65939 254.40520
 257.68402 260.64240 263.40302 265.91046 268.18387 270.32416 272.40924 274.35590
 276.05804 277.49503 278.71500 279.81265 280.90518 281.94165 282.89874 283.76956
 284.57794 285.31595 285.94727 286.73914
 366.78100 356.34362 345.78424 334.65886 323.07049 311.27311 299.15173 286.96335
 274.68397 262.58959 250.60721 239.91684 230.04746 221.16008 213.35070 206.36132
 200.20394 195.15056 191.74119 189.79181 188.83743 188.91005 189.75367 191.07029
 192.80391 194.90754 197.17916 199.54678 202.00040 204.48902 206.58564 208.43626
 210.07089 211.22451 211.46213 211.69875 211.64437 211.35799 210.99961 210.63824
 210.26386 209.98248 209.79910 209.67172 209.60834 209.94796 210.34259 210.74021
 211.54183 212.72845 213.98707 215.77869 217.71531 219.76694 221.87056 223.96218
 226.03080 228.12342 230.22904 232.34366 234.48129 236.66191 238.92653 241.30515
 243.93477 246.19439 248.20501 249.97864 251.40426 252.53588 253.36650 253.69112
 253.73674 253.51936 252.88799 251.84461 250.45923 248.62885 246.54647 244.38809
 242.18771 240.00033 237.82896 235.67658 233.54520 231.42082 229.45544 227.62106
 225.91268 224.39331 223.03193 221.81255 220.70317 219.67179 218.78441 217.93403
 217.18466 216.37328 215.47990 214.85252 214.31114 215.10435 216.97838 219.12601
 221.03455 222.76843 224.05901 224.42955 224.13696 223.63315 223.99265 225.23341
 226.68059 229.16301 232.93828 237.46756 242.12968 246.61301 250.75267 254.47873
 257.74454 260.70062 263.46030 265.95593 268.22070 270.36288 272.45221 274.39450
 276.07260 277.48026 278.67996 279.75815 280.80841 281.84219 282.79742 283.66986
 284.47623 285.20908 285.84946 286.64853
 366.78100 356.34404 345.78508 334.66013 323.07217 311.27521 299.15425 286.96629
 274.68734 262.59338 250.61142 239.92146 230.05250 221.16555 213.35659 206.36763
 200.21067 195.15771 191.74876 189.79980 188.84584 188.91888 189.76292 191.07996
 192.81401 194.91805 197.19009 199.55813 202.01217 204.50122 206.59826 208.44930
 210.08434 211.23838 211.47643 211.71347 211.65951 211.37355 211.01559 210.65464
 210.28068 209.99972 209.81676 209.68980 209.62685 209.96689 210.36193 210.75997
 211.56201 212.74906 214.00810 215.80014 217.73718 219.78922 221.89327 223.98531
 226.05435 228.14739 230.25343 232.36848 234.50652 236.68756 238.95260 241.33164
 243.96168 246.22173 248.23277 250.00681 251.43285 252.56489 253.39594 253.72098
 253.76702 253.55006 252.91910 251.87615 250.49119 248.66123 246.57927 244.42131
 242.22136 240.03440 237.86344 235.71148 233.58052 231.45657 229.49161 227.65765
 225.94969 224.43073 223.06978 221.85082 220.74186 219.71090 218.82394 217.97399
 217.22503 216.41407 215.52111 214.89415 214.35320 215.13730 216.98985 219.11176
 221.02596 222.74600 223.94339 224.26717 224.01735 223.54532 223.89909 225.06012
 226.54994 229.22296 233.10097 237.63281 242.27167 246.72935 250.84570 254.55069
 257.80356 260.75833 263.51813 266.00198 268.25742 270.39694 272.49026 274.42468
 276.07675 277.45468 278.63107 279.69308 280.74533 281.77725 282.73459 283.60822
 284.41086 285.14032 285.78110 286.58841
 366.78100 356.34428 345.78557 334.66085 323.07314 311.27642 299.15571 286.96799
 274.68928 262.59556 250.61384 239.92413 230.05541 221.16870 213.35998 206.37127
 200.21455 195.16184 191.75312 189.80440 188.85069 188.92397 189.76826 191.08554
 192.81983 194.92411 197.19639 199.56468 202.01896 204.50825 206.60553 208.45682
 210.09210 211.24639 211.48467 211.72195 211.66824 211.38252 211.02481 210.66409
 210.29038 210.00966 209.82695 209.70023 209.63751 209.97780 210.37308 210.77137
 211.57365 212.76094 214.02022 215.81251 217.74979 219.80207 221.90636 223.99864
 226.06793 228.16121 230.26750 232.38278 234.52106 236.70235 238.96763 241.34692
 243.97720 246.23749 248.24877 250.02306 251.44934 252.58162 253.41291 253.73819
 253.78448 253.56776 252.93705 251.89433 250.50962 248.67990 246.59818 244.44047
 242.24075 240.05404 237.88332 235.73161 233.60089 231.47718 229.51246 227.67874
 225.97103 224.45231 223.09160 221.87288 220.76417 219.73345 218.84673 217.99702
 217.24830 216.43759 215.54487 214.91816 214.37744 215.15950 217.00720 219.09146
 221.01358 222.72388 223.84695 224.11111 223.86578 223.42868 223.79532 224.91139
 226.44846 229.28462 233.26279 237.80107 242.41618 246.84764 250.94080 254.62550
 257.86533 260.81812 263.57916 266.05350 268.29898 270.43277 272.52438 274.45108
 276.07837 277.42548 278.57608 279.63232 280.70273 281.73618 282.69470 283.56839
 284.36761 285.09427 285.73267 286.54010
 366.78100 356.34463 345.78626 334.66189 323.07452 311.27815 299.15777 286.97040
 274.69203 262.59866 250.61729 239.92792 230.05955 221.17318 213.36481 206.37644
 200.22007 195.16769 191.75932 189.81095 188.85758 188.93121 189.77584 191.09347
 192.82810 194.93273 197.20536 199.57399 202.02862 204.51824 206.61587 208.46750
 210.10313 211.25776 211.49639 211.73402 211.68065 211.39528 211.03791 210.67754
 210.30416 210.02379 209.84142 209.71505 209.65268 209.99331 210.38894 210.78757
 211.59020 212.77783 214.03746 215.83008 217.76771 219.82034 221.92497 224.01760
 226.08723 228.18086 230.28749 232.40312 234.54175 236.72338 238.98900 241.36863
 243.99926 246.25989 248.27152 250.04615 251.47278 252.60541 253.43704 253.76267
 253.80930 253.59293 252.96255 251.92018 250.53581 248.70644 246.62507 244.46770
 242.26833 240.08196 237.91159 235.76022 233.62985 231.50647 229.54210 227.70873
 226.00136 224.48299 223.12262 221.90425 220.79588 219.76551 218.87914 218.02977
 217.28139 216.47102 215.57865 214.95228 214.41191 215.18573 217.01395 219.07724
 221.00780 222.68851 223.75565 223.97221 223.71202 223.29132 223.66393 224.76830
 226.37715 229.35504 233.42311 237.97159 242.56252 246.96783 251.04034 254.70538
 257.93256 260.88480 263.64810 266.11459 268.34460 270.47122 272.55954 274.47949
 276.08270 277.40063 278.52924 279.58481 280.66931 281.70520 282.66318 283.53751
 284.33588 285.05878 285.69556 286.50443
 366.78100 356.34503 345.78705 334.66308 323.07610 311.28013 299.16015 286.97318
 274.69520 262.60223 250.62126 239.93228 230.06431 221.17833 213.37036 206.38238
 200.22641 195.17443 191.76646 189.81849 188.86551 188.93954 189.78456 191.10259
 192.83761 194.94264 197.21566 199.58469 202.03971 204.52974 206.62777 208.47979
 210.11582 211.27084 211.50987 211.74789 211.69492 211.40994 211.05297 210.69300
 210.32002 210.04005 209.85807 209.73210 209.67012 210.01115 210.40717 210.80620
 211.60923 212.79725 214.05728 215.85030 217.78833 219.84135 221.94638 224.03940
 226.10943 228.20346 230.31048 232.42651 234.56553 236.74756 239.01358 241.39361
 244.02463 246.28566 248.29769 250.07271 251.49974 252.63276 253.46479 253.79081
 253.83784 253.62186 252.99189 251.94992 250.56594 248.73697 246.65599 244.49902
 242.30004 240.11407 237.94409 235.79312 233.66314 231.54017 229.57620 227.74322
 226.03625 224.51827 223.15830 221.94032 220.83235 219.80237 218.91640 218.06743
 217.31945 216.50948 215.61750 214.99153 214.45155 215.21465 217.01750 219.06625
 221.00468 222.64989 223.66302 223.83167 223.55243 223.14238 223.51190 224.63019
 226.32668 229.43407 233.58293 238.14293 242.71014 247.09097 251.14522 254.79179
 258.00644 260.95700 263.71854 266.17548 268.40244 270.51050 272.59689 274.50360
 276.08636 277.38406 278.50079 279.55710 280.64642 281.68353 282.64218 283.51767
 284.31244 285.03186 285.66638 286.48422
 366.78100 356.34536 345.78772 334.66408 323.07744 311.28180 299.16216 286.97552
 274.69788 262.60525 250.62461 239.93597 230.06833 221.18269 213.37505 206.38741
 200.23177 195.18013 191.77249 189.82485 188.87221 188.94657 189.79193 191.11029
 192.84565 194.95102 197.22438 199.59374 202.04910 204.53946 206.63782 208.49018
 210.12654 211.28190 211.52126 211.75962 211.70698 211.42234 211.06570 210.70606
 210.33342 210.05379 209.87215 209.74651 209.68487 210.02623 210.42259 210.82195
 211.62531 212.81367 214.07403 215.86739 217.80575 219.85911 221.96447 224.05783
 226.12819 228.22256 230.32992 232.44628 234.58564 236.76800 239.03436 241.41472
 244.04608 246.30744 248.31980 250.09516 251.52252 252.65588 253.48824 253.81460
 253.86196 253.64633 253.01669 251.97505 250.59141 248.76277 246.68213 244.52549
 242.32685 240.14121 237.97157 235.82093 233.69129 231.56865 229.60501 227.77237
 226.06573 224.54809 223.18846 221.97082 220.86318 219.83354 218.94790 218.09926
 217.35162 216.54198 215.65034 215.02470 214.48506 215.23981 217.02296 219.05855
 220.99739 222.61246 223.56900 223.67989 223.37759 222.98232 223.35106 224.50407
 226.29424 229.52386 233.74702 238.31363 242.85858 247.21803 251.25620 254.88481
 258.08737 261.03726 263.80237 266.24982 268.41702 270.55850 272.64676 274.53613
 276.09970 277.38025 278.48822 279.54736 280.63513 281.67224 282.63000 283.50476
 284.29721 285.01129 285.64392 286.46323
 366.78100 356.34568 345.78835 334.66503 323.07871 311.28339 299.16406 286.97774
 274.70042 262.60809 250.62777 239.93945 230.07213 221.18680 213.37948 206.39216
 200.23683 195.18551 191.77819 189.83086 188.87854 188.95322 189.79890 191.11757
 192.85325 194.95893 197.23260 199.60228 202.05796 204.54864 206.64731 208.49999
 210.13667 211.29234 211.53202 211.77070 211.71838 211.43405 211.07773 210.71841
 210.34608 210.06676 209.88544 209.76011 209.69879 210.04047 210.43715 210.83682
 211.64050 212.82918 214.08985 215.88353 217.82221 219.87589 221.98156 224.07524
 226.14592 228.24059 230.34827 232.46495 234.60463 236.78730 239.05398 241.43466
 244.06633 246.32801 248.34069 250.11636 251.54404 252.67772 253.51040 253.83707
 253.88475 253.66943 253.04010 251.99878 250.61546 248.78714 246.70681 244.55049
 242.35217 240.16684 237.99752 235.84720 233.71788 231.59555 229.63223 227.79991
 226.09358 224.57626 223.21694 221.99961 220.89229 219.86297 218.97765 218.12932
 217.38200 216.57268 215.68135 215.05603 214.51671 215.26227 217.02371 219.04974
 220.98729 222.58195 223.48622 223.52988 223.19130 222.80388 223.17401 224.37495
 226.26772 229.62340 233.91409 238.48265 243.00854 247.35103 251.37575 254.98668
 258.17950 261.13144 263.90576 266.33783 268.39337 270.63132 272.70209 274.57867
 276.13098 277.40369 278.50897 279.56207 280.63150 281.66476 282.62381 283.49561
 284.28656 285.00201 285.63126 286.44650
 366.78100 356.34608 345.78916 334.66624 323.08032 311.28540 299.16648 286.98056
 274.70364 262.61172 250.63180 239.94388 230.07696 221.19204 213.38512 206.39820
 200.24328 195.19236 191.78544 189.83852 188.88660 188.96168 189.80776 191.12684
 192.86292 194.96900 197.24308 199.61316 202.06924 204.56032 206.65940 208.51248
 210.14956 211.30564 211.54572 211.78480 211.73288 211.44896 211.09304 210.73412
 210.36220 210.08328 209.90236 209.77744 209.71652 210.05860 210.45568 210.85576
 211.65984 212.84892 214.11000 215.90408 217.84316 219.89724 222.00332 224.09740
 226.16848 228.26356 230.37164 232.48872 234.62879 236.81187 239.07895 241.46003
 244.09211 246.35419 248.36727 250.14335 251.57143 252.70551 253.53859 253.86567
 253.91375 253.69883 253.06991 252.02899 250.64607 248.81815 246.73823 244.58231
 242.38439 240.19947 238.03055 235.88063 233.75171 231.62979 229.66687 227.83495
 226.12903 224.61211 223.25319 222.03627 220.92935 219.90043 219.01551 218.16759
 217.42067 216.61175 215.72083 215.09591 214.55699 215.28825 217.01595 219.03316
 220.98036 222.56352 223.41837 223.39096 223.00285 222.60577 222.97145 224.22746
 226.23749 229.72743 234.08479 238.65593 243.16718 247.49692 251.50890 255.10114
 258.28052 261.22562 263.99359 266.41214 268.39471 270.70157 272.74088 274.60934
 276.16629 277.43698 278.53668 279.58130 280.63678 281.66821 282.62573 283.49872
 284.29184 285.00742 285.63684 286.45105
 366.78100 356.34661 345.79023 334.66784 323.08246 311.28807 299.16969 286.98430
 274.70792 262.61653 250.63714 239.94976 230.08337 221.19899 213.39260 206.40622
 200.25183 195.20145 191.79506 189.84867 188.89729 188.97290 189.81952 191.13913
 192.87575 194.98236 197.25698 199.62759 202.08420 204.57582 206.67543 208.52905
 210.16666 211.32328 211.56389 211.80351 211.75212 211.46873 211.11335 210.75496
 210.38358 210.10519 209.92481 209.80042 209.74003 210.08265 210.48026 210.88088
 211.68549 212.87511 214.13672 215.93134 217.87095 219.92556 222.03218 224.12679
 226.19841 228.29402 230.40264 232.52025 234.66087 236.84448 239.11209 241.49371
 244.12632 246.38894 248.40255 250.17917 251.60778 252.74240 253.57601 253.90362
 253.95224 253.73785 253.10947 252.06908 250.68670 248.85931 246.77993 244.62454
 242.42715 240.24277 238.07438 235.92500 233.79661 231.67523 229.71284 227.88146
 226.17607 224.65968 223.30130 222.08491 220.97853 219.95014 219.06576 218.21837
 217.47199 216.66360 215.77321 215.14883 214.61044 215.32483 217.01262 219.00850
 220.96848 222.54604 223.35010 223.24535 222.81053 222.39616 222.75229 224.07619
 226.21080 229.83211 234.25519 238.83386 243.33820 247.66083 251.66010 255.22995
 258.39221 261.32315 264.07416 266.45215 268.42923 270.80624 272.78815 274.63190
 276.20505 277.48914 278.59430 279.62518 280.65002 281.67508 282.63220 283.50455
 284.29791 285.01483 285.64285 286.45148
 366.78100 356.34707 345.79115 334.66922 323.08430 311.29037 299.17244 286.98752
 274.71159 262.62067 250.64174 239.95481 230.08889 221.20496 213.39904 206.41311
 200.25918 195.20926 191.80333 189.85741 188.90648 188.98255 189.82963 191.14970
 192.88678 194.99385 197.26892 199.64000 202.09707 204.58915 206.68922 208.54329
 210.18137 211.33844 211.57952 211.81959 211.76866 211.48574 211.13081 210.77289
 210.40196 210.12404 209.94411 209.82018 209.76026 210.10333 210.50141 210.90248
 211.70755 212.89763 214.15970 215.95478 217.89485 219.94992 222.05700 224.15207
 226.22415 228.32022 230.42929 232.54737 234.68844 236.87252 239.14059 241.52266
 244.15574 246.41881 248.43289 250.20996 251.63903 252.77411 253.60818 253.93626
 253.98533 253.77140 253.14348 252.10355 250.72163 248.89470 246.81577 244.66085
 242.46392 240.28000 238.11207 235.96314 233.83522 231.71429 229.75237 227.92144
 226.21651 224.70059 223.34266 222.12674 221.02081 219.99288 219.10896 218.26203
 217.51611 216.70818 215.81825 215.19433 214.65640 215.35764 217.01437 218.98671
 220.94766 222.51819 223.28308 223.09789 222.60793 222.17856 222.52968 223.92664
 226.19106 229.93756 234.42165 239.00989 243.51477 247.83534 251.82437 255.37129
 258.51901 261.43842 264.17120 266.47363 268.50650 270.84140 272.82898 274.65155
 276.23819 277.54175 278.65872 279.67859 280.69662 281.72260 282.67938 283.55435
 284.35071 285.06772 285.70175 286.51233
 366.78100 356.34737 345.79173 334.67010 323.08546 311.29183 299.17419 286.98956
 274.71392 262.62329 250.64465 239.95802 230.09238 221.20875 213.40311 206.41748
 200.26384 195.21421 191.80857 189.86294 188.91230 188.98867 189.83603 191.15640
 192.89376 195.00113 197.27649 199.64786 202.10522 204.59759 206.69795 208.55232
 210.19069 211.34805 211.58942 211.82978 211.77915 211.49651 211.14188 210.78424
 210.41361 210.13597 209.95634 209.83270 209.77307 210.11643 210.51480 210.91616
 211.72153 212.91189 214.17426 215.96962 217.90999 219.96535 222.07272 224.16808
 226.24045 228.33681 230.44618 232.56454 234.70591 236.89027 239.15864 241.54101
 244.17437 246.43774 248.45210 250.22947 251.65883 252.79420 253.62856 253.95693
 254.00629 253.79266 253.16502 252.12539 250.74375 248.91712 246.83848 244.68385
 242.48721 240.30358 238.13594 235.98731 233.85967 231.73904 229.77740 227.94677
 226.24213 224.72650 223.36886 222.15323 221.04760 220.01996 219.13633 218.28969
 217.54406 216.73642 215.84679 215.22315 214.68552 215.37804 217.01421 218.96725
 220.92778 222.48994 223.21512 222.95337 222.41122 221.95175 222.28320 223.77576
 226.18512 230.04849 234.58574 239.18567 243.69429 248.01825 252.00101 255.52425
 258.65427 261.55814 264.26413 266.54730 268.53876 270.82211 272.85391 274.66357
 276.25635 277.57321 278.69495 279.71323 280.76004 281.79184 282.75150 283.62579
 284.42624 285.15042 285.78613 286.60312
 366.78100 356.34748 345.79197 334.67045 323.08593 311.29242 299.17490 286.99039
 274.71487 262.62435 250.64584 239.95932 230.09380 221.21029 213.40477 206.41926
 200.26574 195.21622 191.81071 189.86519 188.91467 188.99116 189.83864 191.15913
 192.89661 195.00409 197.27958 199.65106 202.10854 204.60103 206.70151 208.55600
 210.19448 211.35196 211.59345 211.83393 211.78341 211.50090 211.14638 210.78887
 210.41835 210.14083 209.96132 209.83780 209.77828 210.12177 210.52025 210.92174
 211.72722 212.91770 214.18019 215.97567 217.91615 219.97164 222.07912 224.17460
 226.24709 228.34357 230.45306 232.57154 234.71302 236.89751 239.16599 241.54847
 244.18196 246.44544 248.45993 250.23741 251.66689 252.80238 253.63686 253.96534
 254.01483 253.80131 253.17380 252.13428 250.75276 248.92625 246.84773 244.69321
 242.49670 240.31318 238.14567 235.99715 233.86963 231.74912 229.78760 227.95708
 226.25257 224.73705 223.37954 222.16402 221.05850 220.03099 219.14747 218.30095
 217.55544 216.74792 215.85840 215.23489 214.69737 215.38628 217.01385 218.94981
 220.90498 222.47278 223.16287 222.80698 222.19202 221.70773 222.04346 223.61609
 226.16344 230.15099 234.74886 239.36597 243.88174 248.20499 252.17577 255.67691
 258.79156 261.67599 264.35501 266.65494 268.54584 270.84940 272.89520 274.68762
 276.27811 277.60251 278.72406 279.74585 280.81424 281.84998 282.80957 283.68753
 284.48907 285.21677 285.86105 286.68732
 366.78100 356.34759 345.79218 334.67076 323.08635 311.29294 299.17553 286.99112
 274.71570 262.62529 250.64688 239.96047 230.09506 221.21165 213.40623 206.42082
 200.26741 195.21800 191.81259 189.86717 188.91676 188.99335 189.84094 191.16153
 192.89911 195.00670 197.28229 199.65388 202.11147 204.60405 206.70464 208.55923
 210.19782 211.35541 211.59700 211.83758 211.78717 211.50476 211.15035 210.79294
 210.42252 210.14511 209.96570 209.84229 209.78288 210.12646 210.52505 210.92664
 211.73223 212.92282 214.18540 215.98099 217.92158 219.97717 222.08476 224.18035
 226.25293 228.34952 230.45911 232.57770 234.71929 236.90387 239.17246 241.55505
 244.18864 246.45223 248.46681 250.24440 251.67399 252.80958 253.64417 253.97275
 254.02234 253.80893 253.18152 252.14211 250.76070 248.93428 246.85587 244.70146
 242.50505 240.32164 238.15422 236.00581 233.87840 231.75799 229.79658 227.96616
 226.26175 224.74634 223.38893 222.17352 221.06810 220.04069 219.15728 218.31087
 217.56546 216.75805 215.86863 215.24522 214.70781 215.39308 217.01212 218.93108
 220.87402 222.44771 223.13129 222.68938 221.98102 221.44562 221.74249 223.45589
 226.17950 230.27342 234.92508 239.56122 244.07135 248.38379 252.33618 255.82005
 258.93216 261.80435 264.45584 266.73959 268.59180 270.87262 272.94257 274.73206
 276.31390 277.63834 278.75650 279.77371 280.84680 281.88394 282.84280 283.72360
 284.52768 285.26047 285.90756 286.74274
 366.78100 356.34777 345.79254 334.67132 323.08709 311.29386 299.17663 286.99240
 274.71718 262.62695 250.64872 239.96249 230.09727 221.21404 213.40881 206.42358
 200.27035 195.22113 191.81590 189.87067 188.92044 188.99721 189.84499 191.16576
 192.90353 195.01130 197.28708 199.65885 202.11662 204.60939 206.71016 208.56494
 210.20371 211.36148 211.60325 211.84402 211.79380 211.51157 211.15734 210.80011
 210.42988 210.15266 209.97343 209.85020 209.79097 210.13475 210.53352 210.93529
 211.74106 212.93183 214.19461 215.99038 217.93115 219.98692 222.09469 224.19047
 226.26324 228.36001 230.46978 232.58855 234.73033 236.91510 239.18387 241.56664
 244.20042 246.46419 248.47896 250.25673 251.68650 252.82228 253.65705 253.98582
 254.03559 253.82236 253.19514 252.15591 250.77468 248.94845 246.87023 244.71600
 242.51977 240.33654 238.16931 236.02109 233.89386 231.77363 229.81240 227.98217
 226.27795 224.76272 223.40549 222.19026 221.08503 220.05781 219.17458 218.32835
 217.58312 216.77590 215.88667 215.26344 214.72621 215.40526 217.00957 218.91286
 220.84084 222.40271 223.07228 222.61765 221.82114 221.04503 221.43091 223.42204
 226.25613 230.39337 235.09032 239.75674 244.25868 248.55951 252.49649 255.96112
 259.07446 261.94263 264.56363 266.79004 268.66373 270.87805 272.97107 274.77667
 276.34872 277.67847 278.81500 279.82355 280.85132 281.88242 282.84262 283.72253
 284.52924 285.26376 285.91501 286.76221
 366.78100 356.34789 345.79279 334.67168 323.08757 311.29447 299.17736 286.99325
 274.71814 262.62804 250.64993 239.96382 230.09872 221.21561 213.41050 206.42540
 200.27229 195.22318 191.81808 189.87297 188.92286 188.99976 189.84765 191.16854
 192.90643 195.01433 197.29022 199.66211 202.12001 204.61290 206.71379 208.56869
 210.20758 211.36547 211.60737 211.84826 211.79815 211.51605 211.16194 210.80483
 210.43472 210.15762 209.97851 209.85540 209.79630 210.14019 210.53908 210.94098
 211.74687 212.93776 214.20066 215.99655 217.93744 219.99334 222.10123 224.19712
 226.27001 228.36691 230.47680 232.59569 234.73759 236.92248 239.19137 241.57427
 244.20816 246.47205 248.48695 250.26484 251.69473 252.83063 253.66552 253.99441
 254.04430 253.83120 253.20409 252.16498 250.78388 248.95777 246.87966 244.72556
 242.52945 240.34634 238.17924 236.03113 233.90402 231.78392 229.82281 227.99270
 226.28859 224.77349 223.41638 222.20127 221.09617 220.06906 219.18595 218.33985
 217.59474 216.78763 215.89853 215.27542 214.73831 215.41156 217.00218 218.90222
 220.81905 222.35005 222.98997 222.52611 221.66772 220.69885 221.13271 223.32780
 226.29463 230.52223 235.25696 239.94832 244.45007 248.73447 252.65599 256.10614
 259.22037 262.09335 264.68768 266.85538 268.72253 270.89227 272.98773 274.81473
 276.37296 277.70416 278.83148 279.82544 280.87177 281.90427 282.86490 283.74557
 284.55209 285.28839 285.94183 286.79910
 366.78100 356.34789 345.79279 334.67168 323.08758 311.29447 299.17736 286.99326
 274.71815 262.62805 250.64994 239.96383 230.09873 221.21562 213.41052 206.42541
 200.27230 195.22320 191.81809 189.87299 188.92288 188.99977 189.84767 191.16856
 192.90646 195.01435 197.29024 199.66214 202.12003 204.61293 206.71382 208.56872
 210.20761 211.36550 211.60740 211.84829 211.79819 211.51608 211.16197 210.80487
 210.43476 210.15766 209.97855 209.85544 209.79634 210.14023 210.53913 210.94102
 211.74691 212.93781 214.20070 215.99660 217.93749 219.99338 222.10128 224.19717
 226.27007 228.36696 230.47685 232.59575 234.73764 236.92254 239.19143 241.57432
 244.20822 246.47211 248.48701 250.26490 251.69479 252.83069 253.66558 253.99448
 254.04437 253.83126 253.20416 252.16505 250.78395 248.95784 246.87973 244.72563
 242.52952 240.34642 238.17931 236.03120 233.90410 231.78399 229.82289 227.99278
 226.28867 224.77357 223.41646 222.20136 221.09625 220.06915 219.18604 218.33993
 217.59483 216.78772 215.89862 215.27551 214.73840 215.40926 216.99419 218.89006
 220.80302 222.30408 222.89919 222.39337 221.48892 220.41142 220.85287 223.19275
 226.31154 230.65654 235.43205 240.13609 244.63947 248.91374 252.81775 256.24533
 259.35873 262.24649 264.84094 266.93649 268.78217 270.89703 273.00305 274.85754
 276.41089 277.73169 278.82947 279.79919 280.85339 281.88474 282.84424 283.72327
 284.52856 285.26523 285.91678 286.78189
 366.78100 356.34785 345.79269 334.67154 323.08739 311.29423 299.17708 286.99293
 274.71777 262.62762 250.64947 239.96331 230.09816 221.21501 213.40985 206.42470
 200.27155 195.22239 191.81724 189.87208 188.92193 188.99878 189.84662 191.16747
 192.90532 195.01316 197.28901 199.66086 202.11870 204.61155 206.71240 208.56724
 210.20609 211.36394 211.60578 211.84663 211.79648 211.51432 211.16017 210.80302
 210.43286 210.15571 209.97656 209.85340 209.79425 210.13810 210.53694 210.93879
 211.74464 212.93548 214.19833 215.99418 217.93502 219.99087 222.09872 224.19456
 226.26741 228.36425 230.47410 232.59295 234.73479 236.91964 239.18849 241.57133
 244.20518 246.46903 248.48387 250.26172 251.69157 252.82741 253.66226 253.99111
 254.04095 253.82780 253.20065 252.16149 250.78034 248.95419 246.87603 244.72188
 242.52573 240.34257 238.17542 236.02727 233.90011 231.77996 229.81881 227.98865
 226.28450 224.76935 223.41219 222.19704 221.09189 220.06473 219.18158 218.33542
 217.59027 216.78312 215.89396 215.27081 214.73366 215.40399 216.98775 218.88074
 220.77980 222.26538 222.81766 222.23749 221.27481 220.14517 220.58766 223.05894
 226.33313 230.79301 235.61122 240.32861 244.82919 249.09740 252.98589 256.37991
 259.47794 262.36646 264.98209 267.07736 268.81787 270.87488 273.04535 274.92047
 276.47360 277.78238 278.86749 279.80670 280.78424 281.79672 282.75314 283.62869
 284.43106 285.16537 285.81668 286.69131
 366.78100 356.34788 345.79275 334.67163 323.08750 311.29438 299.17725 286.99313
 274.71800 262.62788 250.64975 239.96363 230.09851 221.21538 213.41026 206.42513
 200.27201 195.22288 191.81776 189.87263 188.92251 188.99938 189.84726 191.16813
 192.90601 195.01389 197.28976 199.66164 202.11951 204.61239 206.71326 208.56814
 210.20701 211.36489 211.60676 211.84764 211.79752 211.51539 211.16127 210.80414
 210.43402 210.15689 209.97777 209.85464 209.79552 210.13939 210.53827 210.94014
 211.74602 212.93690 214.19977 215.99565 217.93652 219.99240 222.10027 224.19615
 226.26902 228.36590 230.47577 232.59465 234.73653 236.92140 239.19028 241.57315
 244.20703 246.47090 248.48578 250.26365 251.69353 252.82940 253.66428 253.99315
 254.04303 253.82991 253.20278 252.16366 250.78253 248.95641 246.87828 244.72416
 242.52803 240.34491 238.17778 236.02966 233.90254 231.78241 229.82129 227.99116
 226.28704 224.77191 223.41479 222.19966 221.09454 220.06741 219.18429 218.33816
 217.59304 216.78592 215.89679 215.27367 214.73654 215.40201 216.97426 218.87347
 220.75896 222.22072 222.74054 222.09488 221.05565 219.88245 220.32027 222.91156
 226.36177 230.94270 235.79146 240.51663 245.01375 249.26808 253.13835 256.50952
 259.59171 262.45972 265.07401 267.25284 268.82480 270.95197 273.13501 274.99927
 276.55353 277.86035 278.95395 279.87646 280.71423 281.63321 282.57095 283.44250
 284.24048 284.97684 285.63724 286.52481
 366.78100 356.34761 345.79222 334.67083 323.08644 311.29304 299.17565 286.99126
 274.71587 262.62548 250.64709 239.96070 230.09531 221.21192 213.40653 206.42113
 200.26774 195.21835 191.81296 189.86757 188.91718 188.99379 189.84140 191.16201
 192.89962 195.00722 197.28283 199.65444 202.11205 204.60466 206.70527 208.55988
 210.19849 211.35610 211.59771 211.83831 211.78792 211.50553 211.15114 210.79375
 210.42336 210.14597 209.96658 209.84319 209.78380 210.12740 210.52601 210.92762
 211.73323 212.92384 214.18645 215.98206 217.92267 219.97828 222.08589 224.18149
 226.25410 228.35071 230.46032 232.57893 234.72054 236.90515 239.17376 241.55637
 244.18998 246.45358 248.46819 250.24580 251.67541 252.81102 253.64563 253.97424
 254.02385 253.81046 253.18307 252.14367 250.76228 248.93589 246.85750 244.70311
 242.50672 240.32333 238.15594 236.00755 233.88016 231.75976 229.79837 227.96798
 226.26359 224.74820 223.39081 222.17542 221.07003 220.04264 219.15925 218.31285
 217.56746 216.76007 215.87068 215.24729 214.70990 215.38429 216.97763 218.84033
 220.75038 222.19728 222.62384 221.92630 220.86031 219.67462 220.09071 222.77217
 226.38855 231.07622 235.95760 240.67528 245.17494 249.42111 253.26079 256.60623
 259.67221 262.51398 265.09985 267.34677 269.09308 271.14319 273.25195 275.09586
 276.66245 277.98758 279.10083 280.02499 280.81189 281.55115 282.39359 283.24210
 284.02686 284.74612 285.39963 286.32382
 354.97500 345.04800 334.58700 324.11500 313.32600 302.53700 291.65000 280.76700
 269.93100 259.19300 248.62200 238.61700 229.08700 220.35500 212.54000 205.53500
 199.46400 194.49300 191.14300 189.19000 188.08900 188.01400 188.72400 189.90600
 191.46900 193.38200 195.40300 197.55600 199.80700 202.06000 204.28800 206.47900
 208.55200 210.37800 212.02500 213.65900 214.99800 216.11800 217.17200 218.25900
 219.49400 220.64500 221.67900 222.61400 223.54500 224.98200 226.57100 228.19000
 229.79700 231.81100 233.86500 235.97200 238.24200 240.55300 242.89900 245.25300
 247.48800 249.53500 251.36600 252.84800 254.09800 255.16700 256.02700 256.25300
 256.09500 255.54300 253.93500 252.56600 251.38400 250.24500 249.05200 247.70100
 246.01600 243.99600 241.78400 239.39300 236.81300 234.22300 231.65800 229.14400
 226.74000 224.47300 222.33500 220.32500 218.44000 216.67700 214.96200 213.47200
 212.20000 211.10800 210.26000 209.63900 209.24400 209.03100 209.05800 209.33300
 209.78400 210.62600 211.33100 212.39100 213.62500 214.84668 217.72949 219.47640
 220.32566 220.86828 220.88710 220.27371 219.43733 218.84250 219.04934 220.86203
 222.60583 225.72206 229.03064 232.61777 236.12270 239.51333 242.70767 245.68587
 248.41061 250.90679 253.19353 254.91714 256.48655 257.94920 259.39966 260.69384
 261.81714 262.77997 263.71679 264.54570 265.26305 265.89772 266.47676 267.00133
 267.47312 267.89325 268.26027 268.72800
