|-------------------------------------------------------------------------|
|   File Name : in_temp.dat
|   Subject   : temperature profiles used for initial guess atmosphere
|   File Type : input of gmtr
|   Data Type : atmospherical data
|   Author/s  : WRF-Chem
|   Date      : Fri Jul 26 15:39:24 2024
|-------------------------------------------------------------------------|

 WRF-Chem temperature
#
 values of T (K)    (8f10.5)
#
 354.97500 345.04800 334.58700 324.11500 313.32600 302.53700 291.65000 280.76700
 269.93100 259.19300 248.62200 238.61700 229.08700 220.35500 212.54000 205.53500
 199.46400 194.49300 191.14300 189.19000 188.08900 188.01400 188.72400 189.90600
 191.46900 193.38200 195.40300 197.55600 199.80700 202.06000 204.28800 206.47900
 208.55200 210.37800 212.02500 213.65900 214.99800 216.11800 217.17200 218.25900
 219.49400 220.64500 221.67900 222.61400 223.54500 224.98200 226.57100 228.19000
 229.79700 231.81100 233.86500 235.97200 238.24200 240.55300 242.89900 245.25300
 247.48800 249.53500 251.36600 252.84800 254.09800 255.16700 256.02700 256.25300
 256.09500 255.54300 253.93500 252.56600 251.38400 250.24500 249.05200 247.70100
 246.01600 243.99600 241.78400 239.39300 236.81300 234.22300 231.65800 229.14400
 226.74000 224.47300 222.33500 220.32500 218.44000 216.67700 214.96200 213.47200
 212.20000 211.10800 210.26000 209.63900 209.24400 209.03100 209.05800 209.33300
 209.78400 210.62600 211.33100 212.39100 213.62500 214.84668 217.72949 219.47640
 220.32566 220.86828 220.88710 220.27371 219.43733 218.84250 219.04934 220.86203
 222.60583 225.72206 229.03064 232.61777 236.12270 239.51333 242.70767 245.68587
 248.41061 250.90679 253.19353 254.91714 256.48655 257.94920 259.39966 260.69384
 261.81714 262.77997 263.71679 264.54570 265.26305 265.89772 266.47676 267.00133
 267.47312 267.89325 268.26027 268.72800
 366.78100 356.33500 345.76700 334.63300 323.03600 311.23000 299.10000 286.90300
 274.61500 262.51200 250.52100 239.82200 229.94400 221.04800 213.23000 206.23200
 200.06600 195.00400 191.58600 189.62800 188.66500 188.72900 189.56400 190.87200
 192.59700 194.69200 196.95500 199.31400 201.75900 204.23900 206.32700 208.16900
 209.79500 210.94000 211.16900 211.39700 211.33400 211.03900 210.67200 210.30200
 209.91900 209.62900 209.43700 209.30100 209.22900 209.56000 209.94600 210.33500
 211.12800 212.30600 213.55600 215.33900 217.26700 219.31000 221.40500 223.48800
 225.54800 227.63200 229.72900 231.83500 233.96400 236.13600 238.39200 240.76200
 243.38300 245.63400 247.63600 249.40100 250.81800 251.94100 252.76300 253.07900
 253.11600 252.89000 252.25000 251.19800 249.80400 247.96500 245.87400 243.70700
 241.49800 239.30200 237.12200 234.96100 232.82100 230.68800 228.71400 226.87100
 225.15400 223.62600 222.25600 221.02800 219.91000 218.87000 217.97400 217.11500
 216.35700 215.53700 214.63500 213.99900 213.44900 212.85855 212.01316 212.61654
 214.26826 216.08686 218.14273 220.53346 223.40855 226.78828 231.49734 235.90155
 239.42278 243.28576 247.23140 251.11907 254.80144 258.23331 261.38913 264.27520
 266.89312 269.26852 271.44504 273.08845 274.58484 275.98591 277.39845 278.65879
 279.75272 280.69038 281.56708 282.34086 283.01050 283.60295 284.14348 284.63317
 285.07358 285.46577 285.80838 286.24500
 381.81900 372.39900 361.20600 349.77600 337.62200 324.85300 311.81000 298.35300
 284.86000 271.32400 258.56100 246.30400 236.08700 226.79600 218.44800 211.29000
 205.52200 200.89400 197.38100 194.84800 193.01500 192.31500 192.25000 192.43100
 192.91200 193.53700 194.13600 194.71200 195.26200 195.83100 196.39300 196.97600
 197.60400 198.14900 198.58400 199.05700 199.69500 200.37800 201.05400 201.70800
 202.31300 202.85700 203.35500 203.86200 204.56900 205.29700 206.02600 206.98700
 208.19300 209.44100 210.96900 212.57600 214.46200 216.51300 218.63000 220.85300
 223.34100 225.96200 228.73900 231.69700 234.70600 237.70600 240.69200 243.65700
 246.73700 249.69900 252.52100 255.06300 257.29000 259.23300 260.63300 261.68000
 262.46100 262.79800 262.69100 262.22400 261.06900 259.52500 257.70700 255.50700
 253.00100 250.30200 247.39800 244.45200 241.65400 239.05400 236.73300 234.59000
 232.59500 230.72500 228.83400 226.82600 224.66600 222.38700 220.10400 217.71500
 215.45900 213.06600 210.54600 208.09300 205.35400 202.08130 196.05959 200.71215
 209.01611 216.90438 223.84126 229.78593 235.00632 240.20838 245.98943 250.68668
 254.32982 257.93487 261.55666 264.96801 268.15192 271.06452 273.76717 276.25691
 278.57680 280.74479 282.77456 284.60533 286.27232 287.81705 289.31715 290.65561
 291.81734 292.81312 293.70701 294.49387 295.17482 295.77730 296.32696 296.82492
 297.27278 297.67160 298.02000 298.46400
 399.33000 389.90700 379.81300 368.66800 357.52200 345.30100 333.07400 320.22700
 307.21600 293.84800 280.37600 267.29600 254.61000 242.98700 232.15100 221.97700
 212.67200 204.28600 197.66900 192.82100 189.48600 187.45200 186.81400 187.08900
 187.78100 189.05400 190.64800 192.54200 194.63000 196.75200 198.67100 200.15800
 201.53500 202.48700 202.97500 203.34000 203.53900 203.49700 203.38500 203.24700
 203.00500 202.78600 202.60300 202.43700 202.42600 202.88800 203.42000 203.95100
 204.89500 205.99200 207.30100 208.95800 210.73800 213.10000 215.56400 218.18000
 220.96600 223.91800 226.96100 230.09200 233.29300 236.55700 239.95500 243.53700
 246.84500 249.39000 251.54200 253.47400 255.19500 256.48400 257.43100 258.05900
 258.21200 258.04000 257.58200 256.64300 255.23900 253.50700 251.40800 249.05600
 246.57600 243.99400 241.38900 238.83000 236.34400 233.98600 231.96900 230.11800
 228.42300 226.89900 225.54800 224.29700 223.10500 221.96500 220.95800 220.11300
 219.49000 218.92000 218.32500 217.88100 217.42300 216.96366 216.35568 216.80261
 217.73415 218.28582 218.64258 219.10077 220.44626 222.53987 226.38451 230.35736
 233.59734 237.39164 241.29814 245.22796 248.98002 252.51130 255.78595 258.80109
 261.54781 264.05210 266.34239 268.04198 269.58951 271.01303 272.35754 273.55718
 274.59842 275.49092 276.28989 276.99307 277.60161 278.14001 278.63122 279.07623
 279.47646 279.83287 280.14422 280.54100
 399.73800 389.78500 379.66200 368.15100 356.64100 344.35000 331.79200 318.88800
 305.72600 292.49300 279.20900 266.73800 254.69600 244.21100 234.45700 225.43300
 217.56900 210.45100 204.30000 199.30600 195.45800 192.57600 191.02700 190.38600
 190.23900 190.53400 191.16600 191.92500 192.79500 193.76600 194.73200 195.31200
 195.80000 196.05200 196.11500 196.11500 196.03900 195.72300 195.34000 194.98900
 194.75100 194.79200 195.13300 195.59800 196.50600 198.13600 199.85800 201.56600
 204.17900 206.82300 209.89300 213.28400 216.82800 220.60500 224.38700 228.20900
 232.03200 235.82500 239.56000 243.25800 246.84500 250.20100 253.70900 257.46800
 261.53000 264.22100 266.60100 268.68100 270.32900 271.74100 272.83600 273.47400
 273.89800 274.00200 273.75700 273.28800 272.37100 271.10000 269.58900 267.77900
 265.81600 263.72100 261.39300 258.91600 256.29800 253.42300 250.33100 247.11400
 243.83700 240.52900 237.24900 233.99900 230.72800 227.51500 224.25400 220.95200
 217.62700 213.65600 210.12100 206.78900 204.01000 201.99491 199.07309 198.76551
 199.40006 200.48994 201.46112 202.31912 203.45100 204.96110 207.47502 210.85391
 213.70530 217.29629 220.99574 224.72316 228.28753 231.64854 234.68024 237.40893
 239.70644 241.60899 243.46854 245.67368 247.68154 249.52395 251.24767 252.78566
 254.12057 255.26479 256.23740 257.09036 257.82852 258.48160 259.07744 259.61723
 260.10271 260.53504 260.91270 261.39400
 399.73800 389.78500 379.66200 368.15100 356.64100 344.35000 331.79200 318.88800
 305.72600 292.49300 279.20900 266.73800 254.69600 244.21100 234.45700 225.43300
 217.56900 210.45100 204.30000 199.30600 195.45800 192.57600 191.02700 190.38600
 190.23900 190.53400 191.16600 191.92500 192.79500 193.76600 194.73200 195.31200
 195.80000 196.05200 196.11500 196.11500 196.03900 195.72300 195.34000 194.98900
 194.75100 194.79200 195.13300 195.59800 196.50600 198.13600 199.85800 201.56600
 204.17900 206.82300 209.89300 213.28400 216.82800 220.60500 224.38700 228.20900
 232.03200 235.82500 239.56000 243.25800 246.84500 250.20100 253.70900 257.46800
 261.53000 264.22100 266.60100 268.68100 270.32900 271.74100 272.83600 273.47400
 273.89800 274.00200 273.75700 273.28800 272.37100 271.10000 269.58900 267.77900
 265.81600 263.72100 261.39300 258.91600 256.29800 253.42300 250.33100 247.11400
 243.83700 240.52900 237.24900 233.99900 230.72800 227.51500 224.25400 220.95200
 217.62700 213.65600 210.12100 206.78900 204.01000 201.99491 199.07309 198.76551
 199.40006 200.48994 201.46112 202.31912 203.45100 204.96110 207.47502 210.85391
 213.70530 217.29629 220.99574 224.72316 228.28753 231.64854 234.68024 237.40893
 239.70644 241.60899 243.46854 245.67368 247.68154 249.52395 251.24767 252.78566
 254.12057 255.26479 256.23740 257.09036 257.82852 258.48160 259.07744 259.61723
 260.10271 260.53504 260.91270 261.39400
 399.33000 389.90700 379.81300 368.66800 357.52200 345.30100 333.07400 320.22700
 307.21600 293.84800 280.37600 267.29600 254.61000 242.98700 232.15100 221.97700
 212.67200 204.28600 197.66900 192.82100 189.48600 187.45200 186.81400 187.08900
 187.78100 189.05400 190.64800 192.54200 194.63000 196.75200 198.67100 200.15800
 201.53500 202.48700 202.97500 203.34000 203.53900 203.49700 203.38500 203.24700
 203.00500 202.78600 202.60300 202.43700 202.42600 202.88800 203.42000 203.95100
 204.89500 205.99200 207.30100 208.95800 210.73800 213.10000 215.56400 218.18000
 220.96600 223.91800 226.96100 230.09200 233.29300 236.55700 239.95500 243.53700
 246.84500 249.39000 251.54200 253.47400 255.19500 256.48400 257.43100 258.05900
 258.21200 258.04000 257.58200 256.64300 255.23900 253.50700 251.40800 249.05600
 246.57600 243.99400 241.38900 238.83000 236.34400 233.98600 231.96900 230.11800
 228.42300 226.89900 225.54800 224.29700 223.10500 221.96500 220.95800 220.11300
 219.49000 218.92000 218.32500 217.88100 217.42300 216.96366 216.35568 216.80261
 217.73415 218.28582 218.64258 219.10077 220.44626 222.53987 226.38451 230.35736
 233.59734 237.39164 241.29814 245.22796 248.98002 252.51130 255.78595 258.80109
 261.54781 264.05210 266.34239 268.04198 269.58951 271.01303 272.35754 273.55718
 274.59842 275.49092 276.28989 276.99307 277.60161 278.14001 278.63122 279.07623
 279.47646 279.83287 280.14422 280.54100
 381.81900 372.39900 361.20600 349.77600 337.62200 324.85300 311.81000 298.35300
 284.86000 271.32400 258.56100 246.30400 236.08700 226.79600 218.44800 211.29000
 205.52200 200.89400 197.38100 194.84800 193.01500 192.31500 192.25000 192.43100
 192.91200 193.53700 194.13600 194.71200 195.26200 195.83100 196.39300 196.97600
 197.60400 198.14900 198.58400 199.05700 199.69500 200.37800 201.05400 201.70800
 202.31300 202.85700 203.35500 203.86200 204.56900 205.29700 206.02600 206.98700
 208.19300 209.44100 210.96900 212.57600 214.46200 216.51300 218.63000 220.85300
 223.34100 225.96200 228.73900 231.69700 234.70600 237.70600 240.69200 243.65700
 246.73700 249.69900 252.52100 255.06300 257.29000 259.23300 260.63300 261.68000
 262.46100 262.79800 262.69100 262.22400 261.06900 259.52500 257.70700 255.50700
 253.00100 250.30200 247.39800 244.45200 241.65400 239.05400 236.73300 234.59000
 232.59500 230.72500 228.83400 226.82600 224.66600 222.38700 220.10400 217.71500
 215.45900 213.06600 210.54600 208.09300 205.35400 202.08130 196.05959 200.71215
 209.01611 216.90438 223.84126 229.78593 235.00632 240.20838 245.98943 250.68668
 254.32982 257.93487 261.55666 264.96801 268.15192 271.06452 273.76717 276.25691
 278.57680 280.74479 282.77456 284.60533 286.27232 287.81705 289.31715 290.65561
 291.81734 292.81312 293.70701 294.49387 295.17482 295.77730 296.32696 296.82492
 297.27278 297.67160 298.02000 298.46400
 366.78100 356.32882 345.75465 334.61447 323.01130 311.19912 299.06294 286.85977
 274.56559 262.45642 250.45924 239.75406 229.86989 220.96771 213.14353 206.13936
 199.96718 194.89901 191.47483 189.51065 188.54148 188.59930 189.42813 190.72995
 192.44877 194.53760 196.79442 199.14725 201.58607 204.05989 206.14172 207.97754
 209.59736 210.73619 210.95901 211.18084 211.11166 210.81048 210.43731 210.06113
 209.67196 209.37578 209.17760 209.03543 208.95725 209.28208 209.66190 210.04472
 210.83155 212.00337 213.24720 215.02402 216.94584 218.98267 221.07149 223.14831
 225.20214 227.27996 229.37079 231.47061 233.59343 235.75926 238.00908 240.37291
 242.98773 245.23255 247.22838 248.98720 250.39803 251.51485 252.33067 252.64050
 252.67132 252.43914 251.79297 250.73479 249.33462 247.48944 245.39226 243.21909
 241.00391 238.80174 236.61556 234.44838 232.30221 230.16303 228.18286 226.33368
 224.61050 223.07633 221.70015 220.46598 219.34180 218.29562 217.39345 216.52827
 215.76409 214.93792 214.02974 213.38757 212.83139 212.63443 212.17822 213.22563
 215.23848 217.52812 218.93736 219.16069 220.30928 223.42479 228.32858 232.85956
 236.63818 240.46408 244.15512 247.63499 250.89401 253.67627 255.97270 258.23746
 261.34879 264.35651 266.69666 268.50983 270.23737 272.06158 273.87283 275.50165
 276.86423 278.14355 279.43112 280.76492 281.94812 283.00046 283.96573 284.84460
 285.64670 286.36841 287.00931 287.86816
 366.78100 356.32911 345.75523 334.61534 323.01245 311.20057 299.06468 286.86179
 274.56791 262.45902 250.46213 239.75725 229.87336 220.97147 213.14759 206.14370
 199.97181 194.90393 191.48004 189.51615 188.54727 188.60538 189.43449 190.73661
 192.45572 194.54483 196.80195 199.15506 201.59417 204.06829 206.15040 207.98651
 209.60663 210.74574 210.96885 211.19097 211.12208 210.82119 210.44831 210.07242
 209.68353 209.38765 209.18976 209.04787 208.96999 209.29510 209.67521 210.05833
 210.84544 212.01755 213.26167 215.03878 216.96089 218.99801 221.08712 223.16423
 225.21835 227.29646 229.38758 231.48769 233.61080 235.77692 238.02703 240.39114
 243.00626 245.25137 247.24748 249.00660 250.41771 251.53482 252.35094 252.66105
 252.69216 252.46028 251.81439 250.75650 249.35662 247.51173 245.41484 243.24196
 241.02707 238.82518 236.63930 234.47241 232.32652 230.18764 228.20775 226.35886
 224.63598 223.10209 221.72620 220.49232 219.36843 218.32254 217.42066 216.55577
 215.79188 214.96600 214.05811 213.41622 212.86034 212.68504 212.27863 213.34975
 215.30705 217.58311 219.09689 219.40953 220.48151 223.46461 228.26039 232.71623
 236.45294 240.27832 243.98926 247.46104 250.67160 253.41751 255.74918 258.10098
 261.20053 264.18463 266.53296 268.36417 270.08383 271.88422 273.68744 275.33975
 276.74869 278.07092 279.37921 280.71707 281.90240 282.95477 283.92047 284.80176
 285.60294 286.32492 286.96558 287.82474
 366.78100 356.32930 345.75561 334.61591 323.01322 311.20152 299.06583 286.86313
 274.56944 262.46074 250.46405 239.75935 229.87566 220.97396 213.15027 206.14657
 199.97488 194.90718 191.48349 189.51979 188.55110 188.60940 189.43871 190.74101
 192.46032 194.54962 196.80693 199.16023 201.59954 204.07384 206.15615 207.99245
 209.61276 210.75206 210.97537 211.19767 211.12897 210.82828 210.45558 210.07989
 209.69119 209.39550 209.19780 209.05611 208.97841 209.30372 209.68402 210.06733
 210.85463 212.02694 213.27124 215.04855 216.97085 219.00816 221.09746 223.17477
 225.22907 227.30738 229.39868 231.49899 233.62229 235.78860 238.03890 240.40321
 243.01851 245.26382 247.26012 249.01943 250.43073 251.54804 252.36434 252.67465
 252.70595 252.47425 251.82856 250.77086 249.37117 247.52647 245.42978 243.25708
 241.04239 238.84069 236.65500 234.48830 232.34261 230.20391 228.22422 226.37552
 224.65283 223.11913 221.74344 220.50974 219.38605 218.34035 217.43866 216.57396
 215.81027 214.98457 214.07688 213.43518 212.87949 212.73183 212.38927 213.47224
 215.36034 217.65361 219.24423 219.66283 220.66850 223.51674 228.20117 232.55211
 236.25795 240.09720 243.82034 247.27106 250.43143 253.15089 255.52725 257.96527
 261.05124 264.00970 266.36700 268.22055 269.94083 271.72119 273.51642 275.18747
 276.64133 278.00546 279.33401 280.67560 281.86096 282.91446 283.88019 284.76141
 285.56198 286.28314 286.92227 287.77786
 366.78100 356.32937 345.75573 334.61610 323.01346 311.20183 299.06620 286.86356
 274.56993 262.46129 250.46466 239.76003 229.87639 220.97476 213.15112 206.14749
 199.97586 194.90822 191.48459 189.52095 188.55232 188.61069 189.44005 190.74242
 192.46179 194.55115 196.80852 199.16188 201.60125 204.07562 206.15798 207.99435
 209.61471 210.75408 210.97745 211.19981 211.13118 210.83054 210.45791 210.08228
 209.69364 209.39801 209.20037 209.05874 208.98111 209.30647 209.68684 210.07020
 210.85757 212.02994 213.27430 215.05167 216.97403 219.01140 221.10077 223.17813
 225.23250 227.31086 229.40223 231.50260 233.62596 235.79233 238.04270 240.40706
 243.02243 245.26779 247.26416 249.02353 250.43489 251.55226 252.36862 252.67899
 252.71036 252.47872 251.83309 250.77545 249.37582 247.53119 245.43455 243.26192
 241.04728 238.84565 236.66002 234.49338 232.34775 230.20911 228.22948 226.38085
 224.65821 223.12458 221.74894 220.51531 219.39168 218.34604 217.44441 216.57977
 215.81614 214.99051 214.08287 213.44124 212.88560 212.77361 212.51375 213.58356
 215.41808 217.73238 219.39413 219.89703 220.85994 223.57800 228.14587 232.39449
 236.06482 239.91367 243.63757 247.06271 250.17909 252.88147 255.30531 257.82822
 260.90259 263.83545 266.20187 268.07806 269.80383 271.57214 273.35931 275.04584
 276.54141 277.94455 279.29520 280.63855 281.82492 282.87775 283.84341 284.72406
 285.52429 286.24509 286.88416 287.74008
 366.78100 356.32955 345.75609 334.61664 323.01419 311.20273 299.06728 286.86482
 274.57137 262.46292 250.46646 239.76201 229.87856 220.97710 213.15365 206.15020
 199.97874 194.91129 191.48784 189.52438 188.55593 188.61447 189.44402 190.74657
 192.46611 194.55566 196.81321 199.16675 201.60630 204.08085 206.16339 207.99994
 209.62049 210.76003 210.98358 211.20612 211.13767 210.83722 210.46476 210.08931
 209.70086 209.40540 209.20795 209.06650 208.98904 209.31459 209.69513 210.07868
 210.86623 212.03877 213.28332 215.06087 216.98341 219.02096 221.11051 223.18805
 225.24260 227.32115 229.41269 231.51324 233.63678 235.80333 238.05388 240.41842
 243.03397 245.27952 247.27606 249.03561 250.44716 251.56470 252.38125 252.69179
 252.72334 252.49189 251.84643 250.78898 249.38953 247.54507 245.44862 243.27617
 241.06171 238.86026 236.67481 234.50835 232.36290 230.22444 228.24499 226.39654
 224.67408 223.14063 221.76518 220.53172 219.40827 218.36282 217.46136 216.59691
 215.83346 215.00800 214.10055 213.45909 212.90364 212.82195 212.63239 213.70096
 215.48991 217.80544 219.53212 220.11082 221.06363 223.65190 228.09239 232.25989
 235.88602 239.72820 243.43646 246.82832 249.90778 252.60585 255.08282 257.68832
 260.75250 263.66132 266.03650 267.93768 269.67438 271.43686 273.21783 274.91681
 276.45029 277.88571 279.25830 280.60474 281.79114 282.84418 283.80951 284.69028
 285.49054 286.21140 286.85083 287.70755
 366.78100 356.32982 345.75664 334.61746 323.01528 311.20410 299.06892 286.86674
 274.57356 262.46538 250.46920 239.76502 229.88184 220.98066 213.15748 206.15430
 199.98312 194.91595 191.49277 189.52959 188.56141 188.62023 189.45005 190.75287
 192.47269 194.56251 196.82033 199.17415 201.61397 204.08879 206.17161 208.00843
 209.62925 210.76907 210.99289 211.21571 211.14753 210.84735 210.47517 210.09999
 209.71181 209.41663 209.21945 209.07827 209.00109 209.32691 209.70773 210.09155
 210.87937 212.05219 213.29702 215.07484 216.99766 219.03548 221.12530 223.20312
 225.25794 227.33676 229.42858 231.52940 233.65322 235.82004 238.07086 240.43568
 243.05150 245.29732 247.29414 249.05396 250.46578 251.58360 252.40042 252.71124
 252.74306 252.51188 251.86670 250.80952 249.41034 247.56616 245.46998 243.29780
 241.08362 238.88244 236.69726 234.53109 232.38591 230.24773 228.26855 226.42037
 224.69819 223.16501 221.78983 220.55665 219.43347 218.38829 217.48711 216.62293
 215.85975 215.03457 214.12739 213.48621 212.93103 212.87505 212.74509 213.83101
 215.56555 217.86574 219.66068 220.32135 221.27927 223.73830 228.04503 232.14159
 235.72473 239.54579 243.22160 246.56680 249.61092 252.31578 254.85530 257.54144
 260.59729 263.48529 265.86737 267.79694 269.55472 271.32126 273.09888 274.80701
 276.37140 277.82916 279.22348 280.57230 281.75858 282.81171 283.77707 284.65796
 285.45837 286.17950 286.81940 287.67691
 366.78100 356.33001 345.75702 334.61802 323.01603 311.20504 299.07005 286.86805
 274.57506 262.46707 250.47108 239.76708 229.88409 220.98310 213.16011 206.15712
 199.98612 194.91913 191.49614 189.53315 188.56515 188.62416 189.45417 190.75718
 192.47718 194.56719 196.82520 199.17921 201.61922 204.09422 206.17723 208.01424
 209.63525 210.77525 210.99926 211.22227 211.15428 210.85428 210.48229 210.10730
 209.71931 209.42431 209.22732 209.08633 209.00934 209.33535 209.71635 210.10036
 210.88837 212.06138 213.30638 215.08439 217.00740 219.04541 221.13541 223.21342
 225.26843 227.34744 229.43945 231.54045 233.66446 235.83147 238.08248 240.44748
 243.06349 245.30950 247.30651 249.06651 250.47852 251.59653 252.41354 252.72455
 252.75655 252.52556 251.88057 250.82358 249.42458 247.58059 245.48460 243.31261
 241.09861 238.89762 236.71263 234.54664 232.40165 230.26365 228.28466 226.43667
 224.71468 223.18168 221.80669 220.57370 219.45071 218.40571 217.50472 216.64073
 215.87774 215.05275 214.14575 213.50476 212.94977 212.92354 212.86276 213.96536
 215.63881 217.92146 219.79245 220.53409 221.48779 223.83263 228.00880 232.03056
 235.57890 239.36852 242.99788 246.28276 249.29079 252.01115 254.61923 257.38287
 260.43524 263.30469 265.69531 267.65811 269.44754 271.22702 273.00308 274.71588
 276.30441 277.77808 279.19077 280.54138 281.72748 282.78098 283.74622 284.62720
 285.42795 286.14954 286.78989 287.64859
 366.78100 356.33032 345.75763 334.61895 323.01726 311.20658 299.07190 286.87021
 274.57753 262.46985 250.47416 239.77048 229.88779 220.98711 213.16443 206.16174
 199.99106 194.92438 191.50169 189.53901 188.57132 188.63064 189.46096 190.76427
 192.48459 194.57491 196.83322 199.18754 201.62785 204.10317 206.18649 208.02380
 209.64512 210.78544 211.00975 211.23307 211.16538 210.86570 210.49402 210.11933
 209.73165 209.43696 209.24028 209.09960 209.02291 209.34923 209.73055 210.11486
 210.90318 212.07649 213.32181 215.10013 217.02344 219.06176 221.15208 223.23039
 225.28571 227.36502 229.45734 231.55866 233.68297 235.85029 238.10161 240.46692
 243.08324 245.32955 247.32687 249.08719 250.49950 251.61782 252.43513 252.74645
 252.77877 252.54808 251.90340 250.84672 249.44803 247.60435 245.50866 243.33698
 241.12330 238.92261 236.73793 234.57225 232.42756 230.28988 228.31119 226.46351
 224.74183 223.20914 221.83446 220.60178 219.47909 218.43441 217.53372 216.67004
 215.90736 215.08267 214.17599 213.53531 212.98062 212.97810 212.97237 214.10194
 215.72057 217.98848 219.92346 220.72960 221.67279 223.92938 227.98398 231.92618
 235.44485 239.19931 242.77010 245.98389 248.95798 251.70021 254.37534 257.21133
 260.26382 263.12030 265.52502 267.52698 269.35410 271.15225 272.92557 274.63766
 276.24478 277.72894 279.16040 280.51468 281.69974 282.75421 283.71936 284.60056
 285.40179 286.12396 286.76489 287.62527
 366.78100 356.33076 345.75852 334.62028 323.01905 311.20881 299.07457 286.87333
 274.58109 262.47385 250.47862 239.77538 229.89314 220.99290 213.17066 206.16842
 199.99819 194.93195 191.50971 189.54747 188.58023 188.63999 189.47076 190.77452
 192.49528 194.58604 196.84480 199.19956 201.64033 204.11609 206.19985 208.03761
 209.65937 210.80013 211.02489 211.24866 211.18142 210.88218 210.51094 210.13670
 209.74946 209.45523 209.25899 209.11875 209.04251 209.36927 209.75103 210.13580
 210.92456 212.09832 213.34408 215.12284 217.04660 219.08537 221.17613 223.25489
 225.31065 227.39041 229.48317 231.58494 233.70970 235.87746 238.12922 240.49498
 243.11174 245.35851 247.35627 249.11703 250.52979 251.64855 252.46631 252.77807
 252.81084 252.58060 251.93636 250.88012 249.48188 247.63864 245.54341 243.37217
 241.15893 238.95869 236.77445 234.60921 232.46498 230.32774 228.34950 226.50226
 224.78102 223.24878 221.87455 220.64231 219.52007 218.47583 217.57559 216.71235
 215.95012 215.12588 214.21964 213.57940 213.02516 213.03952 213.07346 214.23621
 215.81863 218.06367 220.04068 220.90041 221.85190 224.03239 227.97165 231.83713
 235.32484 239.04146 242.53899 245.67081 248.61369 251.38199 254.12083 257.02484
 260.08319 262.93488 265.36066 267.40634 269.27539 271.09433 272.86295 274.56885
 276.19086 277.68115 279.13611 280.49222 281.67825 282.73099 283.69818 284.57919
 285.38080 286.10355 286.74527 287.60712
 366.78100 356.33124 345.75948 334.62173 323.02097 311.21121 299.07745 286.87669
 274.58494 262.47818 250.48342 239.78066 229.89890 220.99915 213.17739 206.17563
 200.00587 194.94011 191.51836 189.55660 188.58984 188.65008 189.48132 190.78557
 192.50681 194.59805 196.85729 199.21253 201.65377 204.13002 206.21426 208.05250
 209.67474 210.81598 211.04123 211.26547 211.19871 210.89995 210.52919 210.15544
 209.76868 209.47492 209.27916 209.13940 209.06365 209.39089 209.77313 210.15837
 210.94761 212.12186 213.36810 215.14734 217.07158 219.11082 221.20207 223.28131
 225.33755 227.41779 229.51103 231.61328 233.73852 235.90676 238.15900 240.52524
 243.14249 245.38973 247.38797 249.14921 250.56245 251.68170 252.49994 252.81218
 252.84542 252.61566 251.97191 250.91615 249.51839 247.67563 245.58087 243.41012
 241.19736 238.99760 236.81384 234.64908 232.50532 230.36857 228.39081 226.54405
 224.82329 223.29153 221.91778 220.68602 219.56426 218.52050 217.62074 216.75799
 215.99623 215.17247 214.26671 213.62695 213.07320 213.10202 213.17010 214.36903
 215.92894 218.13043 220.15256 221.06897 222.04070 224.13652 227.96863 231.76250
 235.21399 238.88754 242.30154 245.34473 248.25465 251.04805 253.85165 256.82446
 259.89941 262.75558 265.20584 267.29758 269.20978 271.05252 272.81570 274.51099
 276.14359 277.62088 279.11740 280.48007 281.66513 282.71802 283.68332 284.56485
 285.36700 286.09003 286.73212 287.59525
 366.78100 356.33149 345.75999 334.62248 323.02197 311.21246 299.07896 286.87845
 274.58694 262.48044 250.48593 239.78342 229.90192 221.00241 213.18090 206.17939
 200.00989 194.94438 191.52287 189.56137 188.59486 188.65535 189.48685 190.79134
 192.51283 194.60432 196.86382 199.21931 201.66080 204.13730 206.22179 208.06028
 209.68278 210.82427 211.04976 211.27425 211.20775 210.90924 210.53873 210.16523
 209.77872 209.48521 209.28970 209.15020 209.07469 209.40218 209.78468 210.17017
 210.95966 212.13416 213.38065 215.16014 217.08463 219.12413 221.21562 223.29511
 225.35161 227.43210 229.52559 231.62809 233.75358 235.92207 238.17456 240.54106
 243.15855 245.40604 247.40454 249.16603 250.57952 251.69902 252.51751 252.83000
 252.86349 252.63399 251.99048 250.93497 249.53747 247.69496 245.60045 243.42994
 241.21744 239.01793 236.83442 234.66992 232.52641 230.38990 228.41240 226.56589
 224.84538 223.31387 221.94037 220.70886 219.58735 218.54385 217.64434 216.78183
 216.02033 215.19682 214.29131 213.65180 213.09830 213.15186 213.27838 214.49254
 216.04062 218.20575 220.26207 221.25555 222.22372 224.22964 227.96761 231.70833
 235.12379 238.74014 242.05110 244.99104 247.86366 250.69545 253.58380 256.63681
 259.73187 262.58630 265.05362 267.19116 269.15149 271.02441 272.78165 274.46359
 276.10443 277.58643 279.09647 280.46271 281.65021 282.70456 283.67114 284.55353
 285.35739 286.08044 286.72284 287.58688
 366.78100 356.33162 345.76025 334.62287 323.02249 311.21311 299.07974 286.87936
 274.58798 262.48160 250.48723 239.78485 229.90347 221.00409 213.18272 206.18134
 200.01196 194.94659 191.52521 189.56383 188.59745 188.65808 189.48970 190.79432
 192.51594 194.60757 196.86719 199.22281 201.66443 204.14106 206.22568 208.06430
 209.68693 210.82855 211.05417 211.27879 211.21242 210.91404 210.54366 210.17028
 209.78391 209.49053 209.29515 209.15577 209.08040 209.40802 209.79064 210.17627
 210.96589 212.14051 213.38713 215.16676 217.09138 219.13100 221.22262 223.30225
 225.35887 227.43949 229.53311 231.63574 233.76136 235.92998 238.18261 240.54923
 243.16685 245.41447 247.41310 249.17472 250.58834 251.70796 252.52659 252.83921
 252.87283 252.64345 252.00008 250.94470 249.54732 247.70495 245.61057 243.44019
 241.22781 239.02844 236.84506 234.68068 232.53730 230.40093 228.42355 226.57717
 224.85680 223.32542 221.95204 220.72066 219.59929 218.55591 217.65653 216.79415
 216.03278 215.20940 214.30402 213.66464 213.11127 213.19376 213.38864 214.60909
 216.16162 218.28365 220.39972 221.44846 222.37529 224.32750 227.96016 231.62527
 235.00822 238.56801 241.78679 244.63545 247.48669 250.37100 253.34264 256.46228
 259.56577 262.41135 264.89594 267.08475 269.09937 271.00711 272.75931 274.42566
 276.06943 277.56546 279.07986 280.44760 281.63675 282.69272 283.66019 284.54391
 285.34744 286.07193 286.71490 287.57852
 366.78100 356.33200 345.76101 334.62401 323.02401 311.21502 299.08202 286.88202
 274.59103 262.48503 250.49104 239.78904 229.90804 221.00905 213.18805 206.18705
 200.01806 194.95306 191.53206 189.57107 188.60507 188.66607 189.49808 190.80308
 192.52508 194.61709 196.87709 199.23310 201.67510 204.15210 206.23711 208.07611
 209.69911 210.84112 211.06712 211.29212 211.22613 210.92813 210.55813 210.18514
 209.79914 209.50614 209.31115 209.17215 209.09716 209.42516 209.80816 210.19417
 210.98417 212.15917 213.40618 215.18618 217.11118 219.15119 221.24319 223.32319
 225.38020 227.46120 229.55520 231.65821 233.78421 235.95322 238.20622 240.57322
 243.19123 245.43923 247.43823 249.20024 250.61424 251.73424 252.55325 252.86625
 252.90025 252.67126 252.02826 250.97326 249.57627 247.73427 245.64028 243.47028
 241.25828 239.05929 236.87629 234.71229 232.56930 230.43330 228.45630 226.61031
 224.89031 223.35931 221.98632 220.75532 219.63432 218.59133 217.69233 216.83034
 216.06934 215.24634 214.34135 213.70235 213.14935 213.24673 213.47679 214.72377
 216.31937 218.37355 220.49014 221.69228 222.51250 224.30188 227.92793 231.58678
 234.93988 238.44543 241.56735 244.30048 247.11143 250.03487 253.08125 256.26697
 259.38855 262.23758 264.74860 266.99197 269.06155 271.00391 272.75046 274.39804
 276.04175 277.54965 279.06729 280.43661 281.62589 282.68240 283.65103 284.53503
 285.33954 286.06415 286.70645 287.57166
 366.78100 356.33294 345.76287 334.62681 323.02775 311.21968 299.08762 286.88856
 274.59849 262.49343 250.50036 239.79930 229.91924 221.02117 213.20111 206.20105
 200.03298 194.96892 191.54886 189.58879 188.62373 188.68567 189.51860 190.82454
 192.54747 194.64041 196.90135 199.25828 201.70122 204.17916 206.26509 208.10503
 209.72897 210.87190 211.09884 211.32478 211.25971 210.96265 210.59359 210.22152
 209.83646 209.54439 209.35033 209.21227 209.13820 209.46714 209.85108 210.23801
 211.02895 212.20489 213.45282 215.23376 217.15970 219.20063 221.29357 223.37450
 225.43244 227.51438 229.60931 231.71325 233.84019 236.01012 238.26406 240.63200
 243.25093 245.49987 247.49981 249.26274 250.67768 251.79862 252.61855 252.93249
 252.96742 252.73936 252.09730 251.04323 249.64717 247.80611 245.71304 243.54398
 241.33292 239.13485 236.95279 234.78973 232.64766 230.51260 228.53653 226.69147
 224.97241 223.44234 222.07028 220.84022 219.72015 218.67809 217.78003 216.91896
 216.15890 215.33684 214.43277 213.79471 213.24265 213.32472 213.51868 214.87617
 216.46754 218.48131 220.55580 221.91795 222.61082 224.27451 227.94458 231.59389
 234.89955 238.33250 241.32796 243.93401 246.70967 249.68300 252.81386 256.07513
 259.22281 262.07947 264.61362 266.90671 269.03067 271.00690 272.74637 274.37732
 276.01761 277.53595 279.05701 280.42755 281.61679 282.67383 283.64188 284.52829
 285.33221 286.05725 286.70123 287.56598
 366.78100 356.33327 345.76355 334.62782 323.02910 311.22137 299.08965 286.89092
 274.60120 262.49647 250.50375 239.80302 229.92330 221.02557 213.20584 206.20612
 200.03839 194.97467 191.55494 189.59522 188.63049 188.69277 189.52604 190.83232
 192.55559 194.64886 196.91014 199.26741 201.71069 204.18896 206.27524 208.11551
 209.73979 210.88306 211.11034 211.33661 211.27189 210.97516 210.60643 210.23471
 209.84998 209.55826 209.36453 209.22681 209.15308 209.48236 209.86663 210.25391
 211.04518 212.22145 213.46973 215.25100 217.17728 219.21855 221.31183 223.39310
 225.45138 227.53365 229.62893 231.73320 233.86048 236.03075 238.28502 240.65330
 243.27257 245.52185 247.52212 249.28540 250.70067 251.82195 252.64222 252.95650
 252.99177 252.76404 252.12232 251.06859 249.67287 247.83214 245.73942 243.57069
 241.35997 239.16224 236.98052 234.81779 232.67607 230.54134 228.56561 226.72089
 225.00216 223.47244 222.10071 220.87099 219.75126 218.70954 217.81181 216.95109
 216.19136 215.36963 214.46591 213.82818 213.27646 213.37024 213.59181 215.00060
 216.62416 218.60976 220.59119 222.08588 222.75064 224.31876 228.01195 231.59811
 234.83684 238.17296 241.03500 243.54337 246.30186 249.33455 252.55922 255.89760
 259.06985 261.93082 264.48602 266.82675 269.00269 271.01318 272.74710 274.36172
 275.99622 277.52521 279.04816 280.41769 281.60843 282.66550 283.63495 284.52020
 285.32471 286.05167 286.69507 287.56055
 366.78100 356.33324 345.76348 334.62771 323.02895 311.22119 299.08943 286.89067
 274.60090 262.49614 250.50338 239.80262 229.92286 221.02510 213.20533 206.20557
 200.03781 194.97405 191.55429 189.59452 188.62976 188.69200 189.52524 190.83148
 192.55471 194.64795 196.90919 199.26643 201.70967 204.18791 206.27414 208.11438
 209.73862 210.88186 211.10910 211.33533 211.27057 210.97381 210.60505 210.23329
 209.84852 209.55676 209.36300 209.22524 209.15148 209.48072 209.86495 210.25219
 211.04343 212.21967 213.46791 215.24914 217.17538 219.21662 221.30986 223.39110
 225.44933 227.53157 229.62681 231.73105 233.85829 236.02853 238.28276 240.65100
 243.27024 245.51948 247.51972 249.28295 250.69819 251.81943 252.63967 252.95391
 252.98914 252.76138 252.11962 251.06586 249.67010 247.82934 245.73657 243.56781
 241.35705 239.15929 236.97753 234.81476 232.67300 230.53824 228.56248 226.71772
 224.99895 223.46919 222.09743 220.86767 219.74791 218.70615 217.80838 216.94762
 216.18786 215.36610 214.46234 213.82457 213.27281 213.39516 213.68420 215.10222
 216.79128 218.76270 220.62991 222.17207 222.96320 224.43861 228.05156 231.58588
 234.75194 237.98434 240.73135 243.16292 245.90790 248.99840 252.31502 255.72876
 258.92639 261.79172 264.36877 266.75436 268.97781 271.01956 272.74551 274.34686
 275.97839 277.51559 279.03998 280.41080 281.60138 282.65933 283.62946 284.51477
 285.32071 286.04730 286.69183 287.55832
 366.78100 356.33356 345.76412 334.62868 323.03024 311.22280 299.09136 286.89292
 274.60348 262.49904 250.50659 239.80615 229.92671 221.02927 213.20983 206.21039
 200.04295 194.97951 191.56007 189.60063 188.63619 188.69875 189.53231 190.83887
 192.56243 194.65599 196.91755 199.27511 201.71867 204.19722 206.28378 208.12434
 209.74890 210.89246 211.12002 211.34658 211.28214 210.98570 210.61726 210.24582
 209.86138 209.56994 209.37650 209.23906 209.16562 209.49518 209.87974 210.26730
 211.05885 212.23541 213.48397 215.26553 217.19209 219.23365 221.32721 223.40877
 225.46733 227.54989 229.64545 231.75001 233.87757 236.04813 238.30269 240.67125
 243.29081 245.54037 247.54092 249.30448 250.72004 251.84160 252.66216 252.97672
 253.01228 252.78484 252.14340 251.08996 249.69452 247.85408 245.76164 243.59320
 241.38276 239.18532 237.00388 234.84144 232.70000 230.56555 228.59011 226.74567
 225.02723 223.49779 222.12635 220.89691 219.77747 218.73603 217.83859 216.97815
 216.21871 215.39727 214.49383 213.85639 213.30495 213.43546 213.74379 215.21779
 216.96190 218.91209 220.70689 222.20584 223.15446 224.60909 228.06310 231.55536
 234.64931 237.77792 240.42307 242.78560 245.52414 248.67569 252.08398 255.57234
 258.79727 261.67172 264.27167 266.69818 268.96649 271.03778 272.75797 274.34174
 275.96371 277.50446 279.02902 280.39941 281.59015 282.64758 283.61783 284.50330
 285.30750 286.03668 286.68045 287.54898
 366.78100 356.33413 345.76527 334.63040 323.03254 311.22567 299.09481 286.89694
 274.60808 262.50421 250.51235 239.81248 229.93362 221.03675 213.21789 206.21902
 200.05216 194.98929 191.57043 189.61156 188.64770 188.71083 189.54497 190.85210
 192.57624 194.67037 196.93251 199.29064 201.73478 204.21391 206.30105 208.14218
 209.76732 210.91145 211.13959 211.36672 211.30286 211.00699 210.63913 210.26826
 209.88440 209.59353 209.40066 209.26380 209.19093 209.52107 209.90620 210.29434
 211.08647 212.26361 213.51274 215.29488 217.22201 219.26415 221.35828 223.44042
 225.49955 227.58269 229.67882 231.78396 233.91209 236.08323 238.33836 240.70750
 243.32763 245.57777 247.57890 249.34304 250.75917 251.88131 252.70244 253.01758
 253.05371 252.82685 252.18598 251.13312 249.73825 247.89839 245.80652 243.63866
 241.42879 239.23193 237.05106 234.88919 232.74833 230.61446 228.63960 226.79573
 225.07787 223.54900 222.17814 220.94927 219.83041 218.78954 217.89268 217.03281
 216.27395 215.45308 214.55022 213.91335 213.36249 213.48543 213.77589 215.34198
 217.14136 219.06148 220.80930 222.23230 223.28610 224.78578 228.09021 231.51103
 234.51938 237.53790 240.07924 242.38821 245.14256 248.36807 251.87161 255.43463
 258.68744 261.57208 264.19257 266.65430 268.96167 271.05893 272.77847 274.35110
 275.96497 277.49350 279.01715 280.38794 281.57904 282.63766 283.60858 284.49442
 285.30078 286.03049 286.67471 287.54611
 366.78100 356.33452 345.76605 334.63157 323.03410 311.22762 299.09714 286.89967
 274.61119 262.50772 250.51624 239.81677 229.93829 221.04181 213.22334 206.22486
 200.05839 194.99591 191.57743 189.61896 188.65548 188.71901 189.55353 190.86105
 192.58558 194.68010 196.94263 199.30115 201.74568 204.22520 206.31272 208.15425
 209.77977 210.92430 211.15282 211.38034 211.31687 211.02139 210.65392 210.28344
 209.89997 209.60949 209.41701 209.28054 209.20806 209.53859 209.92411 210.31263
 211.10516 212.28268 213.53221 215.31473 217.24225 219.28478 221.37930 223.46183
 225.52135 227.60488 229.70140 231.80692 233.93545 236.10697 238.36250 240.73202
 243.35254 245.60307 247.60459 249.36912 250.78564 251.90816 252.72969 253.04521
 253.08174 252.85526 252.21479 251.16231 249.76783 247.92836 245.83688 243.66941
 241.45993 239.26345 237.08298 234.92150 232.78103 230.64755 228.67308 226.82960
 225.11212 223.58365 222.21317 220.98470 219.86622 218.82574 217.92927 217.06979
 216.31132 215.49084 214.58836 213.95189 213.40141 213.52296 213.81017 215.46230
 217.32965 219.21860 220.92741 222.28127 223.39165 224.95247 228.14610 231.46742
 234.37085 237.26308 239.69931 241.97995 244.77235 248.07886 251.67603 255.30986
 258.58975 261.48483 264.12109 266.61307 268.95242 271.07187 272.78827 274.34744
 275.95309 277.48566 279.01093 280.38196 281.57376 282.63220 283.60309 284.49030
 285.29648 286.02515 286.67151 287.54544
 366.78100 356.33448 345.76596 334.63144 323.03392 311.22740 299.09688 286.89936
 274.61084 262.50732 250.51580 239.81628 229.93775 221.04123 213.22271 206.22419
 200.05767 194.99515 191.57663 189.61811 188.65459 188.71807 189.55255 190.86003
 192.58451 194.67899 196.94147 199.29995 201.74443 204.22391 206.31139 208.15287
 209.77835 210.92283 211.15131 211.37879 211.31526 211.01974 210.65222 210.28170
 209.89818 209.60766 209.41514 209.27862 209.20610 209.53658 209.92206 210.31054
 211.10302 212.28050 213.52998 215.31246 217.23994 219.28242 221.37690 223.45938
 225.51886 227.60234 229.69882 231.80429 233.93277 236.10425 238.35973 240.72921
 243.34969 245.60017 247.60165 249.36613 250.78261 251.90509 252.72657 253.04205
 253.07853 252.85201 252.21149 251.15897 249.76445 247.92493 245.83341 243.66589
 241.45637 239.25985 237.07933 234.91780 232.77728 230.64376 228.66924 226.82572
 225.10820 223.57968 222.20916 220.98064 219.86212 218.82160 217.92508 217.06556
 216.30704 215.48652 214.58400 213.94748 213.39696 213.53564 213.86328 215.57024
 217.51292 219.39386 221.05844 222.34532 223.49171 225.11604 228.21237 231.42165
 234.20897 236.95413 239.29004 241.57411 244.42604 247.81538 251.49811 255.19485
 258.50089 261.40524 264.05667 266.57236 268.93726 271.07486 272.78799 274.32840
 275.91953 277.48093 279.01074 280.38196 281.57336 282.63284 283.60382 284.48990
 285.29810 286.02591 286.67227 287.54752
 366.78100 356.33420 345.76540 334.63061 323.03281 311.22601 299.09521 286.89742
 274.60862 262.50482 250.51302 239.81323 229.93443 221.03763 213.21883 206.22004
 200.05324 194.99044 191.57164 189.61285 188.64905 188.71225 189.54645 190.85366
 192.57786 194.67206 196.93426 199.29247 201.73667 204.21587 206.30307 208.14428
 209.76948 210.91368 211.14188 211.36909 211.30529 211.00949 210.64169 210.27090
 209.88710 209.59630 209.40350 209.26671 209.19391 209.52411 209.90931 210.29752
 211.08972 212.26692 213.51612 215.29833 217.22553 219.26773 221.36193 223.44414
 225.50334 227.58654 229.68274 231.78795 233.91615 236.08735 238.34255 240.71176
 243.33196 245.58216 247.58336 249.34757 250.76377 251.88597 252.70717 253.02238
 253.05858 252.83178 252.19098 251.13819 249.74339 247.90359 245.81179 243.64400
 241.43420 239.23740 237.05660 234.89481 232.75401 230.62021 228.64541 226.80162
 225.08382 223.55502 222.18422 220.95543 219.83663 218.79583 217.89903 217.03924
 216.28044 215.45964 214.55684 213.92004 213.36925 213.53430 213.92424 215.67235
 217.68584 219.58673 221.20613 222.40897 223.59380 225.28729 228.27504 231.36603
 234.02809 236.60657 238.84778 241.16850 244.10594 247.58263 251.34044 255.08943
 258.41769 261.33478 264.00055 266.53079 268.91348 271.06827 272.78812 274.32034
 275.89124 277.47186 279.00452 280.37613 281.56763 282.62610 283.59741 284.48428
 285.29160 286.02026 286.66562 287.54376
 366.78100 356.33394 345.76487 334.62981 323.03175 311.22468 299.09362 286.89555
 274.60649 262.50243 250.51036 239.81030 229.93124 221.03417 213.21511 206.21605
 200.04898 194.98592 191.56685 189.60779 188.64373 188.70666 189.54060 190.84754
 192.57147 194.66541 196.92735 199.28528 201.72922 204.20815 206.29509 208.13603
 209.76096 210.90490 211.13284 211.35977 211.29571 210.99965 210.63158 210.26052
 209.87645 209.58539 209.39233 209.25526 209.18220 209.51214 209.89707 210.28501
 211.07695 212.25388 213.50282 215.28475 217.21169 219.25363 221.34756 223.42950
 225.48844 227.57137 229.66731 231.77225 233.90018 236.07112 238.32605 240.69499
 243.31493 245.56486 247.56580 249.32974 250.74567 251.86761 252.68855 253.00348
 253.03942 252.81235 252.17129 251.11823 249.72316 247.88310 245.79104 243.62297
 241.41291 239.21585 237.03478 234.87272 232.73165 230.59759 228.62253 226.77846
 225.06040 223.53134 222.16027 220.93121 219.81215 218.77108 217.87402 217.01395
 216.25489 215.43383 214.53076 213.89370 213.34264 213.53165 213.97821 215.77155
 217.86499 219.78041 221.35750 222.47517 223.70818 225.47752 228.33742 231.29007
 233.81464 236.22166 238.38173 240.77164 243.81058 247.37317 251.19943 254.99280
 258.34146 261.27084 263.94989 266.48929 268.88330 271.05289 272.78842 274.32492
 275.89212 277.45459 278.98547 280.35641 281.54782 282.60638 283.57788 284.46561
 285.27222 286.00040 286.64816 287.52728
 366.78100 356.33367 345.76433 334.62900 323.03067 311.22334 299.09200 286.89367
 274.60434 262.50000 250.50767 239.80734 229.92801 221.03067 213.21134 206.21201
 200.04468 194.98134 191.56201 189.60268 188.63834 188.70101 189.53468 190.84135
 192.56501 194.65868 196.92035 199.27801 201.72168 204.20035 206.28702 208.12768
 209.75235 210.89602 211.12368 211.35035 211.28602 210.98969 210.62135 210.25002
 209.86569 209.57436 209.38102 209.24369 209.17036 209.50002 209.88469 210.27236
 211.06403 212.24069 213.48936 215.27103 217.19769 219.23936 221.33303 223.41470
 225.47336 227.55603 229.65170 231.75636 233.88403 236.05470 238.30937 240.67803
 243.29770 245.54737 247.54803 249.31170 250.72737 251.84904 252.66970 252.98437
 253.02004 252.79271 252.15137 251.09804 249.70271 247.86237 245.77004 243.60171
 241.39138 239.19404 237.01271 234.85038 232.70904 230.57471 228.59938 226.75505
 225.03671 223.50738 222.13605 220.90671 219.78738 218.74605 217.84872 216.98838
 216.22905 215.40772 214.50439 213.86705 213.31572 213.52690 214.02586 215.87000
 218.04723 219.97649 221.50629 222.54211 223.83751 225.68303 228.40332 231.19023
 233.56186 235.80125 237.90343 240.39322 243.54202 247.18684 251.07471 254.90332
 258.27051 261.21304 263.90314 266.44699 268.84821 271.03094 272.78656 274.33221
 275.89532 277.43536 278.96329 280.33377 281.52542 282.58453 283.55627 284.44290
 285.25186 285.98013 286.62720 287.50827
 366.78100 356.33344 345.76388 334.62832 323.02976 311.22220 299.09064 286.89208
 274.60252 262.49796 250.50540 239.80484 229.92528 221.02772 213.20816 206.20860
 200.04104 194.97748 191.55792 189.59836 188.63380 188.69624 189.52968 190.83612
 192.55956 194.65300 196.91444 199.27188 201.71532 204.19376 206.28020 208.12064
 209.74508 210.88852 211.11596 211.34240 211.27784 210.98128 210.61272 210.24116
 209.85660 209.56504 209.37148 209.23392 209.16036 209.48980 209.87424 210.26168
 211.05312 212.22956 213.47800 215.25944 217.18588 219.22732 221.32076 223.40220
 225.46064 227.54308 229.63852 231.74296 233.87040 236.04084 238.29528 240.66372
 243.28316 245.53260 247.53304 249.29648 250.71192 251.83336 252.65380 252.96824
 253.00368 252.77612 252.13456 251.08100 249.68544 247.84488 245.75232 243.58376
 241.37320 239.17564 236.99408 234.83152 232.68996 230.55540 228.57984 226.73528
 225.01672 223.48716 222.11560 220.88604 219.76648 218.72492 217.82736 216.96680
 216.20724 215.38568 214.48212 213.84456 213.29300 213.52197 214.06294 215.97958
 218.22780 220.15599 221.65819 222.63277 223.98611 225.87772 228.45511 231.09834
 233.30698 235.35376 237.40019 240.01405 243.29605 247.03331 250.97501 254.82413
 258.20142 261.15561 263.85654 266.40604 268.81046 271.00256 272.77902 274.33582
 275.91370 277.41733 278.93793 280.31061 281.50153 282.56180 283.53323 284.42114
 285.22964 285.95886 286.60648 287.48993
 366.78100 356.33338 345.76377 334.62815 323.02953 311.22192 299.09030 286.89168
 274.60207 262.49745 250.50483 239.80422 229.92460 221.02698 213.20737 206.20775
 200.04013 194.97652 191.55690 189.59728 188.63267 188.69505 189.52843 190.83482
 192.55820 194.65158 196.91297 199.27035 201.71373 204.19212 206.27850 208.11888
 209.74327 210.88665 211.11404 211.34042 211.27580 210.97919 210.61057 210.23895
 209.85434 209.56272 209.36910 209.23149 209.15787 209.48725 209.87164 210.25902
 211.05040 212.22679 213.47517 215.25655 217.18294 219.22432 221.31770 223.39909
 225.45747 227.53985 229.63524 231.73962 233.86700 236.03739 238.29177 240.66015
 243.27954 245.52892 247.52930 249.29269 250.70807 251.82945 252.64984 252.96422
 252.99960 252.77199 252.13037 251.07675 249.68114 247.84052 245.74790 243.57929
 241.36867 239.17105 236.98944 234.82682 232.68520 230.55059 228.57497 226.73035
 225.01174 223.48212 222.11050 220.88089 219.76127 218.71965 217.82204 216.96142
 216.20180 215.38019 214.47657 213.83895 213.28734 213.52362 214.08185 216.11163
 218.39305 220.32587 221.81416 222.72742 224.12053 226.10591 228.56252 230.99234
 232.98624 234.83595 236.85773 239.64998 243.09583 246.91422 250.89034 254.74669
 258.13153 261.09967 263.81360 266.36597 268.77246 270.97366 272.77277 274.34341
 275.89319 277.40485 278.92813 280.29889 281.48959 282.54819 283.52081 284.40958
 285.21622 285.94724 286.59546 287.48077
 366.78100 356.33287 345.76275 334.62662 323.02750 311.21937 299.08725 286.88812
 274.59799 262.49287 250.49974 239.79862 229.91849 221.02037 213.20024 206.20012
 200.03199 194.96786 191.54774 189.58761 188.62249 188.68436 189.51724 190.82311
 192.54598 194.63886 196.89973 199.25661 201.69948 204.17736 206.26323 208.10310
 209.72698 210.86985 211.09673 211.32260 211.25748 210.96035 210.59123 210.21910
 209.83397 209.54185 209.34772 209.20960 209.13547 209.46435 209.84822 210.23509
 211.02597 212.20184 213.44972 215.23059 217.15647 219.19734 221.29021 223.37109
 225.42896 227.51084 229.60571 231.70959 233.83646 236.00634 238.26021 240.62808
 243.24696 245.49583 247.49571 249.25858 250.67346 251.79433 252.61420 252.92808
 252.96295 252.73483 252.09270 251.03858 249.64245 247.80132 245.70820 243.53907
 241.32795 239.12982 236.94770 234.78457 232.64245 230.50732 228.53119 226.68607
 224.96694 223.43682 222.06469 220.83457 219.71444 218.67231 217.77419 216.91306
 216.15294 215.33081 214.42669 213.78856 213.23643 213.50201 214.12946 216.19989
 218.60841 220.45636 221.93723 222.83820 224.33588 226.35988 228.61391 230.85291
 232.67197 234.28111 236.30818 239.33958 242.91307 246.80075 250.81622 254.67790
 258.06805 261.05002 263.77609 266.32700 268.73184 270.94028 272.76474 274.35480
 275.89667 277.39084 278.91080 280.28140 281.47156 282.53046 283.50284 284.39139
 285.20074 285.93036 286.58099 287.46820
 366.78100 356.33214 345.76127 334.62441 323.02455 311.21568 299.08282 286.88296
 274.59209 262.48623 250.49236 239.79050 229.90964 221.01077 213.18991 206.18905
 200.02018 194.95532 191.53446 189.57359 188.60773 188.66887 189.50100 190.80614
 192.52827 194.62041 196.88055 199.23668 201.67882 204.15596 206.24109 208.08023
 209.70337 210.84550 211.07164 211.29678 211.23091 210.93305 210.56318 210.19032
 209.80446 209.51159 209.31673 209.17787 209.10300 209.43114 209.81428 210.20041
 210.99055 212.16569 213.41282 215.19296 217.11809 219.15823 221.25037 223.33050
 225.38764 227.46878 229.56291 231.66605 233.79219 235.96132 238.21446 240.58160
 243.19973 245.44787 247.44700 249.20914 250.62328 251.74341 252.56255 252.87569
 252.90982 252.68096 252.03810 250.98323 249.58637 247.74451 245.65064 243.48078
 241.26891 239.07005 236.88719 234.72332 232.58046 230.44460 228.46773 226.62187
 224.90201 223.37114 221.99828 220.76742 219.64655 218.60369 217.70482 216.84296
 216.08210 215.25923 214.35437 213.71551 213.16264 213.46762 214.18816 216.29471
 218.77084 220.64510 222.06648 222.98138 224.43675 226.51047 228.68394 230.79568
 232.40468 233.73500 235.80678 238.99593 242.73453 246.72571 250.76546 254.61795
 258.00839 261.00314 263.73901 266.28632 268.68546 270.89749 272.74551 274.35623
 275.91223 277.37906 278.89468 280.26550 281.45581 282.51419 283.48645 284.37515
 285.18390 285.91235 286.56479 287.45261
 366.78100 356.33162 345.76024 334.62287 323.02249 311.21311 299.07973 286.87935
 274.58798 262.48160 250.48722 239.78484 229.90346 221.00409 213.18271 206.18133
 200.01195 194.94658 191.52520 189.56382 188.59744 188.65806 189.48969 190.79431
 192.51593 194.60755 196.86717 199.22280 201.66442 204.14104 206.22566 208.06428
 209.68691 210.82853 211.05415 211.27877 211.21239 210.91402 210.54364 210.17026
 209.78388 209.49050 209.29513 209.15575 209.08037 209.40799 209.79061 210.17624
 210.96586 212.14048 213.38710 215.16673 217.09135 219.13097 221.22259 223.30221
 225.35884 227.43946 229.53308 231.63570 233.76132 235.92995 238.18257 240.54919
 243.16681 245.41443 247.41306 249.17468 250.58830 251.70792 252.52654 252.83917
 252.87279 252.64341 252.00003 250.94465 249.54728 247.70490 245.61052 243.44014
 241.22776 239.02839 236.84501 234.68063 232.53725 230.40088 228.42350 226.57712
 224.85674 223.32536 221.95199 220.72061 219.59923 218.55585 217.65647 216.79410
 216.03272 215.20934 214.30396 213.66458 213.11121 213.44479 214.23293 216.39201
 218.92909 220.85748 222.14555 223.17938 224.55264 226.50496 228.72404 230.82738
 232.18985 233.21150 235.33040 238.68356 242.57285 246.65808 250.71806 254.56020
 257.95285 260.96255 263.70804 266.24893 268.63870 270.85205 272.72021 274.35101
 275.92114 277.36996 278.88220 280.25287 281.44293 282.50137 283.47318 284.36301
 285.17300 285.90121 286.55087 287.44312
 366.78100 356.33109 345.75917 334.62126 323.02034 311.21043 299.07652 286.87560
 274.58369 262.47677 250.48186 239.77894 229.89703 220.99712 213.17520 206.17329
 200.00337 194.93746 191.51555 189.55363 188.58672 188.64680 189.47789 190.78197
 192.50306 194.59415 196.85323 199.20832 201.64940 204.12549 206.20958 208.04766
 209.66975 210.81083 211.03592 211.26001 211.19309 210.89418 210.52326 210.14935
 209.76243 209.46852 209.27261 209.13269 209.05678 209.38386 209.76595 210.15104
 210.94012 212.11421 213.36029 215.13938 217.06347 219.10255 221.19364 223.27272
 225.32881 227.40889 229.50198 231.60407 233.72915 235.89724 238.14932 240.51541
 243.13250 245.37958 247.37767 249.13875 250.55184 251.67092 252.48901 252.80110
 252.83418 252.60427 251.96035 250.90444 249.50653 247.66361 245.56870 243.39778
 241.18487 238.98496 236.80104 234.63613 232.49221 230.35530 228.37738 226.53047
 224.80956 223.27764 221.90373 220.67181 219.54990 218.50599 217.60607 216.74316
 215.98124 215.15733 214.25141 213.61150 213.05759 213.42017 214.27682 216.49432
 219.10121 220.99823 222.22667 223.37363 224.76981 226.50914 228.70944 230.81125
 231.96086 232.71860 234.85526 238.41216 242.44896 246.60179 250.67247 254.49957
 257.89401 260.92096 263.67935 266.21524 268.59576 270.80914 272.69864 274.35226
 275.89633 277.36340 278.87796 280.24771 281.43646 282.49371 283.46588 284.35428
 285.16302 285.89301 286.54178 287.43860
 366.78100 356.33036 345.75772 334.61908 323.01744 311.20680 299.07215 286.87051
 274.57787 262.47023 250.47459 239.77095 229.88831 220.98767 213.16503 206.16239
 199.99175 194.92510 191.50246 189.53982 188.57218 188.63154 189.46190 190.76526
 192.48562 194.57598 196.83434 199.18870 201.62905 204.10441 206.18777 208.02513
 209.64649 210.78685 211.01121 211.23457 211.16693 210.86729 210.49565 210.12100
 209.73336 209.43872 209.24208 209.10144 209.02480 209.35116 209.73252 210.11688
 210.90524 212.07860 213.32395 215.10231 217.02567 219.06403 221.15439 223.23275
 225.28811 227.36747 229.45983 231.56119 233.68555 235.85290 238.10426 240.46962
 243.08598 245.33234 247.32970 249.09006 250.50242 251.62078 252.43814 252.74950
 252.78185 252.55121 251.90657 250.84993 249.45129 247.60765 245.51201 243.34037
 241.12673 238.92609 236.74145 234.57580 232.43116 230.29352 228.31488 226.46724
 224.74560 223.21296 221.83832 220.60568 219.48304 218.43840 217.53775 216.67411
 215.91147 215.08683 214.18019 213.53955 212.98491 213.38507 214.33049 216.61061
 219.24544 221.09770 222.33997 223.52754 224.98669 226.59377 228.70609 230.71793
 231.67236 232.26453 234.41000 238.15170 242.34131 246.55682 250.63051 254.43881
 257.83502 260.87842 263.65106 266.18381 268.55594 270.77017 272.67880 274.35333
 275.89505 277.35327 278.86691 280.23596 281.42444 282.48157 283.45361 284.34265
 285.15063 285.88089 286.53101 287.42685
 366.78100 356.32941 345.75582 334.61624 323.01365 311.20206 299.06647 286.86389
 274.57030 262.46171 250.46512 239.76054 229.87695 220.97536 213.15177 206.14819
 199.97660 194.90901 191.48542 189.52184 188.55325 188.61166 189.44107 190.74349
 192.46290 194.55231 196.80972 199.16314 201.60255 204.07696 206.15937 207.99579
 209.61620 210.75561 210.97902 211.20144 211.13285 210.83226 210.45967 210.08408
 209.69550 209.39991 209.20232 209.06073 208.98315 209.30856 209.68897 210.07238
 210.85980 212.03221 213.27662 215.05403 216.97645 219.01386 221.10327 223.18068
 225.23510 227.31351 229.40492 231.50533 233.62875 235.79516 238.04557 240.40998
 243.02540 245.27081 247.26722 249.02663 250.43805 251.55546 252.37187 252.68228
 252.71370 252.48211 251.83652 250.77893 249.37935 247.53476 245.43817 243.26558
 241.05099 238.84941 236.66382 234.49723 232.35164 230.21306 228.23347 226.38488
 224.66229 223.12871 221.75312 220.51953 219.39594 218.35036 217.44877 216.58418
 215.82059 214.99501 214.08742 213.44583 212.89024 213.33847 214.39748 216.73529
 219.35590 221.19461 222.44125 223.66638 225.16983 226.70929 228.72983 230.58229
 231.34810 231.83533 234.01102 237.91638 242.24496 246.51572 250.58699 254.37450
 257.77255 260.83405 263.62280 266.15613 268.52240 270.73718 272.66306 274.35767
 275.89969 277.34323 278.85284 280.22198 281.41028 282.46756 283.43878 284.32736
 285.13654 285.86554 286.51697 287.41388
 366.78100 356.32829 345.75359 334.61288 323.00918 311.19647 299.05977 286.85606
 274.56136 262.45165 250.45395 239.74824 229.86354 220.96083 213.13613 206.13142
 199.95872 194.89001 191.46531 189.50060 188.53090 188.58819 189.41649 190.71778
 192.43608 194.52437 196.78067 199.13296 201.57126 204.04455 206.12585 207.96114
 209.58044 210.71873 210.94103 211.16232 211.09262 210.79091 210.41721 210.04050
 209.65080 209.35409 209.15539 209.01268 208.93397 209.25827 209.63756 210.01986
 210.80615 211.97745 213.22074 214.99704 216.91833 218.95463 221.04292 223.11922
 225.17251 227.24981 229.34010 231.43940 233.56169 235.72699 237.97628 240.33958
 242.95387 245.19817 247.19346 248.95176 250.36205 251.47835 252.29364 252.60294
 252.63323 252.40053 251.75382 250.69512 249.29441 247.44871 245.35100 243.17730
 240.96159 238.75889 236.57218 234.40448 232.25777 230.11806 228.13736 226.28765
 224.56395 223.02924 221.65254 220.41783 219.29313 218.24642 217.34372 216.47801
 215.71331 214.88660 213.97790 213.33519 212.77849 213.28409 214.47861 216.85765
 219.44051 221.28470 222.53497 223.82838 225.33098 226.81746 228.77550 230.40446
 231.00848 231.44562 233.64104 237.69792 242.15581 246.47391 250.54103 254.31142
 257.71008 260.78851 263.59573 266.13220 268.49402 270.70840 272.64432 274.35199
 275.89972 277.33618 278.84470 280.21283 281.40222 282.45856 283.42963 284.31827
 285.12656 285.85605 286.50555 287.40570
 366.78100 356.32727 345.75153 334.60980 323.00507 311.19133 299.05360 286.84887
 274.55313 262.44240 250.44367 239.73693 229.85120 220.94747 213.12173 206.11600
 199.94227 194.87253 191.44680 189.48107 188.51033 188.56660 189.39387 190.69414
 192.41140 194.49867 196.75394 199.10520 201.54247 204.01474 206.09500 207.92927
 209.54754 210.68480 210.90607 211.12634 211.05560 210.75287 210.37814 210.00040
 209.60967 209.31194 209.11220 208.96847 208.88874 209.21200 209.59027 209.97154
 210.75680 211.92707 213.16934 214.94460 216.86487 218.90014 220.98740 223.06267
 225.11494 227.19120 229.28047 231.37874 233.50000 235.66427 237.91254 240.27480
 242.88807 245.13134 247.12561 248.88287 250.29214 251.40741 252.22167 252.52994
 252.55921 252.32547 251.67774 250.61801 249.21627 247.36954 245.27081 243.09607
 240.87934 238.67561 236.48787 234.31914 232.17141 230.03067 228.04894 226.19821
 224.47347 222.93774 221.56001 220.32427 219.19854 218.15081 217.24707 216.38034
 215.61461 214.78687 213.87714 213.23341 212.67567 213.23584 214.55930 216.97836
 219.51311 221.36006 222.63812 224.00391 225.47372 226.90912 228.82677 230.20187
 230.66653 231.09360 233.30577 237.49860 242.06815 246.42453 250.48985 254.24710
 257.64883 260.74448 263.57117 266.11307 268.47171 270.68445 272.62643 274.34225
 275.92606 277.33023 278.83600 280.20737 281.39798 282.45807 283.43420 284.32678
 285.14844 285.88641 286.54465 287.44647
 366.78100 356.32634 345.74968 334.60702 323.00135 311.18669 299.04803 286.84237
 274.54571 262.43405 250.43438 239.72672 229.84006 220.93540 213.10874 206.10208
 199.92741 194.85675 191.43009 189.46343 188.49177 188.54711 189.37344 190.67278
 192.38912 194.47546 196.72980 199.08014 201.51648 203.98781 206.06715 207.90049
 209.51783 210.65417 210.87451 211.09384 211.02218 210.71852 210.34286 209.96420
 209.57254 209.27387 209.07321 208.92855 208.84789 209.17023 209.54757 209.92790
 210.71224 211.88158 213.12292 214.89726 216.81660 218.85094 220.93727 223.01161
 225.06295 227.13829 229.22663 231.32397 233.44430 235.60764 237.85498 240.21632
 242.82866 245.07100 247.06433 248.82067 250.22901 251.34335 252.15669 252.46403
 252.49236 252.25770 251.60904 250.54838 249.14572 247.29806 245.19840 243.02273
 240.80507 238.60041 236.41175 234.24209 232.09343 229.95176 227.96910 226.11744
 224.39178 222.85512 221.47646 220.23979 219.11313 218.06447 217.15981 216.29215
 215.52549 214.69682 213.78616 213.14150 212.58284 213.19394 214.63773 217.09863
 219.57686 221.42447 222.75072 224.17085 225.60487 226.98973 228.86359 230.00047
 230.33719 230.76978 233.01314 237.32184 241.98296 246.36734 250.43025 254.18021
 257.58856 260.70361 263.55167 266.10272 268.46216 270.67398 272.61673 274.33752
 275.94974 277.31787 278.81940 280.19278 281.38550 282.44778 283.42514 284.32138
 285.14240 285.88663 286.54089 287.44901
 366.78100 356.32540 345.74780 334.60420 322.99760 311.18200 299.04240 286.83580
 274.53819 262.42559 250.42499 239.71639 229.82879 220.92319 213.09559 206.08799
 199.91239 194.84079 191.41319 189.44559 188.47299 188.52739 189.35279 190.65119
 192.36658 194.45198 196.70538 199.05478 201.49018 203.96058 206.03898 207.87138
 209.48778 210.62318 210.84258 211.06098 210.98838 210.68378 210.30718 209.92758
 209.53497 209.23537 209.03377 208.88817 208.80657 209.12797 209.50437 209.88377
 210.66717 211.83557 213.07597 214.84937 216.76777 218.80117 220.88657 222.95997
 225.01036 227.08476 229.17216 231.26856 233.38796 235.55036 237.79676 240.15716
 242.76856 245.00996 247.00236 248.75776 250.16516 251.27856 252.09096 252.39736
 252.42475 252.18915 251.53955 250.47795 249.07435 247.22575 245.12515 242.94855
 240.72995 238.52435 236.33475 234.16415 232.01455 229.87195 227.88835 226.03575
 224.30914 222.77154 221.39194 220.15434 219.02674 217.97714 217.07154 216.20294
 215.43534 214.60574 213.69414 213.04854 212.48894 213.15260 214.72058 217.21822
 219.63040 221.48170 222.86165 224.32396 225.73601 227.06723 228.87627 229.80650
 230.02666 230.46773 232.75691 237.16985 241.90475 246.31012 250.36589 254.10815
 257.52615 260.66400 263.53632 266.10187 268.46371 270.67401 272.61292 274.32996
 275.91531 277.31372 278.81708 280.18878 281.37958 282.44061 283.41724 284.31204
 285.13254 285.87491 286.53113 287.44043
 366.78100 356.32441 345.74581 334.60122 322.99363 311.17704 299.03644 286.82885
 274.53026 262.41666 250.41507 239.70548 229.81689 220.91029 213.08170 206.07311
 199.89651 194.82392 191.39533 189.42673 188.45314 188.50655 189.33096 190.62836
 192.34277 194.42718 196.67958 199.02799 201.46240 203.93181 206.00921 207.84062
 209.45603 210.59043 210.80884 211.02625 210.95266 210.64706 210.26947 209.88888
 209.49528 209.19469 208.99210 208.84551 208.76291 209.08332 209.45873 209.83713
 210.61954 211.78695 213.02635 214.79876 216.71617 218.74858 220.83298 222.90539
 224.95480 227.02820 229.11461 231.21002 233.32843 235.48983 237.73524 240.09465
 242.70505 244.94546 246.93687 248.69128 250.09768 251.21009 252.02150 252.32690
 252.35331 252.11672 251.46613 250.40353 248.99894 247.14935 245.04775 242.87016
 240.65057 238.44397 236.25338 234.08179 231.93120 229.78760 227.80301 225.94942
 224.22182 222.68323 221.30264 220.06405 218.93545 217.88486 216.97827 216.10867
 215.34008 214.50949 213.59690 212.95030 212.38971 213.11015 214.81227 217.33687
 219.67410 221.53114 222.96416 224.46486 225.87355 227.14796 228.86720 229.61792
 229.73363 230.18805 232.53230 237.03952 241.82971 246.24599 250.29459 254.03136
 257.46149 260.62488 263.52512 266.10873 268.47672 270.68564 272.61499 274.32220
 275.88544 277.30539 278.81110 280.18265 281.37408 282.43237 283.40872 284.30417
 285.12347 285.86746 286.52246 287.43365
 366.78100 356.32341 345.74382 334.59823 322.98964 311.17205 299.03045 286.82186
 274.52227 262.40768 250.40509 239.69450 229.80491 220.89732 213.06773 206.05814
 199.88054 194.80695 191.37736 189.40777 188.43318 188.48559 189.30900 190.60541
 192.31882 194.40223 196.65363 199.00104 201.43445 203.90286 205.97927 207.80968
 209.42409 210.55750 210.77491 210.99132 210.91672 210.61013 210.23154 209.84995
 209.45536 209.15377 208.95018 208.80259 208.71900 209.03841 209.41281 209.79022
 210.57163 211.73804 212.97645 214.74786 216.66427 218.69568 220.77909 222.85050
 224.89890 226.97131 229.05672 231.15113 233.26854 235.42895 237.67336 240.03177
 242.64118 244.88059 246.87100 248.62440 250.02981 251.14122 251.95163 252.25604
 252.28145 252.04386 251.39227 250.32868 248.92309 247.07249 244.96990 242.79131
 240.57072 238.36313 236.17154 233.99895 231.84736 229.70277 227.71718 225.86258
 224.13399 222.59440 221.21281 219.97322 218.84363 217.79204 216.88445 216.01386
 215.24427 214.41267 213.49908 212.85149 212.28990 213.06917 214.91028 217.45497
 219.71272 221.56917 223.05099 224.59686 226.00894 227.22989 228.84647 229.42848
 229.45050 229.93242 232.33842 236.93147 241.75978 246.17911 250.21921 253.95123
 257.39551 260.58633 263.51651 266.12033 268.49542 270.70300 272.61932 274.31052
 275.84766 277.29575 278.80688 280.17749 281.36703 282.42618 283.40115 284.29468
 285.11484 285.85605 286.51492 287.43127
 366.78100 356.32224 345.74148 334.59472 322.98496 311.16620 299.02344 286.81368
 274.51292 262.39716 250.39340 239.68164 229.79088 220.88211 213.05135 206.04059
 199.86183 194.78707 191.35631 189.38555 188.40979 188.46103 189.28327 190.57851
 192.29075 194.37299 196.62323 198.96947 201.40171 203.86895 205.94419 207.77343
 209.38667 210.51891 210.73515 210.95039 210.87463 210.56686 210.18710 209.80434
 209.40858 209.10582 208.90106 208.75230 208.66754 208.98578 209.35902 209.73526
 210.51550 211.68074 212.91798 214.68822 216.60346 218.63370 220.71594 222.78618
 224.83342 226.90466 228.98890 231.08214 233.19838 235.35761 237.60085 239.95809
 242.56633 244.80457 246.79381 248.54605 249.95029 251.06053 251.86977 252.17301
 252.19725 251.95849 251.30573 250.24097 248.83421 246.98245 244.87869 242.69893
 240.47717 238.26841 236.07565 233.90189 231.74913 229.60336 227.61660 225.76084
 224.03108 222.49032 221.10756 219.86680 218.73604 217.68328 216.77452 215.90276
 215.13200 214.29924 213.38448 212.73572 212.17296 213.02072 215.02364 217.57828
 219.73087 221.59970 223.12529 224.72226 226.14748 227.31160 228.81851 229.24905
 229.18503 229.69841 232.18217 236.82643 241.68835 246.10487 250.13582 253.86957
 257.33084 260.55096 263.51227 266.13870 268.52243 270.72818 272.62967 274.29953
 275.82916 277.28387 278.79492 280.16565 281.35522 282.41510 283.38831 284.28171
 285.10303 285.84525 286.50308 287.41739
 366.78100 356.32105 345.73911 334.59116 322.98021 311.16027 299.01632 286.80537
 274.50342 262.38648 250.38153 239.66858 229.77664 220.86669 213.03474 206.02280
 199.84285 194.76690 191.33496 189.36301 188.38606 188.43611 189.25717 190.55122
 192.26227 194.34333 196.59238 198.93743 201.36849 203.83454 205.90859 207.73664
 209.34870 210.47975 210.69480 210.90886 210.83191 210.52296 210.14202 209.75807
 209.36112 209.05718 208.85123 208.70128 208.61533 208.93239 209.30444 209.67949
 210.45855 211.62260 212.85865 214.62771 216.54176 218.57081 220.65187 222.72092
 224.76697 226.83702 228.92008 231.01213 233.12718 235.28524 237.52729 239.88334
 242.49040 244.72745 246.71550 248.46656 249.86961 250.97866 251.78671 252.08877
 252.11182 251.87187 251.21793 250.15198 248.74403 246.89109 244.78614 242.60519
 240.38224 238.17230 235.97835 233.80340 231.64946 229.50251 227.51456 225.65762
 223.92667 222.38472 221.00078 219.75883 218.62688 217.57293 216.66299 215.79004
 215.01809 214.18415 213.26820 212.61825 212.05431 212.97186 215.13972 217.71910
 219.74480 221.59201 223.16386 224.80373 226.29936 227.46259 228.83134 229.08258
 228.89272 229.44135 232.03938 236.73878 241.60878 246.02718 250.06436 253.79932
 257.27237 260.51816 263.50824 266.15646 268.54898 270.75388 272.63666 274.28259
 275.79535 277.27063 278.78647 280.15616 281.34488 282.40298 283.37720 284.26935
 285.09128 285.83313 286.49097 287.40689
 366.78100 356.32013 345.73725 334.58838 322.97650 311.15563 299.01075 286.79888
 274.49601 262.37813 250.37226 239.65838 229.76551 220.85464 213.02176 206.00889
 199.82801 194.75114 191.31826 189.34539 188.36752 188.41664 189.23677 190.52989
 192.24002 194.32014 196.56827 198.91240 201.34252 203.80765 205.88077 207.70790
 209.31903 210.44915 210.66328 210.87640 210.79853 210.48865 210.10678 209.72191
 209.32403 209.01916 208.81228 208.66141 208.57453 208.89066 209.26179 209.63591
 210.41404 211.57716 212.81229 214.58041 216.49354 218.52167 220.60179 222.66992
 224.71504 226.78417 228.86630 230.95742 233.07155 235.22867 237.46980 239.82492
 242.43105 244.66718 246.65430 248.40443 249.80655 250.91468 251.72180 252.02293
 252.04506 251.80418 251.14931 250.08243 248.67356 246.81969 244.71381 242.53194
 240.30806 238.09719 235.90231 233.72644 231.57157 229.42369 227.43482 225.57694
 223.84507 222.30219 220.91732 219.67445 218.54157 217.48670 216.57582 215.70195
 214.92908 214.09420 213.17733 212.52645 211.96158 212.93880 215.24757 217.84048
 219.79367 221.61981 223.23856 224.82785 226.19478 227.46841 228.93275 229.23404
 228.79228 229.02991 231.84668 236.67435 241.54900 245.98320 250.01088 253.72887
 257.20740 260.47757 263.49863 266.17072 268.57513 270.78043 272.64456 274.26297
 275.83917 277.24460 278.75098 280.12427 281.31662 282.37787 283.35306 284.24765
 285.06781 285.81076 286.46909 287.38730
 366.78100 356.31933 345.73566 334.58599 322.97333 311.15166 299.00599 286.79332
 274.48965 262.37098 250.36432 239.64965 229.75598 220.84431 213.01064 205.99697
 199.81531 194.73764 191.30397 189.33030 188.35163 188.39996 189.21929 190.51163
 192.22096 194.30029 196.54762 198.89095 201.32028 203.78462 205.85695 207.68328
 209.29361 210.42294 210.63627 210.84860 210.76994 210.45927 210.07660 209.69093
 209.29226 208.98659 208.77893 208.62726 208.53959 208.85492 209.22525 209.59858
 210.37592 211.53825 212.77258 214.53991 216.45224 218.47957 220.55890 222.62624
 224.67057 226.73890 228.82023 230.91056 233.02389 235.18023 237.42056 239.77489
 242.38022 244.61555 246.60188 248.35121 249.75255 250.85988 251.66621 251.96654
 251.98787 251.74620 251.09054 250.02287 248.61320 246.75853 244.65186 242.46919
 240.24453 238.03286 235.83719 233.66052 231.50485 229.35618 227.36651 225.50785
 223.77518 222.23151 220.84584 219.60217 218.46850 217.41284 216.50117 215.62650
 214.85283 214.01716 213.09949 212.44782 211.88216 212.91437 215.35306 217.97266
 219.81929 221.64783 223.26413 224.93231 226.34114 227.50067 228.78262 229.20515
 228.71310 228.75813 231.70801 236.62735 241.51393 245.94012 249.94041 253.65042
 257.14307 260.44101 263.49222 266.18970 268.60794 270.81442 272.65939 274.24841
 275.80405 277.23303 278.74216 280.11346 281.30444 282.36465 283.33942 284.23337
 285.05270 285.79605 286.45416 287.37375
 366.78100 356.31852 345.73404 334.58356 322.97008 311.14759 299.00111 286.78763
 274.48315 262.36367 250.35619 239.64071 229.74623 220.83375 212.99926 205.98478
 199.80230 194.72382 191.28934 189.31486 188.33538 188.38290 189.20142 190.49293
 192.20145 194.27997 196.52649 198.86901 201.29753 203.76105 205.83257 207.65809
 209.26760 210.39612 210.60864 210.82016 210.74068 210.42920 210.04572 209.65924
 209.25976 208.95327 208.74479 208.59231 208.50383 208.81835 209.18787 209.56039
 210.33691 211.49843 212.73194 214.49846 216.40998 218.43650 220.51502 222.58154
 224.62506 226.69258 228.77310 230.86261 232.97513 235.13065 237.37017 239.72369
 242.32821 244.56273 246.54825 248.29677 249.69728 250.80380 251.60932 251.90884
 251.92936 251.68688 251.03040 249.96192 248.55143 246.69595 244.58847 242.40499
 240.17951 237.96703 235.77055 233.59307 231.43659 229.28710 227.29662 225.43714
 223.70366 222.15918 220.77270 219.52822 218.39374 217.33726 216.42477 215.54929
 214.77481 213.93833 213.01985 212.36737 211.80089 212.89062 215.46524 218.10887
 219.82545 221.66765 223.28651 225.01282 226.57953 227.61504 228.55594 229.03250
 228.57216 228.58788 231.63547 236.58853 241.47679 245.88416 249.86844 253.57784
 257.08182 260.40494 263.48615 266.20917 268.64090 270.84860 272.67569 274.23419
 275.74316 277.22046 278.73712 280.10718 281.29703 282.35742 283.33005 284.22290
 285.04169 285.78552 286.44308 287.36343
 366.78100 356.31777 345.73254 334.58131 322.96708 311.14385 298.99662 286.78239
 274.47716 262.35693 250.34870 239.63247 229.73724 220.82401 212.98878 205.97355
 199.79032 194.71109 191.27586 189.30063 188.32040 188.36717 189.18494 190.47571
 192.18348 194.26125 196.50702 198.84879 201.27656 203.73933 205.81010 207.63487
 209.24364 210.37141 210.58318 210.79395 210.71372 210.40149 210.01727 209.63004
 209.22981 208.92258 208.71335 208.56012 208.47089 208.78466 209.15343 209.52520
 210.30097 211.46174 212.69451 214.46028 216.37105 218.39682 220.47459 222.54036
 224.58313 226.64990 228.72967 230.81844 232.93021 235.08498 237.32375 239.67652
 242.28029 244.51406 246.49883 248.24660 249.64637 250.75214 251.55691 251.85568
 251.87545 251.63222 250.97499 249.90576 248.49453 246.63830 244.53007 242.34584
 240.11961 237.90638 235.70915 233.53092 231.37369 229.22346 227.23223 225.37200
 223.63777 222.09254 220.70531 219.46008 218.32485 217.26762 216.35439 215.47816
 214.70293 213.86570 212.94647 212.29324 211.72601 212.87251 215.58124 218.22771
 219.85239 221.68173 223.34610 225.06767 226.69563 227.68869 228.45352 228.84547
 228.34326 228.43140 231.59482 236.55283 241.42805 245.82611 249.80753 253.51523
 257.02554 260.36792 263.47635 266.22412 268.66995 270.87979 272.68918 274.21881
 275.69116 277.20441 278.72760 280.09885 281.28687 282.34604 283.31860 284.21048
 285.02933 285.77249 286.43051 287.35245
 366.78100 356.31727 345.73155 334.57982 322.96509 311.14136 298.99364 286.77891
 274.47318 262.35246 250.34373 239.62700 229.73127 220.81755 212.98182 205.96609
 199.78237 194.70264 191.26691 189.29118 188.31046 188.35673 189.17400 190.46428
 192.17155 194.24882 196.49409 198.83537 201.26264 203.72491 205.79519 207.61946
 209.22773 210.35500 210.56628 210.77655 210.69582 210.38310 209.99837 209.61064
 209.20991 208.90219 208.69246 208.53873 208.44901 208.76228 209.13055 209.50182
 210.27710 211.43737 212.66964 214.43492 216.34519 218.37046 220.44773 222.51301
 224.55528 226.62155 228.70083 230.78910 232.90037 235.05464 237.29292 239.64519
 242.24846 244.48174 246.46601 248.21328 249.61255 250.71783 251.52210 251.82037
 251.83965 251.59592 250.93819 249.86846 248.45674 246.60001 244.49128 242.30655
 240.07983 237.86610 235.66837 233.48965 231.33192 229.18119 227.18946 225.32874
 223.59401 222.04828 220.66056 219.41483 218.27910 217.22137 216.30765 215.43092
 214.65519 213.81747 212.89774 212.24401 211.67628 212.86932 215.68800 218.33530
 219.90395 221.69542 223.41068 225.12717 226.72350 227.70271 228.44145 228.66412
 228.07019 228.28265 231.57477 236.51900 241.36935 245.76692 249.75195 253.45917
 256.97491 260.33289 263.46420 266.23383 268.69275 270.90472 272.69867 274.19946
 275.72388 277.17719 278.69153 280.06528 281.25812 282.31927 283.29486 284.18774
 285.00589 285.75040 286.40637 287.33246
 366.78100 356.31716 345.73132 334.57948 322.96464 311.14080 298.99296 286.77812
 274.47228 262.35144 250.34260 239.62576 229.72992 220.81608 212.98024 205.96440
 199.78056 194.70072 191.26488 189.28904 188.30820 188.35436 189.17153 190.46169
 192.16885 194.24601 196.49117 198.83233 201.25949 203.72165 205.79181 207.61597
 209.22413 210.35129 210.56245 210.77261 210.69177 210.37893 209.99409 209.60625
 209.20541 208.89757 208.68773 208.53389 208.44405 208.75721 209.12537 209.49653
 210.27169 211.43185 212.66401 214.42917 216.33933 218.36449 220.44165 222.50681
 224.54897 226.61513 228.69429 230.78245 232.89361 235.04777 237.28593 239.63809
 242.24126 244.47442 246.45858 248.20574 249.60490 250.71006 251.51422 251.81238
 251.83154 251.58770 250.92986 249.86002 248.44818 246.59134 244.48250 242.29766
 240.07082 237.85698 235.65914 233.48030 231.32246 229.17162 227.17978 225.31894
 223.58410 222.03826 220.65042 219.40458 218.26874 217.21090 216.29706 215.42022
 214.64438 213.80654 212.88670 212.23286 211.66502 212.88757 215.77600 218.44518
 219.96628 221.71179 223.46512 225.19319 226.72716 227.70047 228.43988 228.47717
 227.79985 228.16034 231.56500 236.48183 241.30827 245.70877 249.69812 253.40823
 256.92950 260.29999 263.44962 266.23926 268.71021 270.92331 272.70447 274.18246
 275.65295 277.16455 278.68839 280.06046 281.25143 282.31015 283.28503 284.17621
 284.99451 285.73779 286.39633 287.32034
 366.78100 356.31732 345.73164 334.57995 322.96527 311.14159 298.99391 286.77922
 274.47354 262.35286 250.34418 239.62749 229.73181 220.81813 212.98245 205.96676
 199.78308 194.70340 191.26772 189.29203 188.31135 188.35767 189.17499 190.46530
 192.17262 194.24994 196.49526 198.83657 201.26389 203.72621 205.79653 207.62084
 209.22916 210.35648 210.56780 210.77811 210.69743 210.38475 210.00007 209.61238
 209.21170 208.90402 208.69434 208.54065 208.45097 208.76429 209.13261 209.50393
 210.27924 211.43956 212.67188 214.43720 216.34751 218.37283 220.45015 222.51547
 224.55778 226.62410 228.70342 230.79174 232.90305 235.05737 237.29569 239.64801
 242.25132 244.48464 246.46896 248.21628 249.61559 250.72091 251.52523 251.82355
 251.84286 251.59918 250.94150 249.87182 248.46013 246.60345 244.49477 242.31009
 240.08340 237.86972 235.67204 233.49336 231.33567 229.18499 227.19331 225.33263
 223.59794 222.05226 220.66458 219.41890 218.28322 217.22553 216.31185 215.43517
 214.65949 213.82180 212.90212 212.24844 211.68076 212.92120 215.85190 218.55000
 220.03906 221.73642 223.51460 225.25749 226.71484 227.68848 228.42766 228.29482
 227.55952 228.06891 231.55360 236.43864 241.24496 245.64838 249.64577 253.36229
 256.88791 260.26743 263.43317 266.24014 268.72214 270.93515 272.70526 274.16159
 275.65265 277.14069 278.66135 280.03595 281.22873 282.28973 283.26462 284.15802
 284.97675 285.71841 286.37766 287.30786
 366.78100 356.31763 345.73225 334.58088 322.96650 311.14313 298.99575 286.78138
 274.47600 262.35563 250.34725 239.63088 229.73551 220.82213 212.98676 205.97138
 199.78801 194.70863 191.27326 189.29788 188.31751 188.36414 189.18176 190.47239
 192.18001 194.25764 196.50326 198.84489 201.27251 203.73514 205.80576 207.63039
 209.23902 210.36664 210.57827 210.78889 210.70852 210.39614 210.01177 209.62439
 209.22402 208.91664 208.70727 208.55390 208.46452 208.77815 209.14677 209.51840
 210.29402 211.45465 212.68727 214.45290 216.36352 218.38915 220.46678 222.53240
 224.57503 226.64165 228.72128 230.80990 232.92153 235.07615 237.31478 239.66741
 242.27103 244.50466 246.48928 248.23691 249.63653 250.74216 251.54678 251.84541
 251.86503 251.62166 250.96429 249.89491 248.48354 246.62716 244.51879 242.33441
 240.10804 237.89466 235.69729 233.51891 231.36154 229.21117 227.21979 225.35942
 223.62504 222.07967 220.69229 219.44692 218.31154 217.25417 216.34079 215.46442
 214.68905 213.85167 212.93230 212.27892 211.71155 212.96396 215.92290 218.63960
 220.12393 221.77667 223.56294 225.30981 226.69046 227.66222 228.40317 228.13164
 227.36110 228.00217 231.53497 236.38635 241.17648 245.58604 249.59612 253.32120
 256.85046 260.23611 263.41321 266.23505 268.72650 270.93988 272.70172 274.14560
 275.58936 277.12711 278.65695 280.02939 281.22083 282.28085 283.25479 284.14700
 284.96439 285.70813 286.36569 287.29257
 366.78100 356.31810 345.73319 334.58229 322.96839 311.14548 298.99858 286.78468
 274.47977 262.35987 250.35197 239.63606 229.74116 220.82826 212.99335 205.97845
 199.79555 194.71664 191.28174 189.30684 188.32693 188.37403 189.19213 190.48322
 192.19132 194.26942 196.51551 198.85761 201.28571 203.74880 205.81990 207.64500
 209.25409 210.38219 210.59429 210.80538 210.72548 210.41358 210.02967 209.64277
 209.24287 208.93596 208.72706 208.57416 208.48525 208.79935 209.16845 209.54054
 210.31664 211.47774 212.71083 214.47693 216.38803 218.41412 220.49222 222.55832
 224.60141 226.66851 228.74861 230.83770 232.94980 235.10490 237.34399 239.69709
 242.30119 244.53528 246.52038 248.26848 249.66857 250.77467 251.57977 251.87886
 251.89896 251.65606 250.99915 249.93025 248.51935 246.66344 244.55554 242.37164
 240.14573 237.93283 235.73593 233.55802 231.40112 229.25122 227.26031 225.40041
 223.66651 222.12160 220.73470 219.48980 218.35489 217.29799 216.38509 215.50918
 214.73428 213.89738 212.97847 212.32557 211.75867 213.01613 215.98700 218.71420
 220.21793 221.83704 223.61502 225.34349 226.65952 227.62621 228.36156 227.99278
 227.20517 227.95383 231.51021 236.32436 241.10236 245.52293 249.55031 253.28491
 256.81696 260.20547 263.39023 266.22482 268.72455 270.93698 272.69479 274.12952
 275.58807 277.10660 278.63364 280.00690 281.20053 282.26279 283.23822 284.13010
 284.94757 285.69290 286.35095 287.27911
 366.78100 356.31876 345.73452 334.58428 322.97104 311.14880 299.00256 286.78933
 274.48509 262.36585 250.35861 239.64337 229.74913 220.83689 213.00265 205.98841
 199.80617 194.72793 191.29369 189.31945 188.34021 188.38798 189.20674 190.49850
 192.20726 194.28602 196.53278 198.87554 201.30430 203.76806 205.83982 207.66558
 209.27534 210.40410 210.61686 210.82863 210.74939 210.43815 210.05491 209.66867
 209.26943 208.96319 208.75495 208.60271 208.51447 208.82923 209.19899 209.57175
 210.34852 211.51028 212.74404 214.51080 216.42256 218.44932 220.52808 222.59484
 224.63860 226.70636 228.78712 230.87688 232.98964 235.14540 237.38517 239.73893
 242.34369 244.57845 246.56421 248.31297 249.71373 250.82049 251.62625 251.92601
 251.94677 251.70453 251.04829 249.98005 248.56982 246.71458 244.60734 242.42410
 240.19886 237.98662 235.79038 233.61314 231.45690 229.30766 227.31742 225.45818
 223.72494 222.18071 220.79447 219.55023 218.41599 217.35975 216.44751 215.57227
 214.79803 213.96179 213.04355 212.39131 211.82507 213.07944 216.04301 218.77737
 220.31653 221.91862 223.67291 225.36314 226.62711 227.58470 228.30009 227.87012
 227.08545 227.91873 231.47812 236.25406 241.02460 245.46036 249.50824 253.25443
 256.78815 260.17648 263.36636 266.21173 268.71844 270.92758 272.68234 274.11346
 275.54190 277.09457 278.62857 280.00107 281.19379 282.25586 283.22922 284.12363
 284.94186 285.68417 286.34244 287.27182
 366.78100 356.31966 345.73633 334.58699 322.97466 311.15332 299.00799 286.79565
 274.49231 262.37398 250.36764 239.65331 229.75997 220.84864 213.01530 206.00197
 199.82063 194.74329 191.30996 189.33662 188.35829 188.40695 189.22662 190.51928
 192.22894 194.30861 196.55627 198.89994 201.32960 203.79427 205.86693 207.69360
 209.30426 210.43392 210.64759 210.86025 210.78192 210.47158 210.08925 209.70391
 209.30557 209.00024 208.79290 208.64157 208.55423 208.86990 209.24056 209.61422
 210.39189 211.55455 212.78922 214.55688 216.46955 218.49721 220.57688 222.64454
 224.68920 226.75787 228.83953 230.93020 233.04386 235.20053 237.44119 239.79585
 242.40152 244.63718 246.62385 248.37351 249.77518 250.88284 251.68951 251.99017
 252.01183 251.77050 251.11516 250.04783 248.63849 246.78416 244.67782 242.49548
 240.27115 238.05981 235.86448 233.68814 231.53281 229.38447 227.39513 225.53680
 223.80446 222.26113 220.87579 219.63246 218.49912 217.44379 216.53245 215.65811
 214.88478 214.04944 213.13211 212.48077 211.91544 213.15628 216.08791 218.83112
 220.41953 222.01469 223.73766 225.37492 226.60170 227.54208 228.22575 227.75230
 226.98111 227.89426 231.44661 236.17984 240.94470 245.39799 249.46799 253.22800
 256.76538 260.15271 263.34518 266.19965 268.70886 270.91083 272.66040 274.09229
 275.44812 277.10696 278.64819 280.01318 281.19913 282.25717 283.22900 284.12000
 284.93591 285.67816 286.33527 287.26639
 366.78100 356.32056 345.73811 334.58967 322.97823 311.15778 299.01334 286.80190
 274.49946 262.38201 250.37657 239.66313 229.77068 220.86024 213.02780 206.01535
 199.83491 194.75847 191.32603 189.35358 188.37614 188.42570 189.24625 190.53981
 192.25037 194.33092 196.57948 198.92404 201.35460 203.82015 205.89371 207.72127
 209.33282 210.46338 210.67794 210.89149 210.81405 210.50461 210.12317 209.73872
 209.34128 209.03684 208.83039 208.67995 208.59351 208.91006 209.28162 209.65618
 210.43474 211.59829 212.83385 214.60241 216.51596 218.54452 220.62508 222.69363
 224.73919 226.80875 228.89131 230.98286 233.09742 235.25498 237.49653 239.85209
 242.45865 244.69520 246.68276 248.43332 249.83588 250.94443 251.75199 252.05355
 252.07610 251.83566 251.18122 250.11477 248.70633 246.85289 244.74745 242.56600
 240.34256 238.13212 235.93767 233.76223 231.60779 229.46034 227.47190 225.61446
 223.88302 222.34057 220.95613 219.71369 218.58124 217.52680 216.61636 215.74291
 214.97047 214.13603 213.21959 212.56914 212.00470 213.23361 216.13707 218.85718
 220.53865 222.12665 223.78989 225.39244 226.57890 227.50291 228.14941 227.62617
 226.88931 227.87891 231.40755 236.10124 240.86064 245.33223 249.43036 253.21143
 256.75406 260.13635 263.32660 266.18668 268.69492 270.88446 272.62524 274.06143
 275.42343 277.08316 278.63528 280.00537 281.19571 282.25500 283.22787 284.12030
 284.93576 285.67737 286.33493 287.26889
 366.78100 356.32187 345.74074 334.59361 322.98347 311.16434 299.02121 286.81108
 274.50995 262.39382 250.38968 239.67755 229.78642 220.87729 213.04616 206.03503
 199.85589 194.78076 191.34963 189.37850 188.40237 188.45324 189.27510 190.56997
 192.28184 194.36371 196.61358 198.95945 201.39131 203.85818 205.93305 207.76192
 209.37479 210.50666 210.72252 210.93739 210.86126 210.55313 210.17300 209.78987
 209.39373 209.09060 208.88547 208.73634 208.65121 208.96908 209.34194 209.71781
 210.49768 211.66255 212.89942 214.66929 216.58415 218.61402 220.69589 222.76576
 224.81263 226.88350 228.96736 231.06023 233.17610 235.33497 237.57784 239.93471
 242.54257 244.78044 246.76931 248.52118 249.92505 251.03492 251.84378 252.14665
 252.17052 251.93139 251.27826 250.21313 248.80599 246.95386 244.84973 242.66960
 240.44747 238.23834 236.04520 233.87107 231.71794 229.57181 227.58468 225.72855
 223.99841 222.45728 221.07415 219.83302 218.70189 217.64876 216.73962 215.86749
 215.09636 214.26323 213.34810 212.69897 212.13583 213.33231 216.15910 218.90494
 220.61937 222.26088 223.87694 225.38800 226.56700 227.45512 228.06532 227.56198
 226.82292 227.82907 231.35956 236.01682 240.77219 245.27130 249.40773 253.20844
 256.74930 260.12244 263.30667 266.16986 268.67569 270.85071 272.58304 274.02512
 275.38922 277.07294 278.62949 280.00110 281.19324 282.25366 283.22775 284.11942
 284.93518 285.67526 286.33386 287.26987
 366.78100 356.32321 345.74342 334.59763 322.98884 311.17105 299.02926 286.82047
 274.52068 262.40589 250.40310 239.69231 229.80252 220.89473 213.06494 206.05515
 199.87736 194.80357 191.37378 189.40399 188.42920 188.48141 189.30462 190.60083
 192.31404 194.39725 196.64846 198.99567 201.42888 203.89709 205.97330 207.80351
 209.41772 210.55093 210.76814 210.98435 210.90956 210.60277 210.22398 209.84219
 209.44740 209.14561 208.94182 208.79403 208.71024 209.02945 209.40365 209.78086
 210.56207 211.72828 212.96649 214.73770 216.65391 218.68512 220.76833 222.83954
 224.88775 226.95996 229.04517 231.13938 233.25659 235.41680 237.66101 240.01922
 242.62843 244.86764 246.85785 248.61106 250.01627 251.12748 251.93769 252.24190
 252.26711 252.02932 251.37753 250.31374 248.90795 247.05716 244.95437 242.77558
 240.55479 238.34700 236.15521 233.98242 231.83063 229.68584 227.70005 225.84526
 224.11647 222.57668 221.19489 219.95510 218.82531 217.77352 216.86573 215.99494
 215.22515 214.39336 213.47957 212.83178 212.26999 213.43323 216.18149 218.94016
 220.71895 222.34100 223.99985 225.45947 226.47424 227.38832 228.07690 227.43051
 226.65236 227.77911 231.30534 235.92877 240.69380 245.22910 249.39883 253.20862
 256.74420 260.10904 263.28870 266.15540 268.65704 270.81430 272.53738 273.98715
 275.37177 277.06439 278.62286 279.99576 281.18912 282.24939 283.22464 284.11670
 284.93219 285.67276 286.33014 287.26382
 366.78100 356.32426 345.74551 334.60077 322.99303 311.17628 299.03554 286.82780
 274.52905 262.41531 250.41357 239.70382 229.81508 220.90834 213.07959 206.07085
 199.89411 194.82136 191.39262 189.42388 188.45013 188.50339 189.32765 190.62490
 192.33916 194.42342 196.67567 199.02393 201.45819 203.92744 206.00470 207.83596
 209.45121 210.58547 210.80373 211.02098 210.94724 210.64150 210.26375 209.88301
 209.48927 209.18852 208.98578 208.83904 208.75629 209.07655 209.45181 209.83006
 210.61232 211.77958 213.01883 214.79109 216.70835 218.74060 220.82486 222.89712
 224.94637 227.01963 229.10589 231.20114 233.31940 235.48066 237.72591 240.08517
 242.69543 244.93568 246.92694 248.68120 250.08745 251.19971 252.01097 252.31622
 252.34248 252.10573 251.45499 250.39225 248.98750 247.13776 245.03602 242.85827
 240.63853 238.43179 236.24104 234.06930 231.91856 229.77481 227.79007 225.93633
 224.20858 222.66984 221.28910 220.05035 218.92161 217.87087 216.96412 216.09438
 215.32564 214.49489 213.58215 212.93541 212.37466 213.51924 216.22345 218.95554
 220.80943 222.42740 224.13060 225.56880 226.45459 227.32153 227.97676 227.40746
 226.59616 227.61737 231.23201 235.88107 240.63802 245.19437 249.38676 253.20888
 256.74554 260.10416 263.27832 266.14642 268.63925 270.77475 272.48541 273.94180
 275.35641 277.05478 278.61441 279.98877 281.18106 282.24323 283.21991 284.11258
 284.92651 285.66748 286.32233 287.26193
 366.78100 356.32540 345.74781 334.60421 322.99761 311.18202 299.04242 286.83583
 274.53823 262.42563 250.42504 239.71644 229.82884 220.92325 213.09565 206.08805
 199.91246 194.84086 191.41327 189.44567 188.47307 188.52748 189.35288 190.65128
 192.36669 194.45209 196.70549 199.05490 201.49030 203.96071 206.03911 207.87151
 209.48792 210.62332 210.84272 211.06113 210.98853 210.68393 210.30734 209.92774
 209.53515 209.23555 209.03395 208.88836 208.80676 209.12816 209.50457 209.88397
 210.66738 211.83578 213.07618 214.84959 216.76799 218.80139 220.88680 222.96020
 225.01060 227.08501 229.17241 231.26882 233.38822 235.55062 237.79703 240.15743
 242.76883 245.01024 247.00264 248.75804 250.16545 251.27885 252.09126 252.39766
 252.42506 252.18947 251.53987 250.47827 249.07468 247.22608 245.12548 242.94889
 240.73029 238.52470 236.33510 234.16450 232.01491 229.87231 227.88871 226.03612
 224.30952 222.77192 221.39233 220.15473 219.02714 217.97754 217.07194 216.20335
 215.43575 214.60615 213.69456 213.04896 212.48936 213.61000 216.25764 218.97025
 220.90477 222.53920 224.16205 225.60637 226.57884 227.32889 227.80826 227.33505
 226.57257 227.53128 231.18370 235.82935 240.57240 245.14713 249.36989 253.21458
 256.75464 260.10587 263.27347 266.14087 268.62158 270.72928 272.42444 273.88943
 275.33798 277.04361 278.60446 279.97867 281.17310 282.23596 283.21106 284.10410
 284.91971 285.65967 286.31461 287.25534
 366.78100 356.32653 345.75007 334.60760 323.00214 311.18767 299.04921 286.84374
 274.54727 262.43581 250.43634 239.72888 229.84241 220.93794 213.11148 206.10501
 199.93055 194.86008 191.43362 189.46715 188.49568 188.55122 189.37775 190.67729
 192.39382 194.48035 196.73489 199.08542 201.52196 203.99349 206.07303 207.90656
 209.52409 210.66063 210.88116 211.10070 211.02923 210.72576 210.35030 209.97183
 209.58037 209.28190 209.08144 208.93697 208.85650 209.17904 209.55657 209.93711
 210.72164 211.89117 213.13271 214.90724 216.82678 218.86131 220.94785 223.02238
 225.07391 227.14945 229.23798 231.33552 233.45605 235.61958 237.86712 240.22865
 242.84119 245.08372 247.07726 248.83379 250.24232 251.35686 252.17039 252.47793
 252.50646 252.27199 251.62353 250.56306 249.16060 247.31313 245.21367 243.03820
 240.82073 238.61627 236.42780 234.25834 232.10987 229.96840 227.98594 226.13447
 224.40901 222.87254 221.49408 220.25761 219.13114 218.08268 217.17821 216.31075
 215.54428 214.71581 213.80535 213.16088 212.60242 213.69930 216.29076 218.98367
 220.99503 222.65630 224.16800 225.62032 226.73445 227.37206 227.64085 227.24117
 226.54744 227.47229 231.13083 235.76244 240.50226 245.10321 249.36182 253.22841
 256.76785 260.11060 263.27026 266.13620 268.60321 270.68152 272.36008 273.83350
 275.31769 277.02997 278.59250 279.96661 281.16196 282.22543 283.20135 284.09406
 284.90958 285.65063 286.30457 287.24713
 366.78100 356.32741 345.75181 334.61022 323.00562 311.19203 299.05443 286.84984
 274.55424 262.44365 250.44505 239.73846 229.85286 220.94927 213.12367 206.11808
 199.94448 194.87489 191.44930 189.48370 188.51311 188.56951 189.39692 190.69732
 192.41473 194.50213 196.75754 199.10894 201.54635 204.01875 206.09916 207.93356
 209.55197 210.68937 210.91078 211.13119 211.06059 210.75800 210.38340 210.00581
 209.61521 209.31762 209.11802 208.97443 208.89483 209.21824 209.59664 209.97805
 210.76345 211.93386 213.17626 214.95167 216.87208 218.90748 220.99489 223.07029
 225.12270 227.19910 229.28851 231.38691 233.50832 235.67272 237.92113 240.28353
 242.89694 245.14034 247.13475 248.89215 250.30156 251.41697 252.23137 252.53978
 252.56918 252.33559 251.68799 250.62840 249.22680 247.38021 245.28161 243.10702
 240.89042 238.68683 236.49923 234.33064 232.18304 230.04245 228.06086 226.21026
 224.48567 222.95007 221.57248 220.33688 219.21129 218.16369 217.26010 216.39350
 215.62791 214.80031 213.89072 213.24712 212.68953 213.77509 216.33983 218.98985
 221.07051 222.76645 224.20107 225.65665 226.85188 227.40390 227.48961 227.12384
 226.50920 227.42853 231.07701 235.70029 240.44313 245.07048 249.36150 253.24506
 256.78223 260.11569 263.26816 266.13168 268.58359 270.63089 272.29105 273.77234
 275.29352 277.01428 278.57620 279.95160 281.14658 282.21136 283.18726 284.07971
 284.89520 285.63550 286.29080 287.23361
 366.78100 356.32823 345.75346 334.61269 323.00892 311.19615 299.05939 286.85562
 274.56085 262.45108 250.45331 239.74754 229.86277 220.96000 213.13523 206.13046
 199.95770 194.88893 191.46416 189.49939 188.52962 188.58685 189.41508 190.71631
 192.43454 194.52277 196.77900 199.13124 201.56947 204.04270 206.12393 207.95916
 209.57839 210.71662 210.93885 211.16008 211.09031 210.78855 210.41478 210.03801
 209.64824 209.35147 209.15270 209.00993 208.93116 209.25539 209.63462 210.01685
 210.80309 211.97432 213.21755 214.99378 216.91501 218.95124 221.03947 223.11570
 225.16893 227.24616 229.33639 231.43563 233.55786 235.72309 237.97232 240.33555
 242.94978 245.19401 247.18924 248.94747 250.35770 251.47394 252.28917 252.59840
 252.62863 252.39586 251.74909 250.69032 249.28955 247.44378 245.34601 243.17224
 240.95648 238.75371 236.56694 234.39917 232.25240 230.11263 228.13186 226.28209
 224.55832 223.02355 221.64679 220.41202 219.28725 218.24048 217.33771 216.47194
 215.70717 214.88040 213.97163 213.32886 212.77209 213.84781 216.38931 218.99812
 221.13594 222.85698 224.26027 225.71907 226.93065 227.41422 227.36819 226.97911
 226.43021 227.39514 231.03758 235.65282 240.39705 245.04503 249.36343 253.26231
 256.79672 260.12164 263.26596 266.12589 268.56113 270.57901 272.22119 273.70688
 275.26569 276.99307 278.55588 279.93076 281.12817 282.19153 283.16800 284.06192
 284.87680 285.61646 286.27002 287.21790
 366.78100 356.32923 345.75545 334.61568 323.01290 311.20113 299.06535 286.86258
 274.56880 262.46003 250.46325 239.75848 229.87470 220.97293 213.14916 206.14538
 199.97361 194.90583 191.48206 189.51828 188.54951 188.60773 189.43696 190.73918
 192.45841 194.54763 196.80486 199.15808 201.59731 204.07154 206.15376 207.98999
 209.61021 210.74944 210.97266 211.19489 211.12611 210.82534 210.45256 210.07679
 209.68801 209.39224 209.19447 209.05269 208.97492 209.30014 209.68037 210.06359
 210.85082 212.02304 213.26727 215.04449 216.96672 219.00394 221.09317 223.17039
 225.22462 227.30285 229.39407 231.49430 233.61752 235.78375 238.03397 240.39820
 243.01342 245.25865 247.25487 249.01410 250.42532 251.54255 252.35878 252.66900
 252.70023 252.46845 251.82268 250.76490 249.36513 247.52035 245.42358 243.25080
 241.03603 238.83425 236.64848 234.48171 232.33593 230.19716 228.21738 226.36861
 224.64583 223.11206 221.73628 220.50251 219.37873 218.33296 217.43118 216.56641
 215.80263 214.97686 214.06909 213.42731 212.87154 213.92845 216.42551 219.02118
 221.19533 222.91882 224.33136 225.80054 226.98846 227.41776 227.28152 226.81970
 226.31357 227.35773 231.00279 235.61433 240.36153 245.02650 249.37047 253.28391
 256.81409 260.12753 263.26166 266.11545 268.53314 270.52075 272.14722 273.63849
 275.23291 276.96747 278.53043 279.90656 281.10275 282.16788 283.14395 284.03732
 284.85233 285.59268 286.24664 287.19693
 366.78100 356.33021 345.75741 334.61862 323.01683 311.20603 299.07124 286.86945
 274.57665 262.46886 250.47307 239.76927 229.88648 220.98569 213.16290 206.16010
 199.98931 194.92252 191.49972 189.53693 188.56914 188.62834 189.45855 190.76176
 192.48196 194.57217 196.83038 199.18458 201.62479 204.10000 206.18320 208.02041
 209.64162 210.78182 211.00603 211.22924 211.16145 210.86165 210.48986 210.11507
 209.72727 209.43248 209.23569 209.09489 209.01810 209.34431 209.72551 210.10972
 210.89793 212.07113 213.31634 215.09455 217.01775 219.05596 221.14617 223.22437
 225.27958 227.35879 229.45099 231.55220 233.67641 235.84362 238.09482 240.46003
 243.07624 245.32244 247.31965 249.07986 250.49206 251.61027 252.42748 252.73868
 252.77089 252.54010 251.89530 250.83851 249.43972 247.59592 245.50013 243.32834
 241.11454 238.91375 236.72896 234.56317 232.41837 230.28058 228.30179 226.45399
 224.73220 223.19941 221.82461 220.59182 219.46903 218.42423 217.52344 216.65965
 215.89685 215.07206 214.16527 213.52447 212.96968 214.00797 216.46103 219.04695
 221.25177 222.97195 224.38278 225.86842 227.05382 227.45183 227.22157 226.61844
 226.12898 227.32263 230.99760 235.59802 240.34189 245.01721 249.37918 253.30370
 256.82761 260.12793 263.25201 266.09769 268.49704 270.45685 272.06793 273.56357
 275.19531 276.93680 278.50055 279.87619 281.07233 282.13687 283.11484 284.00739
 284.82196 285.56284 286.21771 287.16620
 366.78100 356.33103 345.75906 334.62109 323.02012 311.21015 299.07618 286.87521
 274.58324 262.47627 250.48130 239.77833 229.89636 220.99639 213.17442 206.17245
 200.00249 194.93652 191.51455 189.55258 188.58561 188.64564 189.47667 190.78070
 192.50173 194.59276 196.85179 199.20682 201.64785 204.12388 206.20791 208.04594
 209.66797 210.80900 211.03403 211.25806 211.19109 210.89212 210.52115 210.14718
 209.76021 209.46624 209.27027 209.13030 209.05433 209.38136 209.76339 210.14843
 210.93746 212.11149 213.35752 215.13655 217.06058 219.09961 221.19064 223.26967
 225.32570 227.40573 229.49876 231.60079 233.72582 235.89385 238.14588 240.51191
 243.12894 245.37597 247.37400 249.13503 250.54806 251.66709 252.48512 252.79715
 252.83018 252.60021 251.95624 250.90027 249.50230 247.65934 245.56437 243.39340
 241.18043 238.98046 236.79649 234.63152 232.48755 230.35058 228.37261 226.52564
 224.80467 223.27270 221.89873 220.66676 219.54479 218.50082 217.60085 216.73788
 215.97591 215.15194 214.24597 213.60600 213.05203 214.07864 216.50412 219.07970
 221.28941 223.00795 224.45686 225.94955 227.10460 227.47221 227.15770 226.42181
 225.95459 227.29539 230.99448 235.58691 240.33156 245.01372 249.39088 253.32405
 256.84006 260.12466 263.23718 266.07379 268.45737 270.39395 271.99033 273.48941
 275.15393 276.90051 278.46417 279.83954 281.03601 282.09985 283.07568 283.97131
 284.78448 285.52597 286.18311 287.12589
 366.78100 356.33169 345.76038 334.62306 323.02275 311.21344 299.08013 286.87981
 274.58850 262.48219 250.48788 239.78556 229.90425 221.00494 213.18363 206.18232
 200.01300 194.94769 191.52638 189.56507 188.59875 188.65944 189.49113 190.79582
 192.51750 194.60919 196.86888 199.22457 201.66625 204.14294 206.22763 208.06632
 209.68901 210.83069 211.05638 211.28107 211.21476 210.91644 210.54613 210.17282
 209.78651 209.49319 209.29788 209.15857 209.08326 209.41095 209.79363 210.17932
 210.96901 212.14370 213.39038 215.17007 217.09476 219.13445 221.22613 223.30582
 225.36251 227.44320 229.53689 231.63957 233.76526 235.93395 238.18664 240.55332
 243.17101 245.41870 247.41739 249.17907 250.59276 251.71245 252.53114 252.84382
 252.87751 252.64820 252.00489 250.94958 249.55226 247.70995 245.61564 243.44533
 241.23301 239.03370 236.85039 234.68608 232.54276 230.40645 228.42914 226.58283
 224.86252 223.33120 221.95789 220.72658 219.60527 218.56195 217.66264 216.80033
 216.03902 215.21570 214.31039 213.67108 213.11777 214.13974 216.55424 219.11385
 221.31290 223.03841 224.53377 226.03134 227.15437 227.48996 227.09238 226.23964
 225.79544 227.26442 230.98598 235.58215 240.33238 245.01770 249.40251 253.33942
 256.84390 260.11053 263.21222 266.04172 268.41281 270.33456 271.92380 273.42679
 275.10812 276.85693 278.41931 279.79556 280.99072 282.05475 283.03171 283.92545
 284.74069 285.48203 286.13788 287.08685
 366.78100 356.33225 345.76150 334.62475 323.02500 311.21626 299.08351 286.88376
 274.59301 262.48726 250.49351 239.79176 229.91101 221.01226 213.19151 206.19077
 200.02202 194.95727 191.53652 189.57577 188.61002 188.67127 189.50352 190.80877
 192.53102 194.62328 196.88353 199.23978 201.68203 204.15928 206.24453 208.08378
 209.70703 210.84928 211.07553 211.30079 211.23504 210.93729 210.56754 210.19479
 209.80904 209.51629 209.32154 209.18279 209.10805 209.43630 209.81955 210.20580
 210.99605 212.17130 213.41855 215.19880 217.12405 219.16430 221.25656 223.33681
 225.39406 227.47531 229.56956 231.67281 233.79906 235.96831 238.22156 240.58881
 243.20707 245.45532 247.45457 249.21682 250.63107 251.75132 252.57057 252.88382
 252.91807 252.68933 252.04658 250.99183 249.59508 247.75333 245.65958 243.48983
 241.27808 239.07933 236.89658 234.73284 232.59009 230.45434 228.47759 226.63184
 224.91209 223.38134 222.00859 220.77784 219.65709 218.61435 217.71560 216.85385
 216.09310 215.27035 214.36560 213.72685 213.17410 214.19479 216.60629 219.15092
 221.32794 223.06961 224.60364 226.09938 227.20970 227.52377 227.03844 226.05634
 225.62483 227.22963 230.98427 235.59186 240.34885 245.02838 249.41071 253.34384
 256.83328 260.08466 263.17905 266.00388 268.36618 270.27921 271.86914 273.37939
 275.05887 276.80618 278.36902 279.74319 280.93814 282.00180 282.97977 283.87268
 284.68790 285.43091 286.08640 287.03702
 366.78100 356.33263 345.76227 334.62590 323.02653 311.21817 299.08580 286.88643
 274.59607 262.49070 250.49733 239.79597 229.91560 221.01723 213.19687 206.19650
 200.02813 194.96377 191.54340 189.58303 188.61767 188.67930 189.51194 190.81757
 192.54020 194.63284 196.89347 199.25010 201.69274 204.17037 206.25600 208.09564
 209.71927 210.86190 211.08854 211.31417 211.24880 210.95144 210.58207 210.20970
 209.82434 209.53197 209.33760 209.19924 209.12487 209.45350 209.83714 210.22377
 211.01440 212.19004 213.43767 215.21830 217.14394 219.18457 221.27720 223.35784
 225.41547 227.49710 229.59174 231.69537 233.82200 235.99164 238.24527 240.61291
 243.23154 245.48017 247.47981 249.24244 250.65707 251.77771 252.59734 252.91097
 252.94561 252.71724 252.07487 251.02051 249.62414 247.78277 245.68941 243.52004
 241.30867 239.11031 236.92794 234.76457 232.62221 230.48684 228.51047 226.66511
 224.94574 223.41537 222.04301 220.81264 219.69227 218.64991 217.75154 216.89017
 216.12981 215.30744 214.40307 213.76471 213.21234 214.23921 216.66531 219.18413
 221.34076 223.09723 224.66260 226.15660 227.26282 227.58044 227.00461 225.85495
 225.42914 227.19633 230.99455 235.61722 240.37761 245.04332 249.41493 253.34032
 256.81393 260.04889 263.13644 265.95850 268.31635 270.22394 271.81717 273.33575
 275.00580 276.75000 278.31104 279.68448 280.87860 281.94235 282.91843 283.81247
 284.62827 285.37103 286.02673 286.98294
 366.78100 356.33308 345.76316 334.62724 323.02832 311.22040 299.08848 286.88955
 274.59963 262.49471 250.50179 239.80087 229.92095 221.02303 213.20311 206.20319
 200.03527 194.97135 191.55143 189.59151 188.62659 188.68866 189.52174 190.82782
 192.55090 194.64398 196.90506 199.26214 201.70522 204.18330 206.26938 208.10946
 209.73354 210.87662 211.10370 211.32977 211.26485 210.96793 210.59901 210.22709
 209.84217 209.55025 209.35633 209.21841 209.14449 209.47357 209.85765 210.24473
 211.03581 212.21188 213.45996 215.24104 217.16712 219.20820 221.30128 223.38236
 225.44044 227.52252 229.61760 231.72168 233.84876 236.01884 238.27292 240.64099
 243.26007 245.50915 247.50923 249.27231 250.68739 251.80847 252.62855 252.94263
 252.97771 252.74979 252.10787 251.05395 249.65802 247.81710 245.72418 243.55526
 241.34434 239.14642 236.96450 234.80158 232.65966 230.52474 228.54882 226.70390
 224.98498 223.45506 222.08313 220.85321 219.73329 218.69137 217.79345 216.93253
 216.17261 215.35069 214.44677 213.80885 213.25693 214.28548 216.71552 219.23143
 221.34540 223.11057 224.71387 226.20450 227.33228 227.65475 226.98006 225.65631
 225.22998 227.16187 231.00043 235.64244 240.40979 245.05978 249.41791 253.33325
 256.78952 260.00723 263.09070 265.91299 268.26926 270.17166 271.76648 273.29288
 274.94843 276.68912 278.24866 279.62140 280.81458 281.87695 282.85345 283.74655
 284.56277 285.30600 285.96487 286.91510
 366.78100 356.33385 345.76470 334.62956 323.03141 311.22426 299.09311 286.89497
 274.60582 262.50167 250.50952 239.80938 229.93023 221.03308 213.21393 206.21479
 200.04764 194.98449 191.56534 189.60620 188.64205 188.70490 189.53875 190.84561
 192.56946 194.66331 196.92516 199.28302 201.72687 204.20572 206.29257 208.13343
 209.75828 210.90213 211.12998 211.35684 211.29269 210.99654 210.62839 210.25725
 209.87310 209.58195 209.38880 209.25165 209.17851 209.50836 209.89321 210.28106
 211.07292 212.24977 213.49862 215.28047 217.20733 219.24918 221.34303 223.42488
 225.48374 227.56659 229.66244 231.76729 233.89515 236.06600 238.32085 240.68970
 243.30956 245.55941 247.56026 249.32411 250.73997 251.86182 252.68267 252.99752
 253.03338 252.80623 252.16508 251.11193 249.71679 247.87664 245.78449 243.61634
 241.40620 239.20905 237.02790 234.86575 232.72460 230.59046 228.61531 226.77116
 225.05301 223.52387 222.15272 220.92357 219.80442 218.76328 217.86613 217.00598
 216.24683 215.42569 214.52254 213.88539 213.33424 214.34790 216.74278 219.28960
 221.37279 223.08231 224.75114 226.23470 227.37492 227.79787 227.03389 225.37227
 224.90573 227.12326 231.04305 235.69870 240.46309 245.08615 249.42145 253.32120
 256.75629 259.95816 263.03915 265.86041 268.21313 270.11472 271.71478 273.25238
 274.88901 276.62228 278.18027 279.55252 280.74472 281.80649 282.78168 283.67612
 284.49243 285.23624 285.89706 286.84708
 366.78100 356.33401 345.76502 334.63003 323.03204 311.22506 299.09407 286.89608
 274.60709 262.50310 250.51111 239.81112 229.93213 221.03514 213.21616 206.21717
 200.05018 194.98719 191.56820 189.60921 188.64522 188.70823 189.54224 190.84926
 192.57327 194.66728 196.92929 199.28730 201.73131 204.21032 206.29733 208.13835
 209.76336 210.90737 211.13538 211.36239 211.29840 211.00241 210.63442 210.26343
 209.87945 209.58846 209.39547 209.25848 209.18549 209.51550 209.90051 210.28852
 211.08053 212.25755 213.50656 215.28857 217.21558 219.25759 221.35160 223.43361
 225.49262 227.57563 229.67165 231.77666 233.90467 236.07568 238.33069 240.69970
 243.31971 245.56972 247.57073 249.33475 250.75076 251.87277 252.69378 253.00879
 253.04480 252.81781 252.17682 251.12383 249.72885 247.88886 245.79687 243.62888
 241.41889 239.22190 237.04091 234.87892 232.73793 230.60395 228.62896 226.78497
 225.06698 223.53799 222.16700 220.93801 219.81902 218.77804 217.88105 217.02106
 216.26207 215.44108 214.53809 213.90110 213.35011 214.37766 216.80536 219.30267
 221.43083 223.08046 224.69237 226.27623 227.49254 227.89140 227.05026 225.25919
 224.72110 227.04852 231.06442 235.74203 240.49718 245.09402 249.40918 253.29617
 256.71622 259.90646 262.98654 265.80643 268.16068 270.06873 271.67780 273.22601
 274.82828 276.55334 278.11008 279.48032 280.67062 281.73181 282.70639 283.59903
 284.41653 285.16260 285.82376 286.77509
 366.78100 356.33421 345.76542 334.63062 323.03283 311.22604 299.09525 286.89746
 274.60867 262.50487 250.51308 239.81329 229.93450 221.03771 213.21892 206.22012
 200.05333 194.99054 191.57175 189.61296 188.64917 188.71237 189.54658 190.85379
 192.57800 194.67221 196.93442 199.29262 201.73683 204.21604 206.30325 208.14446
 209.76966 210.91387 211.14208 211.36929 211.30550 211.00971 210.64191 210.27112
 209.88733 209.59654 209.40375 209.26696 209.19416 209.52437 209.90958 210.29779
 211.09000 212.26721 213.51641 215.29862 217.22583 219.26804 221.36225 223.44445
 225.50366 227.58687 229.68308 231.78829 233.91650 236.08770 238.34291 240.71212
 243.33233 245.58254 247.58375 249.34795 250.76416 251.88637 252.70758 253.02279
 253.05900 252.83220 252.19141 251.13862 249.74383 247.90404 245.81225 243.64445
 241.43466 239.23787 237.05708 234.89529 232.75449 230.62070 228.64591 226.80212
 225.08433 223.55554 222.18474 220.95595 219.83716 218.79637 217.89958 217.03979
 216.28099 215.46020 214.55741 213.92062 213.36983 214.40601 216.85410 219.33473
 221.44891 223.09804 224.71333 226.35135 227.57063 227.88187 227.01918 225.25441
 224.65794 226.95615 231.04175 235.76773 240.52444 245.10014 249.39746 253.27313
 256.67868 259.85550 262.93442 265.75519 268.11377 270.03088 271.65213 273.21402
 274.81393 276.47952 278.02292 279.39206 280.58133 281.64227 282.61557 283.51132
 284.32776 285.07358 285.73929 286.68906
 366.78100 356.33458 345.76615 334.63173 323.03430 311.22788 299.09745 286.90003
 274.61161 262.50818 250.51676 239.81733 229.93891 221.04248 213.22406 206.22564
 200.05921 194.99679 191.57836 189.61994 188.65651 188.72009 189.55467 190.86224
 192.58682 194.68139 196.94397 199.30254 201.74712 204.22670 206.31427 208.15585
 209.78142 210.92600 211.15457 211.38215 211.31873 211.02330 210.65588 210.28545
 209.90203 209.61160 209.41918 209.28276 209.21033 209.54091 209.92648 210.31506
 211.10763 212.28521 213.53479 215.31736 217.24494 219.28751 221.38209 223.46466
 225.52424 227.60782 229.70439 231.80997 233.93854 236.11012 238.36569 240.73527
 243.35585 245.60642 247.60800 249.37257 250.78915 251.91172 252.73330 253.04888
 253.08545 252.85903 252.21860 251.16618 249.77175 247.93233 245.84090 243.67348
 241.46406 239.26763 237.08721 234.92578 232.78536 230.65193 228.67751 226.83409
 225.11666 223.58824 222.21781 220.98939 219.87096 218.83054 217.93412 217.07469
 216.31627 215.49584 214.59342 213.95699 213.40657 214.44142 216.88638 219.38477
 221.45473 223.11539 224.74919 226.40512 227.60303 227.89795 226.98962 225.24692
 224.64035 226.86572 230.99808 235.79807 240.56029 245.11172 249.38971 253.25291
 256.64197 259.80472 262.88257 265.70456 268.07028 269.99762 271.63461 273.20081
 274.80560 276.40097 277.93137 279.30099 280.49081 281.55075 282.52612 283.42050
 284.23987 284.98654 285.65103 286.60376
 366.78100 356.33477 345.76654 334.63231 323.03508 311.22885 299.09862 286.90139
 274.61316 262.50994 250.51871 239.81948 229.94125 221.04502 213.22679 206.22856
 200.06233 195.00010 191.58187 189.62364 188.66041 188.72418 189.55895 190.86672
 192.59149 194.68626 196.94903 199.30781 201.75258 204.23235 206.32012 208.16189
 209.78766 210.93243 211.16120 211.38897 211.32574 211.03051 210.66328 210.29305
 209.90982 209.61959 209.42736 209.29113 209.21890 209.54968 209.93545 210.32422
 211.11699 212.29476 213.54453 215.32730 217.25507 219.29784 221.39261 223.47538
 225.53515 227.61892 229.71569 231.82146 233.95023 236.12200 238.37777 240.74755
 243.36832 245.61909 247.62086 249.38563 250.80240 251.92517 252.74694 253.06271
 253.09948 252.87325 252.23302 251.18079 249.78656 247.94733 245.85610 243.68887
 241.47964 239.28342 237.10319 234.94196 232.80173 230.66850 228.69427 226.85104
 225.13381 223.60558 222.23535 221.00712 219.88889 218.84866 217.95243 217.09320
 216.33497 215.51474 214.61251 213.97629 213.42606 214.46742 216.92776 219.42607
 221.47441 223.13843 224.76613 226.41989 227.61899 227.94531 226.97491 225.21574
 224.59840 226.78346 230.97606 235.83910 240.59666 245.12210 249.38139 253.23497
 256.60947 259.75894 262.83698 265.66132 268.03183 269.96771 271.61514 273.18103
 274.77664 276.32217 277.84348 279.21320 280.40433 281.46490 282.44174 283.33542
 284.15692 284.90540 285.57327 286.52835
 366.78100 356.33488 345.76677 334.63265 323.03554 311.22942 299.09931 286.90220
 274.61408 262.51096 250.51985 239.82074 229.94262 221.04650 213.22839 206.23028
 200.06416 195.00204 191.58393 189.62581 188.66270 188.72659 189.56147 190.86936
 192.59424 194.68912 196.95201 199.31089 201.75578 204.23567 206.32355 208.16544
 209.79132 210.93621 211.16509 211.39297 211.32986 211.03474 210.66763 210.29751
 209.91440 209.62428 209.43217 209.29605 209.22394 209.55482 209.94071 210.32960
 211.12248 212.30036 213.55025 215.33313 217.26102 219.30390 221.39879 223.48167
 225.54156 227.62544 229.72233 231.82822 233.95710 236.12899 238.38487 240.75475
 243.37564 245.62652 247.62841 249.39329 250.81018 251.93306 252.75495 253.07083
 253.10772 252.88160 252.24149 251.18937 249.79526 247.95614 245.86503 243.69791
 241.48880 239.29268 237.11257 234.95146 232.81134 230.67822 228.70411 226.86100
 225.14388 223.61576 222.24565 221.01753 219.89942 218.85931 217.96319 217.10407
 216.34596 215.52585 214.62373 213.98761 213.43750 214.48686 216.96608 219.46436
 221.50989 223.16254 224.77362 226.40724 227.63596 227.98859 226.96822 225.18982
 224.53615 226.70798 230.97865 235.88162 240.62843 245.13095 249.37424 253.21931
 256.58075 259.72095 262.80121 265.62686 268.00143 269.94031 271.59351 273.15579
 274.73190 276.25290 277.76752 279.13696 280.32779 281.38739 282.36362 283.25867
 284.07742 284.83160 285.49759 286.44638
 366.78100 356.33506 345.76713 334.63319 323.03625 311.23032 299.10038 286.90345
 274.61551 262.51257 250.52164 239.82270 229.94476 221.04883 213.23089 206.23296
 200.06702 195.00508 191.58715 189.62921 188.66627 188.73034 189.56540 190.87346
 192.59853 194.69359 196.95666 199.31572 201.76078 204.24085 206.32891 208.17097
 209.79704 210.94210 211.17117 211.39923 211.33629 211.04136 210.67442 210.30448
 209.92155 209.63161 209.43967 209.30374 209.23180 209.56287 209.94893 210.33799
 211.13106 212.30912 213.55918 215.34225 217.27031 219.31338 221.40844 223.49150
 225.55157 227.63563 229.73269 231.83876 233.96782 236.13988 238.39595 240.76601
 243.38708 245.63814 247.64020 249.40527 250.82233 251.94539 252.76746 253.08352
 253.12058 252.89465 252.25471 251.20278 249.80884 247.96990 245.87897 243.71203
 241.50309 239.30716 237.12722 234.96629 232.82635 230.69341 228.71948 226.87654
 225.15960 223.63167 222.26173 221.03379 219.91586 218.87592 217.97999 217.12105
 216.36311 215.54318 214.64124 214.00530 213.45537 214.50711 216.99196 219.49753
 221.54729 223.19223 224.78006 226.38399 227.65498 228.02127 226.96814 225.17525
 224.47467 226.63881 230.98579 235.92184 240.65683 245.14066 249.36923 253.20596
 256.55646 259.69073 262.77176 265.59622 267.97366 269.91989 271.58115 273.14236
 274.69153 276.18573 277.69492 279.06381 280.25323 281.31241 282.28821 283.18317
 284.00363 284.75470 285.42282 286.37189
 366.78100 356.33527 345.76753 334.63380 323.03707 311.23134 299.10160 286.90487
 274.61714 262.51440 250.52367 239.82494 229.94720 221.05147 213.23374 206.23601
 200.07027 195.00854 191.59081 189.63307 188.67034 188.73461 189.56988 190.87814
 192.60341 194.69868 196.96194 199.32121 201.76648 204.24675 206.33501 208.17728
 209.80355 210.94881 211.17808 211.40635 211.34361 211.04888 210.68215 210.31242
 209.92968 209.63995 209.44822 209.31248 209.24075 209.57202 209.95829 210.34755
 211.14082 212.31909 213.56935 215.35262 217.28089 219.32416 221.41942 223.50269
 225.56296 227.64722 229.74449 231.85076 233.98002 236.15229 238.40856 240.77883
 243.40009 245.65136 247.65363 249.41889 250.83616 251.95943 252.78170 253.09796
 253.13523 252.90950 252.26976 251.21803 249.82430 247.98557 245.89483 243.72810
 241.51937 239.32363 237.14390 234.98317 232.84343 230.71070 228.73697 226.89424
 225.17750 223.64977 222.28004 221.05230 219.93457 218.89484 217.99911 217.14037
 216.38264 215.56291 214.66117 214.02544 213.47571 214.52846 217.01569 219.52983
 221.58513 223.23077 224.78098 226.35320 227.65831 228.03883 226.97272 225.16743
 224.42232 226.57950 230.99486 235.96465 240.68585 245.14420 249.36237 253.19664
 256.54260 259.67065 262.74652 265.56650 267.94916 269.90649 271.57309 273.13388
 274.66251 276.12152 277.62247 278.98965 280.17905 281.23810 282.21222 283.10822
 283.92850 284.67892 285.34805 286.29129
 366.78100 356.33553 345.76805 334.63458 323.03810 311.23263 299.10316 286.90668
 274.61921 262.51673 250.52626 239.82778 229.95031 221.05484 213.23736 206.23989
 200.07441 195.01294 191.59547 189.63799 188.67552 188.74004 189.57557 190.88409
 192.60962 194.70515 196.96867 199.32820 201.77372 204.25425 206.34278 208.18530
 209.81183 210.95735 211.18688 211.41541 211.35293 211.05846 210.69198 210.32251
 209.94003 209.65056 209.45909 209.32361 209.25214 209.58366 209.97019 210.35972
 211.15324 212.33177 213.58229 215.36582 217.29435 219.33787 221.43340 223.51692
 225.57745 227.66197 229.75950 231.86603 233.99555 236.16808 238.42460 240.79513
 243.41666 245.66818 247.67071 249.43623 250.85376 251.97728 252.79981 253.11634
 253.15386 252.92839 252.28891 251.23744 249.84397 248.00549 245.91502 243.74854
 241.54007 239.34460 237.16512 235.00465 232.86517 230.73270 228.75922 226.91675
 225.20028 223.67280 222.30333 221.07585 219.95838 218.91891 218.02343 217.16496
 216.40748 215.58801 214.68654 214.05106 213.50159 214.55231 217.03473 219.56033
 221.62593 223.26819 224.78101 226.32626 227.64398 228.03636 226.97522 225.17932
 224.39011 226.51941 231.01099 236.00320 240.70436 245.14990 249.36064 253.19621
 256.53973 259.66061 262.72906 265.54529 267.93085 269.89343 271.56766 273.12115
 274.62402 276.06137 277.55780 278.92386 280.11240 281.16949 282.14365 283.04099
 283.85886 284.61075 285.27908 286.21893
 366.78100 356.33575 345.76849 334.63524 323.03899 311.23373 299.10448 286.90823
 274.62098 262.51872 250.52847 239.83022 229.95296 221.05771 213.24046 206.24320
 200.07795 195.01670 191.59945 189.64219 188.67994 188.74469 189.58043 190.88918
 192.61493 194.71067 196.97442 199.33417 201.77992 204.26066 206.34941 208.19216
 209.81890 210.96465 211.19440 211.42314 211.36089 211.06664 210.70038 210.33113
 209.94888 209.65963 209.46837 209.33312 209.26187 209.59361 209.98036 210.37011
 211.16385 212.34260 213.59335 215.37710 217.30584 219.34959 221.44534 223.52908
 225.58983 227.67458 229.77232 231.87907 234.00882 236.18157 238.43831 240.80906
 243.43081 245.68255 247.68530 249.45105 250.86879 251.99254 252.81529 253.13203
 253.16978 252.94453 252.30528 251.25402 249.86077 248.02252 245.93226 243.76601
 241.55776 239.36250 237.18325 235.02300 232.88375 230.75149 228.77824 226.93599
 225.21973 223.69248 222.32323 221.09597 219.97872 218.93947 218.04422 217.18596
 216.42871 215.60946 214.70820 214.07295 213.52370 214.57344 217.05357 219.58188
 221.67198 223.31018 224.78174 226.30202 227.61929 228.01877 226.96904 225.19629
 224.38582 226.47520 231.01735 236.05717 240.71355 245.14783 249.36630 253.19588
 256.54068 259.65768 262.71667 265.52545 267.90903 269.87723 271.56378 273.11270
 274.58463 276.00546 277.49866 278.86316 280.05200 281.10974 282.08365 282.97934
 283.80020 284.55081 285.21835 286.15323
 366.78100 356.33597 345.76895 334.63592 323.03989 311.23486 299.10584 286.90981
 274.62278 262.52076 250.53073 239.83270 229.95567 221.06065 213.24362 206.24659
 200.08156 195.02054 191.60351 189.64648 188.68446 188.74943 189.58540 190.89437
 192.62035 194.71632 196.98029 199.34027 201.78624 204.26721 206.35618 208.19916
 209.82613 210.97210 211.20208 211.43105 211.36902 211.07499 210.70897 210.33994
 209.95791 209.66888 209.47786 209.34283 209.27180 209.60378 209.99075 210.38072
 211.17469 212.35367 213.60464 215.38861 217.31759 219.36156 221.45753 223.54150
 225.60248 227.68745 229.78542 231.89240 234.02237 236.19534 238.45231 240.82329
 243.44526 245.69723 247.70020 249.46618 250.88415 252.00812 252.83110 253.14807
 253.18604 252.96101 252.32199 251.27096 249.87793 248.03991 245.94988 243.78385
 241.57582 239.38080 237.20177 235.04174 232.90272 230.77069 228.79766 226.95563
 225.23961 223.71258 222.34355 221.11652 219.99950 218.96047 218.06544 217.20742
 216.45039 215.63136 214.73033 214.09531 213.54628 214.59479 217.07199 219.59537
 221.72006 223.35852 224.78275 226.27177 227.58316 227.99164 226.95767 225.21452
 224.40440 226.45657 231.01033 236.09045 240.74280 245.14203 249.35764 253.19620
 256.54318 259.65933 262.71164 265.51205 267.89267 269.86319 271.55881 273.11658
 274.57480 275.94714 277.43054 278.79559 279.98346 281.04181 282.01630 282.91125
 283.73233 284.48407 285.15231 286.07419
 366.78100 356.33626 345.76952 334.63678 323.04104 311.23630 299.10756 286.91182
 274.62508 262.52334 250.53360 239.83585 229.95911 221.06437 213.24763 206.25089
 200.08615 195.02541 191.60867 189.65193 188.69019 188.75545 189.59171 190.90097
 192.62723 194.72349 196.98775 199.34801 201.79427 204.27553 206.36479 208.20804
 209.83530 210.98156 211.21182 211.44108 211.37934 211.08560 210.71986 210.35112
 209.96938 209.68064 209.48990 209.35516 209.28442 209.61668 210.00394 210.39420
 211.18846 212.36772 213.61898 215.40324 217.33249 219.37675 221.47301 223.55727
 225.61853 227.70379 229.80205 231.90931 234.03957 236.21283 238.47009 240.84135
 243.46361 245.71587 247.71913 249.48539 250.90365 252.02791 252.85117 253.16843
 253.20668 252.98194 252.34320 251.29246 249.89972 248.06198 245.97224 243.80650
 241.59876 239.40402 237.22528 235.06554 232.92680 230.79506 228.82232 226.98058
 225.26484 223.73810 222.36936 221.14262 220.02588 218.98713 218.09239 217.23465
 216.47791 215.65917 214.75843 214.12369 213.57495 214.61877 217.08495 219.60832
 221.76157 223.40916 224.79713 226.24530 227.53110 227.94572 226.93810 225.23662
 224.44695 226.46361 230.98859 236.08669 240.77805 245.15607 249.35905 253.19038
 256.54501 259.66241 262.70612 265.49835 267.87686 269.85284 271.55719 273.12558
 274.58914 275.91296 277.36182 278.71869 279.90451 280.96152 281.93579 282.83005
 283.65347 284.40433 285.07376 285.98822
 366.78100 356.33654 345.77007 334.63761 323.04215 311.23768 299.10922 286.91375
 274.62729 262.52583 250.53636 239.83890 229.96244 221.06797 213.25151 206.25504
 200.09058 195.03012 191.61365 189.65719 188.69573 188.76126 189.59780 190.90734
 192.63387 194.73041 196.99494 199.35548 201.80202 204.28355 206.37309 208.21663
 209.84416 210.99070 211.22123 211.45077 211.38931 211.09584 210.73038 210.36192
 209.98045 209.69199 209.50152 209.36706 209.29660 209.62913 210.01667 210.40721
 211.20174 212.38128 213.63282 215.41735 217.34689 219.39142 221.48796 223.57250
 225.63403 227.71957 229.81811 231.92564 234.05618 236.22971 238.48725 240.85879
 243.48132 245.73386 247.73740 249.50393 250.92247 252.04701 252.87054 253.18808
 253.22661 253.00215 252.36369 251.31322 249.92076 248.08330 245.99383 243.82837
 241.62090 239.42644 237.24798 235.08851 232.95005 230.81859 228.84612 227.00466
 225.28919 223.76273 222.39427 221.16780 220.05134 219.01288 218.11841 217.26095
 216.50449 215.68602 214.78556 214.15109 213.60263 214.64136 217.09546 219.61890
 221.79822 223.46269 224.82376 226.22668 227.46667 227.87798 226.91499 225.26590
 224.49385 226.47736 230.97523 236.08673 240.79764 245.16605 249.36400 253.18756
 256.54865 259.66907 262.69955 265.47943 267.86075 269.85013 271.56171 273.13025
 274.59009 275.91464 277.29309 278.63809 279.82437 280.88266 281.85822 282.75436
 283.57605 284.32907 284.99649 285.90173
 366.78100 356.33660 345.77021 334.63781 323.04242 311.23802 299.10963 286.91423
 274.62784 262.52644 250.53705 239.83965 229.96325 221.06886 213.25246 206.25607
 200.09167 195.03128 191.61488 189.65849 188.69709 188.76269 189.59930 190.90890
 192.63551 194.73211 196.99672 199.35732 201.80393 204.28553 206.37514 208.21874
 209.84634 210.99295 211.22355 211.45316 211.39176 211.09837 210.73297 210.36458
 209.98318 209.69479 209.50439 209.36999 209.29960 209.63220 210.01981 210.41041
 211.20502 212.38462 213.63623 215.42083 217.35043 219.39504 221.49164 223.57625
 225.63785 227.72346 229.82206 231.92967 234.06027 236.23388 238.49148 240.86308
 243.48569 245.73829 247.74190 249.50850 250.92711 252.05171 252.87532 253.19292
 253.23152 253.00713 252.36873 251.31834 249.92594 248.08855 245.99915 243.83376
 241.62636 239.43197 237.25357 235.09417 232.95578 230.82438 228.85199 227.01059
 225.29520 223.76880 222.40041 221.17401 220.05762 219.01922 218.12482 217.26743
 216.51103 215.69264 214.79224 214.15785 213.60945 214.65347 217.12006 219.61913
 221.82748 223.52272 224.85706 226.21625 227.40491 227.79170 226.87199 225.30183
 224.56050 226.50812 230.97533 236.07582 240.79008 245.18138 249.37196 253.18570
 256.55252 259.66974 262.68811 265.45636 267.84167 269.84897 271.56955 273.13153
 274.57007 275.89255 277.24185 278.58176 279.76971 280.82761 281.80411 282.69897
 283.52231 284.27133 284.94034 285.82956
 366.78100 356.33642 345.76984 334.63725 323.04167 311.23709 299.10851 286.91292
 274.62634 262.52476 250.53518 239.83760 229.96101 221.06643 213.24985 206.25327
 200.08868 195.02810 191.61152 189.65494 188.69335 188.75877 189.59519 190.90461
 192.63103 194.72744 196.99186 199.35228 201.79870 204.28011 206.36953 208.21295
 209.84037 210.98679 211.21720 211.44662 211.38504 211.09146 210.72587 210.35729
 209.97571 209.68713 209.49655 209.36196 209.29138 209.62380 210.01122 210.40163
 211.19605 212.37547 213.62689 215.41131 217.34072 219.38514 221.48156 223.56598
 225.62739 227.71281 229.81123 231.91865 234.04906 236.22248 238.47990 240.85132
 243.47374 245.72615 247.72957 249.49599 250.91441 252.03882 252.86224 253.17966
 253.21808 252.99350 252.35491 251.30433 249.91175 248.07417 245.98458 243.81900
 241.61142 239.41684 237.23826 235.07867 232.94009 230.80851 228.83593 226.99434
 225.27876 223.75218 222.38360 221.15701 220.04043 219.00185 218.10727 217.24969
 216.49310 215.67452 214.77394 214.13936 213.59077 214.65099 217.15582 219.63214
 221.80655 223.59401 224.93851 226.22504 227.32045 227.66446 226.81900 225.35365
 224.63658 226.54623 230.97885 236.05167 240.78865 245.20624 249.37738 253.17543
 256.54254 259.66476 262.67419 265.43182 267.82230 269.84787 271.57950 273.13168
 274.54462 275.85587 277.20004 278.53918 279.72675 280.78537 281.75995 282.65518
 283.47403 284.22452 284.89053 285.76581
 366.78100 356.33675 345.77049 334.63824 323.04298 311.23873 299.11047 286.91522
 274.62897 262.52771 250.53846 239.84120 229.96495 221.07070 213.25444 206.25819
 200.09393 195.03368 191.61742 189.66117 188.69992 188.76566 189.60241 190.91215
 192.63890 194.73565 197.00039 199.36114 201.80788 204.28963 206.37937 208.22312
 209.85087 210.99761 211.22836 211.45810 211.39685 211.10359 210.73834 210.37009
 209.98883 209.70058 209.51032 209.37607 209.30582 209.63856 210.02631 210.41705
 211.21180 212.39154 213.64329 215.42804 217.35778 219.40253 221.49927 223.58402
 225.64577 227.73151 229.83026 231.93800 234.06875 236.24249 238.50024 240.87199
 243.49473 245.74748 247.75122 249.51797 250.93672 252.06146 252.88521 253.20295
 253.24170 253.01744 252.37919 251.32894 249.93668 248.09943 246.01017 243.84492
 241.63766 239.44341 237.26516 235.10590 232.96765 230.83639 228.86414 227.02289
 225.30763 223.78138 222.41312 221.18687 220.07061 219.03236 218.13811 217.28085
 216.52460 215.70634 214.80609 214.17184 213.62358 214.67432 217.15681 219.66792
 221.80312 223.63922 225.01624 226.21567 227.21007 227.54625 226.78993 225.40495
 224.71487 226.58678 230.95233 236.02249 240.80373 245.23497 249.38669 253.16359
 256.52921 259.65619 262.65640 265.40234 267.79684 269.83994 271.58252 273.12845
 274.52267 275.82401 277.15903 278.49585 279.68402 280.74146 281.71478 282.61072
 283.42932 284.17587 284.83737 285.69919
 366.78100 356.33708 345.77115 334.63923 323.04430 311.24038 299.11245 286.91753
 274.63160 262.53068 250.54175 239.84483 229.96890 221.07498 213.25906 206.26313
 200.09921 195.03928 191.62336 189.66743 188.70651 188.77258 189.60966 190.91973
 192.64681 194.74388 197.00896 199.37004 201.81711 204.29919 206.38926 208.23334
 209.86141 211.00849 211.23956 211.46964 211.40871 211.11579 210.75087 210.38294
 210.00202 209.71409 209.52417 209.39024 209.32032 209.65339 210.04147 210.43254
 211.22762 212.40769 213.65977 215.44485 217.37492 219.42000 221.51707 223.60215
 225.66422 227.75030 229.84937 231.95745 234.08852 236.26260 238.52067 240.89275
 243.51583 245.76890 247.77298 249.54005 250.95913 252.08420 252.90828 253.22635
 253.26543 253.04150 252.40358 251.35365 249.96173 248.12481 246.03588 243.87096
 241.66403 239.47011 237.29218 235.13326 232.99533 230.86441 228.89248 227.05156
 225.33664 223.81071 222.44279 221.21686 220.10094 219.06301 218.16909 217.31216
 216.55624 215.73831 214.83839 214.20446 213.65654 214.69792 217.15826 219.69632
 221.80429 223.64897 225.12305 226.23785 227.08714 227.41852 226.76512 225.44370
 224.78481 226.62566 230.92633 236.00966 240.82080 245.25850 249.39638 253.15117
 256.51321 259.64206 262.63229 265.36679 267.76398 269.82361 271.57828 273.12213
 274.50443 275.79758 277.11728 278.44907 279.63681 280.69473 281.66812 282.56247
 283.38034 284.12665 284.78677 285.64078
 366.78100 356.33719 345.77137 334.63956 323.04475 311.24094 299.11312 286.91831
 274.63250 262.53168 250.54287 239.84606 229.97025 221.07643 213.26062 206.26481
 200.10099 195.04118 191.62537 189.66955 188.70874 188.77493 189.61212 190.92230
 192.64949 194.74668 197.01186 199.37305 201.82024 204.30243 206.39261 208.23680
 209.86499 211.01217 211.24336 211.47355 211.41274 211.11992 210.75511 210.38730
 210.00648 209.71867 209.52886 209.39505 209.32523 209.65842 210.04661 210.43779
 211.23298 212.41317 213.66535 215.45054 217.38073 219.42592 221.52310 223.60829
 225.67048 227.75666 229.85585 231.96404 234.09523 236.26941 238.52760 240.89979
 243.52297 245.77616 247.78035 249.54754 250.96672 252.09191 252.91610 253.23428
 253.27347 253.04966 252.41184 251.36203 249.97022 248.13341 246.04459 243.87978
 241.67297 239.47915 237.30134 235.14253 233.00472 230.87390 228.90209 227.06128
 225.34646 223.82065 222.45284 221.22703 220.11121 219.07340 218.17959 217.32277
 216.56696 215.74915 214.84934 214.21552 213.66771 214.71049 217.17421 219.70401
 221.82173 223.66327 225.17990 226.24220 226.99179 227.31729 226.74423 225.47241
 224.84109 226.66524 230.91924 236.00435 240.83479 245.27827 249.40291 253.13539
 256.49283 259.62204 262.60211 265.32639 267.72638 269.80270 271.57013 273.11386
 274.48486 275.77048 277.07297 278.40332 279.59009 280.64743 281.62030 282.51248
 283.33136 284.07635 284.73453 285.57980
 366.78100 356.33726 345.77152 334.63978 323.04504 311.24129 299.11355 286.91881
 274.63307 262.53233 250.54359 239.84685 229.97111 221.07736 213.26162 206.26588
 200.10214 195.04240 191.62666 189.67092 188.71018 188.77644 189.61369 190.92395
 192.65121 194.74847 197.01373 199.37499 201.82225 204.30451 206.39476 208.23902
 209.86728 211.01454 211.24580 211.47606 211.41532 211.12258 210.75783 210.39009
 210.00935 209.72161 209.53187 209.39813 209.32839 209.66165 210.04991 210.44116
 211.23642 212.41668 213.66894 215.45420 217.38446 219.42972 221.52698 223.61223
 225.67449 227.76075 229.86001 231.96827 234.09953 236.27379 238.53205 240.90431
 243.52756 245.78082 247.78508 249.55234 250.97160 252.09686 252.92112 253.23938
 253.27863 253.05489 252.41715 251.36741 249.97567 248.13893 246.05019 243.88545
 241.67870 239.48496 237.30722 235.14848 233.01074 230.88000 228.90826 227.06752
 225.35278 223.82703 222.45929 221.23355 220.11781 219.08007 218.18633 217.32959
 216.57385 215.75610 214.85636 214.22262 213.67488 214.72067 217.19145 219.70770
 221.84608 223.69267 225.18646 226.21777 226.92708 227.24574 226.72256 225.49583
 224.89253 226.70587 230.92072 236.00537 240.84999 245.29716 249.40852 253.11708
 256.46701 259.59573 262.56644 265.28128 267.68546 269.77811 271.55829 273.10086
 274.46252 275.74075 277.03168 278.35727 279.54492 280.60229 281.57501 282.46744
 283.28287 284.02817 284.68323 285.52328
 366.78100 356.33738 345.77175 334.64013 323.04551 311.24188 299.11426 286.91964
 274.63401 262.53339 250.54477 239.84814 229.97252 221.07890 213.26327 206.26765
 200.10403 195.04440 191.62878 189.67316 188.71254 188.77891 189.61629 190.92667
 192.65404 194.75142 197.01680 199.37817 201.82555 204.30793 206.39830 208.24268
 209.87106 211.01843 211.24981 211.48019 211.41956 211.12694 210.76232 210.39469
 210.01407 209.72645 209.53682 209.40320 209.33358 209.66695 210.05533 210.44671
 211.24208 212.42246 213.67484 215.46021 217.39059 219.43597 221.53335 223.61872
 225.68110 227.76748 229.86685 231.97523 234.10661 236.28098 238.53936 240.91174
 243.53511 245.78849 247.79287 249.56024 250.97962 252.10500 252.92937 253.24775
 253.28713 253.06350 252.42588 251.37626 249.98463 248.14801 246.05939 243.89476
 241.68814 239.49452 237.31689 235.15827 233.02065 230.89002 228.91840 227.07778
 225.36315 223.83753 222.46991 221.24429 220.12866 219.09104 218.19742 217.34079
 216.58517 215.76755 214.86792 214.23430 213.68668 214.73239 217.20297 219.71483
 221.87025 223.72371 225.16907 226.17705 226.88098 227.19409 226.69832 225.51462
 224.93999 226.74699 230.92981 236.00771 240.86485 245.31631 249.41330 253.09758
 256.43726 259.56345 262.52554 265.23132 267.63989 269.74860 271.53995 273.08279
 274.43552 275.70804 276.99072 278.31406 279.50208 280.55920 281.53152 282.42331
 283.23932 283.98123 284.63596 285.47327
 366.78100 356.33752 345.77203 334.64055 323.04606 311.24258 299.11509 286.92061
 274.63512 262.53464 250.54615 239.84967 229.97419 221.08070 213.26522 206.26973
 200.10625 195.04676 191.63128 189.67579 188.71531 188.78182 189.61934 190.92986
 192.65737 194.75489 197.02040 199.38192 201.82943 204.31195 206.40246 208.24698
 209.87549 211.02301 211.25453 211.48504 211.42456 211.13207 210.76759 210.40010
 210.01962 209.73213 209.54265 209.40916 209.33968 209.67320 210.06171 210.45323
 211.24874 212.42926 213.68177 215.46729 217.39780 219.44332 221.54083 223.62635
 225.68887 227.77538 229.87490 231.98341 234.11493 236.28944 238.54796 240.92047
 243.54399 245.79751 247.80202 249.56954 250.98905 252.11457 252.93908 253.25760
 253.29711 253.07363 252.43614 251.38666 249.99518 248.15869 246.07021 243.90572
 241.69924 239.50575 237.32827 235.16978 233.03230 230.90181 228.93033 227.08985
 225.37536 223.84988 222.48239 221.25691 220.14142 219.10394 218.21045 217.35397
 216.59848 215.78100 214.88152 214.24803 213.70055 214.74399 217.20920 219.72247
 221.89282 223.74736 225.14330 226.13225 226.84541 227.15530 226.67494 225.52725
 224.98009 226.78918 230.94559 236.01106 240.87686 245.33163 249.41612 253.07736
 256.40494 259.52759 262.48166 265.17987 267.59280 269.71445 271.51337 273.05289
 274.39755 275.66791 276.94958 278.27393 279.46234 280.51913 281.49048 282.38303
 283.19916 283.94153 284.59552 285.43201
 366.78100 356.33769 345.77238 334.64107 323.04676 311.24345 299.11614 286.92183
 274.63652 262.53621 250.54790 239.85159 229.97628 221.08297 213.26766 206.27235
 200.10905 195.04974 191.63443 189.67912 188.71881 188.78550 189.62319 190.93388
 192.66157 194.75926 197.02495 199.38664 201.83433 204.31702 206.40771 208.25240
 209.88109 211.02878 211.26047 211.49116 211.43085 211.13854 210.77423 210.40692
 210.02661 209.73930 209.54999 209.41668 209.34737 209.68106 210.06976 210.46145
 211.25714 212.43783 213.69052 215.47621 217.40690 219.45259 221.55028 223.63597
 225.69866 227.78535 229.88504 231.99373 234.12542 236.30011 238.55880 240.93149
 243.55518 245.80887 247.81356 249.58125 251.00094 252.12663 252.95132 253.27001
 253.30970 253.08639 252.44908 251.39977 250.00846 248.17216 246.08385 243.91954
 241.71323 239.51992 237.34261 235.18430 233.04699 230.91668 228.94537 227.10506
 225.39075 223.86544 222.49813 221.27282 220.15751 219.12020 218.22689 217.37058
 216.61527 215.79796 214.89865 214.26534 213.71803 214.75792 217.21475 219.72609
 221.91290 223.76376 225.11523 226.08995 226.81737 227.12480 226.65477 225.53687
 225.01270 226.82962 230.96815 236.01636 240.88322 245.33934 249.41266 253.05656
 256.37543 259.49460 262.44168 265.13293 267.54590 269.67664 271.47891 273.01419
 274.35358 275.62454 276.90625 278.23038 279.41867 280.47537 281.44815 282.34033
 283.15436 283.89709 284.55151 285.38864
 366.78100 356.33795 345.77290 334.64185 323.04780 311.24474 299.11769 286.92364
 274.63859 262.53854 250.55049 239.85444 229.97939 221.08634 213.27129 206.27623
 200.11318 195.05413 191.63908 189.68403 188.72398 188.79093 189.62888 190.93983
 192.66778 194.76572 197.03167 199.39362 201.84157 204.32452 206.41547 208.26042
 209.88937 211.03732 211.26926 211.50021 211.44016 211.14811 210.78406 210.41701
 210.03696 209.74991 209.56086 209.42781 209.35875 209.69270 210.08165 210.47360
 211.26955 212.45050 213.70345 215.48940 217.42035 219.46630 221.56424 223.65019
 225.71314 227.80009 229.90004 232.00899 234.14094 236.31589 238.57484 240.94778
 243.57173 245.82568 247.83063 249.59858 251.01853 252.14448 252.96943 253.28838
 253.32833 253.10527 252.46822 251.41917 250.02812 248.19207 246.10402 243.93997
 241.73392 239.54087 237.36382 235.20576 233.06871 230.93866 228.96761 227.12756
 225.41351 223.88846 222.52141 221.29636 220.18130 219.14425 218.25120 217.39515
 216.64010 215.82305 214.92400 214.29095 213.74390 214.77664 217.21663 219.72928
 221.93199 223.77185 225.08232 226.05006 226.79141 227.09515 226.63596 225.55049
 225.04901 226.87276 230.99643 236.01915 240.87811 245.33295 249.40161 253.03732
 256.35175 259.46942 262.41019 265.09213 267.50296 269.63663 271.43555 272.96085
 274.29422 275.57013 276.86761 278.19519 279.38318 280.44223 281.41336 282.30508
 283.12256 283.86789 284.52344 285.35989
 366.78100 356.33824 345.77349 334.64273 323.04898 311.24622 299.11946 286.92571
 274.64095 262.54119 250.55344 239.85768 229.98293 221.09017 213.27541 206.28066
 200.11790 195.05914 191.64439 189.68963 188.72988 188.79712 189.63536 190.94661
 192.67485 194.77309 197.03934 199.40158 201.84983 204.33307 206.42431 208.26956
 209.89880 211.04704 211.27929 211.51053 211.45078 211.15902 210.79526 210.42851
 210.04875 209.76199 209.57324 209.44048 209.37173 209.70597 210.09521 210.48746
 211.28370 212.46494 213.71819 215.50443 217.43568 219.48192 221.58016 223.66641
 225.72965 227.81689 229.91714 232.02638 234.15863 236.33387 238.59311 240.96636
 243.59060 245.84484 247.85009 249.61833 251.03858 252.16482 252.99006 253.30931
 253.34955 253.12679 252.49004 251.44128 250.05053 248.21477 246.12701 243.96326
 241.75750 239.56474 237.38799 235.23023 233.09348 230.96372 228.99296 227.15321
 225.43945 223.91470 222.54794 221.32318 220.20843 219.17167 218.27891 217.42316
 216.66840 215.85165 214.95289 214.32013 213.77338 214.79677 217.21466 219.73422
 221.95648 223.77187 225.03941 226.00230 226.76402 227.06441 226.61548 225.57367
 225.09731 226.92708 231.03351 236.01642 240.85834 245.31586 249.38377 253.01933
 256.33606 259.45114 262.38635 265.05673 267.46069 269.59381 271.38681 272.89883
 274.22565 275.51056 276.82086 278.15219 279.34085 280.39923 281.37119 282.26245
 283.08173 283.83090 284.48087 285.32062
 366.78100 356.33855 345.77410 334.64365 323.05020 311.24775 299.12130 286.92785
 274.64340 262.54394 250.55649 239.86104 229.98659 221.09414 213.27969 206.28524
 200.12279 195.06434 191.64989 189.69544 188.73599 188.80354 189.64209 190.95364
 192.68219 194.78073 197.04728 199.40983 201.85838 204.34193 206.43348 208.27903
 209.90858 211.05713 211.28968 211.52123 211.46178 211.17033 210.80688 210.44043
 210.06098 209.77453 209.58607 209.45362 209.38517 209.71972 210.10927 210.50182
 211.29837 212.47992 213.73347 215.52002 217.45157 219.49812 221.59667 223.68322
 225.74677 227.83432 229.93487 232.04441 234.17696 236.35251 238.61206 240.98561
 243.61016 245.86471 247.87026 249.63881 251.05936 252.18591 253.01146 253.33101
 253.37156 253.14911 252.51266 251.46420 250.07375 248.23830 246.15085 243.98740
 241.78195 239.58950 237.41305 235.25560 233.11915 230.98970 229.01925 227.17980
 225.46635 223.94190 222.57545 221.35100 220.23654 219.20009 218.30764 217.45219
 216.69774 215.88129 214.98284 214.35039 213.80394 214.81610 217.20746 219.73721
 221.98572 223.76912 224.97688 225.94107 226.73300 227.04640 226.58945 225.59013
 225.17091 226.99950 231.06462 236.00781 240.83380 245.29498 249.36533 253.00320
 256.32690 259.44397 262.37268 265.02655 267.41443 269.53970 271.32208 272.81549
 274.13223 275.42151 276.78027 278.12360 279.31189 280.36978 281.34024 282.23123
 283.05084 283.80151 284.44156 285.27750
 366.78100 356.33882 345.77463 334.64445 323.05126 311.24908 299.12289 286.92971
 274.64552 262.54634 250.55915 239.86397 229.98978 221.09760 213.28342 206.28923
 200.12705 195.06886 191.65468 189.70049 188.74131 188.80912 189.64794 190.95975
 192.68857 194.78738 197.05420 199.41701 201.86583 204.34965 206.44146 208.28728
 209.91709 211.06591 211.29872 211.53054 211.47135 211.18017 210.81698 210.45080
 210.07161 209.78543 209.59725 209.46506 209.39688 209.73169 210.12151 210.51432
 211.31114 212.49295 213.74677 215.53358 217.46540 219.51221 221.61103 223.69784
 225.76166 227.84948 229.95029 232.06011 234.19292 236.36874 238.62855 241.00237
 243.62718 245.88200 247.88781 249.65663 251.07744 252.20426 253.03008 253.34989
 253.39071 253.16852 252.53234 251.48415 250.09397 248.25878 246.17160 244.00841
 241.80323 239.61104 237.43486 235.27767 233.14149 231.01231 229.04212 227.20294
 225.48975 223.96557 222.59938 221.37520 220.26101 219.22483 218.33264 217.47746
 216.72327 215.90709 215.00891 214.37672 213.83054 214.83380 217.20413 219.73122
 222.01979 223.77295 224.89041 225.85652 226.71799 227.03784 226.54739 225.59781
 225.25771 227.09180 231.10199 235.98306 240.79518 245.26245 249.35745 253.02029
 256.33951 259.44913 262.36295 264.99222 267.36356 269.48459 271.26071 272.74866
 274.06274 275.35779 276.70084 278.03387 279.21777 280.27267 281.23630 282.12057
 282.94727 283.70401 284.34073 285.18018
 366.78100 356.33887 345.77474 334.64462 323.05149 311.24936 299.12323 286.93011
 274.64598 262.54685 250.55972 239.86460 229.99047 221.09834 213.28421 206.29009
 200.12796 195.06983 191.65570 189.70158 188.74245 188.81032 189.64919 190.96107
 192.68994 194.78881 197.05568 199.41856 201.86743 204.35130 206.44317 208.28905
 209.91892 211.06779 211.30066 211.53253 211.47341 211.18228 210.81915 210.45302
 210.07390 209.78777 209.59964 209.46751 209.39939 209.73426 210.12413 210.51700
 211.31388 212.49575 213.74962 215.53649 217.46837 219.51524 221.61411 223.70098
 225.76486 227.85273 229.95360 232.06347 234.19635 236.37222 238.63209 241.00596
 243.63084 245.88571 247.89158 249.66045 251.08133 252.20820 253.03407 253.35394
 253.39481 253.17269 252.53656 251.48843 250.09830 248.26318 246.17605 244.01292
 241.80779 239.61567 237.43954 235.28241 233.14628 231.01716 229.04703 227.20790
 225.49477 223.97065 222.60452 221.38039 220.26626 219.23014 218.33801 217.48288
 216.72875 215.91263 215.01450 214.38237 213.83624 214.84166 217.21709 219.70517
 222.04356 223.77213 224.80400 225.80563 226.69963 226.97954 226.48787 225.58876
 225.35846 227.20998 231.14240 235.96506 240.71687 245.21875 249.37546 253.05260
 256.39169 259.46588 262.35654 264.96039 267.30734 269.42068 271.19818 272.70511
 274.04135 275.32590 276.60287 277.91592 279.10214 280.16296 281.14713 282.05420
 282.86002 283.57465 284.19662 284.99649
 366.78100 356.33899 345.77498 334.64496 323.05195 311.24994 299.12393 286.93092
 274.64690 262.54789 250.56088 239.86587 229.99186 221.09985 213.28583 206.29182
 200.12981 195.07180 191.65779 189.70377 188.74476 188.81275 189.65174 190.96373
 192.69271 194.79170 197.05869 199.42168 201.87067 204.35465 206.44664 208.29263
 209.92262 211.07161 211.30460 211.53658 211.47757 211.18656 210.82355 210.45754
 210.07852 209.79251 209.60450 209.47249 209.40448 209.73946 210.12945 210.52244
 211.31943 212.50142 213.75540 215.54239 217.47438 219.52137 221.62036 223.70734
 225.77133 227.85932 229.96031 232.07030 234.20329 236.37927 238.63926 241.01325
 243.63824 245.89323 247.89921 249.66820 251.08919 252.21618 253.04217 253.36215
 253.40314 253.18113 252.54512 251.49711 250.10709 248.27208 246.18507 244.02206
 241.81705 239.62504 237.44902 235.29201 233.15600 231.02699 229.05698 227.21796
 225.50495 223.98094 222.61493 221.39092 220.27690 219.24089 218.34888 217.49387
 216.73986 215.92384 215.02583 214.39382 213.84781 214.85370 217.23022 219.68909
 222.00613 223.73892 224.71645 225.76134 226.73296 226.88780 226.36333 225.68230
 225.48915 227.27975 231.18405 235.93755 240.69449 245.12909 249.39087 253.09660
 256.42999 259.48871 262.38855 264.95312 267.27289 269.36273 271.11649 272.62280
 273.99985 275.28000 276.56006 277.85504 279.04352 280.10696 281.09546 281.99863
 282.81241 283.54675 284.19504 285.02118
 366.78100 356.33951 345.77601 334.64652 323.05402 311.25253 299.12703 286.93454
 274.65104 262.55255 250.56605 239.87156 229.99806 221.10657 213.29308 206.29958
 200.13809 195.08059 191.66710 189.71360 188.75511 188.82361 189.66312 190.97562
 192.70513 194.80463 197.07214 199.43564 201.88515 204.36966 206.46216 208.30867
 209.93917 211.08868 211.32218 211.55469 211.49619 211.20570 210.84320 210.47771
 210.09921 209.81372 209.62623 209.49473 209.42724 209.76274 210.15325 210.54675
 211.34426 212.52676 213.78127 215.56877 217.50128 219.54878 221.64829 223.73579
 225.80030 227.88881 229.99031 232.10082 234.23432 236.41083 238.67133 241.04584
 243.67134 245.92685 247.93335 249.70286 251.12436 252.25187 253.07838 253.39888
 253.44039 253.21889 252.58340 251.53590 250.14641 248.31191 246.22542 244.06292
 241.85843 239.66693 237.49144 235.33494 233.19945 231.07096 229.10146 227.26297
 225.55047 224.02698 222.66148 221.43799 220.32449 219.28900 218.39750 217.54301
 216.78951 215.97402 215.07653 214.44503 213.89954 214.88554 217.22127 219.71718
 221.90689 223.62036 224.74139 225.74529 226.62817 226.72932 226.23328 225.87575
 225.65985 227.17612 231.20531 235.96039 240.72510 245.21487 249.22514 253.12392
 256.48987 259.50775 262.37894 264.94153 267.23779 269.31439 271.06992 272.57953
 273.93829 275.23935 276.51718 277.83054 279.02231 280.08850 281.08453 282.00482
 282.89359 283.69775 284.40027 285.29556
 366.78100 356.33942 345.77584 334.64626 323.05368 311.25210 299.12652 286.93394
 274.65036 262.55178 250.56519 239.87061 229.99703 221.10545 213.29187 206.29829
 200.13671 195.07913 191.66555 189.71197 188.75339 188.82181 189.66123 190.97365
 192.70307 194.80249 197.06991 199.43333 201.88274 204.36716 206.45958 208.30600
 209.93642 211.08584 211.31926 211.55168 211.49310 211.20252 210.83994 210.47436
 210.09578 209.81020 209.62262 209.49104 209.42346 209.75888 210.14929 210.54271
 211.34013 212.52255 213.77697 215.56439 217.49681 219.54423 221.64365 223.73107
 225.79549 227.88391 229.98533 232.09575 234.22917 236.40559 238.66601 241.04043
 243.66585 245.92126 247.92768 249.69710 251.11852 252.24594 253.07236 253.39278
 253.43420 253.21262 252.57704 251.52946 250.13988 248.30530 246.21872 244.05614
 241.85156 239.65998 237.48440 235.32781 233.19223 231.06365 229.09407 227.25549
 225.54291 224.01933 222.65375 221.43017 220.31659 219.28101 218.38943 217.53485
 216.78127 215.96569 215.06811 214.43653 213.89095 214.88545 217.24667 219.70642
 221.88751 223.53241 224.73112 225.73759 226.53120 226.61713 226.07130 225.86394
 225.89040 227.14511 231.28647 235.95509 240.73775 245.24280 249.25450 253.10123
 256.47928 259.50623 262.39874 264.94669 267.21375 269.27612 271.04620 272.56995
 273.93378 275.24866 276.52145 277.82721 279.01895 280.08829 281.08392 282.03351
 282.94992 283.76599 284.47888 285.38739
 366.78100 356.33971 345.77643 334.64714 323.05485 311.25356 299.12828 286.93599
 274.65270 262.55442 250.56813 239.87384 230.00055 221.10927 213.29598 206.30269
 200.14141 195.08412 191.67083 189.71754 188.75926 188.82797 189.66768 190.98040
 192.71011 194.80982 197.07753 199.44125 201.89096 204.37567 206.46839 208.31510
 209.94581 211.09553 211.32924 211.56195 211.50366 211.21338 210.85109 210.48580
 210.10752 209.82223 209.63494 209.50365 209.43637 209.77208 210.16279 210.55651
 211.35422 212.53693 213.79164 215.57936 217.51207 219.55978 221.65950 223.74721
 225.81192 227.90063 230.00235 232.11306 234.24677 236.42349 238.68420 241.05891
 243.68462 245.94034 247.94705 249.71676 251.13848 252.26619 253.09290 253.41361
 253.45533 253.23404 252.59875 251.55147 250.16218 248.32789 246.24160 244.07932
 241.87503 239.68374 237.50846 235.35217 233.21688 231.08859 229.11931 227.28102
 225.56873 224.04545 222.68016 221.45687 220.34359 219.30830 218.41701 217.56272
 216.80944 215.99415 215.09686 214.46558 213.92029 214.90570 217.25430 219.69554
 221.89601 223.37871 224.62698 225.83759 226.48125 226.42955 225.87105 225.85179
 226.08594 227.14861 231.35699 235.95174 240.71681 245.24120 249.35434 253.13606
 256.47958 259.52682 262.41891 264.92532 267.20120 269.23059 270.96561 272.49976
 273.89468 275.21793 276.50021 277.86563 279.06323 280.14969 281.17322 282.18903
 283.10812 283.92661 284.64157 285.55276
 366.78100 356.34126 345.77952 334.65178 323.06104 311.26130 299.13756 286.94681
 274.66507 262.56833 250.58359 239.89085 230.01911 221.12937 213.31763 206.32589
 200.16615 195.11041 191.69867 189.74692 188.79018 188.86044 189.70170 191.01596
 192.74722 194.84848 197.11774 199.48300 201.93426 204.42052 206.51478 208.36304
 209.99529 211.14655 211.38181 211.61607 211.55933 211.27059 210.90985 210.54611
 210.16937 209.88563 209.69989 209.57015 209.50441 209.84166 210.23392 210.62918
 211.42844 212.61270 213.86896 215.65822 217.59248 219.64174 221.74300 223.83226
 225.89852 227.98877 230.09203 232.20429 234.33955 236.51781 238.78007 241.15633
 243.78359 246.04085 248.04911 249.82037 251.24363 252.37289 253.20114 253.52340
 253.56666 253.34692 252.71318 251.66744 250.27970 248.44696 246.36222 244.20148
 241.99874 239.80900 237.63525 235.48051 233.34677 231.22003 229.25229 227.41555
 225.70481 224.18307 222.81933 221.59759 220.48585 219.45211 218.56237 217.70962
 216.95788 216.14414 215.24840 214.61866 214.07492 214.99423 217.23027 219.73726
 221.82811 223.34497 224.84612 225.85335 226.30426 226.27191 225.73619 225.82907
 226.12872 227.62572 231.39905 236.00758 240.72177 245.24846 249.41469 253.19247
 256.54575 259.63330 262.43640 264.78967 267.10675 269.25568 270.92117 272.34302
 273.70804 275.03772 276.47400 277.81204 279.08105 280.30441 281.42715 282.44427
 283.35907 284.17371 284.88535 285.79227
 366.78100 356.34143 345.77987 334.65230 323.06174 311.26217 299.13860 286.94804
 274.66647 262.56990 250.58534 239.89277 230.02121 221.13164 213.32007 206.32851
 200.16894 195.11337 191.70181 189.75024 188.79368 188.86411 189.70554 191.01998
 192.75141 194.85284 197.12228 199.48771 201.93915 204.42558 206.52001 208.36845
 210.00088 211.15231 211.38775 211.62218 211.56562 211.27705 210.91648 210.55292
 210.17635 209.89278 209.70722 209.57765 209.51209 209.84952 210.24195 210.63739
 211.43682 212.62125 213.87769 215.66712 217.60156 219.65099 221.75242 223.84186
 225.90829 227.99872 230.10216 232.21459 234.35003 236.52846 238.79089 241.16733
 243.79476 246.05219 248.06063 249.83206 251.25550 252.38493 253.21336 253.53580
 253.57923 253.35966 252.72610 251.68053 250.29297 248.46040 246.37583 244.21527
 242.01270 239.82314 237.64957 235.49500 233.36144 231.23487 229.26730 227.43074
 225.72017 224.19861 222.83504 221.61347 220.50191 219.46834 218.57877 217.72621
 216.97464 216.16108 215.26551 214.63594 214.09238 215.01924 217.30861 219.71071
 221.79539 223.64920 225.08339 225.64780 226.05524 226.12340 225.73155 225.64606
 226.04485 227.91580 231.54971 236.06380 240.76321 245.31227 249.48230 253.24362
 256.61743 259.70279 262.50790 264.92569 267.20016 269.16437 270.73602 272.04581
 273.51398 275.18570 276.86792 278.52670 279.96222 281.23230 282.39105 283.44080
 284.38492 285.22568 285.96014 286.89615
 366.78100 356.34048 345.77796 334.64944 323.05791 311.25739 299.13287 286.94135
 274.65883 262.56131 250.57578 239.88226 230.00974 221.11922 213.30670 206.31418
 200.15365 195.09713 191.68461 189.73209 188.77457 188.84405 189.68453 190.99800
 192.72848 194.82896 197.09744 199.46192 201.91240 204.39787 206.49135 208.33883
 209.97031 211.12079 211.35527 211.58874 211.53122 211.24170 210.88018 210.51566
 210.13814 209.85361 209.66709 209.53657 209.47005 209.80653 210.19801 210.59249
 211.39096 212.57444 213.82992 215.61840 217.55188 219.60036 221.70083 223.78931
 225.85479 227.94427 230.04675 232.15823 234.29270 236.47018 238.73166 241.10714
 243.73362 245.99010 247.99758 249.76805 251.19053 252.31901 253.14649 253.46797
 253.51045 253.28992 252.65540 251.60888 250.22036 248.38684 246.30132 244.13979
 241.93627 239.74575 237.57123 235.41571 233.28119 231.15367 229.18514 227.34762
 225.63610 224.11358 222.74906 221.52654 220.41401 219.37949 218.48897 217.63545
 216.88293 216.06841 215.17188 214.54136 213.99684 214.98206 217.38217 219.66896
 221.77930 223.70247 225.09142 225.46571 225.89622 225.97174 225.60089 225.52998
 226.04637 228.01506 231.66792 236.13031 240.82256 245.37656 249.55507 253.32234
 256.69547 259.75903 262.52594 264.91687 267.17590 269.29718 271.04852 272.24252
 273.63266 275.47574 277.24548 278.95404 280.43268 281.74088 282.93442 284.01569
 284.98816 285.85416 286.61066 287.57477
 366.78100 356.34013 345.77726 334.64840 323.05653 311.25566 299.13079 286.93892
 274.65606 262.55819 250.57232 239.87845 230.00558 221.11472 213.30185 206.30898
 200.14811 195.09124 191.67838 189.72551 188.76764 188.83677 189.67690 190.99004
 192.72017 194.82030 197.08843 199.45257 201.90270 204.38783 206.48096 208.32809
 209.95923 211.10936 211.34349 211.57662 211.51875 211.22889 210.86702 210.50215
 210.12428 209.83941 209.65255 209.52168 209.45481 209.79094 210.18207 210.57621
 211.37434 212.55747 213.81260 215.60073 217.53387 219.58200 221.68213 223.77026
 225.83539 227.92453 230.02666 232.13779 234.27192 236.44905 238.71019 241.08532
 243.71145 245.96758 247.97471 249.74485 251.16698 252.29511 253.12224 253.44337
 253.48551 253.26464 252.62977 251.58290 250.19404 248.36017 246.27430 244.11243
 241.90856 239.71770 237.54283 235.38696 233.25209 231.12422 229.15536 227.31749
 225.60562 224.08275 222.71788 221.49502 220.38215 219.34728 218.45641 217.60254
 216.84968 216.03481 215.13794 214.50707 213.96220 214.95952 217.35663 219.65433
 221.80209 223.31348 225.01662 225.35628 225.81891 225.74370 225.37247 225.40436
 226.17331 228.10544 231.78595 236.24126 240.88728 245.42752 249.62352 253.41251
 256.81839 259.89584 262.62921 264.94580 266.98886 268.97598 270.86047 272.48099
 273.87775 275.43771 277.00864 278.43433 279.74228 281.02332 282.19211 283.25095
 284.20325 285.05127 285.79208 286.73618
 366.78100 356.34067 345.77835 334.65002 323.05869 311.25837 299.13404 286.94271
 274.66038 262.56306 250.57773 239.88440 230.01208 221.12175 213.30942 206.31710
 200.15677 195.10044 191.68812 189.73579 188.77846 188.84814 189.68881 191.00248
 192.73315 194.83383 197.10250 199.46717 201.91785 204.40352 206.49719 208.34487
 209.97654 211.12721 211.36189 211.59556 211.53823 211.24891 210.88758 210.52325
 210.14592 209.86160 209.67527 209.54494 209.47862 209.81529 210.20696 210.60164
 211.40031 212.58398 213.83966 215.62833 217.56200 219.61068 221.71135 223.80002
 225.86569 227.95537 230.05804 232.16971 234.30439 236.48206 238.74373 241.11941
 243.74608 246.00275 248.01043 249.78110 251.20377 252.33245 253.16012 253.48179
 253.52446 253.30414 252.66981 251.62348 250.23516 248.40183 246.31650 244.15518
 241.95185 239.76152 237.58720 235.43187 233.29754 231.17021 229.20189 227.36456
 225.65323 224.13091 222.76658 221.54425 220.43193 219.39760 218.50727 217.65395
 216.90162 216.08729 215.19097 214.56064 214.01631 214.98283 217.28819 219.68851
 221.83682 223.18484 224.71800 225.31534 225.78819 225.47095 225.09706 225.19466
 226.17815 228.11392 231.90587 236.32715 240.97704 245.52089 249.70502 253.49080
 256.88507 259.93256 262.68588 265.04794 267.11392 268.97015 270.60840 272.18298
 273.68887 275.19489 276.73782 278.12390 279.33664 280.43295 281.46570 282.44794
 283.33133 284.11801 284.80527 285.68106
 366.78100 356.34121 345.77941 334.65162 323.06082 311.26103 299.13723 286.94644
 274.66465 262.56785 250.58306 239.89026 230.01847 221.12868 213.31688 206.32509
 200.16529 195.10950 191.69770 189.74591 188.78912 188.85932 189.70053 191.01473
 192.74594 194.84715 197.11635 199.48156 201.93276 204.41897 206.51317 208.36138
 209.99359 211.14479 211.38000 211.61420 211.55741 211.26861 210.90782 210.54403
 210.16723 209.88344 209.69764 209.56785 209.50206 209.83926 210.23147 210.62667
 211.42588 212.61008 213.86629 215.65550 217.58970 219.63891 221.74011 223.82932
 225.89552 227.98573 230.08894 232.20114 234.33635 236.51455 238.77676 241.15297
 243.78017 246.03738 248.04558 249.81679 251.23999 252.36920 253.19741 253.51961
 253.56282 253.34302 252.70923 251.66344 250.27564 248.44285 246.35805 244.19726
 241.99446 239.80467 237.63088 235.47608 233.34229 231.21549 229.24770 227.41090
 225.70011 224.17832 222.81452 221.59273 220.48093 219.44714 218.55735 217.70455
 216.95276 216.13896 215.24317 214.61337 214.06958 215.01262 217.25925 219.72366
 221.80849 223.31110 224.54160 225.26630 225.64299 225.22804 224.87074 225.10040
 226.15799 228.29219 232.07796 236.47339 241.10777 245.63614 249.79904 253.58713
 256.97995 260.00378 262.71780 265.06409 267.15866 269.04895 270.63293 272.07816
 273.52780 275.02148 276.53625 277.91605 279.12280 280.21326 281.23483 282.20013
 283.07364 283.85147 284.53101 285.39697
 366.78100 356.34088 345.77877 334.65065 323.05954 311.25942 299.13531 286.94419
 274.66208 262.56496 250.57984 239.88673 230.01461 221.12450 213.31238 206.32027
 200.16015 195.10404 191.69192 189.73980 188.78269 188.85257 189.69346 191.00734
 192.73823 194.83911 197.10800 199.47288 201.92376 204.40965 206.50353 208.35142
 209.98330 211.13419 211.36907 211.60296 211.54584 211.25672 210.89561 210.53149
 210.15438 209.87026 209.68415 209.55403 209.48792 209.82480 210.21668 210.61157
 211.41045 212.59434 213.85022 215.63911 217.57299 219.62188 221.72276 223.81164
 225.87753 227.96741 230.07030 232.18218 234.31707 236.49495 238.75684 241.13272
 243.75960 246.01649 248.02437 249.79526 251.21814 252.34703 253.17491 253.49680
 253.53968 253.31956 252.68545 251.63933 250.25122 248.41810 246.33299 244.17187
 241.96876 239.77864 237.60452 235.44941 233.31529 231.18818 229.22006 227.38295
 225.67183 224.14972 222.78560 221.56349 220.45137 219.41725 218.52714 217.67402
 216.92191 216.10779 215.21168 214.58156 214.03745 215.00079 217.28970 219.70166
 221.80586 223.37865 224.43309 225.18185 225.45085 224.96677 224.67708 225.00352
 226.10542 228.39000 232.28612 236.66493 241.27206 245.76974 249.90135 253.68428
 257.07175 260.07626 262.75848 265.08151 267.15088 269.04916 270.65298 272.07034
 273.47443 274.92532 276.41544 277.78976 278.99194 280.07657 281.09360 282.04932
 282.91425 283.68448 284.35733 285.21481
 366.78100 356.34049 345.77799 334.64948 323.05797 311.25746 299.13296 286.94145
 274.65894 262.56144 250.57593 239.88242 230.00991 221.11941 213.30690 206.31439
 200.15389 195.09738 191.68487 189.73237 188.77486 188.84435 189.68484 190.99834
 192.72883 194.82932 197.09782 199.46231 201.91280 204.39829 206.49179 208.33928
 209.97077 211.12127 211.35576 211.58925 211.53174 211.24224 210.88073 210.51622
 210.13872 209.85421 209.66770 209.53720 209.47069 209.80718 210.19867 210.59317
 211.39166 212.57515 213.83065 215.61914 217.55263 219.60112 221.70162 223.79011
 225.85560 227.94510 230.04759 232.15908 234.29357 236.47107 238.73256 241.10805
 243.73455 245.99104 247.99853 249.76902 251.19152 252.32001 253.14750 253.46900
 253.51149 253.29098 252.65648 251.60997 250.22146 248.38795 246.30245 244.14094
 241.93743 239.74693 237.57242 235.41691 233.28240 231.15490 229.18639 227.34888
 225.63738 224.11487 222.75036 221.52785 220.41535 219.38084 218.49033 217.63683
 216.88432 216.06981 215.17331 214.54280 213.99829 214.98608 217.33081 219.67094
 221.81122 223.38309 224.33058 225.10005 225.27917 224.71185 224.41922 224.87636
 226.07602 228.48236 232.45918 236.87593 241.45953 245.91617 250.00818 253.77780
 257.15189 260.13733 262.81085 265.13962 267.18558 269.05688 270.64755 272.04834
 273.42422 274.81116 276.27676 277.65054 278.85233 279.93820 280.95575 281.90329
 282.75449 283.51251 284.17468 285.01855
 366.78100 356.34020 345.77739 334.64859 323.05679 311.25598 299.13118 286.93938
 274.65657 262.55877 250.57296 239.87916 230.00636 221.11555 213.30275 206.30995
 200.14914 195.09234 191.67954 189.72673 188.76893 188.83813 189.67832 190.99152
 192.72171 194.82191 197.09011 199.45430 201.90450 204.38970 206.48289 208.33009
 209.96129 211.11148 211.34568 211.57888 211.52107 211.23127 210.86946 210.50466
 210.12686 209.84205 209.65525 209.52445 209.45764 209.79384 210.18504 210.57923
 211.37743 212.56063 213.81582 215.60402 217.53721 219.58541 221.68561 223.77380
 225.83900 227.92820 230.03039 232.14159 234.27579 236.45298 238.71418 241.08938
 243.71557 245.97177 247.97896 249.74916 251.17136 252.29955 253.12675 253.44795
 253.49014 253.26934 252.63454 251.58773 250.19893 248.36513 246.27932 244.11752
 241.91371 239.72291 237.54811 235.39230 233.25750 231.12970 229.16089 227.32309
 225.61129 224.08848 222.72368 221.50088 220.38807 219.35327 218.46246 217.60866
 216.85586 216.04105 215.14425 214.51345 213.96864 214.97711 217.37500 219.64825
 221.78587 223.26282 224.24586 225.07437 225.10625 224.45665 224.11975 224.64473
 226.03191 228.56938 232.63745 237.09869 241.65891 246.06587 250.12410 253.87268
 257.22653 260.19458 262.87061 265.20920 267.25949 269.09991 270.63339 272.02271
 273.39407 274.72836 276.14410 277.51660 278.72104 279.81992 280.86700 281.86270
 282.75821 283.55563 284.25229 285.14008
 366.78100 356.34152 345.78003 334.65255 323.06206 311.26258 299.13909 286.94861
 274.66712 262.57064 250.58615 239.89367 230.02218 221.13270 213.32121 206.32973
 200.17024 195.11476 191.70327 189.75179 188.79530 188.86582 189.70733 191.02185
 192.75336 194.85488 197.12439 199.48991 201.94142 204.42794 206.52245 208.37097
 210.00348 211.15500 211.39051 211.62503 211.56854 211.28006 210.91957 210.55609
 210.17960 209.89612 209.71063 209.58115 209.51566 209.85318 210.24569 210.64121
 211.44072 212.62524 213.88175 215.67127 217.60579 219.65530 221.75682 223.84633
 225.91285 228.00336 230.10688 232.21939 234.35491 236.53342 238.79594 241.17245
 243.79997 246.05748 248.06600 249.83751 251.26103 252.39054 253.21906 253.54157
 253.58509 253.36560 252.73212 251.68663 250.29915 248.46666 246.38218 244.22169
 242.01921 239.82972 237.65624 235.50175 233.36827 231.24178 229.27430 227.43781
 225.72733 224.20584 222.84236 221.62087 220.50939 219.47590 218.58642 217.73393
 216.98245 216.16896 215.27348 214.64399 214.10051 215.04710 217.31654 219.73840
 221.68204 223.15067 224.28687 224.98793 224.91295 224.27513 223.73305 224.39084
 226.04787 228.73807 232.84442 237.32600 241.86363 246.22334 250.25122 253.98564
 257.31900 260.26199 262.93079 265.28262 267.35400 269.16568 270.65033 271.97894
 273.29672 274.64410 276.13135 277.50909 278.73245 279.85947 280.94330 281.93365
 282.82434 283.61752 284.31039 285.19342
 366.78100 356.34323 345.78346 334.65769 323.06892 311.27115 299.14938 286.96061
 274.68084 262.58607 250.60330 239.91253 230.04275 221.15498 213.34521 206.35544
 200.19767 195.14390 191.73413 189.78436 188.82959 188.90182 189.74505 191.06128
 192.79451 194.89774 197.16897 199.53620 201.98943 204.47766 206.57389 208.42412
 210.05835 211.21158 211.44881 211.68504 211.63026 211.34349 210.98472 210.62295
 210.24818 209.96641 209.78264 209.65487 209.59110 209.93033 210.32456 210.72179
 211.52302 212.70925 213.96748 215.75871 217.69494 219.74617 221.84940 223.94063
 226.00886 228.10109 230.20632 232.32054 234.45777 236.63800 238.90223 241.28046
 243.90969 246.16892 248.17915 249.95238 251.37761 252.50884 253.33907 253.66330
 253.70853 253.49076 252.85899 251.81522 250.42945 248.59868 246.51591 244.35714
 242.15637 239.96860 237.79683 235.64405 233.51228 231.38751 229.42174 227.58697
 225.87820 224.35843 222.99666 221.77689 220.66712 219.63535 218.74758 217.89681
 217.14704 216.33527 215.44150 214.81373 214.27196 215.13188 217.19820 219.86852
 221.64525 223.11681 224.29338 224.72678 224.76091 224.03932 223.48427 224.21938
 225.91420 228.81949 233.04047 237.54977 242.07639 246.40620 250.39760 254.10997
 257.42508 260.34201 262.99475 265.36523 267.44409 269.24713 270.75391 272.07227
 273.33362 274.52386 275.86981 277.23486 278.43741 279.53024 280.56104 281.52109
 282.38455 283.15344 283.82516 284.68115
 366.78100 356.34297 345.78295 334.65692 323.06789 311.26986 299.14784 286.95881
 274.67878 262.58375 250.60073 239.90970 230.03967 221.15164 213.34162 206.35159
 200.19356 195.13953 191.72951 189.77948 188.82445 188.89642 189.73940 191.05537
 192.78834 194.89132 197.16229 199.52926 201.98223 204.47021 206.56618 208.41615
 210.05012 211.20310 211.44007 211.67604 211.62101 211.33399 210.97496 210.61293
 210.23790 209.95588 209.77185 209.64382 209.57980 209.91877 210.31274 210.70971
 211.51069 212.69666 213.95463 215.74560 217.68158 219.73255 221.83552 223.92649
 225.99447 228.08644 230.19141 232.30538 234.44236 236.62233 238.88630 241.26427
 243.89325 246.15222 248.16219 249.93517 251.36014 252.49111 253.32108 253.64506
 253.69003 253.47200 252.83997 251.79595 250.40992 248.57889 246.49586 244.33684
 242.13581 239.94778 237.77575 235.62273 233.49070 231.36567 229.39964 227.56462
 225.85559 224.33556 222.97354 221.75351 220.64348 219.61145 218.72343 217.87240
 217.12237 216.31034 215.41632 214.78829 214.24626 215.12151 217.20692 219.84956
 221.73782 223.16867 224.13347 224.61612 224.48463 223.71732 223.39156 223.93805
 225.79881 229.03911 233.29449 237.80032 242.30537 246.59848 250.51830 254.21996
 257.54016 260.43420 263.10052 265.48703 267.55426 269.31860 270.78653 272.10785
 273.38690 274.59418 275.70978 276.81717 278.00098 279.06995 280.06982 281.02206
 281.89850 282.67896 283.36072 284.22958
 366.78100 356.34261 345.78222 334.65582 323.06643 311.26804 299.14565 286.95625
 274.67586 262.58047 250.59708 239.90568 230.03529 221.14690 213.33651 206.34611
 200.18772 195.13333 191.72294 189.77254 188.81715 188.88876 189.73137 191.04698
 192.77958 194.88219 197.15280 199.51941 201.97201 204.45962 206.55523 208.40484
 210.03844 211.19105 211.42766 211.66327 211.60787 211.32048 210.96109 210.59870
 210.22331 209.94091 209.75652 209.62813 209.56374 209.90234 210.29595 210.69256
 211.49317 212.67877 213.93638 215.72699 217.66260 219.71320 221.81581 223.90642
 225.97403 228.06563 230.17024 232.28385 234.42046 236.60007 238.86367 241.24128
 243.86989 246.12850 248.13810 249.91071 251.33532 252.46593 253.29553 253.61914
 253.66375 253.44536 252.81296 251.76857 250.38218 248.55079 246.46739 244.30800
 242.10661 239.91822 237.74583 235.59243 233.46004 231.33465 229.36826 227.53286
 225.82347 224.30308 222.94069 221.72029 220.60990 219.57751 218.68912 217.83772
 217.08733 216.27494 215.38055 214.75215 214.20976 215.11551 217.30161 219.76190
 221.73549 222.99626 224.15616 224.63858 224.09807 223.27484 223.22618 223.82730
 225.80161 229.20465 233.54114 238.08475 242.54646 246.77005 250.66377 254.31230
 257.59698 260.51724 263.21072 265.63055 267.68958 269.39117 270.81458 272.09338
 273.32855 274.50705 275.60828 276.82904 278.05093 279.22504 280.36816 281.40378
 282.33517 283.16458 283.88916 284.81253
 366.78100 356.34175 345.78049 334.65324 323.06298 311.26373 299.14047 286.95022
 274.66897 262.57271 250.58846 239.89620 230.02495 221.13569 213.32444 206.33318
 200.17393 195.11868 191.70742 189.75617 188.79991 188.87066 189.71240 191.02715
 192.75890 194.86064 197.13039 199.49613 201.94788 204.43462 206.52937 208.37812
 210.01086 211.16261 211.39835 211.63310 211.57684 211.28859 210.92833 210.56508
 210.18883 209.90557 209.72032 209.59106 209.52581 209.86355 210.25630 210.65205
 211.45179 212.63654 213.89328 215.68303 217.61777 219.66752 221.76927 223.85901
 225.92576 228.01650 230.12025 232.23299 234.36874 236.54749 238.81023 241.18698
 243.81472 246.07247 248.08121 249.85296 251.27670 252.40645 253.23520 253.55794
 253.60169 253.38243 252.74918 251.70392 250.31667 248.48442 246.40016 244.23991
 242.03765 239.84840 237.67514 235.52089 233.38764 231.26138 229.29413 227.45787
 225.74762 224.22636 222.86311 221.64185 220.53060 219.49735 218.60809 217.75584
 217.00458 216.19133 215.29607 214.66682 214.12357 215.08894 217.42113 219.67065
 221.77332 223.17430 224.33609 224.32895 223.73508 223.13788 223.11119 223.73534
 225.73785 229.31778 233.76048 238.32983 242.78200 246.96411 250.81624 254.47499
 257.71338 260.57755 263.27826 265.74384 267.84787 269.52298 270.89523 272.16379
 273.33817 274.46429 275.65802 277.15417 278.54208 279.77002 280.89035 281.90527
 282.81808 283.63098 284.34106 285.24603
 366.78100 356.34167 345.78033 334.65300 323.06266 311.26333 299.13999 286.94966
 274.66832 262.57199 250.58765 239.89532 230.02398 221.13465 213.32331 206.33198
 200.17264 195.11731 191.70597 189.75464 188.79830 188.86897 189.71063 191.02530
 192.75696 194.85863 197.12829 199.49396 201.94562 204.43229 206.52695 208.37562
 210.00828 211.15995 211.39561 211.63028 211.57394 211.28561 210.92527 210.56194
 210.18560 209.90227 209.71693 209.58760 209.52226 209.85993 210.25259 210.64826
 211.44792 212.63259 213.88925 215.67892 217.61358 219.66325 221.76491 223.85458
 225.92125 228.01191 230.11558 232.22824 234.36391 236.54257 238.80524 241.18190
 243.80957 246.06723 248.07590 249.84756 251.27123 252.40089 253.22956 253.55222
 253.59589 253.37655 252.74322 251.69788 250.31055 248.47821 246.39388 244.23354
 242.03121 239.84187 237.66854 235.51420 233.38087 231.25453 229.28720 227.45086
 225.74053 224.21919 222.85586 221.63452 220.52319 219.48985 218.60052 217.74818
 216.99685 216.18351 215.28818 214.65884 214.11551 215.08820 217.43245 219.66168
 221.75258 223.13332 224.31201 224.08629 223.50565 223.01372 222.84770 223.41194
 225.64044 229.39096 233.94479 238.53806 242.97620 247.13527 250.97331 254.64952
 257.87741 260.68179 263.36215 265.86075 268.01135 269.70975 271.05591 272.08923
 273.41684 274.39429 275.52164 276.98035 278.36166 279.59073 280.71207 281.72794
 282.64157 283.45517 284.16592 285.07169
 366.78100 356.34236 345.78172 334.65507 323.06543 311.26679 299.14415 286.95450
 274.67386 262.57822 250.59458 239.90294 230.03229 221.14365 213.33301 206.34237
 200.18373 195.12908 191.71844 189.76780 188.81216 188.88351 189.72587 191.04123
 192.77359 194.87595 197.14630 199.51266 201.96502 204.45238 206.54774 208.39709
 210.03045 211.18281 211.41917 211.65452 211.59888 211.31124 210.95160 210.58896
 210.21331 209.93067 209.74603 209.61739 209.55274 209.89110 210.28446 210.68082
 211.48118 212.66653 213.92389 215.71425 217.64961 219.69997 221.80232 223.89268
 225.96004 228.05140 230.15575 232.26911 234.40547 236.58483 238.84819 241.22554
 243.85390 246.11226 248.12162 249.89398 251.31833 252.44869 253.27805 253.60141
 253.64576 253.42712 252.79448 251.74984 250.36320 248.53155 246.44791 244.28827
 242.08663 239.89798 237.72534 235.57170 233.43906 231.31342 229.34677 227.51113
 225.80149 224.28085 222.91821 221.69756 220.58692 219.55428 218.66564 217.81399
 217.06335 216.25071 215.35607 214.72743 214.18478 215.11871 217.36771 219.70465
 221.73637 222.90121 224.14799 224.07326 223.34909 222.61896 222.52167 223.09264
 225.61772 229.50731 234.14340 238.76271 243.17769 247.30544 251.12283 254.73181
 257.98022 260.81775 263.48755 266.00467 268.18149 269.89444 271.18311 272.18103
 273.55484 274.44202 275.17990 276.20255 277.43542 278.65952 279.81192 280.85590
 281.79486 282.63101 283.36145 284.29230
 366.78100 356.34236 345.78171 334.65507 323.06543 311.26678 299.14414 286.95450
 274.67385 262.57821 250.59457 239.90292 230.03228 221.14364 213.33299 206.34235
 200.18371 195.12907 191.71842 189.76778 188.81214 188.88349 189.72585 191.04121
 192.77356 194.87592 197.14628 199.51263 201.96499 204.45235 206.54770 208.39706
 210.03042 211.18277 211.41913 211.65449 211.59884 211.31120 210.95156 210.58891
 210.21327 209.93063 209.74598 209.61734 209.55270 209.89105 210.28441 210.68077
 211.48113 212.66648 213.92384 215.71420 217.64955 219.69991 221.80227 223.89262
 225.95998 228.05134 230.15569 232.26905 234.40541 236.58476 238.84812 241.22548
 243.85383 246.11219 248.12155 249.89390 251.31826 252.44862 253.27797 253.60133
 253.64569 253.42704 252.79440 251.74976 250.36311 248.53147 246.44783 244.28818
 242.08654 239.89790 237.72526 235.57161 233.43897 231.31333 229.34668 227.51104
 225.80140 224.28075 222.91811 221.69747 220.58682 219.55418 218.66554 217.81389
 217.06325 216.25061 215.35596 214.72732 214.18468 215.12462 217.38513 219.68140
 221.74689 222.86830 224.00821 224.07277 223.19722 222.17462 222.22508 223.04872
 225.60657 229.63850 234.35483 238.98770 243.38345 247.48280 251.26567 254.83800
 258.06339 260.90140 263.60663 266.18182 268.40433 270.10196 271.17294 272.40213
 273.57181 274.35535 275.18307 276.01160 277.00064 278.15109 279.22638 280.20053
 281.07666 281.85684 282.53842 283.40698
 366.78100 356.34217 345.78133 334.65450 323.06466 311.26583 299.14299 286.95316
 274.67232 262.57649 250.59265 239.90082 230.02998 221.14115 213.33031 206.33948
 200.18064 195.12581 191.71497 189.76414 188.80830 188.87947 189.72163 191.03680
 192.76896 194.87113 197.14129 199.50746 201.95962 204.44679 206.54195 208.39112
 210.02428 211.17645 211.41261 211.64778 211.59194 211.30411 210.94427 210.58144
 210.20560 209.92277 209.73794 209.60910 209.54427 209.88243 210.27560 210.67176
 211.47193 212.65709 213.91426 215.70442 217.63959 219.68975 221.79192 223.88208
 225.94925 228.04041 230.14458 232.25774 234.39391 236.57307 238.83624 241.21340
 243.84157 246.09973 248.10890 249.88106 251.30523 252.43539 253.26456 253.58772
 253.63189 253.41305 252.78022 251.73538 250.34855 248.51671 246.43288 244.27304
 242.07121 239.88237 237.70954 235.55571 233.42287 231.29704 229.33020 227.49437
 225.78453 224.26370 222.90086 221.68003 220.56919 219.53636 218.64752 217.79569
 217.04485 216.23202 215.33718 214.70835 214.16551 215.13101 217.45712 219.63940
 221.71935 223.05826 224.04173 223.85710 223.00684 222.08318 221.89854 223.03160
 225.56747 229.75670 234.53545 239.18758 243.57146 247.63048 251.38197 255.00363
 258.21680 261.02951 263.75552 266.36798 268.66437 270.19275 271.29376 272.73782
 273.65924 274.32584 275.08029 276.36203 277.60211 278.69931 279.70029 280.60715
 281.42276 282.14905 282.78351 283.59210
 366.78100 356.34333 345.78367 334.65800 323.06934 311.27167 299.15000 286.96134
 274.68167 262.58701 250.60434 239.91368 230.04401 221.15634 213.34668 206.35701
 200.19935 195.14568 191.73601 189.78635 188.83168 188.90402 189.74735 191.06368
 192.79702 194.90035 197.17169 199.53902 201.99235 204.48069 206.57702 208.42736
 210.06169 211.21503 211.45236 211.68869 211.63403 211.34736 210.98870 210.62703
 210.25236 209.97070 209.78703 209.65937 209.59570 209.93503 210.32937 210.72670
 211.52804 212.71437 213.97270 215.76404 217.70037 219.75171 221.85504 223.94638
 226.01471 228.10704 230.21238 232.32671 234.46405 236.64438 238.90871 241.28705
 243.91638 246.17572 248.18605 249.95938 251.38472 252.51605 253.34639 253.67072
 253.71605 253.49839 252.86672 251.82306 250.43739 248.60673 246.52406 244.36539
 242.16473 239.97706 237.80540 235.65273 233.52106 231.39640 229.43073 227.59607
 225.88740 224.36773 223.00607 221.78640 220.67674 219.64507 218.75741 217.90674
 217.15707 216.34541 215.45174 214.82408 214.28241 215.19322 217.41980 219.69255
 221.61421 223.13893 224.00200 223.64647 222.84401 221.93451 221.48756 222.90807
 225.60002 229.87814 234.70325 239.40195 243.75323 247.76447 251.53143 255.18176
 258.39142 261.20135 263.89157 266.47095 268.73807 270.29926 271.37567 272.92990
 273.81924 274.40176 274.95276 276.25189 277.48132 278.56906 279.56146 280.46051
 281.26907 281.98914 282.61816 283.41977
 366.78100 356.34439 345.78579 334.66118 323.07357 311.27697 299.15636 286.96875
 274.69015 262.59654 250.61493 239.92533 230.05672 221.17011 213.36150 206.37290
 200.21629 195.16368 191.75508 189.80647 188.85286 188.92626 189.77065 191.08804
 192.82244 194.92683 197.19922 199.56762 202.02201 204.51140 206.60880 208.46019
 210.09558 211.24998 211.48837 211.72576 211.67216 211.38655 211.02894 210.66834
 210.29473 210.01412 209.83151 209.70491 209.64230 209.98269 210.37809 210.77648
 211.57887 212.76627 214.02566 215.81805 217.75545 219.80784 221.91223 224.00463
 226.07402 228.16741 230.27381 232.38920 234.52759 236.70899 238.97438 241.35377
 243.98417 246.24456 248.25595 250.03035 251.45674 252.58913 253.42052 253.74592
 253.79231 253.57570 252.94510 251.90249 250.51788 248.68828 246.60667 244.44906
 242.24946 240.06285 237.89224 235.74064 233.61003 231.48642 229.52182 227.68821
 225.98060 224.46200 223.10139 221.88278 220.77418 219.74357 218.85696 218.00735
 217.25875 216.44814 215.55553 214.92893 214.38832 215.24095 217.33839 219.78471
 221.49208 223.01247 223.93231 223.48924 222.67599 221.64268 221.02800 222.81352
 225.64441 230.01283 234.87444 239.62166 243.96674 247.91614 251.69083 255.35114
 258.56567 261.35425 264.03296 266.58694 268.84067 270.44766 271.52640 273.06116
 273.96594 274.54318 274.96091 275.60480 276.64810 277.72543 278.70837 279.59882
 280.39969 281.11285 281.73587 282.52985
 366.78100 356.34445 345.78591 334.66136 323.07382 311.27727 299.15673 286.96918
 274.69064 262.59709 250.61555 239.92600 230.05746 221.17091 213.36237 206.37382
 200.21728 195.16473 191.75619 189.80764 188.85410 188.92755 189.77201 191.08946
 192.82392 194.92837 197.20083 199.56928 202.02374 204.51319 206.61065 208.46210
 210.09756 211.25201 211.49047 211.72792 211.67437 211.38883 211.03128 210.67074
 210.29719 210.01665 209.83410 209.70756 209.64501 209.98547 210.38092 210.77938
 211.58183 212.76929 214.02874 215.82120 217.75865 219.81111 221.91556 224.00802
 226.07747 228.17093 230.27738 232.39284 234.53129 236.71275 238.97820 241.35766
 243.98811 246.24857 248.26002 250.03448 251.46093 252.59338 253.42484 253.75029
 253.79675 253.58020 252.94966 251.90711 250.52257 248.69302 246.61148 244.45393
 242.25439 240.06784 237.89730 235.74575 233.61521 231.49166 229.52712 227.69357
 225.98603 224.46748 223.10694 221.88839 220.77985 219.74930 218.86276 218.01321
 217.26467 216.45412 215.56158 214.93503 214.39449 215.23991 217.28981 219.84352
 221.46793 222.69917 223.85030 223.42747 222.49516 221.20905 220.51915 222.63861
 225.65486 230.14615 235.06506 239.83342 244.21005 248.09238 251.82503 255.45425
 258.66058 261.48343 264.15851 266.72519 268.96179 270.50986 271.68314 273.18973
 274.13171 274.74197 275.21942 275.73914 276.29300 276.93173 277.90344 278.78372
 279.57547 280.28052 280.89642 281.68134
 366.78100 356.34406 345.78512 334.66018 323.07224 311.27530 299.15436 286.96642
 274.68748 262.59355 250.61161 239.92167 230.05273 221.16579 213.35685 206.36791
 200.21097 195.15803 191.74909 189.80015 188.84621 188.91927 189.76333 191.08039
 192.81445 194.91851 197.19057 199.55864 202.01270 204.50176 206.59882 208.44988
 210.08494 211.23900 211.47706 211.71412 211.66018 211.37424 211.01630 210.65536
 210.28142 210.00048 209.81754 209.69060 209.62766 209.96773 210.36279 210.76085
 211.56291 212.74997 214.00903 215.80109 217.73815 219.79021 221.89427 223.98633
 226.05539 228.14845 230.25451 232.36957 234.50763 236.68869 238.95376 241.33282
 243.96288 246.22294 248.23400 250.00806 251.43412 252.56618 253.39724 253.72230
 253.76836 253.55142 252.92048 251.87754 250.49260 248.66266 246.58072 244.42278
 242.22285 240.03591 237.86497 235.71303 233.58209 231.45815 229.49321 227.65927
 225.95133 224.43239 223.07145 221.85251 220.74357 219.71263 218.82569 217.97575
 217.22681 216.41588 215.52294 214.89600 214.35506 215.21994 217.28366 219.83592
 221.58095 222.61597 223.71982 223.34053 222.26233 220.81415 220.19548 222.43913
 225.67624 230.28918 235.26939 240.04530 244.45987 248.30551 251.93417 255.57562
 258.78351 261.60593 264.27655 266.80426 269.01697 270.46478 271.89447 273.32162
 274.30023 274.98175 275.49353 275.92673 276.40579 276.86545 277.35339 278.14435
 278.92758 279.62503 280.23431 281.01080
 366.78100 356.34353 345.78407 334.65860 323.07014 311.27267 299.15121 286.96274
 274.68328 262.58881 250.60634 239.91588 230.04641 221.15895 213.34948 206.36002
 200.20255 195.14909 191.73962 189.79015 188.83569 188.90822 189.75176 191.06829
 192.80183 194.90536 197.17690 199.54443 201.99796 204.48650 206.58303 208.43357
 210.06810 211.22164 211.45917 211.69571 211.64124 211.35477 210.99631 210.63484
 210.26038 209.97891 209.79545 209.66798 209.60452 209.94405 210.33858 210.73612
 211.53765 212.72419 213.98272 215.77426 217.71079 219.76233 221.86586 223.95739
 226.02593 228.11846 230.22400 232.33853 234.47607 236.65660 238.92114 241.29967
 243.92920 246.18874 248.19927 249.97281 251.39834 252.52988 253.36041 253.68495
 253.73048 253.51301 252.88155 251.83808 250.45262 248.62215 246.53969 244.38122
 242.18076 239.99329 237.82182 235.66936 233.53789 231.41343 229.44796 227.61350
 225.90503 224.38557 223.02410 221.80463 220.69517 219.66370 218.77624 217.92577
 217.17631 216.36484 215.47138 214.84391 214.30244 215.19527 217.30466 219.79085
 221.65622 222.71082 223.56432 223.22794 222.06581 220.50056 219.95688 222.37306
 225.80856 230.45648 235.47168 240.25603 244.68744 248.55409 252.03154 255.71382
 258.93414 261.73685 264.38550 266.88663 269.01987 270.54953 271.97113 273.45300
 274.51239 275.26541 275.77081 276.13550 276.47437 276.86142 277.21103 277.65628
 278.36844 279.07526 279.69269 280.47955
 366.78100 356.34303 345.78306 334.65710 323.06813 311.27016 299.14819 286.95922
 274.67926 262.58429 250.60132 239.91035 230.04038 221.15242 213.34245 206.35248
 200.19451 195.14054 191.73058 189.78061 188.82564 188.89767 189.74070 191.05674
 192.78977 194.89280 197.16383 199.53086 201.98390 204.47193 206.56796 208.41799
 210.05202 211.20506 211.44209 211.67812 211.62315 211.33618 210.97721 210.61525
 210.24028 209.95831 209.77434 209.64637 209.58241 209.92144 210.31547 210.71250
 211.51353 212.69957 213.95760 215.74863 217.68466 219.73569 221.83873 223.92976
 225.99779 228.08982 230.19485 232.30889 234.44592 236.62595 238.88998 241.26801
 243.89705 246.15608 248.16611 249.93914 251.36417 252.49521 253.32524 253.64927
 253.69430 253.47633 252.84437 251.80040 250.41443 248.58346 246.50049 244.34153
 242.14056 239.95259 237.78062 235.62765 233.49569 231.37072 229.40475 227.56978
 225.86081 224.34085 222.97888 221.75891 220.64894 219.61697 218.72901 217.87804
 217.12807 216.31610 215.42213 214.79417 214.25220 215.17012 217.33881 219.74750
 221.70450 222.83456 223.40802 223.03003 221.98636 220.27139 219.68713 222.27213
 225.89250 230.62495 235.65331 240.43810 244.85793 248.77228 252.19997 255.79773
 259.06290 261.86188 264.47232 266.96121 269.06506 270.53754 272.11301 273.63361
 274.72461 275.50879 276.02377 276.36749 276.61533 276.90714 277.27100 277.58472
 277.91473 278.52560 279.13754 279.91736
 366.78100 356.34286 345.78272 334.65658 323.06744 311.26930 299.14716 286.95802
 274.67788 262.58274 250.59960 239.90846 230.03832 221.15018 213.34004 206.34990
 200.19176 195.13763 191.72749 189.77735 188.82221 188.89407 189.73693 191.05279
 192.78565 194.88851 197.15937 199.52623 201.97909 204.46695 206.56281 208.41267
 210.04653 211.19939 211.43625 211.67211 211.61697 211.32983 210.97069 210.60855
 210.23341 209.95127 209.76713 209.63899 209.57485 209.91371 210.30757 210.70443
 211.50529 212.69116 213.94902 215.73988 217.67574 219.72660 221.82946 223.92032
 225.98818 228.08004 230.18490 232.29876 234.43562 236.61548 238.87934 241.25720
 243.88606 246.14492 248.15478 249.92764 251.35250 252.48336 253.31322 253.63708
 253.68194 253.46380 252.83166 251.78752 250.40138 248.57024 246.48710 244.32796
 242.12682 239.93869 237.76655 235.61341 233.48127 231.35613 229.38999 227.55485
 225.84571 224.32557 222.96343 221.74329 220.63315 219.60101 218.71287 217.86173
 217.11159 216.29945 215.40531 214.77717 214.23503 215.16298 217.35536 219.72205
 221.71429 222.88095 223.31212 222.90143 221.71140 219.84451 219.58360 222.24457
 225.95288 230.77661 235.81537 240.60597 245.01929 248.96358 252.45197 255.87187
 259.11572 261.94873 264.54156 266.98599 269.03445 270.58682 272.30707 273.79965
 274.92960 275.74567 276.28531 276.62683 276.85922 277.05023 277.36972 277.73663
 278.05035 278.34537 278.85458 279.62051
 366.78100 356.34310 345.78321 334.65731 323.06842 311.27052 299.14863 286.95973
 274.67984 262.58494 250.60204 239.91115 230.04125 221.15336 213.34346 206.35357
 200.19567 195.14178 191.73188 189.78198 188.82709 188.89919 189.74230 191.05840
 192.79151 194.89461 197.16572 199.53282 201.98592 204.47403 206.57013 208.42024
 210.05434 211.20745 211.44455 211.68066 211.62576 211.33886 210.97997 210.61807
 210.24318 209.96128 209.77739 209.64949 209.58560 209.92470 210.31880 210.71591
 211.51701 212.70312 213.96122 215.75233 217.68843 219.73954 221.84264 223.93374
 226.00185 228.09395 230.19906 232.31316 234.45027 236.63037 238.89448 241.27258
 243.90168 246.16079 248.17089 249.94400 251.36910 252.50021 253.33031 253.65442
 253.69952 253.48162 252.84973 251.80583 250.41994 248.58904 246.50615 244.34725
 242.14636 239.95846 237.78657 235.63367 233.50177 231.37688 229.41098 227.57609
 225.86719 224.34730 222.98540 221.76551 220.65561 219.62371 218.73582 217.88492
 217.13503 216.32313 215.42924 214.80134 214.25945 215.17928 217.35246 219.71654
 221.68675 222.86829 223.21944 222.78142 221.54839 219.50949 219.26895 222.14827
 226.04993 230.93494 235.97482 240.77620 245.19678 249.16936 252.70541 256.01294
 259.16110 262.00870 264.58820 267.00888 268.98676 270.69797 272.49045 273.98581
 275.11801 275.96036 276.52365 276.86789 277.08670 277.25754 277.47476 277.78677
 278.07068 278.40775 278.85144 279.61545
 366.78100 356.34342 345.78385 334.65827 323.06970 311.27212 299.15054 286.96197
 274.68239 262.58782 250.60524 239.91467 230.04509 221.15751 213.34794 206.35836
 200.20079 195.14721 191.73763 189.78806 188.83348 188.90591 189.74933 191.06575
 192.79918 194.90260 197.17403 199.54145 201.99488 204.48330 206.57972 208.43015
 210.06457 211.21800 211.45542 211.69184 211.63727 211.35069 210.99212 210.63054
 210.25596 209.97439 209.79081 209.66324 209.59966 209.93909 210.33351 210.73093
 211.53236 212.71878 213.97721 215.76863 217.70505 219.75648 221.85990 223.95133
 226.01975 228.11218 230.21760 232.33202 234.46945 236.64987 238.91430 241.29272
 243.92214 246.18157 248.19199 249.96542 251.39084 252.52226 253.35269 253.67711
 253.72254 253.50496 252.87339 251.82981 250.44423 248.61366 246.53108 244.37251
 242.17193 239.98435 237.81278 235.66020 233.52863 231.40405 229.43847 227.60390
 225.89532 224.37575 223.01417 221.79460 220.68502 219.65344 218.76587 217.91529
 217.16572 216.35414 215.46056 214.83299 214.29141 215.19933 217.34436 219.71725
 221.64861 222.85310 223.15144 222.59810 221.34578 219.28551 218.99115 222.00926
 226.10513 231.07516 236.12843 240.93939 245.37000 249.36986 252.94035 256.19547
 259.20810 262.04453 264.63947 267.01385 268.91641 270.82974 272.64865 274.12509
 275.27963 276.15286 276.73621 277.09366 277.31348 277.46420 277.59769 277.83093
 278.14093 278.50073 278.92343 279.67319
 366.78100 356.34364 345.78428 334.65891 323.07055 311.27319 299.15183 286.96347
 274.68410 262.58974 250.60738 239.91702 230.04765 221.16029 213.35093 206.36157
 200.20421 195.15084 191.74148 189.79212 188.83776 188.91040 189.75403 191.07067
 192.80431 194.90795 197.17959 199.54722 202.00086 204.48950 206.58614 208.43677
 210.07141 211.22505 211.46269 211.69933 211.64496 211.35860 211.00024 210.63888
 210.26452 209.98315 209.79979 209.67243 209.60907 209.94871 210.34334 210.74098
 211.54262 212.72926 213.98789 215.77953 217.71617 219.76781 221.87145 223.96308
 226.03172 228.12436 230.23000 232.34464 234.48227 236.66291 238.92755 241.30619
 243.93583 246.19546 248.20610 249.97974 251.40538 252.53702 253.36765 253.69229
 253.73793 253.52057 252.88920 251.84584 250.46048 248.63012 246.54776 244.38939
 242.18903 240.00167 237.83031 235.67795 233.54658 231.42222 229.45686 227.62250
 225.91414 224.39477 223.03341 221.81405 220.70469 219.67332 218.78596 217.93560
 217.18624 216.37488 215.48151 214.85415 214.31279 215.21356 217.34171 219.71832
 221.60820 222.82642 223.10959 222.41467 221.09109 219.05931 218.74649 221.88924
 226.17365 231.21136 236.27061 241.09503 245.53235 249.56253 253.16925 256.40997
 259.31769 262.03940 264.59912 266.96237 269.03918 271.03476 272.82065 274.22235
 275.39020 276.31305 276.93137 277.32169 277.57153 277.72714 277.81812 277.97934
 278.26401 278.64664 279.06604 279.78339
 366.78100 356.34382 345.78463 334.65945 323.07126 311.27408 299.15289 286.96471
 274.68552 262.59134 250.60915 239.91897 230.04978 221.16260 213.35341 206.36423
 200.20704 195.15386 191.74467 189.79549 188.84130 188.91412 189.75793 191.07475
 192.80856 194.91238 197.18420 199.55201 202.00583 204.49464 206.59146 208.44227
 210.07709 211.23090 211.46872 211.70553 211.65135 211.36516 211.00698 210.64579
 210.27161 209.99042 209.80724 209.68005 209.61687 209.95668 210.35150 210.74931
 211.55113 212.73795 213.99676 215.78858 217.72539 219.77721 221.88102 223.97284
 226.04165 228.13447 230.24028 232.35510 234.49291 236.67373 238.93854 241.31736
 243.94717 246.20699 248.21780 249.99162 251.41743 252.54925 253.38006 253.70488
 253.75069 253.53351 252.90233 251.85914 250.47396 248.64377 246.56159 244.40340
 242.20322 240.01603 237.84485 235.69266 233.56148 231.43729 229.47211 227.63792
 225.92974 224.41055 223.04937 221.83018 220.72100 219.68981 218.80263 217.95244
 217.20326 216.39208 215.49889 214.87171 214.33052 215.22545 217.33978 219.71619
 221.58195 222.77858 223.07068 222.27089 220.81448 218.81770 218.51636 221.81087
 226.24507 231.35451 236.41510 241.24341 245.67281 249.72292 253.36478 256.59467
 259.46619 262.12436 264.67276 267.06540 269.21478 271.21414 272.91251 274.30157
 275.50049 276.44601 277.08191 277.49353 277.77209 277.96436 278.09521 278.27783
 278.49252 278.80615 279.23309 279.90375
 366.78100 356.34401 345.78501 334.66002 323.07202 311.27503 299.15403 286.96604
 274.68704 262.59305 250.61105 239.92106 230.05207 221.16507 213.35608 206.36708
 200.21009 195.15709 191.74810 189.79910 188.84511 188.91812 189.76212 191.07913
 192.81313 194.91714 197.18914 199.55715 202.01115 204.50016 206.59716 208.44817
 210.08318 211.23718 211.47519 211.71219 211.65820 211.37220 211.01421 210.65321
 210.27922 209.99822 209.81523 209.68824 209.62524 209.96525 210.36025 210.75826
 211.56026 212.74727 214.00627 215.79828 217.73529 219.78729 221.89130 223.98330
 226.05231 228.14531 230.25132 232.36632 234.50433 236.68533 238.95034 241.32935
 243.95935 246.21936 248.23036 250.00437 251.43037 252.56238 253.39338 253.71839
 253.76439 253.54740 252.91641 251.87341 250.48842 248.65842 246.57643 244.41843
 242.21844 240.03144 237.86045 235.70846 233.57746 231.45347 229.48847 227.65448
 225.94648 224.42749 223.06649 221.84750 220.73850 219.70751 218.82052 217.97052
 217.22153 216.41053 215.51754 214.89054 214.34955 215.23743 217.33516 219.71263
 221.55658 222.74075 222.99582 222.13783 220.57448 218.58377 218.26166 221.78241
 226.31541 231.50447 236.57109 241.38438 245.80029 249.85516 253.51955 256.74573
 259.62372 262.29156 264.82681 267.18964 269.29425 271.25394 272.93579 274.35559
 275.58829 276.57095 277.20996 277.63608 277.93063 278.13641 278.29178 278.51193
 278.72565 279.01480 279.36871 280.02234
 354.97500 345.04800 334.58700 324.11500 313.32600 302.53700 291.65000 280.76700
 269.93100 259.19300 248.62200 238.61700 229.08700 220.35500 212.54000 205.53500
 199.46400 194.49300 191.14300 189.19000 188.08900 188.01400 188.72400 189.90600
 191.46900 193.38200 195.40300 197.55600 199.80700 202.06000 204.28800 206.47900
 208.55200 210.37800 212.02500 213.65900 214.99800 216.11800 217.17200 218.25900
 219.49400 220.64500 221.67900 222.61400 223.54500 224.98200 226.57100 228.19000
 229.79700 231.81100 233.86500 235.97200 238.24200 240.55300 242.89900 245.25300
 247.48800 249.53500 251.36600 252.84800 254.09800 255.16700 256.02700 256.25300
 256.09500 255.54300 253.93500 252.56600 251.38400 250.24500 249.05200 247.70100
 246.01600 243.99600 241.78400 239.39300 236.81300 234.22300 231.65800 229.14400
 226.74000 224.47300 222.33500 220.32500 218.44000 216.67700 214.96200 213.47200
 212.20000 211.10800 210.26000 209.63900 209.24400 209.03100 209.05800 209.33300
 209.78400 210.62600 211.33100 212.39100 213.62500 214.84668 217.72949 219.47640
 220.32566 220.86828 220.88710 220.27371 219.43733 218.84250 219.04934 220.86203
 222.60583 225.72206 229.03064 232.61777 236.12270 239.51333 242.70767 245.68587
 248.41061 250.90679 253.19353 254.91714 256.48655 257.94920 259.39966 260.69384
 261.81714 262.77997 263.71679 264.54570 265.26305 265.89772 266.47676 267.00133
 267.47312 267.89325 268.26027 268.72800
