|-------------------------------------------------------------------------|
|   File Name : in_temp.dat
|   Subject   : temperature profiles used for initial guess atmosphere
|   File Type : input of gmtr
|   Data Type : atmospherical data
|   Author/s  : WRF-Chem
|   Date      : Fri Jul 26 15:39:24 2024
|-------------------------------------------------------------------------|

 WRF-Chem temperature
#
 values of T (K)    (8f10.5)
#
 354.97500 345.04800 334.58700 324.11500 313.32600 302.53700 291.65000 280.76700
 269.93100 259.19300 248.62200 238.61700 229.08700 220.35500 212.54000 205.53500
 199.46400 194.49300 191.14300 189.19000 188.08900 188.01400 188.72400 189.90600
 191.46900 193.38200 195.40300 197.55600 199.80700 202.06000 204.28800 206.47900
 208.55200 210.37800 212.02500 213.65900 214.99800 216.11800 217.17200 218.25900
 219.49400 220.64500 221.67900 222.61400 223.54500 224.98200 226.57100 228.19000
 229.79700 231.81100 233.86500 235.97200 238.24200 240.55300 242.89900 245.25300
 247.48800 249.53500 251.36600 252.84800 254.09800 255.16700 256.02700 256.25300
 256.09500 255.54300 253.93500 252.56600 251.38400 250.24500 249.05200 247.70100
 246.01600 243.99600 241.78400 239.39300 236.81300 234.22300 231.65800 229.14400
 226.74000 224.47300 222.33500 220.32500 218.44000 216.67700 214.96200 213.47200
 212.20000 211.10800 210.26000 209.63900 209.24400 209.03100 209.05800 209.33300
 209.78400 210.62600 211.33100 212.39100 213.62500 214.84668 217.72949 219.47640
 220.32566 220.86828 220.88710 220.27371 219.43733 218.84250 219.04934 220.86203
 222.60583 225.72206 229.03064 232.61777 236.12270 239.51333 242.70767 245.68587
 248.41061 250.90679 253.19353 254.91714 256.48655 257.94920 259.39966 260.69384
 261.81714 262.77997 263.71679 264.54570 265.26305 265.89772 266.47676 267.00133
 267.47312 267.89325 268.26027 268.72800
 366.78100 356.33500 345.76700 334.63300 323.03600 311.23000 299.10000 286.90300
 274.61500 262.51200 250.52100 239.82200 229.94400 221.04800 213.23000 206.23200
 200.06600 195.00400 191.58600 189.62800 188.66500 188.72900 189.56400 190.87200
 192.59700 194.69200 196.95500 199.31400 201.75900 204.23900 206.32700 208.16900
 209.79500 210.94000 211.16900 211.39700 211.33400 211.03900 210.67200 210.30200
 209.91900 209.62900 209.43700 209.30100 209.22900 209.56000 209.94600 210.33500
 211.12800 212.30600 213.55600 215.33900 217.26700 219.31000 221.40500 223.48800
 225.54800 227.63200 229.72900 231.83500 233.96400 236.13600 238.39200 240.76200
 243.38300 245.63400 247.63600 249.40100 250.81800 251.94100 252.76300 253.07900
 253.11600 252.89000 252.25000 251.19800 249.80400 247.96500 245.87400 243.70700
 241.49800 239.30200 237.12200 234.96100 232.82100 230.68800 228.71400 226.87100
 225.15400 223.62600 222.25600 221.02800 219.91000 218.87000 217.97400 217.11500
 216.35700 215.53700 214.63500 213.99900 213.44900 212.85855 212.01316 212.61654
 214.26826 216.08686 218.14273 220.53346 223.40855 226.78828 231.49734 235.90155
 239.42278 243.28576 247.23140 251.11907 254.80144 258.23331 261.38913 264.27520
 266.89312 269.26852 271.44504 273.08845 274.58484 275.98591 277.39845 278.65879
 279.75272 280.69038 281.56708 282.34086 283.01050 283.60295 284.14348 284.63317
 285.07358 285.46577 285.80838 286.24500
 381.81900 372.39900 361.20600 349.77600 337.62200 324.85300 311.81000 298.35300
 284.86000 271.32400 258.56100 246.30400 236.08700 226.79600 218.44800 211.29000
 205.52200 200.89400 197.38100 194.84800 193.01500 192.31500 192.25000 192.43100
 192.91200 193.53700 194.13600 194.71200 195.26200 195.83100 196.39300 196.97600
 197.60400 198.14900 198.58400 199.05700 199.69500 200.37800 201.05400 201.70800
 202.31300 202.85700 203.35500 203.86200 204.56900 205.29700 206.02600 206.98700
 208.19300 209.44100 210.96900 212.57600 214.46200 216.51300 218.63000 220.85300
 223.34100 225.96200 228.73900 231.69700 234.70600 237.70600 240.69200 243.65700
 246.73700 249.69900 252.52100 255.06300 257.29000 259.23300 260.63300 261.68000
 262.46100 262.79800 262.69100 262.22400 261.06900 259.52500 257.70700 255.50700
 253.00100 250.30200 247.39800 244.45200 241.65400 239.05400 236.73300 234.59000
 232.59500 230.72500 228.83400 226.82600 224.66600 222.38700 220.10400 217.71500
 215.45900 213.06600 210.54600 208.09300 205.35400 202.08130 196.05959 200.71215
 209.01611 216.90438 223.84126 229.78593 235.00632 240.20838 245.98943 250.68668
 254.32982 257.93487 261.55666 264.96801 268.15192 271.06452 273.76717 276.25691
 278.57680 280.74479 282.77456 284.60533 286.27232 287.81705 289.31715 290.65561
 291.81734 292.81312 293.70701 294.49387 295.17482 295.77730 296.32696 296.82492
 297.27278 297.67160 298.02000 298.46400
 399.33000 389.90700 379.81300 368.66800 357.52200 345.30100 333.07400 320.22700
 307.21600 293.84800 280.37600 267.29600 254.61000 242.98700 232.15100 221.97700
 212.67200 204.28600 197.66900 192.82100 189.48600 187.45200 186.81400 187.08900
 187.78100 189.05400 190.64800 192.54200 194.63000 196.75200 198.67100 200.15800
 201.53500 202.48700 202.97500 203.34000 203.53900 203.49700 203.38500 203.24700
 203.00500 202.78600 202.60300 202.43700 202.42600 202.88800 203.42000 203.95100
 204.89500 205.99200 207.30100 208.95800 210.73800 213.10000 215.56400 218.18000
 220.96600 223.91800 226.96100 230.09200 233.29300 236.55700 239.95500 243.53700
 246.84500 249.39000 251.54200 253.47400 255.19500 256.48400 257.43100 258.05900
 258.21200 258.04000 257.58200 256.64300 255.23900 253.50700 251.40800 249.05600
 246.57600 243.99400 241.38900 238.83000 236.34400 233.98600 231.96900 230.11800
 228.42300 226.89900 225.54800 224.29700 223.10500 221.96500 220.95800 220.11300
 219.49000 218.92000 218.32500 217.88100 217.42300 216.96366 216.35568 216.80261
 217.73415 218.28582 218.64258 219.10077 220.44626 222.53987 226.38451 230.35736
 233.59734 237.39164 241.29814 245.22796 248.98002 252.51130 255.78595 258.80109
 261.54781 264.05210 266.34239 268.04198 269.58951 271.01303 272.35754 273.55718
 274.59842 275.49092 276.28989 276.99307 277.60161 278.14001 278.63122 279.07623
 279.47646 279.83287 280.14422 280.54100
 399.73800 389.78500 379.66200 368.15100 356.64100 344.35000 331.79200 318.88800
 305.72600 292.49300 279.20900 266.73800 254.69600 244.21100 234.45700 225.43300
 217.56900 210.45100 204.30000 199.30600 195.45800 192.57600 191.02700 190.38600
 190.23900 190.53400 191.16600 191.92500 192.79500 193.76600 194.73200 195.31200
 195.80000 196.05200 196.11500 196.11500 196.03900 195.72300 195.34000 194.98900
 194.75100 194.79200 195.13300 195.59800 196.50600 198.13600 199.85800 201.56600
 204.17900 206.82300 209.89300 213.28400 216.82800 220.60500 224.38700 228.20900
 232.03200 235.82500 239.56000 243.25800 246.84500 250.20100 253.70900 257.46800
 261.53000 264.22100 266.60100 268.68100 270.32900 271.74100 272.83600 273.47400
 273.89800 274.00200 273.75700 273.28800 272.37100 271.10000 269.58900 267.77900
 265.81600 263.72100 261.39300 258.91600 256.29800 253.42300 250.33100 247.11400
 243.83700 240.52900 237.24900 233.99900 230.72800 227.51500 224.25400 220.95200
 217.62700 213.65600 210.12100 206.78900 204.01000 201.99491 199.07309 198.76551
 199.40006 200.48994 201.46112 202.31912 203.45100 204.96110 207.47502 210.85391
 213.70530 217.29629 220.99574 224.72316 228.28753 231.64854 234.68024 237.40893
 239.70644 241.60899 243.46854 245.67368 247.68154 249.52395 251.24767 252.78566
 254.12057 255.26479 256.23740 257.09036 257.82852 258.48160 259.07744 259.61723
 260.10271 260.53504 260.91270 261.39400
 399.73800 389.78500 379.66200 368.15100 356.64100 344.35000 331.79200 318.88800
 305.72600 292.49300 279.20900 266.73800 254.69600 244.21100 234.45700 225.43300
 217.56900 210.45100 204.30000 199.30600 195.45800 192.57600 191.02700 190.38600
 190.23900 190.53400 191.16600 191.92500 192.79500 193.76600 194.73200 195.31200
 195.80000 196.05200 196.11500 196.11500 196.03900 195.72300 195.34000 194.98900
 194.75100 194.79200 195.13300 195.59800 196.50600 198.13600 199.85800 201.56600
 204.17900 206.82300 209.89300 213.28400 216.82800 220.60500 224.38700 228.20900
 232.03200 235.82500 239.56000 243.25800 246.84500 250.20100 253.70900 257.46800
 261.53000 264.22100 266.60100 268.68100 270.32900 271.74100 272.83600 273.47400
 273.89800 274.00200 273.75700 273.28800 272.37100 271.10000 269.58900 267.77900
 265.81600 263.72100 261.39300 258.91600 256.29800 253.42300 250.33100 247.11400
 243.83700 240.52900 237.24900 233.99900 230.72800 227.51500 224.25400 220.95200
 217.62700 213.65600 210.12100 206.78900 204.01000 201.99491 199.07309 198.76551
 199.40006 200.48994 201.46112 202.31912 203.45100 204.96110 207.47502 210.85391
 213.70530 217.29629 220.99574 224.72316 228.28753 231.64854 234.68024 237.40893
 239.70644 241.60899 243.46854 245.67368 247.68154 249.52395 251.24767 252.78566
 254.12057 255.26479 256.23740 257.09036 257.82852 258.48160 259.07744 259.61723
 260.10271 260.53504 260.91270 261.39400
 399.33000 389.90700 379.81300 368.66800 357.52200 345.30100 333.07400 320.22700
 307.21600 293.84800 280.37600 267.29600 254.61000 242.98700 232.15100 221.97700
 212.67200 204.28600 197.66900 192.82100 189.48600 187.45200 186.81400 187.08900
 187.78100 189.05400 190.64800 192.54200 194.63000 196.75200 198.67100 200.15800
 201.53500 202.48700 202.97500 203.34000 203.53900 203.49700 203.38500 203.24700
 203.00500 202.78600 202.60300 202.43700 202.42600 202.88800 203.42000 203.95100
 204.89500 205.99200 207.30100 208.95800 210.73800 213.10000 215.56400 218.18000
 220.96600 223.91800 226.96100 230.09200 233.29300 236.55700 239.95500 243.53700
 246.84500 249.39000 251.54200 253.47400 255.19500 256.48400 257.43100 258.05900
 258.21200 258.04000 257.58200 256.64300 255.23900 253.50700 251.40800 249.05600
 246.57600 243.99400 241.38900 238.83000 236.34400 233.98600 231.96900 230.11800
 228.42300 226.89900 225.54800 224.29700 223.10500 221.96500 220.95800 220.11300
 219.49000 218.92000 218.32500 217.88100 217.42300 216.96366 216.35568 216.80261
 217.73415 218.28582 218.64258 219.10077 220.44626 222.53987 226.38451 230.35736
 233.59734 237.39164 241.29814 245.22796 248.98002 252.51130 255.78595 258.80109
 261.54781 264.05210 266.34239 268.04198 269.58951 271.01303 272.35754 273.55718
 274.59842 275.49092 276.28989 276.99307 277.60161 278.14001 278.63122 279.07623
 279.47646 279.83287 280.14422 280.54100
 381.81900 372.39900 361.20600 349.77600 337.62200 324.85300 311.81000 298.35300
 284.86000 271.32400 258.56100 246.30400 236.08700 226.79600 218.44800 211.29000
 205.52200 200.89400 197.38100 194.84800 193.01500 192.31500 192.25000 192.43100
 192.91200 193.53700 194.13600 194.71200 195.26200 195.83100 196.39300 196.97600
 197.60400 198.14900 198.58400 199.05700 199.69500 200.37800 201.05400 201.70800
 202.31300 202.85700 203.35500 203.86200 204.56900 205.29700 206.02600 206.98700
 208.19300 209.44100 210.96900 212.57600 214.46200 216.51300 218.63000 220.85300
 223.34100 225.96200 228.73900 231.69700 234.70600 237.70600 240.69200 243.65700
 246.73700 249.69900 252.52100 255.06300 257.29000 259.23300 260.63300 261.68000
 262.46100 262.79800 262.69100 262.22400 261.06900 259.52500 257.70700 255.50700
 253.00100 250.30200 247.39800 244.45200 241.65400 239.05400 236.73300 234.59000
 232.59500 230.72500 228.83400 226.82600 224.66600 222.38700 220.10400 217.71500
 215.45900 213.06600 210.54600 208.09300 205.35400 202.08130 196.05959 200.71215
 209.01611 216.90438 223.84126 229.78593 235.00632 240.20838 245.98943 250.68668
 254.32982 257.93487 261.55666 264.96801 268.15192 271.06452 273.76717 276.25691
 278.57680 280.74479 282.77456 284.60533 286.27232 287.81705 289.31715 290.65561
 291.81734 292.81312 293.70701 294.49387 295.17482 295.77730 296.32696 296.82492
 297.27278 297.67160 298.02000 298.46400
 366.78100 356.33884 345.77468 334.64452 323.05136 311.24920 299.12304 286.92988
 274.64573 262.54657 250.55941 239.86425 229.99009 221.09793 213.28377 206.28961
 200.12745 195.06929 191.65513 189.70097 188.74181 188.80965 189.64850 190.96034
 192.68918 194.78802 197.05486 199.41770 201.86654 204.35038 206.44222 208.28806
 209.91790 211.06674 211.29958 211.53142 211.47226 211.18111 210.81795 210.45179
 210.07263 209.78647 209.59831 209.46615 209.39799 209.73283 210.12267 210.51551
 211.31235 212.49419 213.74803 215.53488 217.46672 219.51356 221.61240 223.69924
 225.76308 227.85092 229.95176 232.06160 234.19444 236.37028 238.63012 241.00396
 243.62880 245.88364 247.88949 249.65833 251.07917 252.20601 253.03185 253.35169
 253.39253 253.17037 252.53421 251.48605 250.09589 248.26073 246.17357 244.01041
 241.80526 239.61310 237.43694 235.27978 233.14362 231.01446 229.04430 227.20514
 225.49198 223.96782 222.60166 221.37750 220.26334 219.22718 218.33502 217.47987
 216.72571 215.90955 215.01139 214.37923 213.83307 212.91925 210.76845 210.22569
 210.60114 211.36435 212.85219 215.35182 219.17947 223.93129 229.66589 234.79250
 238.69276 242.64189 246.80463 250.97801 254.78381 258.54410 261.38895 263.17163
 265.80997 268.62997 271.10458 273.04977 275.04724 277.00195 278.49542 279.97852
 281.62341 283.17349 284.65057 286.01007 287.18851 288.23358 289.18732 290.05588
 290.83929 291.54187 292.15866 292.97769
 366.78100 356.33908 345.77516 334.64524 323.05232 311.25040 299.12448 286.93155
 274.64763 262.54871 250.56179 239.86687 229.99295 221.10103 213.28711 206.29319
 200.13127 195.07335 191.65943 189.70550 188.74658 188.81466 189.65374 190.96582
 192.69490 194.79398 197.06106 199.42414 201.87322 204.35730 206.44938 208.29545
 209.92553 211.07461 211.30769 211.53977 211.48085 211.18993 210.82701 210.46109
 210.08217 209.79625 209.60833 209.47640 209.40848 209.74356 210.13364 210.52672
 211.32380 212.50588 213.75996 215.54704 217.47912 219.52620 221.62528 223.71236
 225.77643 227.86451 229.96559 232.07567 234.20875 236.38483 238.64491 241.01899
 243.64407 245.89915 247.90523 249.67431 251.09538 252.22246 253.04854 253.36862
 253.40970 253.18778 252.55186 251.50394 250.11402 248.27910 246.19218 244.02926
 241.82433 239.63241 237.45649 235.29957 233.16365 231.03473 229.06481 227.22589
 225.51297 223.98905 222.62313 221.39921 220.28528 219.24936 218.35744 217.50252
 216.74860 215.93268 215.03476 214.40284 213.85692 212.96318 210.85910 210.34258
 210.60394 211.41521 212.91896 215.33215 219.05951 223.84924 229.60612 234.72893
 238.61916 242.55606 246.71922 250.90689 254.72906 258.49350 261.34491 263.14270
 265.78683 268.61337 271.08148 272.97791 274.97089 276.95419 278.42783 279.88336
 281.53418 283.09042 284.56808 285.92615 287.10660 288.15152 289.10562 289.97302
 290.75720 291.45880 292.07837 292.89825
 366.78100 356.33907 345.77514 334.64522 323.05229 311.25036 299.12443 286.93150
 274.64758 262.54865 250.56172 239.86679 229.99286 221.10094 213.28701 206.29308
 200.13115 195.07322 191.65930 189.70537 188.74644 188.81451 189.65358 190.96566
 192.69473 194.79380 197.06087 199.42394 201.87302 204.35709 206.44916 208.29523
 209.92530 211.07438 211.30745 211.53952 211.48059 211.18966 210.82674 210.46081
 210.08188 209.79595 209.60802 209.47610 209.40817 209.74324 210.13331 210.52638
 211.32346 212.50553 213.75960 215.54667 217.47874 219.52582 221.62489 223.71196
 225.77603 227.86410 229.96518 232.07525 234.20832 236.38439 238.64446 241.01854
 243.64361 245.89868 247.90475 249.67382 251.09490 252.22197 253.04804 253.36811
 253.40918 253.18726 252.55133 251.50340 250.11347 248.27854 246.19162 244.02869
 241.82376 239.63183 237.45590 235.29898 233.16305 231.03412 229.06419 227.22527
 225.51234 223.98841 222.62248 221.39855 220.28463 219.24870 218.35677 217.50184
 216.74791 215.93199 215.03406 214.40213 213.85620 212.99400 210.96347 210.45070
 210.61426 211.46803 212.96332 215.31081 218.95735 223.76112 229.55458 234.66791
 238.54706 242.47119 246.63412 250.83630 254.67664 258.44434 261.30042 263.11105
 265.75757 268.59027 271.05240 272.90527 274.89371 276.90613 278.36417 279.79321
 281.44568 283.00726 284.48694 285.84503 287.02591 288.07050 289.02319 289.89075
 290.67758 291.37973 291.99908 292.82043
 366.78100 356.33886 345.77472 334.64458 323.05144 311.24930 299.12315 286.93001
 274.64587 262.54673 250.55959 239.86445 229.99031 221.09817 213.28403 206.28989
 200.12775 195.06961 191.65546 189.70132 188.74218 188.81004 189.64890 190.96076
 192.68962 194.78848 197.05534 199.41820 201.86706 204.35092 206.44277 208.28863
 209.91849 211.06735 211.30021 211.53207 211.47293 211.18179 210.81865 210.45251
 210.07337 209.78723 209.59908 209.46694 209.39880 209.73366 210.12352 210.51638
 211.31324 212.49510 213.74896 215.53582 217.46768 219.51454 221.61339 223.70025
 225.76411 227.85197 229.95283 232.06269 234.19555 236.37141 238.63127 241.00513
 243.62999 245.88484 247.89070 249.65956 251.08042 252.20728 253.03314 253.35300
 253.39386 253.17172 252.53558 251.48744 250.09730 248.26215 246.17501 244.01187
 241.80673 239.61459 237.43845 235.28131 233.14517 231.01603 229.04589 227.20675
 225.49361 223.96946 222.60332 221.37918 220.26504 219.22890 218.33676 217.48162
 216.72748 215.91134 215.01320 214.38106 213.83492 213.01338 211.07780 210.55283
 210.63838 211.51764 212.98906 215.29132 218.87457 223.67310 229.50334 234.60620
 238.47420 242.38745 246.54985 250.76602 254.62630 258.39615 261.25516 263.07608
 265.72293 268.55927 271.01767 272.83145 274.81750 276.85645 278.30429 279.71036
 281.36087 282.92624 284.40656 285.76395 286.94540 287.99030 288.94427 289.81149
 290.59555 291.30087 291.92175 292.74277
 366.78100 356.33855 345.77410 334.64365 323.05020 311.24775 299.12130 286.92784
 274.64339 262.54394 250.55649 239.86104 229.98659 221.09414 213.27969 206.28524
 200.12279 195.06434 191.64989 189.69544 188.73598 188.80353 189.64208 190.95363
 192.68218 194.78073 197.04728 199.40983 201.85838 204.34193 206.43348 208.27903
 209.90858 211.05713 211.28967 211.52122 211.46177 211.17032 210.80687 210.44042
 210.06097 209.77452 209.58607 209.45362 209.38517 209.71972 210.10927 210.50181
 211.29836 212.47991 213.73346 215.52001 217.45156 219.49811 221.59666 223.68321
 225.74676 227.83431 229.93486 232.04441 234.17695 236.35250 238.61205 240.98560
 243.61015 245.86470 247.87025 249.63880 251.05935 252.18590 253.01145 253.33100
 253.37155 253.14909 252.51264 251.46419 250.07374 248.23829 246.15084 243.98739
 241.78194 239.58949 237.41304 235.25559 233.11914 230.98969 229.01924 227.17978
 225.46633 223.94188 222.57543 221.35098 220.23653 219.20008 218.30763 217.45218
 216.69773 215.88128 214.98283 214.35038 213.80392 213.02750 211.19740 210.65291
 210.67761 211.55467 213.00754 215.27997 218.80087 223.58360 229.44820 234.54021
 238.40042 242.30481 246.46709 250.69669 254.57860 258.34946 261.21021 263.04034
 265.68152 268.51843 270.97549 272.75668 274.73941 276.80411 278.24854 279.63403
 281.28012 282.84726 284.32748 285.68515 286.86655 287.91068 288.86536 289.73233
 290.52008 291.22293 291.84116 292.66934
 366.78100 356.33824 345.77348 334.64272 323.04896 311.24621 299.11945 286.92569
 274.64093 262.54117 250.55341 239.85765 229.98289 221.09013 213.27537 206.28062
 200.11786 195.05910 191.64434 189.68958 188.72982 188.79706 189.63530 190.94654
 192.67478 194.77303 197.03927 199.40151 201.84975 204.33299 206.42423 208.26947
 209.89871 211.04695 211.27919 211.51044 211.45068 211.15892 210.79516 210.42840
 210.04864 209.76188 209.57312 209.44036 209.37160 209.70585 210.09509 210.48733
 211.28357 212.46481 213.71805 215.50429 217.43553 219.48177 221.58001 223.66626
 225.72950 227.81674 229.91698 232.02622 234.15846 236.33370 238.59294 240.96618
 243.59043 245.84467 247.84991 249.61815 251.03839 252.16463 252.98987 253.30911
 253.34935 253.12659 252.48984 251.44108 250.05032 248.21456 246.12680 243.96304
 241.75728 239.56452 237.38776 235.23000 233.09325 230.96349 228.99273 227.15297
 225.43921 223.91445 222.54769 221.32293 220.20817 219.17141 218.27866 217.42290
 216.66814 215.85138 214.95262 214.31986 213.77310 213.04095 211.31458 210.75777
 210.72620 211.58076 213.02330 215.27429 218.73172 223.49326 229.38927 234.47202
 238.32538 242.22372 246.38516 250.62714 254.53375 258.30539 261.16553 263.00458
 265.63443 268.46741 270.92459 272.67920 274.66028 276.74677 278.19373 279.56494
 281.20483 282.76904 284.25034 285.60788 286.78830 287.83337 288.78796 289.65628
 290.44171 291.14639 291.76593 292.59610
 366.78100 356.33786 345.77272 334.64157 323.04743 311.24429 299.11715 286.92301
 274.63787 262.53772 250.54958 239.85344 229.97830 221.08516 213.27001 206.27487
 200.11173 195.05259 191.63745 189.68231 188.72216 188.78902 189.62688 190.93774
 192.66560 194.76345 197.02931 199.39117 201.83903 204.32189 206.41275 208.25760
 209.88646 211.03432 211.26618 211.49704 211.43689 211.14475 210.78061 210.41347
 210.03333 209.74619 209.55704 209.42390 209.35476 209.68862 210.07748 210.46933
 211.26519 212.44605 213.69891 215.48477 217.41563 219.46148 221.55934 223.64520
 225.70806 227.79492 229.89477 232.00363 234.13549 236.31035 238.56921 240.94207
 243.56592 245.81978 247.82464 249.59250 251.01236 252.13821 252.96307 253.28193
 253.32179 253.09865 252.46150 251.41236 250.02122 248.18508 246.09694 243.93280
 241.72665 239.53351 237.35637 235.19823 233.06109 230.93094 228.95980 227.11966
 225.40552 223.88038 222.51324 221.28809 220.17295 219.13581 218.24267 217.38653
 216.63138 215.81424 214.91510 214.28196 213.73482 213.04930 211.43233 210.87056
 210.78339 211.59322 213.03467 215.27312 218.66988 223.40491 229.32941 234.40025
 238.24669 242.13867 246.29947 250.55527 254.49155 258.26550 261.12665 262.97397
 265.58365 268.40808 270.86237 272.59723 274.57715 276.68274 278.13928 279.50320
 281.13397 282.69199 284.17276 285.53088 286.71048 287.75638 288.71085 289.57770
 290.36572 291.07019 291.69162 292.51700
 366.78100 356.33731 345.77161 334.63992 323.04523 311.24154 299.11384 286.91915
 274.63346 262.53276 250.54407 239.84738 229.97169 221.07799 213.26230 206.26661
 200.10291 195.04322 191.62753 189.67184 188.71114 188.77745 189.61476 190.92507
 192.65237 194.74968 197.01499 199.37629 201.82360 204.30591 206.39622 208.24052
 209.86883 211.01614 211.24744 211.47775 211.41706 211.12437 210.75967 210.39198
 210.01129 209.72359 209.53390 209.40021 209.33052 209.66382 210.05213 210.44344
 211.23874 212.41905 213.67136 215.45667 217.38697 219.43228 221.52959 223.61489
 225.67720 227.76351 229.86282 231.97112 234.10243 236.27674 238.53505 240.90735
 243.53066 245.78397 247.78827 249.55558 250.97489 252.10020 252.92450 253.24281
 253.28212 253.05842 252.42073 251.37104 249.97935 248.14265 246.05396 243.88927
 241.68257 239.48888 237.31119 235.15250 233.01480 230.88411 228.91242 227.07172
 225.35703 223.83134 222.46365 221.23795 220.12226 219.08457 218.19087 217.33418
 216.57849 215.76080 214.86110 214.22741 213.67972 213.04749 211.55571 210.98862
 210.84354 211.61169 213.03809 215.26787 218.60820 223.31525 229.26595 234.32478
 238.16478 242.05247 246.21333 250.48349 254.45392 258.23151 261.09271 262.94879
 265.52951 268.33960 270.79199 272.51160 274.49142 276.61261 278.08612 279.45090
 281.07025 282.61893 284.09460 285.45108 286.63107 287.67661 288.63181 289.49969
 290.28723 290.99121 291.61203 292.44193
 366.78100 356.33707 345.77113 334.63920 323.04427 311.24034 299.11240 286.91747
 274.63154 262.53061 250.54167 239.84474 229.96881 221.07488 213.25894 206.26301
 200.09908 195.03915 191.62321 189.66728 188.70635 188.77242 189.60948 190.91955
 192.64662 194.74369 197.00875 199.36982 201.81689 204.29896 206.38902 208.23309
 209.86116 211.00823 211.23929 211.46936 211.40843 211.11550 210.75056 210.38263
 210.00170 209.71377 209.52383 209.38990 209.31997 209.65304 210.04110 210.43217
 211.22724 212.40731 213.65937 215.44444 217.37451 219.41958 221.51664 223.60171
 225.66378 227.74985 229.84891 231.95698 234.08805 236.26212 238.52018 240.89225
 243.51532 245.76839 247.77245 249.53952 250.95859 252.08366 252.90772 253.22579
 253.26486 253.04092 252.40299 251.35306 249.96113 248.12419 246.03526 243.87033
 241.66340 239.46946 237.29153 235.13260 232.99467 230.86373 228.89180 227.05087
 225.33594 223.81000 222.44207 221.21614 220.10021 219.06227 218.16834 217.31141
 216.55548 215.73754 214.83761 214.20368 213.65575 213.06056 211.65596 211.12857
 210.91341 211.61707 213.04605 215.25713 218.54495 223.23309 229.20282 234.25060
 238.08337 241.96567 246.12444 250.40810 254.41702 258.19769 261.05667 262.92303
 265.47186 268.26343 270.71768 272.42810 274.40723 276.54239 278.04199 279.41281
 281.01443 282.55042 284.01511 285.37091 286.55078 287.59540 288.55118 289.42038
 290.20538 290.91235 291.53464 292.36426
 366.78100 356.33660 345.77019 334.63779 323.04239 311.23799 299.10958 286.91418
 274.62778 262.52637 250.53697 239.83957 229.96316 221.06876 213.25236 206.25596
 200.09155 195.03115 191.61475 189.65834 188.69694 188.76254 189.59913 190.90873
 192.63533 194.73193 196.99652 199.35712 201.80372 204.28531 206.37491 208.21851
 209.84611 210.99270 211.22330 211.45290 211.39149 211.09809 210.73269 210.36428
 209.98288 209.69448 209.50408 209.36967 209.29927 209.63187 210.01946 210.41006
 211.20466 212.38425 213.63585 215.42045 217.35005 219.39464 221.49124 223.57584
 225.63743 227.72303 229.82163 231.92923 234.05982 236.23342 238.49102 240.86261
 243.48521 245.73781 247.74140 249.50800 250.92660 252.05120 252.87479 253.19239
 253.23099 253.00658 252.36818 251.31778 249.92537 248.08797 245.99857 243.83317
 241.62576 239.43136 237.25296 235.09355 232.95515 230.82375 228.85135 227.00994
 225.29454 223.76814 222.39973 221.17333 220.05693 219.01852 218.12412 217.26672
 216.51032 215.69191 214.79151 214.15711 213.60870 213.06247 211.77303 211.24155
 211.00426 211.64069 213.03976 215.25418 218.47963 223.15230 229.13969 234.16795
 237.98953 241.86720 246.02699 250.32748 254.38206 258.16745 261.02643 262.90771
 265.41724 268.18457 270.63885 272.34506 274.32193 276.46606 277.99744 279.38083
 280.96378 282.48276 283.93500 285.29047 286.47058 287.51697 288.47220 289.34052
 290.12790 290.83423 291.45490 292.28873
 366.78100 356.33697 345.77095 334.63892 323.04390 311.23987 299.11185 286.91682
 274.63079 262.52977 250.54074 239.84372 229.96769 221.07367 213.25764 206.26161
 200.09759 195.03756 191.62154 189.66551 188.70448 188.77046 189.60743 190.91741
 192.64438 194.74136 197.00633 199.36730 201.81428 204.29625 206.38623 208.23020
 209.85818 211.00515 211.23612 211.46610 211.40507 211.11205 210.74702 210.37900
 209.99797 209.70994 209.51992 209.38589 209.31587 209.64884 210.03681 210.42779
 211.22276 212.40274 213.65471 215.43969 217.36966 219.41463 221.51161 223.59658
 225.65856 227.74453 229.84351 231.95148 234.08245 236.25643 238.51440 240.88638
 243.50935 245.76233 247.76630 249.53327 250.95225 252.07722 252.90120 253.21917
 253.25814 253.03412 252.39609 251.34607 249.95404 248.11702 246.02799 243.86296
 241.65594 239.46191 237.28389 235.12486 232.98684 230.85581 228.88378 227.04276
 225.32773 223.80171 222.43368 221.20766 220.09163 219.05360 218.15958 217.30255
 216.54653 215.72850 214.82847 214.19445 213.64642 213.10670 211.83257 211.39221
 211.09535 211.68954 213.04279 215.21359 218.41713 223.06581 229.06316 234.06715
 237.88298 241.76427 245.93172 250.25406 254.35916 258.15164 261.01321 262.91043
 265.36667 268.09982 270.55099 272.25198 274.22769 276.37839 277.93982 279.34436
 280.91281 282.41397 283.85635 285.21097 286.39090 287.43658 288.39291 289.26361
 290.04977 290.75626 291.37952 292.21185
 366.78100 356.33772 345.77244 334.64116 323.04688 311.24359 299.11631 286.92203
 274.63675 262.53647 250.54819 239.85191 229.97663 221.08335 213.26806 206.27278
 200.10950 195.05022 191.63494 189.67966 188.71938 188.78610 189.62381 190.93453
 192.66225 194.75997 197.02569 199.38741 201.83513 204.31785 206.40857 208.25328
 209.88200 211.02972 211.26144 211.49216 211.43188 211.13960 210.77532 210.40804
 210.02775 209.74047 209.55119 209.41791 209.34863 209.68235 210.07107 210.46279
 211.25851 212.43922 213.69194 215.47766 217.40838 219.45410 221.55182 223.63754
 225.70026 227.78698 229.88669 231.99541 234.12713 236.30185 238.56057 240.93329
 243.55701 245.81073 247.81544 249.58316 251.00288 252.12860 252.95332 253.27204
 253.31176 253.08848 252.45120 251.40191 250.01063 248.17435 246.08607 243.92179
 241.71551 239.52223 237.34495 235.18667 233.04938 230.91910 228.94782 227.10754
 225.39326 223.86798 222.50070 221.27542 220.16014 219.12285 218.22957 217.37329
 216.61801 215.80073 214.90145 214.26817 213.72089 213.17210 211.87640 211.49002
 211.31319 211.75090 213.00819 215.12094 218.27185 222.96309 228.99599 233.98679
 237.80405 241.68860 245.85567 250.19484 254.34958 258.14526 261.00198 262.91013
 265.30780 268.00333 270.44879 272.14511 274.12500 276.28186 277.87555 279.30664
 280.86191 282.34894 283.77725 285.13211 286.31229 287.35840 288.31500 289.18484
 289.97369 290.67831 291.30499 292.13583
 366.78100 356.33702 345.77104 334.63906 323.04408 311.24010 299.11212 286.91714
 274.63116 262.53018 250.54120 239.84422 229.96824 221.07426 213.25828 206.26230
 200.09832 195.03834 191.62236 189.66638 188.70540 188.77142 189.60844 190.91846
 192.64548 194.74250 197.00752 199.36854 201.81556 204.29758 206.38760 208.23162
 209.85964 211.00666 211.23768 211.46770 211.40672 211.11374 210.74876 210.38078
 209.99980 209.71182 209.52184 209.38786 209.31788 209.65090 210.03892 210.42994
 211.22496 212.40498 213.65700 215.44202 217.37204 219.41706 221.51408 223.59910
 225.66112 227.74714 229.84616 231.95418 234.08520 236.25922 238.51724 240.88926
 243.51228 245.76530 247.76932 249.53634 250.95536 252.08038 252.90440 253.22242
 253.26144 253.03746 252.39948 251.34950 249.95752 248.12054 246.03156 243.86658
 241.65960 239.46562 237.28764 235.12866 232.99068 230.85970 228.88772 227.04674
 225.33176 223.80578 222.43780 221.21182 220.09584 219.05786 218.16388 217.30690
 216.55092 215.73294 214.83296 214.19898 213.65100 213.16794 212.02693 211.50578
 211.40218 211.85979 213.01659 215.04861 218.16899 222.91519 228.96310 233.94423
 237.74947 241.62556 245.78169 250.13109 254.33432 258.12704 260.96844 262.88696
 265.23566 267.89758 270.33963 272.03714 274.02444 276.18732 277.81830 279.27759
 280.81741 282.28922 283.69928 285.05521 286.23489 287.28143 288.23834 289.10968
 289.89612 290.60556 291.22733 292.06665
 366.78100 356.33639 345.76978 334.63717 323.04156 311.23695 299.10833 286.91272
 274.62611 262.52450 250.53489 239.83728 229.96067 221.06606 213.24945 206.25284
 200.08822 195.02761 191.61100 189.65439 188.69278 188.75817 189.59456 190.90395
 192.63034 194.72673 196.99112 199.35150 201.79789 204.27928 206.36867 208.21206
 209.83945 210.98584 211.21623 211.44562 211.38401 211.09040 210.72478 210.35617
 209.97456 209.68595 209.49534 209.36073 209.29012 209.62251 210.00990 210.40029
 211.19467 212.37406 213.62545 215.40984 217.33923 219.38362 221.48001 223.56440
 225.62579 227.71118 229.80957 231.91695 234.04734 236.22073 238.47812 240.84951
 243.47190 245.72429 247.72768 249.49407 250.91246 252.03685 252.86023 253.17762
 253.21601 252.99140 252.35279 251.30218 249.90957 248.07196 245.98235 243.81674
 241.60912 239.41451 237.23590 235.07629 232.93768 230.80607 228.83346 226.99185
 225.27624 223.74963 222.38102 221.15440 220.03779 218.99918 218.10457 217.24696
 216.49035 215.67174 214.77113 214.13652 213.58791 213.16557 212.16780 211.56860
 211.43420 211.92291 213.00226 215.04945 218.16757 222.88809 228.93146 233.88820
 237.67325 241.53981 245.69092 250.05627 254.31012 258.09686 260.92072 262.85458
 265.16092 267.79129 270.23282 271.93860 273.93057 276.09781 277.76831 279.25723
 280.77963 282.23303 283.62582 284.97946 286.15967 287.20657 288.16534 289.03696
 289.82382 290.53232 291.15625 291.99084
 366.78100 356.33649 345.76997 334.63746 323.04194 311.23743 299.10891 286.91340
 274.62688 262.52537 250.53585 239.83834 229.96182 221.06731 213.25079 206.25428
 200.08976 195.02925 191.61273 189.65622 188.69470 188.76019 189.59667 190.90616
 192.63264 194.72913 196.99361 199.35410 201.80059 204.28207 206.37156 208.21504
 209.84253 210.98901 211.21950 211.44898 211.38747 211.09395 210.72844 210.35992
 209.97841 209.68989 209.49938 209.36486 209.29435 209.62683 210.01432 210.40480
 211.19929 212.37877 213.63026 215.41474 217.34423 219.38872 221.48520 223.56969
 225.63117 227.71666 229.81514 231.92263 234.05311 236.22660 238.48408 240.85557
 243.47805 245.73054 247.73402 249.50051 250.91899 252.04348 252.86696 253.18445
 253.22293 252.99842 252.35990 251.30939 249.91687 248.07936 245.98984 243.82433
 241.61682 239.42230 237.24379 235.08427 232.94576 230.81424 228.84173 227.00021
 225.28470 223.75818 222.38967 221.16315 220.04664 219.00812 218.11361 217.25609
 216.49958 215.68106 214.78055 214.14603 213.59752 213.19904 212.25757 211.67833
 211.45734 211.96797 212.99600 215.07126 218.20047 222.84894 228.88423 233.80714
 237.57596 241.44243 245.59671 249.98174 254.28802 258.06754 260.87357 262.82462
 265.08817 267.68704 270.12796 271.84509 273.84027 276.00992 277.71964 279.23621
 280.74368 282.18015 283.55499 284.90973 286.09021 287.13699 288.09460 288.96643
 289.75528 290.46313 291.08917 291.92209
 366.78100 356.33671 345.77041 334.63812 323.04283 311.23853 299.11024 286.91495
 274.62865 262.52736 250.53806 239.84077 229.96448 221.07018 213.25389 206.25760
 200.09330 195.03301 191.61672 189.66042 188.69913 188.76484 189.60154 190.91125
 192.63795 194.73466 196.99937 199.36007 201.80678 204.28849 206.37819 208.22190
 209.84961 210.99631 211.22702 211.45673 211.39543 211.10214 210.73684 210.36855
 209.98726 209.69896 209.50867 209.37438 209.30408 209.63679 210.02450 210.41520
 211.20991 212.38962 213.64132 215.42603 217.35573 219.40044 221.49715 223.58185
 225.64356 227.72927 229.82797 231.93568 234.06639 236.24009 238.49780 240.86951
 243.49221 245.74492 247.74863 249.51533 250.93404 252.05874 252.88245 253.20016
 253.23886 253.01457 252.37628 251.32598 249.93369 248.09640 246.00710 243.84181
 241.63452 239.44022 237.26193 235.10263 232.96434 230.83305 228.86075 227.01946
 225.30417 223.77787 222.40958 221.18329 220.06699 219.02870 218.13441 217.27711
 216.52082 215.70252 214.80223 214.16794 213.61964 213.23840 212.33768 211.79587
 211.47540 212.00623 213.02684 215.09821 218.22098 222.79541 228.82715 233.72183
 237.48079 241.34964 245.50816 249.91229 254.26895 258.03882 260.82333 262.78983
 265.01352 267.58060 270.02243 271.75266 273.75241 275.92319 277.66876 279.21442
 280.70786 282.12689 283.49030 284.84430 286.02457 287.07071 288.02954 288.90167
 289.69086 290.39905 291.02435 291.86172
 366.78100 356.33683 345.77065 334.63848 323.04330 311.23913 299.11095 286.91578
 274.62960 262.52843 250.53925 239.84208 229.96590 221.07173 213.25555 206.25938
 200.09520 195.03503 191.61886 189.66268 188.70151 188.76733 189.60416 190.91398
 192.64081 194.73763 197.00246 199.36328 201.81011 204.29193 206.38176 208.22558
 209.85341 211.00024 211.23106 211.46089 211.39971 211.10654 210.74136 210.37319
 209.99201 209.70384 209.51366 209.37949 209.30931 209.64214 210.02996 210.42079
 211.21561 212.39544 213.64727 215.43209 217.36192 219.40674 221.50357 223.58839
 225.65022 227.73604 229.83487 231.94269 234.07352 236.24734 238.50517 240.87699
 243.49982 245.75264 247.75647 249.52330 250.94212 252.06695 252.89077 253.20860
 253.24742 253.02325 252.38507 251.33490 249.94272 248.10555 246.01637 243.85120
 241.64402 239.44985 237.27168 235.11250 232.97433 230.84315 228.87098 227.02980
 225.31463 223.78845 222.42028 221.19410 220.07793 219.03975 218.14558 217.28840
 216.53223 215.71405 214.81388 214.17971 213.63153 213.27184 212.42203 211.90903
 211.51056 212.03552 213.06708 215.12527 218.21843 222.73811 228.76746 233.64410
 237.39326 241.26186 245.42265 249.84578 254.24863 258.00394 260.76447 262.74533
 264.93530 267.47491 269.91739 271.66342 273.66837 275.84045 277.61737 279.18939
 280.67441 282.07718 283.42911 284.78326 285.96405 287.01028 287.96948 288.84210
 289.63000 290.34088 290.96625 291.80347
 366.78100 356.33693 345.77086 334.63878 323.04371 311.23964 299.11157 286.91650
 274.63043 262.52935 250.54028 239.84321 229.96714 221.07307 213.25700 206.26092
 200.09685 195.03678 191.62071 189.66464 188.70357 188.76949 189.60642 190.91635
 192.64328 194.74021 197.00514 199.36606 201.81299 204.29492 206.38485 208.22878
 209.85671 211.00363 211.23456 211.46449 211.40342 211.11035 210.74528 210.37720
 209.99613 209.70806 209.51799 209.38392 209.31385 209.64677 210.03470 210.42563
 211.22056 212.40049 213.65242 215.43734 217.36727 219.41220 221.50913 223.59406
 225.65599 227.74191 229.84084 231.94877 234.07970 236.25363 238.51155 240.88348
 243.50641 245.75934 247.76327 249.53020 250.94912 252.07405 252.89798 253.21591
 253.25484 253.03077 252.39269 251.34262 249.95055 248.11348 246.02441 243.85934
 241.65226 239.45819 237.28012 235.12105 232.98298 230.85191 228.87983 227.03876
 225.32369 223.79762 222.42955 221.20348 220.08740 219.04933 218.15526 217.29819
 216.54212 215.72405 214.82397 214.18990 213.64183 213.30463 212.50795 212.01067
 211.55582 212.05788 213.11632 215.16690 218.21031 222.68724 228.70830 233.56807
 237.30476 241.17137 245.33737 249.78006 254.22429 257.96021 260.69537 262.69135
 264.85495 267.37103 269.81427 271.57870 273.58972 275.76233 277.56732 279.16278
 280.64185 282.03073 283.37521 284.72852 285.91052 286.95688 287.91467 288.78946
 289.57834 290.28668 290.91125 291.75348
 366.78100 356.33716 345.77133 334.63949 323.04466 311.24082 299.11299 286.91815
 274.63232 262.53148 250.54265 239.84581 229.96998 221.07614 213.26031 206.26447
 200.10064 195.04080 191.62497 189.66913 188.70830 188.77446 189.61163 190.92179
 192.64896 194.74612 197.01129 199.37245 201.81961 204.30178 206.39194 208.23611
 209.86427 211.01144 211.24260 211.47277 211.41193 211.11910 210.75426 210.38643
 210.00559 209.71776 209.52792 209.39409 209.32425 209.65742 210.04558 210.43675
 211.23191 212.41208 213.66424 215.44941 217.37957 219.42474 221.52190 223.60706
 225.66923 227.75539 229.85456 231.96272 234.09389 236.26805 238.52622 240.89838
 243.52155 245.77471 247.77888 249.54604 250.96521 252.09037 252.91454 253.23270
 253.27187 253.04803 252.41020 251.36036 249.96853 248.13169 246.04286 243.87802
 241.67119 239.47735 237.29951 235.14068 233.00284 230.87201 228.90017 227.05934
 225.34450 223.81867 222.45083 221.22500 220.10916 219.07133 218.17749 217.32066
 216.56482 215.74699 214.84715 214.21332 213.66548 213.34444 212.58595 212.10625
 211.61061 212.07579 213.16917 215.21748 218.20720 222.64476 228.65288 233.48892
 237.21123 241.07803 245.25249 249.71681 254.19711 257.90881 260.61557 262.62500
 264.77179 267.26974 269.71307 271.49844 273.51709 275.68954 277.51633 279.13202
 280.60767 281.99115 283.32712 284.68124 285.86227 286.91016 287.86880 288.74185
 289.53177 290.24039 290.86688 291.70770
 366.78100 356.33757 345.77214 334.64071 323.04628 311.24285 299.11542 286.92099
 274.63556 262.53513 250.54670 239.85027 229.97484 221.08142 213.26599 206.27056
 200.10713 195.04770 191.63227 189.67684 188.71641 188.78298 189.62055 190.93112
 192.65869 194.75626 197.02183 199.38340 201.83097 204.31354 206.40411 208.24868
 209.87725 211.02482 211.25639 211.48696 211.42653 211.13410 210.76967 210.40225
 210.02182 209.73439 209.54496 209.41153 209.34210 209.67567 210.06424 210.45581
 211.25138 212.43195 213.68452 215.47009 217.40066 219.44623 221.54380 223.62937
 225.69194 227.77851 229.87808 231.98665 234.11822 236.29279 238.55136 240.92393
 243.54751 245.80108 247.80565 249.57322 250.99279 252.11836 252.94293 253.26150
 253.30107 253.07764 252.44021 251.39078 249.99935 248.16292 246.07449 243.91006
 241.70363 239.51020 237.33277 235.17434 233.03691 230.90648 228.93505 227.09462
 225.38019 223.85477 222.48734 221.26191 220.14648 219.10905 218.21562 217.35919
 216.60376 215.78633 214.88690 214.25347 213.70604 213.39291 212.65312 212.19734
 211.67491 212.09273 213.22089 215.27219 218.21280 222.60780 228.60046 233.40695
 237.11427 240.98451 245.17172 249.65837 254.16681 257.84879 260.52411 262.54388
 264.68301 267.17017 269.61307 271.42093 273.45078 275.62491 277.46603 279.09750
 280.57495 281.95374 283.28894 284.64273 285.82272 286.86981 287.82980 288.70309
 289.49377 290.20251 290.82907 291.66904
 366.78100 356.33810 345.77320 334.64230 323.04841 311.24551 299.11861 286.92471
 274.63981 262.53991 250.55201 239.85612 229.98122 221.08832 213.27342 206.27852
 200.11562 195.05672 191.64183 189.68693 188.72703 188.79413 189.63223 190.94333
 192.67143 194.76954 197.03564 199.39774 201.84584 204.32894 206.42004 208.26514
 209.89424 211.04235 211.27445 211.50555 211.44565 211.15375 210.78985 210.42295
 210.04306 209.75616 209.56726 209.43436 209.36546 209.69956 210.08866 210.48077
 211.27687 212.45797 213.71107 215.49717 217.42827 219.47437 221.57248 223.65858
 225.72168 227.80878 229.90888 232.01798 234.15008 236.32519 238.58429 240.95739
 243.58149 245.83559 247.84069 249.60879 251.02890 252.15500 252.98010 253.29920
 253.33930 253.11640 252.47950 251.43061 250.03971 248.20381 246.11591 243.95201
 241.74611 239.55321 237.37631 235.21842 233.08152 230.95162 228.98072 227.14082
 225.42692 223.90202 222.53513 221.31023 220.19533 219.15843 218.26553 217.40963
 216.65473 215.83784 214.93894 214.30604 213.75914 213.44753 212.71133 212.28452
 211.74846 212.11133 213.26866 215.32788 218.22971 222.57455 228.54866 233.32457
 237.01703 240.89223 245.09607 249.60577 254.13228 257.77982 260.42010 262.44528
 264.58783 267.07095 269.51300 271.34592 273.39044 275.56613 277.41653 279.05801
 280.54196 281.92117 283.25821 284.61237 285.79346 286.84164 287.80157 288.67419
 289.46448 290.17401 290.80069 291.64105
 366.78100 356.33880 345.77461 334.64441 323.05122 311.24902 299.12283 286.92963
 274.64543 262.54624 250.55904 239.86385 229.98965 221.09745 213.28326 206.28906
 200.12687 195.06867 191.65448 189.70028 188.74108 188.80889 189.64769 190.95950
 192.68830 194.78711 197.05391 199.41671 201.86552 204.34932 206.44113 208.28693
 209.91674 211.06554 211.29834 211.53015 211.47095 211.17976 210.81656 210.45036
 210.07117 209.78497 209.59678 209.46458 209.39639 209.73119 210.12099 210.51380
 211.31060 212.49241 213.74621 215.53302 217.46482 219.51162 221.61043 223.69723
 225.76104 227.84884 229.94964 232.05945 234.19225 236.36806 238.62786 241.00167
 243.62647 245.88127 247.88708 249.65588 251.07669 252.20349 253.02930 253.34910
 253.38990 253.16771 252.53151 251.48332 250.09312 248.25792 246.17073 244.00753
 241.80234 239.61014 237.43395 235.27675 233.14055 231.01136 229.04116 227.20197
 225.48877 223.96458 222.59838 221.37418 220.25999 219.22379 218.33160 217.47640
 216.72221 215.90601 215.00781 214.37562 213.82942 213.51059 212.75731 212.36935
 211.83186 212.13354 213.30984 215.39278 218.25801 222.53957 228.49081 233.24081
 236.92030 240.80112 245.02455 249.55881 254.09550 257.70407 260.30399 262.33057
 264.48877 266.97354 269.41339 271.27411 273.33469 275.51379 277.36707 279.01505
 280.50958 281.89395 283.23819 284.59244 285.77512 286.82211 287.78165 288.65509
 289.44565 290.15512 290.78162 291.62253
 366.78100 356.33957 345.77613 334.64670 323.05427 311.25283 299.12740 286.93496
 274.65153 262.55310 250.56666 239.87223 229.99880 221.10736 213.29393 206.30050
 200.13906 195.08163 191.66820 189.71476 188.75633 188.82489 189.66446 190.97703
 192.70659 194.80616 197.07373 199.43729 201.88686 204.37143 206.46399 208.31056
 209.94112 211.09069 211.32426 211.55682 211.49839 211.20796 210.84552 210.48009
 210.10166 209.81622 209.62879 209.49736 209.42992 209.76549 210.15605 210.54962
 211.34719 212.52975 213.78432 215.57189 217.50445 219.55202 221.65159 223.73915
 225.80372 227.89228 229.99385 232.10442 234.23798 236.41455 238.67512 241.04968
 243.67525 245.93082 247.93738 249.70695 251.12851 252.25608 253.08265 253.40321
 253.44478 253.22335 252.58791 251.54048 250.15105 248.31661 246.23018 244.06775
 241.86331 239.67188 237.49644 235.34001 233.20458 231.07614 229.10671 227.26828
 225.55584 224.03241 222.66698 221.44354 220.33011 219.29467 218.40324 217.54881
 216.79537 215.97994 215.08251 214.45107 213.90564 213.57680 212.79987 212.44025
 211.92604 212.16560 213.36263 215.45201 218.27361 222.50798 228.43376 233.15782
 236.82463 240.71225 244.95828 249.51695 254.05666 257.62170 260.17749 262.20203
 264.38721 266.87833 269.31375 271.20483 273.28561 275.46664 277.31818 278.96982
 280.47968 281.87714 283.22644 284.58234 285.76318 286.81207 287.77100 288.64413
 289.43478 290.14600 290.77090 291.61188
 366.78100 356.34074 345.77848 334.65022 323.05895 311.25869 299.13443 286.94317
 274.66091 262.56365 250.57839 239.88513 230.01286 221.12260 213.31034 206.31808
 200.15782 195.10156 191.68930 189.73704 188.77977 188.84951 189.69025 191.00399
 192.73473 194.83547 197.10421 199.46895 201.91968 204.40542 206.49916 208.34690
 209.97864 211.12938 211.36412 211.59786 211.54059 211.25133 210.89007 210.52581
 210.14855 209.86429 209.67803 209.54777 209.48150 209.81824 210.20998 210.60472
 211.40346 212.58720 213.84294 215.63168 217.56541 219.61415 221.71489 223.80363
 225.86937 227.95911 230.06185 232.17359 234.30832 236.48606 238.74780 241.12354
 243.75028 246.00702 248.01476 249.78549 251.20823 252.33697 253.16471 253.48645
 253.52919 253.30893 252.67467 251.62840 250.24014 248.40688 246.32162 244.16036
 241.95710 239.76684 237.59258 235.43731 233.30305 231.17579 229.20753 227.37027
 225.65901 224.13675 222.77249 221.55022 220.43796 219.40370 218.51344 217.66018
 216.90792 216.09366 215.19740 214.56713 214.02287 213.66380 212.81548 212.51872
 212.03276 212.17795 213.39857 215.55467 218.32805 222.45906 228.37111 233.07002
 236.72644 240.62241 244.89517 249.47978 254.01421 257.53082 260.03955 262.05930
 264.28363 266.78577 269.21686 271.14050 273.24326 275.42612 277.27231 278.92462
 280.45532 281.86768 283.22443 284.57935 285.75980 286.80823 287.76758 288.64072
 289.43179 290.14075 290.76730 291.60712
 366.78100 356.34233 345.78167 334.65500 323.06534 311.26667 299.14400 286.95434
 274.67367 262.57800 250.59434 239.90267 230.03201 221.14334 213.33267 206.34201
 200.18334 195.12868 191.71801 189.76734 188.81168 188.88301 189.72535 191.04068
 192.77301 194.87535 197.14568 199.51201 201.96435 204.45168 206.54702 208.39635
 210.02968 211.18202 211.41835 211.65369 211.59802 211.31035 210.95069 210.58802
 210.21236 209.92969 209.74502 209.61636 209.55169 209.89002 210.28336 210.67969
 211.48003 212.66536 213.92269 215.71303 217.64836 219.69870 221.80103 223.89136
 225.95870 228.05003 230.15437 232.26770 234.40403 236.58337 238.84670 241.22403
 243.85237 246.11070 248.12004 249.89237 251.31670 252.44704 253.27637 253.59971
 253.64404 253.42537 252.79271 251.74804 250.36138 248.52971 246.44604 244.28638
 242.08471 239.89604 237.72338 235.56971 233.43705 231.31138 229.34471 227.50905
 225.79938 224.27872 222.91605 221.69538 220.58472 219.55205 218.66339 217.81172
 217.06105 216.24839 215.35372 214.72505 214.18239 213.77420 212.80983 212.57848
 212.15529 212.21585 213.47769 215.63826 218.33159 222.42073 228.30675 232.97568
 236.62421 240.53127 244.83534 249.44643 253.96799 257.43317 259.89407 261.90952
 264.18158 266.69882 269.12238 271.08292 273.20795 275.39276 277.22876 278.87903
 280.43259 281.86499 283.22742 284.58270 285.76434 286.81195 287.77142 288.64273
 289.43552 290.14401 290.77051 291.61035
 366.78100 356.34341 345.78383 334.65824 323.06965 311.27206 299.15048 286.96189
 274.68230 262.58772 250.60513 239.91454 230.04495 221.15737 213.34778 206.35819
 200.20061 195.14702 191.73743 189.78784 188.83326 188.90567 189.74908 191.06550
 192.79891 194.90232 197.17373 199.54115 201.99456 204.48297 206.57938 208.42980
 210.06421 211.21762 211.45504 211.69145 211.63686 211.35027 210.99169 210.63010
 210.25551 209.97393 209.79034 209.66275 209.59916 209.93858 210.33299 210.73040
 211.53182 212.71823 213.97664 215.76805 217.70447 219.75588 221.85929 223.95071
 226.01912 228.11153 230.21694 232.33136 234.46877 236.64918 238.91360 241.29201
 243.92142 246.18083 248.19125 249.96466 251.39007 252.52149 253.35190 253.67631
 253.72172 253.50414 252.87255 251.82896 250.44338 248.61279 246.53020 244.37161
 242.17103 239.98344 237.81185 235.65927 233.52768 231.40309 229.43750 227.60292
 225.89433 224.37474 223.01315 221.79357 220.68398 219.65239 218.76481 217.91422
 217.16463 216.35304 215.45946 214.83187 214.29028 213.85889 212.83969 212.58315
 212.33290 212.35310 213.47787 215.62720 218.33096 222.36569 228.24725 232.88994
 236.52643 240.44618 244.78319 249.41898 253.92239 257.33636 259.74966 261.75830
 264.08206 266.61444 269.02795 271.02530 273.17355 275.35831 277.18042 278.82709
 280.40729 281.86407 283.23557 284.59183 285.77319 286.82059 287.78040 288.65176
 289.44217 290.15045 290.77948 291.61749
 366.78100 356.34364 345.78428 334.65892 323.07056 311.27320 299.15183 286.96347
 274.68411 262.58975 250.60739 239.91703 230.04767 221.16031 213.35095 206.36159
 200.20423 195.15087 191.74150 189.79214 188.83778 188.91042 189.75406 191.07070
 192.80434 194.90798 197.17962 199.54726 202.00090 204.48953 206.58617 208.43681
 210.07145 211.22509 211.46273 211.69937 211.64501 211.35865 211.00029 210.63893
 210.26456 209.98320 209.79984 209.67248 209.60912 209.94876 210.34340 210.74104
 211.54268 212.72932 213.98796 215.77960 217.71623 219.76787 221.87151 223.96315
 226.03179 228.12443 230.23007 232.34471 234.48235 236.66299 238.92763 241.30626
 243.93590 246.19554 248.20618 249.97982 251.40546 252.53710 253.36774 253.69238
 253.73802 253.52066 252.88929 251.84593 250.46057 248.63021 246.54785 244.38949
 242.18913 240.00177 237.83041 235.67805 233.54669 231.42233 229.45696 227.62260
 225.91424 224.39488 223.03352 221.81416 220.70480 219.67344 218.78608 217.93572
 217.18636 216.37499 215.48163 214.85427 214.31291 213.89999 212.92444 212.57033
 212.43532 212.48454 213.47310 215.65776 218.40819 222.31912 228.18867 232.80872
 236.43315 240.36719 244.73766 249.39551 253.87558 257.23682 259.60086 261.60049
 263.97983 266.52798 268.92758 270.96381 273.13657 275.32025 277.12619 278.77039
 280.38034 281.86343 283.24771 284.60455 285.78601 286.83392 287.79193 288.66415
 289.45407 290.16333 290.78928 291.62955
 366.78100 356.34415 345.78529 334.66044 323.07258 311.27573 299.15487 286.96702
 274.68817 262.59431 250.61246 239.92260 230.05375 221.16689 213.35804 206.36919
 200.21233 195.15948 191.75062 189.80177 188.84791 188.92106 189.76521 191.08235
 192.81650 194.92064 197.19279 199.56093 202.01508 204.50423 206.60137 208.45252
 210.08766 211.24181 211.47995 211.71710 211.66325 211.37739 211.01954 210.65868
 210.28483 210.00397 209.82112 209.69427 209.63141 209.97156 210.36670 210.76485
 211.56699 212.75414 214.01329 215.80543 217.74258 219.79472 221.89887 223.99101
 226.06016 228.15331 230.25945 232.37460 234.51274 236.69389 238.95903 241.33818
 243.96833 246.22847 248.23962 250.01376 251.43991 252.57205 253.40320 253.72835
 253.77449 253.55764 252.92678 251.88393 250.49907 248.66922 246.58737 244.42951
 242.22966 240.04280 237.87195 235.72009 233.58924 231.46539 229.50053 227.66668
 225.95882 224.43997 223.07911 221.86026 220.75141 219.72055 218.83370 217.98384
 217.23499 216.42413 215.53128 214.90443 214.36357 213.95314 212.98344 212.60519
 212.47438 212.58798 213.50737 215.72923 218.50174 222.28001 228.12201 232.71930
 236.33598 240.28714 244.69421 249.37186 253.82274 257.12891 259.44415 261.43704
 263.87622 266.44144 268.82764 270.90326 273.10205 275.28561 277.07343 278.71423
 280.35663 281.86597 283.26224 284.61975 285.80118 286.84827 287.80615 288.67838
 289.46817 290.17703 290.80298 291.64301
 366.78100 356.34512 345.78723 334.66335 323.07646 311.28058 299.16070 286.97381
 274.69593 262.60304 250.62216 239.93328 230.06539 221.17951 213.37162 206.38374
 200.22786 195.17597 191.76809 189.82020 188.86732 188.94144 189.78655 191.10467
 192.83978 194.94490 197.21802 199.58713 202.04225 204.53236 206.63048 208.48260
 210.11871 211.27383 211.51294 211.75106 211.69818 211.41329 211.05641 210.69652
 210.32364 210.04376 209.86187 209.73599 209.67410 210.01522 210.41134 210.81045
 211.61357 212.80168 214.06180 215.85492 217.79303 219.84615 221.95126 224.04438
 226.11450 228.20861 230.31573 232.43185 234.57096 236.75308 239.01919 241.39931
 244.03043 246.29154 248.30366 250.07877 251.50589 252.63901 253.47112 253.79724
 253.84435 253.62847 252.99859 251.95670 250.57282 248.74393 246.66305 244.50617
 242.30728 240.12140 237.95151 235.80063 233.67075 231.54786 229.58398 227.75109
 226.04421 224.52633 223.16644 221.94856 220.84067 219.81079 218.92491 218.07602
 217.32814 216.51825 215.62637 215.00049 214.46060 214.02817 213.00652 212.67664
 212.49512 212.67758 213.58186 215.81075 218.56259 222.24016 228.04950 232.62233
 236.23689 240.20897 244.65300 249.34821 253.76497 257.01617 259.28571 261.27472
 263.77655 266.35867 268.73340 270.84863 273.07379 275.25650 277.02597 278.66315
 280.33450 281.86975 283.27808 284.63586 285.81662 286.86411 287.82156 288.69318
 289.48178 290.19107 290.81796 291.65610
 366.78100 356.34605 345.78910 334.66615 323.08020 311.28525 299.16630 286.98035
 274.70340 262.61145 250.63150 239.94355 230.07660 221.19165 213.38470 206.39775
 200.24281 195.19186 191.78491 189.83796 188.88601 188.96106 189.80711 191.12616
 192.86221 194.96826 197.24231 199.61236 202.06841 204.55946 206.65851 208.51156
 210.14861 211.30466 211.54471 211.78376 211.73181 211.44786 211.09191 210.73296
 210.36101 210.08206 209.90111 209.77616 209.71521 210.05726 210.45431 210.85436
 211.65842 212.84747 214.10852 215.90257 217.84162 219.89567 222.00172 224.09577
 226.16682 228.26187 230.36992 232.48697 234.62702 236.81007 239.07712 241.45817
 244.09022 246.35227 248.36532 250.14137 251.56942 252.70347 253.53652 253.86357
 253.91162 253.69667 253.06772 252.02677 250.64382 248.81587 246.73592 244.57997
 242.38203 240.19708 238.02813 235.87818 233.74923 231.62728 229.66433 227.83238
 226.12643 224.60948 223.25053 222.03358 220.92663 219.89768 219.01273 218.16478
 217.41783 216.60888 215.71793 215.09298 214.55403 214.10011 213.02766 212.74580
 212.52705 212.75323 213.68300 215.88574 218.59772 222.19911 227.97578 232.52348
 236.14076 240.13631 244.61539 249.32423 253.70277 256.89941 259.12552 261.11526
 263.67999 266.27963 268.64258 270.79752 273.04919 275.22977 276.98123 278.61508
 280.31323 281.87198 283.29205 284.65027 285.83163 286.87845 287.83691 288.70587
 289.49640 290.20340 290.83035 291.66891
 366.78100 356.34670 345.79040 334.66810 323.08279 311.28849 299.17019 286.98489
 274.70859 262.61729 250.63799 239.95069 230.08438 221.20008 213.39378 206.40748
 200.25318 195.20288 191.79658 189.85027 188.89897 188.97467 189.82137 191.14107
 192.87777 194.98447 197.25917 199.62986 202.08656 204.57826 206.67796 208.53166
 210.16936 211.32606 211.56675 211.80645 211.75515 211.47185 211.11655 210.75825
 210.38695 210.10865 209.92834 209.80404 209.74374 210.08644 210.48414 210.88484
 211.68954 212.87923 214.14093 215.93563 217.87533 219.93003 222.03673 224.13143
 226.20312 228.29882 230.40752 232.52522 234.66592 236.84962 239.11732 241.49902
 244.13171 246.39441 248.40811 250.18481 251.61351 252.74821 253.58191 253.90960
 253.95830 253.74400 253.11570 252.07540 250.69310 248.86580 246.78650 244.63119
 242.43389 240.24959 238.08129 235.93199 233.80369 231.68239 229.72008 227.88878
 226.18348 224.66718 223.30888 222.09258 220.98628 219.95798 219.07367 218.22637
 217.48007 216.67177 215.78147 215.15717 214.61887 214.15602 213.06252 212.79990
 212.57991 212.81621 213.79193 215.95311 218.62839 222.15819 227.90135 232.42848
 236.05104 240.07025 244.58212 249.29933 253.63525 256.77707 258.96350 260.96011
 263.58615 266.20322 268.55719 270.75021 273.02609 275.20499 276.93884 278.56827
 280.29282 281.87234 283.30560 284.66327 285.84451 286.89072 287.84851 288.71964
 289.51010 290.21573 290.84045 291.68335
 366.78100 356.34710 345.79120 334.66930 323.08440 311.29050 299.17260 286.98770
 274.71180 262.62090 250.64200 239.95510 230.08920 221.20530 213.39940 206.41350
 200.25960 195.20970 191.80380 189.85791 188.90701 188.98311 189.83021 191.15031
 192.88741 194.99451 197.26961 199.64071 202.09781 204.58991 206.69001 208.54411
 210.18221 211.33931 211.58041 211.82051 211.76961 211.48671 211.13181 210.77391
 210.40301 210.12511 209.94521 209.82131 209.76141 210.10451 210.50261 210.90371
 211.70881 212.89891 214.16101 215.95611 217.89621 219.95131 222.05841 224.15351
 226.22562 228.32172 230.43082 232.54892 234.69002 236.87412 239.14222 241.52432
 244.15742 246.42052 248.43462 250.21172 251.64082 252.77592 253.61002 253.93812
 253.98722 253.77332 253.14542 252.10552 250.72362 248.89672 246.81782 244.66292
 242.46602 240.28212 238.11422 235.96532 233.83742 231.71652 229.75462 227.92372
 226.21882 224.70292 223.34502 222.12912 221.02322 219.99533 219.11143 218.26453
 217.51863 216.71073 215.82083 215.19693 214.65903 214.19728 213.10634 212.84882
 212.64265 212.87508 213.90237 216.01514 218.64403 222.11575 227.82980 232.33980
 235.96846 240.01079 244.55145 249.27115 253.55975 256.64740 258.79962 260.81113
 263.49612 266.12933 268.47733 270.70743 273.00555 275.18213 276.90128 278.52576
 280.27237 281.86911 283.31271 284.67090 285.85251 286.89911 287.85400 288.72565
 289.51385 290.22159 290.84610 291.68573
 366.78100 356.34738 345.79176 334.67014 323.08552 311.29191 299.17429 286.98967
 274.71405 262.62343 250.64481 239.95819 230.09257 221.20895 213.40333 206.41772
 200.26410 195.21448 191.80886 189.86324 188.91262 188.98900 189.83638 191.15676
 192.89414 195.00153 197.27691 199.64829 202.10567 204.59805 206.69843 208.55281
 210.19119 211.34857 211.58996 211.83034 211.77972 211.49710 211.14248 210.78486
 210.41424 210.13662 209.95700 209.83338 209.77377 210.11715 210.51553 210.91691
 211.72229 212.91267 214.17505 215.97043 217.91081 219.96619 222.07358 224.16896
 226.24134 228.33772 230.44710 232.56548 234.70686 236.89124 239.15962 241.54201
 244.17539 246.43877 248.45315 250.23053 251.65991 252.79529 253.62967 253.95805
 254.00743 253.79382 253.16620 252.12658 250.74496 248.91834 246.83972 244.68510
 242.48848 240.30486 238.13724 235.98863 233.86101 231.74039 229.77877 227.94815
 226.24353 224.72791 223.37029 222.15467 221.04906 220.02144 219.13782 218.29120
 217.54558 216.73796 215.84834 215.22472 214.68710 214.23038 213.15132 212.89777
 212.70650 212.93877 214.00909 216.07578 218.64523 222.07143 227.75983 232.25687
 235.89197 239.95699 244.52213 249.23787 253.47496 256.51001 258.63617 260.67087
 263.41034 266.06042 268.40378 270.67035 272.98743 275.16318 276.86713 278.48767
 280.25046 281.85684 283.31693 284.67734 285.85706 286.90503 287.86252 288.73514
 289.52823 290.24036 290.86676 291.70172
 366.78100 356.34762 345.79223 334.67085 323.08647 311.29308 299.17570 286.99131
 274.71593 262.62555 250.64716 239.96078 230.09540 221.21201 213.40663 206.42124
 200.26786 195.21848 191.81309 189.86771 188.91733 188.99394 189.84156 191.16218
 192.89979 195.00741 197.28302 199.65464 202.11226 204.60487 206.70549 208.56011
 210.19872 211.35634 211.59795 211.83857 211.78819 211.50580 211.15142 210.79404
 210.42365 210.14627 209.96689 209.84350 209.78412 210.12773 210.52635 210.92797
 211.73358 212.92420 214.18682 215.98243 217.92305 219.97867 222.08628 224.18190
 226.25451 228.35113 230.46075 232.57936 234.72098 236.90560 239.17421 241.55683
 244.19044 246.45406 248.46868 250.24629 251.67591 252.81153 253.64614 253.97476
 254.02438 253.81099 253.18361 252.14422 250.76284 248.93646 246.85807 244.70369
 242.50731 240.32392 238.15654 236.00815 233.88077 231.76039 229.79900 227.96862
 226.26424 224.74885 223.39147 222.17609 221.07070 220.04332 219.15993 218.31355
 217.56817 216.76078 215.87140 215.24802 214.71063 214.25938 213.19325 212.95078
 212.77502 213.00557 214.10808 216.13524 218.63876 222.03172 227.68941 232.17154
 235.81683 239.90755 244.49356 249.19797 253.38026 256.36496 258.47461 260.54214
 263.33026 265.99457 268.34033 270.63950 272.97473 275.15109 276.84116 278.45633
 280.22800 281.83768 283.31436 284.67322 285.85483 286.90170 287.85809 288.72986
 289.51736 290.22906 290.85184 291.68799
 366.78100 356.34781 345.79263 334.67144 323.08726 311.29407 299.17689 286.99270
 274.71752 262.62733 250.64915 239.96296 230.09778 221.21459 213.40941 206.42422
 200.27104 195.22185 191.81667 189.87148 188.92130 188.99811 189.84593 191.16674
 192.90456 195.01237 197.28819 199.66000 202.11782 204.61063 206.71145 208.56626
 210.20507 211.36289 211.60470 211.84552 211.79533 211.51315 211.15896 210.80178
 210.43159 210.15441 209.97522 209.85204 209.79285 210.13667 210.53548 210.93730
 211.74311 212.93393 214.19674 215.99256 217.93337 219.98919 222.09700 224.19282
 226.26563 228.36245 230.47226 232.59108 234.73289 236.91771 239.18652 241.56933
 244.20315 246.46696 248.48178 250.25959 251.68941 252.82522 253.66004 253.98885
 254.03867 253.82548 253.19830 252.15911 250.77793 248.95174 246.87356 244.71937
 242.52319 240.34000 238.17282 236.02463 233.89745 231.77726 229.81608 227.98589
 226.28171 224.76652 223.40934 222.19415 221.08897 220.06178 219.17859 218.33241
 217.58722 216.78004 215.89085 215.26767 214.73048 214.28516 213.23302 213.00540
 212.85564 213.07310 214.19412 216.19026 218.63382 221.99390 227.61240 232.08118
 235.74440 239.86406 244.46648 249.15201 253.27605 256.21298 258.31400 260.42349
 263.25284 265.93225 268.28528 270.61624 272.96930 275.14792 276.82724 278.43271
 280.20422 281.81314 283.30429 284.66400 285.84488 286.89117 287.84839 288.71725
 289.50647 290.21417 290.83832 291.67075
 366.78100 356.34798 345.79295 334.67193 323.08790 311.29488 299.17785 286.99383
 274.71881 262.62878 250.65076 239.96473 230.09971 221.21669 213.41166 206.42664
 200.27361 195.22459 191.81956 189.87454 188.92452 189.00149 189.84947 191.17044
 192.90842 195.01640 197.29237 199.66435 202.12232 204.61530 206.71627 208.57125
 210.21023 211.36820 211.61018 211.85115 211.80113 211.51911 211.16508 210.80806
 210.43803 210.16101 209.98198 209.85896 209.79994 210.14391 210.54289 210.94486
 211.75084 212.94182 214.20479 216.00077 217.94174 219.99772 222.10569 224.20167
 226.27465 228.37162 230.48160 232.60057 234.74255 236.92753 239.19650 241.57948
 244.21345 246.47743 248.49240 250.27038 251.70036 252.83633 253.67131 254.00028
 254.05026 253.83723 253.21021 252.17119 250.79016 248.96414 246.88611 244.73209
 242.53607 240.35304 238.18602 236.03799 233.91097 231.79094 229.82992 227.99990
 226.29587 224.78085 223.42382 222.20880 221.10378 220.07675 219.19373 218.34770
 217.60268 216.79565 215.90663 215.28361 214.74658 214.30728 213.26936 213.07057
 212.93576 213.13837 214.28177 216.23770 218.61160 221.95587 227.54054 231.99387
 235.67776 239.82703 244.44115 249.09889 253.16006 256.04895 258.15024 260.31171
 263.17728 265.87131 268.23938 270.60025 272.97095 275.15591 276.82666 278.41760
 280.18195 281.78372 283.28955 284.64984 285.83072 286.87628 287.83499 288.70355
 289.49164 290.20096 290.82584 291.66028
 366.78100 356.34808 345.79317 334.67225 323.08833 311.29542 299.17850 286.99458
 274.71967 262.62975 250.65183 239.96592 230.10100 221.21808 213.41317 206.42825
 200.27533 195.22642 191.82150 189.87658 188.92667 189.00375 189.85183 191.17292
 192.91100 195.01908 197.29517 199.66725 202.12534 204.61842 206.71950 208.57459
 210.21367 211.37175 211.61384 211.85492 211.80500 211.52309 211.16917 210.81225
 210.44234 210.16542 209.98650 209.86359 209.80467 210.14875 210.54784 210.94992
 211.75600 212.94709 214.21017 216.00625 217.94734 220.00342 222.11150 224.20759
 226.28067 228.37775 230.48784 232.60692 234.74900 236.93409 239.20317 241.58625
 244.22034 246.48442 248.49950 250.27759 251.70767 252.84375 253.67884 254.00792
 254.05800 253.84509 253.21817 252.17925 250.79834 248.97242 246.89450 244.74059
 242.54467 240.36175 238.19484 236.04692 233.92001 231.80009 229.83917 228.00926
 226.30534 224.79042 223.43351 222.21859 221.11367 220.08676 219.20384 218.35792
 217.61301 216.80609 215.91717 215.29426 214.75734 214.32536 213.30478 213.13232
 213.04762 213.19337 214.34172 216.28114 218.60422 221.92061 227.45444 231.89825
 235.61328 239.79498 244.41609 249.03897 253.03525 255.87910 257.98920 260.21066
 263.10504 265.81366 268.20193 270.59088 272.97833 275.17108 276.83459 278.40878
 280.15756 281.74353 283.27267 284.63455 285.81433 286.86066 287.81763 288.68991
 289.47754 290.18542 290.80847 291.64984
 366.78100 356.34795 345.79291 334.67186 323.08781 311.29477 299.17772 286.99368
 274.71863 262.62858 250.65054 239.96449 230.09944 221.21640 213.41135 206.42631
 200.27326 195.22421 191.81917 189.87412 188.92407 189.00103 189.84898 191.16993
 192.90789 195.01584 197.29180 199.66375 202.12170 204.61466 206.71561 208.57056
 210.20952 211.36747 211.60943 211.85038 211.80033 211.51829 211.16424 210.80719
 210.43715 210.16010 209.98106 209.85801 209.79896 210.14292 210.54187 210.94382
 211.74978 212.94073 214.20368 215.99964 217.94059 219.99655 222.10450 224.20045
 226.27341 228.37036 230.48031 232.59927 234.74122 236.92618 239.19513 241.57808
 244.21204 246.47599 248.49094 250.26890 251.69885 252.83480 253.66976 253.99871
 254.04867 253.83562 253.20857 252.16953 250.78848 248.96243 246.88439 244.73034
 242.53430 240.35125 238.18420 236.03616 233.90911 231.78906 229.82802 227.99797
 226.29393 224.77888 223.42183 222.20679 221.10174 220.07469 219.19165 218.34560
 217.60055 216.79351 215.90446 215.28142 214.74437 214.32809 213.34462 213.22369
 213.11501 213.25760 214.42709 216.30280 218.56763 221.87509 227.38239 231.82033
 235.56213 239.77397 244.39368 248.97339 252.90074 255.69963 257.82425 260.11386
 263.03171 265.75461 268.16995 270.58539 272.99133 275.19559 276.85184 278.40518
 280.13312 281.70825 283.24649 284.61118 285.79181 286.84042 287.79736 288.66895
 289.45844 290.16663 290.79065 291.62744
 366.78100 356.34846 345.79391 334.67337 323.08983 311.29729 299.18074 286.99720
 274.72266 262.63312 250.65557 239.97003 230.10549 221.22295 213.41840 206.43386
 200.28132 195.23278 191.82823 189.88369 188.93415 189.01161 189.86006 191.18152
 192.91998 195.02843 197.30489 199.67735 202.13581 204.62926 206.73072 208.58618
 210.22564 211.38409 211.62655 211.86801 211.81847 211.53692 211.18338 210.82684
 210.45730 210.18075 210.00221 209.87967 209.82113 210.16558 210.56504 210.96750
 211.77395 212.96541 214.22887 216.02533 217.96678 220.02324 222.13170 224.22816
 226.30161 228.39907 230.50953 232.62899 234.77144 236.95690 239.22636 241.60982
 244.24427 246.50873 248.52419 250.30264 251.73310 252.86956 253.70502 254.03447
 254.08493 253.87239 253.24585 252.20730 250.82676 249.00122 246.92368 244.77013
 242.57459 240.39205 238.22551 236.07796 233.95142 231.83188 229.87134 228.04179
 226.33825 224.82371 223.46716 222.25262 221.14808 220.12154 219.23899 218.39345
 217.64891 216.84237 215.95382 215.33128 214.79474 214.36197 213.33949 213.31821
 213.30804 213.24031 214.44107 216.36858 218.55688 221.84998 227.29053 231.72527
 235.50659 239.75153 244.36552 248.89417 252.74768 255.50275 257.65439 260.02292
 262.96140 265.70206 268.15051 270.59219 273.01651 275.23749 276.89069 278.41599
 280.11282 281.67612 283.21622 284.58228 285.76404 286.81396 287.77304 288.64474
 289.43570 290.14325 290.76605 291.60812
 366.78100 356.34827 345.79355 334.67282 323.08909 311.29637 299.17964 286.99591
 274.72119 262.63146 250.65373 239.96801 230.10328 221.22055 213.41583 206.43110
 200.27837 195.22965 191.82492 189.88019 188.93047 189.00774 189.85601 191.17729
 192.91556 195.02383 197.30011 199.67238 202.13065 204.62393 206.72520 208.58047
 210.21975 211.37802 211.62029 211.86157 211.81184 211.53011 211.17639 210.81966
 210.44993 210.17321 209.99448 209.87175 209.81303 210.15730 210.55657 210.95885
 211.76512 212.95639 214.21967 216.01594 217.95722 220.01349 222.12176 224.21804
 226.29131 228.38858 230.49886 232.61813 234.76040 236.94568 239.21495 241.59822
 244.23250 246.49677 248.51204 250.29032 251.72059 252.85686 253.69214 254.02141
 254.07168 253.85896 253.23223 252.19350 250.81278 248.98705 246.90932 244.75560
 242.55987 240.37714 238.21042 236.06269 233.93596 231.81624 229.85551 228.02578
 226.32206 224.80733 223.45060 222.23588 221.13115 220.10442 219.22170 218.37597
 217.63124 216.82452 215.93579 215.31306 214.77634 214.36305 213.38663 213.33896
 213.42897 213.37807 214.49609 216.37482 218.55687 221.75346 227.18887 231.63594
 235.45622 239.73337 244.33676 248.80861 252.59145 255.31010 257.49808 259.94760
 262.90021 265.65930 268.14597 270.60938 273.05081 275.29031 276.94449 278.44022
 280.09610 281.64301 283.18387 284.55045 285.73407 286.78448 287.74356 288.61694
 289.40790 290.11700 290.74078 291.58109
 366.78100 356.34781 345.79262 334.67143 323.08724 311.29405 299.17686 286.99267
 274.71747 262.62728 250.64909 239.96290 230.09771 221.21452 213.40933 206.42414
 200.27095 195.22176 191.81657 189.87138 188.92119 188.99800 189.84581 191.16661
 192.90442 195.01223 197.28804 199.65985 202.11766 204.61047 206.71128 208.56609
 210.20490 211.36271 211.60452 211.84533 211.79514 211.51295 211.15876 210.80156
 210.43137 210.15418 209.97499 209.85180 209.79261 210.13642 210.53523 210.93704
 211.74285 212.93366 214.19647 215.99228 217.93309 219.98890 222.09670 224.19251
 226.26532 228.36213 230.47194 232.59075 234.73256 236.91737 239.18618 241.56899
 244.20280 246.46661 248.48142 250.25923 251.68904 252.82484 253.65965 253.98846
 254.03827 253.82508 253.19789 252.15870 250.77751 248.95132 246.87313 244.71894
 242.52275 240.33956 238.17237 236.02418 233.89699 231.77679 229.81560 227.98541
 226.28122 224.76603 223.40884 222.19365 221.08846 220.06127 219.17808 218.33189
 217.58670 216.77951 215.89032 215.26713 214.72993 214.34856 213.44754 213.37384
 213.53172 213.47205 214.53426 216.40962 218.55179 221.66328 227.09805 231.56329
 235.41949 239.72479 244.31033 248.72270 252.43854 255.12598 257.35306 259.88074
 262.83917 265.61502 268.13965 270.62292 273.08093 275.33762 276.99301 278.46289
 280.07855 281.61035 283.14981 284.51709 285.70163 286.75290 287.71222 288.58798
 289.37741 290.08948 290.71292 291.55185
 366.78100 356.34758 345.79216 334.67075 323.08633 311.29291 299.17549 286.99108
 274.71566 262.62524 250.64682 239.96041 230.09499 221.21157 213.40615 206.42074
 200.26732 195.21790 191.81248 189.86707 188.91665 188.99323 189.84081 191.16140
 192.89898 195.00656 197.28214 199.65373 202.11131 204.60389 206.70447 208.55906
 210.19764 211.35522 211.59680 211.83739 211.78697 211.50455 211.15013 210.79272
 210.42230 210.14488 209.96546 209.84205 209.78263 210.12621 210.52479 210.92638
 211.73196 212.92254 214.18512 215.98070 217.92129 219.97687 222.08445 224.18003
 226.25262 228.34920 230.45878 232.57736 234.71895 236.90353 239.17211 241.55469
 244.18828 246.45186 248.46644 250.24402 251.67361 252.80919 253.64377 253.97235
 254.02194 253.80852 253.18110 252.14168 250.76027 248.93385 246.85543 244.70101
 242.50460 240.32118 238.15376 236.00534 233.87793 231.75751 229.79609 227.96567
 226.26126 224.74584 223.38842 222.17300 221.06759 220.04017 219.15675 218.31033
 217.56492 216.75750 215.86808 215.24466 214.70724 214.34460 213.48782 213.43359
 213.63847 213.53329 214.55666 216.46896 218.53705 221.58849 227.01672 231.50348
 235.39410 239.72287 244.28372 248.63322 252.28334 254.93970 257.20648 259.81174
 262.77139 265.56036 268.12506 270.62848 273.10422 275.37723 277.03302 278.48404
 280.06277 281.57642 283.11578 284.48419 285.67010 286.72015 287.68158 288.55579
 289.34830 290.05954 290.68057 291.52222
 366.78100 356.34760 345.79220 334.67079 323.08639 311.29299 299.17559 286.99119
 274.71579 262.62538 250.64698 239.96058 230.09518 221.21178 213.40637 206.42097
 200.26757 195.21817 191.81277 189.86737 188.91696 188.99356 189.84116 191.16176
 192.89936 195.00695 197.28255 199.65415 202.11175 204.60435 206.70494 208.55954
 210.19814 211.35574 211.59734 211.83794 211.78753 211.50513 211.15073 210.79333
 210.42293 210.14552 209.96612 209.84272 209.78332 210.12692 210.52552 210.92711
 211.73271 212.92331 214.18591 215.98151 217.92210 219.97770 222.08530 224.18090
 226.25350 228.35010 230.45969 232.57829 234.71989 236.90449 239.17309 241.55568
 244.18928 246.45288 248.46748 250.24508 251.67468 252.81027 253.64487 253.97347
 254.02307 253.80967 253.18226 252.14286 250.76146 248.93506 246.85666 244.70226
 242.50585 240.32245 238.15505 236.00665 233.87925 231.75884 229.79744 227.96704
 226.26264 224.74724 223.38983 222.17443 221.06903 220.04163 219.15823 218.31183
 217.56642 216.75902 215.86962 215.24622 214.70882 214.35161 213.50768 213.51392
 213.73381 213.60167 214.57175 216.52388 218.52638 221.52174 226.93846 231.45125
 235.37511 239.72313 244.25433 248.53709 252.12047 254.74609 257.05573 259.73804
 262.69714 265.49939 268.10535 270.62936 273.12418 275.41385 277.07291 278.50842
 280.05130 281.54385 283.08194 284.45047 285.63629 286.68823 287.64801 288.52545
 289.31628 290.02762 290.64893 291.48929
 366.78100 356.34772 345.79244 334.67116 323.08688 311.29360 299.17633 286.99205
 274.71677 262.62649 250.64821 239.96193 230.09665 221.21337 213.40809 206.42281
 200.26954 195.22026 191.81498 189.86970 188.91942 188.99614 189.84386 191.16458
 192.90230 195.01002 197.28575 199.65747 202.11519 204.60791 206.70863 208.56335
 210.20207 211.35979 211.60151 211.84223 211.79196 211.50968 211.15540 210.79812
 210.42784 210.15056 209.97128 209.84800 209.78872 210.13244 210.53117 210.93289
 211.73861 212.92933 214.19205 215.98777 217.92849 219.98421 222.09193 224.18765
 226.26038 228.35710 230.46682 232.58554 234.72726 236.91198 239.18070 241.56342
 244.19714 246.46086 248.47559 250.25331 251.68303 252.81875 253.65347 253.98219
 254.03191 253.81863 253.19135 252.15207 250.77080 248.94452 246.86624 244.71196
 242.51568 240.33240 238.16512 236.01684 233.88956 231.76928 229.80801 227.97773
 226.27345 224.75817 223.40089 222.18561 221.08033 220.05305 219.16977 218.32349
 217.57822 216.77094 215.88166 215.25838 214.72110 214.36273 213.51605 213.60422
 213.82014 213.68214 214.59070 216.56647 218.51917 221.46045 226.86346 231.40625
 235.36015 239.72298 244.21907 248.43188 251.94849 254.54642 256.90323 259.66272
 262.61862 265.43546 268.08347 270.62790 273.14166 275.44788 277.11078 278.53372
 280.04355 281.51221 283.04944 284.41702 285.60333 286.65436 287.61569 288.49152
 289.28253 289.99310 290.61713 291.45786
 366.78100 356.34780 345.79259 334.67139 323.08718 311.29398 299.17677 286.99257
 274.71736 262.62716 250.64895 239.96275 230.09754 221.21434 213.40913 206.42393
 200.27072 195.22152 191.81632 189.87111 188.92091 188.99770 189.84550 191.16629
 192.90409 195.01188 197.28768 199.65947 202.11727 204.61006 206.71086 208.56565
 210.20445 211.36225 211.60404 211.84484 211.79463 211.51243 211.15822 210.80102
 210.43081 210.15361 209.97440 209.85120 209.79199 210.13579 210.53458 210.93638
 211.74217 212.93297 214.19577 215.99156 217.93236 219.98815 222.09595 224.19174
 226.26454 228.36133 230.47113 232.58992 234.73172 236.91651 239.18531 241.56810
 244.20190 246.46570 248.48049 250.25829 251.68808 252.82388 253.65867 253.98747
 254.03726 253.82406 253.19685 252.15765 250.77644 248.95024 246.87203 244.71783
 242.52162 240.33842 238.17122 236.02301 233.89581 231.77560 229.81440 227.98419
 226.27999 224.76478 223.40758 222.19237 221.08717 220.05996 219.17676 218.33055
 217.58535 216.77814 215.88894 215.26574 214.72853 214.37083 213.52571 213.68954
 213.90895 213.76598 214.62204 216.60216 218.50476 221.40909 226.79779 231.36763
 235.34746 239.71936 244.17570 248.31737 251.76884 254.34392 256.75357 259.58582
 262.53830 265.36960 268.05801 270.62204 273.15332 275.47424 277.14206 278.55777
 280.03815 281.48364 283.01682 284.38577 285.57092 286.62225 287.58276 288.45819
 289.24988 289.96021 290.58340 291.41788
 366.78100 356.34788 345.79276 334.67165 323.08753 311.29441 299.17729 286.99318
 274.71806 262.62794 250.64982 239.96371 230.09859 221.21547 213.41035 206.42523
 200.27212 195.22300 191.81788 189.87276 188.92265 188.99953 189.84741 191.16829
 192.90617 195.01406 197.28994 199.66182 202.11970 204.61259 206.71347 208.56835
 210.20723 211.36512 211.60700 211.84788 211.79776 211.51564 211.16153 210.80441
 210.43429 210.15717 209.97806 209.85494 209.79582 210.13970 210.53859 210.94047
 211.74635 212.93723 214.20011 215.99600 217.93688 219.99276 222.10064 224.19653
 226.26941 228.36629 230.47617 232.59505 234.73694 236.92182 239.19070 241.57358
 244.20747 246.47135 248.48623 250.26411 251.69400 252.82988 253.66476 253.99364
 254.04352 253.83041 253.20329 252.16417 250.78305 248.95694 246.87882 244.72470
 242.52858 240.34546 238.17835 236.03023 233.90311 231.78299 229.82188 227.99176
 226.28764 224.77252 223.41541 222.20029 221.09517 220.06805 219.18493 218.33882
 217.59370 216.78658 215.89746 215.27435 214.73723 214.37959 213.53464 213.76692
 214.00594 213.84819 214.66289 216.63316 218.48579 221.36958 226.74196 231.33315
 235.33420 239.70996 244.12297 248.19400 251.58423 254.14369 256.60788 259.50696
 262.45599 265.30173 268.02606 270.60916 273.15726 275.48950 277.15948 278.57278
 280.03220 281.45538 282.98663 284.35489 285.53949 286.58923 287.54959 288.42572
 289.21597 289.92313 290.54654 291.38278
 366.78100 356.34801 345.79302 334.67203 323.08804 311.29506 299.17807 286.99408
 274.71909 262.62910 250.65111 239.96512 230.10013 221.21715 213.41216 206.42717
 200.27418 195.22519 191.82020 189.87521 188.92522 189.00224 189.85025 191.17126
 192.90927 195.01728 197.29329 199.66530 202.12331 204.61633 206.71734 208.57235
 210.21136 211.36937 211.61138 211.85239 211.80240 211.52042 211.16643 210.80944
 210.43945 210.16246 209.98347 209.86048 209.80149 210.14550 210.54452 210.94653
 211.75254 212.94355 214.20656 216.00257 217.94358 219.99959 222.10761 224.20362
 226.27663 228.37364 230.48365 232.60266 234.74467 236.92968 239.19870 241.58171
 244.21572 246.47973 248.49474 250.27275 251.70276 252.83877 253.67379 254.00280
 254.05281 253.83982 253.21283 252.17384 250.79285 248.96686 246.88888 244.73489
 242.53890 240.35591 238.18892 236.04093 233.91394 231.79395 229.83296 228.00298
 226.29899 224.78400 223.42701 222.21202 221.10703 220.08004 219.19705 218.35107
 217.60608 216.79909 215.91010 215.28711 214.75012 214.39125 213.54338 213.83249
 214.10603 213.93285 214.72626 216.66550 218.46313 221.33871 226.68996 231.29808
 235.31885 239.69360 244.06030 248.06207 251.39655 253.94780 256.46872 259.42697
 262.37326 265.23257 267.98886 270.58871 273.15250 275.49075 277.16626 278.58023
 280.02530 281.42896 282.95535 284.32123 285.50330 286.55200 287.51154 288.38391
 289.17276 289.88156 290.50452 291.33914
 366.78100 356.34817 345.79334 334.67251 323.08868 311.29585 299.17902 286.99519
 274.72036 262.63053 250.65271 239.96688 230.10205 221.21922 213.41439 206.42956
 200.27673 195.22790 191.82307 189.87824 188.92841 189.00558 189.85375 191.17492
 192.91309 195.02126 197.29743 199.66960 202.12777 204.62095 206.72212 208.57729
 210.21646 211.37463 211.61680 211.85797 211.80814 211.52631 211.17248 210.81565
 210.44582 210.16899 209.99016 209.86733 209.80850 210.15267 210.55184 210.95401
 211.76019 212.95136 214.21453 216.01070 217.95187 220.00804 222.11621 224.21238
 226.28555 228.38272 230.49289 232.61206 234.75423 236.93940 239.20857 241.59174
 244.22591 246.49008 248.50525 250.28343 251.71360 252.84977 253.68494 254.01411
 254.06428 253.85145 253.22462 252.18579 250.80496 248.97913 246.90130 244.74747
 242.55164 240.36881 238.20198 236.05415 233.92732 231.80749 229.84666 228.01684
 226.31301 224.79818 223.44135 222.22652 221.12169 220.09486 219.21203 218.36620
 217.62137 216.81454 215.92571 215.30288 214.76605 214.40530 213.55298 213.88257
 214.21300 214.02753 214.78523 216.69193 218.45216 221.31763 226.64162 231.26466
 235.30223 239.67114 243.98851 247.92328 251.20859 253.75908 256.33731 259.34647
 262.29077 265.16339 267.94550 270.56076 273.13934 275.47855 277.16022 278.58154
 280.02005 281.41052 282.92831 284.29379 285.47537 286.52335 287.48383 288.35904
 289.15573 289.87094 290.50235 291.33698
 366.78100 356.34846 345.79392 334.67337 323.08983 311.29729 299.18075 286.99721
 274.72267 262.63312 250.65558 239.97004 230.10550 221.22296 213.41841 206.43387
 200.28133 195.23279 191.82825 189.88370 188.93416 189.01162 189.86008 191.18154
 192.92000 195.02845 197.30491 199.67737 202.13583 204.62929 206.73074 208.58620
 210.22566 211.38412 211.62658 211.86804 211.81849 211.53695 211.18341 210.82687
 210.45733 210.18078 210.00224 209.87970 209.82116 210.16562 210.56507 210.96753
 211.77399 212.96545 214.22891 216.02537 217.96682 220.02328 222.13174 224.22820
 226.30166 228.39911 230.50957 232.62903 234.77149 236.95695 239.22641 241.60986
 244.24432 246.50878 248.52424 250.30270 251.73315 252.86961 253.70507 254.03453
 254.08499 253.87244 253.24590 252.20736 250.82682 249.00128 246.92374 244.77019
 242.57465 240.39211 238.22557 236.07803 233.95148 231.83194 229.87140 228.04186
 226.33832 224.82378 223.46723 222.25269 221.14815 220.12161 219.23907 218.39352
 217.64898 216.84244 215.95390 215.33136 214.79482 214.42609 213.55496 213.92659
 214.31950 214.12932 214.84529 216.71915 218.44719 221.30450 226.59949 231.23730
 235.28743 239.64403 243.90874 247.77754 251.01848 253.57649 256.21228 259.26364
 262.20905 265.09409 267.89651 270.52585 273.11548 275.45068 277.13806 278.57220
 280.01205 281.39639 282.90964 284.27197 285.45355 286.50180 287.46106 288.33795
 289.13834 289.85684 290.49188 291.32544
 366.78100 356.34875 345.79449 334.67424 323.09098 311.29873 299.18247 286.99922
 274.72496 262.63571 250.65845 239.97320 230.10894 221.22669 213.42243 206.43818
 200.28592 195.23767 191.83341 189.88916 188.93990 189.01765 189.86639 191.18814
 192.92688 195.03563 197.31237 199.68512 202.14386 204.63761 206.73936 208.59510
 210.23485 211.39359 211.63634 211.87808 211.82883 211.54757 211.19432 210.83806
 210.46881 210.19255 210.01430 209.89204 209.83379 210.17853 210.57828 210.98102
 211.78777 212.97951 214.24326 216.04000 217.98175 220.03849 222.14724 224.24398
 226.31773 228.41547 230.52622 232.64596 234.78871 236.97446 239.24420 241.62795
 244.26269 246.52744 248.54318 250.32193 251.75267 252.88942 253.72516 254.05491
 254.10565 253.89340 253.26714 252.22889 250.84863 249.02338 246.94612 244.79287
 242.59761 240.41536 238.24910 236.10185 233.97559 231.85634 229.89608 228.06683
 226.36357 224.84932 223.49307 222.27881 221.17456 220.14830 219.26605 218.42079
 217.67654 216.87028 215.98203 215.35977 214.82352 214.44690 213.55710 213.95154
 214.43561 214.24495 214.89406 216.74791 218.46230 221.30382 226.56340 231.21539
 235.27191 239.60997 243.81897 247.62370 250.82803 253.40251 256.09631 259.18311
 262.13080 265.02756 267.84464 270.48560 273.08307 275.40741 277.09940 278.55124
 279.99542 281.38452 282.88971 284.25104 285.43152 286.47791 287.43484 288.31265
 289.11496 289.83630 290.47064 291.30206
 366.78100 356.34907 345.79514 334.67521 323.09228 311.30036 299.18443 287.00150
 274.72757 262.63864 250.66171 239.97678 230.11285 221.23092 213.42700 206.44307
 200.29114 195.24321 191.83928 189.89535 188.94642 189.02449 189.87356 191.19564
 192.93471 195.04378 197.32085 199.69392 202.15299 204.64706 206.74913 208.60520
 210.24528 211.40435 211.64742 211.88949 211.84056 211.55963 211.20670 210.85077
 210.48184 210.20591 210.02799 209.90606 209.84813 210.19320 210.59327 210.99634
 211.80341 212.99548 214.25955 216.05663 217.99870 220.05577 222.16484 224.26191
 226.33598 228.43405 230.54512 232.66519 234.80827 236.99434 239.26441 241.64848
 244.28355 246.54862 248.56469 250.34376 251.77483 252.91191 253.74798 254.07805
 254.12912 253.91719 253.29126 252.25333 250.87340 249.04847 246.97155 244.81862
 242.62369 240.44176 238.27583 236.12890 234.00297 231.88404 229.92411 228.09519
 226.39226 224.87833 223.52240 222.30847 221.20454 220.17861 219.29668 218.45175
 217.70783 216.90190 216.01397 215.39204 214.85611 214.46844 213.55254 213.97842
 214.52931 214.36450 214.99182 216.79385 218.46724 221.29066 226.52074 231.19505
 235.25768 239.57243 243.72469 247.46944 250.64197 253.24350 255.99335 259.10587
 262.05750 264.96347 267.78851 270.43869 273.03622 275.34259 277.03885 278.51373
 279.96854 281.37671 282.86618 284.22372 285.40186 286.44629 287.40073 288.27521
 289.07538 289.79547 290.41858 291.23169
 366.78100 356.34944 345.79588 334.67631 323.09375 311.30219 299.18663 287.00406
 274.73050 262.64194 250.66538 239.98082 230.11725 221.23569 213.43213 206.44857
 200.29700 195.24944 191.84588 189.90232 188.95376 189.03219 189.88163 191.20407
 192.94351 195.05294 197.33038 199.70382 202.16326 204.65770 206.76013 208.61657
 210.25701 211.41645 211.65988 211.90232 211.85376 211.57320 211.22064 210.86507
 210.49651 210.22095 210.04339 209.92182 209.86426 210.20970 210.61014 211.01357
 211.82101 213.01345 214.27789 216.07533 218.01776 220.07520 222.18464 224.28208
 226.35651 228.45495 230.56639 232.68683 234.83027 237.01670 239.28714 241.67158
 244.30702 246.57245 248.58889 250.36833 251.79977 252.93721 253.77364 254.10408
 254.15552 253.94396 253.31839 252.28083 250.90127 249.07671 247.00015 244.84758
 242.65302 240.47146 238.30590 236.15933 234.03377 231.91521 229.95565 228.12709
 226.42452 224.91096 223.55540 222.34184 221.23827 220.21271 219.33115 218.48659
 217.74303 216.93746 216.04990 215.42834 214.89278 214.49251 213.54683 213.98912
 214.65179 214.47870 215.05077 216.83195 218.49329 221.31067 226.49957 231.18826
 235.24762 239.53085 243.62230 247.30460 250.45306 253.08203 255.88464 259.02054
 261.97546 264.89084 267.72049 270.38129 272.98273 275.27271 276.98148 278.48782
 279.95901 281.37787 282.83673 284.18451 285.35287 286.39166 287.34326 288.21558
 289.01208 289.73285 290.34671 291.15601
 366.78100 356.34954 345.79608 334.67662 323.09416 311.30271 299.18725 287.00479
 274.73133 262.64287 250.66641 239.98195 230.11849 221.23703 213.43357 206.45012
 200.29866 195.25120 191.84774 189.90428 188.95582 189.03436 189.88390 191.20644
 192.94599 195.05553 197.33307 199.70661 202.16615 204.66069 206.76323 208.61977
 210.26031 211.41986 211.66340 211.90594 211.85748 211.57702 211.22456 210.86910
 210.50064 210.22518 210.04772 209.92627 209.86881 210.21435 210.61489 211.01843
 211.82597 213.01851 214.28305 216.08059 218.02314 220.08068 222.19022 224.28776
 226.36230 228.46084 230.57238 232.69292 234.83646 237.02301 239.29355 241.67809
 244.31363 246.57917 248.59571 250.37525 251.80679 252.94433 253.78087 254.11142
 254.16296 253.95150 253.32604 252.28858 250.90912 249.08466 247.00820 244.85574
 242.66129 240.47983 238.31437 236.16791 234.04245 231.92399 229.96453 228.13607
 226.43361 224.92015 223.56470 222.35124 221.24778 220.22232 219.34086 218.49640
 217.75294 216.94748 216.06002 215.43857 214.90311 214.50499 213.56438 213.97287
 214.75876 214.63576 215.14670 216.89886 218.52855 221.29164 226.44701 231.15717
 235.21696 239.46478 243.49509 247.12823 250.25175 252.93385 255.79999 258.95004
 261.92050 264.84384 267.67447 270.33771 272.92108 275.17670 276.88959 278.42065
 279.90729 281.36368 282.81418 284.15219 285.30954 286.34521 287.29474 288.16263
 288.96146 289.67529 290.28802 291.09335
 366.78100 356.34860 345.79419 334.67379 323.09039 311.29799 299.18158 286.99818
 274.72378 262.63438 250.65697 239.97157 230.10717 221.22477 213.42036 206.43596
 200.28356 195.23515 191.83075 189.88635 188.93695 189.01454 189.86314 191.18474
 192.92334 195.03193 197.30853 199.68113 202.13972 204.63332 206.73492 208.59052
 210.23011 211.38871 211.63131 211.87291 211.82350 211.54210 211.18870 210.83230
 210.46289 210.18649 210.00809 209.88568 209.82728 210.17188 210.57148 210.97407
 211.78067 212.97227 214.23587 216.03246 217.97406 220.03066 222.13925 224.23585
 226.30945 228.40705 230.51764 232.63724 234.77984 236.96544 239.23503 241.61863
 244.25323 246.51783 248.53342 250.31202 251.74262 252.87921 253.71481 254.04441
 254.09501 253.88260 253.25620 252.21780 250.83740 249.01199 246.93459 244.78119
 242.58578 240.40338 238.23698 236.08958 233.96317 231.84377 229.88337 228.05397
 226.35056 224.83616 223.47976 222.26536 221.16095 220.13455 219.25215 218.40674
 217.66234 216.85594 215.96754 215.34513 214.80873 214.46082 213.63885 213.96513
 214.77373 214.77486 215.30003 216.96938 218.54070 221.22876 226.39607 231.13817
 235.20058 239.41479 243.38812 246.96033 250.10167 252.82784 255.73344 258.90247
 261.86887 264.79468 267.61884 270.28091 272.86691 275.12164 276.85541 278.41156
 279.91983 281.35339 282.76672 284.07544 285.19888 286.19534 287.12747 287.99261
 288.78918 289.49295 290.10120 290.90399
 366.78100 356.34644 345.78988 334.66731 323.08175 311.28719 299.16863 286.98306
 274.70650 262.61494 250.63538 239.94781 230.08125 221.19669 213.39013 206.40356
 200.24900 195.19844 191.79188 189.84531 188.89375 188.96919 189.81563 191.13506
 192.87150 194.97794 197.25238 199.62281 202.07925 204.57069 206.67013 208.52357
 210.16100 211.31744 211.55788 211.79732 211.74575 211.46219 211.10663 210.74807
 210.37650 210.09794 209.91738 209.79282 209.73225 210.07469 210.47213 210.87257
 211.67700 212.86644 214.12788 215.92232 217.86175 219.91619 222.02263 224.11707
 226.18850 228.28394 230.39238 232.50982 234.65025 236.83369 239.10113 241.48257
 244.11501 246.37744 248.39088 250.16732 251.59576 252.73019 253.56363 253.89107
 253.93951 253.72494 253.09638 252.05582 250.67326 248.84569 246.76613 244.61057
 242.41301 240.22844 238.05988 235.91032 233.78176 231.66019 229.69763 227.86607
 226.16051 224.64394 223.28538 222.06882 220.96226 219.93370 219.04913 218.20157
 217.45501 216.64645 215.75588 215.13132 214.59276 214.34955 213.77493 214.01494
 214.70319 214.76984 215.34348 216.92059 218.44284 221.09741 226.33105 231.14420
 235.20151 239.40282 243.34671 246.93417 250.04359 252.83372 255.76056 258.90707
 261.89462 264.80908 267.61951 270.27109 272.80179 275.01038 276.77994 278.37979
 279.89041 281.36472 282.78235 284.07526 285.18839 286.18982 287.13016 288.00662
 288.81552 289.53140 290.17780 291.00153
 366.78100 356.34507 345.78715 334.66322 323.07630 311.28037 299.16045 286.97352
 274.69559 262.60267 250.62174 239.93282 230.06489 221.17896 213.37104 206.38311
 200.22719 195.17526 191.76734 189.81941 188.86648 188.94056 189.78563 191.10371
 192.83878 194.94386 197.21693 199.58600 202.04108 204.53115 206.62923 208.48130
 210.11737 211.27245 211.51152 211.74960 211.69667 211.41175 211.05482 210.69489
 210.32197 210.04204 209.86012 209.73419 209.67227 210.01334 210.40941 210.80849
 211.61156 212.79964 214.05971 215.85278 217.79086 219.84393 221.94901 224.04208
 226.11216 228.20623 230.31330 232.42938 234.56845 236.75053 239.01660 241.39668
 244.02775 246.28882 248.30090 250.07597 251.50305 252.63612 253.46819 253.79427
 253.84134 253.62542 252.99549 251.95357 250.56964 248.74071 246.65979 244.50286
 242.30394 240.11801 237.94809 235.79716 233.66723 231.54431 229.58038 227.74746
 226.04053 224.52260 223.16268 221.94475 220.83683 219.80690 218.92098 218.07205
 217.32412 216.51420 215.62227 214.99635 214.45642 214.27286 213.84494 214.13806
 214.69481 214.78026 215.37383 216.79422 218.32645 221.04031 226.26859 231.12706
 235.15649 239.31104 243.20673 246.76732 250.11235 253.07439 256.02600 259.10510
 262.07312 264.96210 267.71030 270.30362 272.75204 274.85583 276.56235 278.14398
 279.68158 281.16083 282.54605 283.76294 284.83701 285.84445 286.79269 287.65018
 288.39029 288.93927 289.41803 290.02817
 366.78100 356.34598 345.78897 334.66595 323.07994 311.28492 299.16591 286.97989
 274.70288 262.61086 250.63084 239.94283 230.07581 221.19080 213.38378 206.39677
 200.24175 195.19073 191.78372 189.83670 188.88469 188.95967 189.80566 191.12464
 192.86063 194.96661 197.24059 199.61058 202.06656 204.55755 206.65653 208.50952
 210.14650 211.30249 211.54247 211.78145 211.72944 211.44542 211.08941 210.73039
 210.35838 210.07936 209.89834 209.77333 209.71231 210.05430 210.45128 210.85127
 211.65525 212.84424 214.10522 215.89920 217.83819 219.89217 221.99816 224.09214
 226.16313 228.25811 230.36609 232.48308 234.62306 236.80605 239.07303 241.45402
 244.08600 246.34799 248.36097 250.13695 251.56494 252.69892 253.53191 253.85889
 253.90688 253.69186 253.06285 252.02183 250.63881 248.81080 246.73078 244.57477
 242.37675 240.19174 238.02272 235.87270 233.74369 231.62167 229.65866 227.82664
 226.12063 224.60361 223.24460 222.02758 220.92056 219.89155 219.00653 218.15852
 217.41150 216.60249 215.71147 215.08646 214.54744 214.30443 213.73032 214.27695
 214.93285 214.99854 215.48898 216.74576 218.18631 220.90443 226.21822 231.05505
 235.09914 239.18806 242.99748 246.50662 249.97032 253.10545 256.07834 259.11908
 262.06625 264.94110 267.65128 270.21808 272.62622 274.69629 276.42749 278.10327
 279.61218 280.99210 282.32388 283.49387 284.51901 285.47546 286.39349 287.23062
 287.92975 288.44949 288.82718 289.30847
 366.78100 356.34769 345.79237 334.67106 323.08675 311.29343 299.17612 286.99180
 274.71649 262.62618 250.64786 239.96155 230.09624 221.21292 213.40761 206.42230
 200.26898 195.21967 191.81435 189.86904 188.91873 188.99541 189.84310 191.16379
 192.90147 195.00916 197.28485 199.65653 202.11422 204.60690 206.70759 208.56228
 210.20096 211.35865 211.60034 211.84102 211.79071 211.50840 211.15408 210.79677
 210.42645 210.14914 209.96983 209.84651 209.78720 210.13089 210.52957 210.93126
 211.73695 212.92763 214.19032 215.98600 217.92669 219.98238 222.09006 224.18575
 226.25844 228.35512 230.46481 232.58350 234.72518 236.90987 239.17855 241.56124
 244.19493 246.45861 248.47330 250.25099 251.68067 252.81636 253.65105 253.97973
 254.02942 253.81610 253.18879 252.14948 250.76816 248.94185 246.86354 244.70922
 242.51291 240.32960 238.16228 236.01397 233.88665 231.76634 229.80503 227.97471
 226.27040 224.75509 223.39777 222.18246 221.07715 220.04983 219.16652 218.32020
 217.57489 216.76758 215.87826 215.25495 214.71764 214.38530 213.60011 214.33899
 215.21474 215.30789 215.71970 216.83583 218.22215 220.95793 226.19691 231.00812
 235.01910 239.04105 242.78529 246.26622 249.68629 252.84532 255.83501 258.88748
 261.83386 264.71393 267.45245 270.06674 272.51010 274.58566 276.36404 278.13184
 279.69058 281.06308 282.40433 283.56857 284.54648 285.44058 286.34610 287.20010
 287.87500 288.39148 288.95609 289.75162
 366.78100 356.34583 345.78866 334.66549 323.07932 311.28415 299.16499 286.97882
 274.70165 262.60948 250.62931 239.94114 230.07397 221.18880 213.38163 206.39446
 200.23929 195.18813 191.78096 189.83379 188.88162 188.95645 189.80228 191.12111
 192.85694 194.96277 197.23660 199.60643 202.06226 204.55310 206.65193 208.50476
 210.14159 211.29742 211.53725 211.77608 211.72391 211.43974 211.08357 210.72440
 210.35224 210.07307 209.89190 209.76673 209.70556 210.04739 210.44422 210.84405
 211.64788 212.83671 214.09754 215.89138 217.83021 219.88404 221.98987 224.08370
 226.15453 228.24936 230.35719 232.47402 234.61385 236.79668 239.06352 241.44435
 244.07618 246.33801 248.35084 250.12667 251.55450 252.68833 253.52116 253.84799
 253.89582 253.68066 253.05149 252.01032 250.62715 248.79898 246.71881 244.56264
 242.36447 240.17930 238.01013 235.85996 233.73079 231.60863 229.64546 227.81329
 226.10712 224.58995 223.23078 222.01361 220.90644 219.87727 218.99210 218.14393
 217.39677 216.58760 215.69643 215.07126 214.53209 214.28973 213.71716 214.34196
 215.18344 215.39117 215.84343 216.92883 218.28304 220.98363 226.19096 231.02141
 235.01811 239.02113 242.75273 246.22612 249.51370 252.70869 255.79152 258.81241
 261.76376 264.65421 267.41965 270.02380 272.44644 274.57886 276.30762 278.17120
 279.73462 281.17642 282.46005 283.60153 284.55960 285.45312 286.36304 287.04984
 287.61267 288.26917 288.88086 289.69342
 366.78100 356.34497 345.78694 334.66290 323.07587 311.27984 299.15981 286.97277
 274.69474 262.60171 250.62068 239.93164 230.06361 221.17758 213.36955 206.38152
 200.22548 195.17345 191.76542 189.81739 188.86435 188.93832 189.78329 191.10126
 192.83622 194.94119 197.21416 199.58313 202.03810 204.52806 206.62603 208.47800
 210.11397 211.26893 211.50790 211.74587 211.69284 211.40780 211.05077 210.69074
 210.31771 210.03768 209.85564 209.72961 209.66758 210.00855 210.40451 210.80348
 211.60645 212.79442 214.05439 215.84735 217.78532 219.83829 221.94326 224.03622
 226.10619 228.20016 230.30713 232.42309 234.56206 236.74403 239.01000 241.38997
 244.02093 246.28190 248.29387 250.06884 251.49580 252.62877 253.46074 253.78671
 253.83367 253.61764 252.98761 251.94558 250.56155 248.73251 246.65148 244.49445
 242.29542 240.10938 237.93935 235.78832 233.65829 231.53525 229.57122 227.73819
 226.03116 224.51313 223.15309 221.93506 220.82703 219.79700 218.91096 218.06193
 217.31390 216.50387 215.61183 214.98580 214.44577 214.22522 213.70416 214.61633
 215.30458 215.34732 215.77147 216.81764 218.19926 220.95654 226.16023 230.96785
 234.95351 238.89384 242.59532 246.12282 249.68536 252.98267 255.93822 259.01996
 261.99887 264.85870 267.47891 270.01505 272.34909 274.19421 276.58722 278.30939
 279.71942 280.66809 282.00494 283.10037 283.97830 284.78851 285.54733 286.17105
 286.82565 287.51660 288.13766 288.94305
 366.78100 356.34900 345.79500 334.67500 323.09200 311.30000 299.18400 287.00100
 274.72700 262.63800 250.66100 239.97600 230.11201 221.23001 213.42601 206.44201
 200.29001 195.24201 191.83801 189.89401 188.94501 189.02301 189.87201 191.19401
 192.93301 195.04201 197.31901 199.69201 202.15101 204.64501 206.74701 208.60301
 210.24301 211.40201 211.64502 211.88702 211.83802 211.55702 211.20402 210.84802
 210.47902 210.20302 210.02502 209.90302 209.84502 210.19002 210.59002 210.99302
 211.80002 212.99202 214.25602 216.05302 217.99502 220.05202 222.16102 224.25802
 226.33203 228.43003 230.54103 232.66103 234.80403 236.99003 239.26003 241.64403
 244.27903 246.54403 248.56003 250.33903 251.77003 252.90703 253.74303 254.07303
 254.12403 253.91203 253.28603 252.24803 250.86803 249.04303 246.96603 244.81304
 242.61804 240.43604 238.27004 236.12304 233.99704 231.87804 229.91804 228.08904
 226.38604 224.87204 223.51604 222.30204 221.19804 220.17204 219.29004 218.44504
 217.70104 216.89504 216.00704 215.38504 214.84904 214.43150 213.48170 214.64557
 215.85408 215.74889 215.81857 216.61650 217.91493 220.70657 225.94234 230.84233
 234.73921 238.59422 242.20354 245.71960 249.40222 252.99533 256.05884 259.02536
 261.99396 264.85782 267.48715 269.88202 272.04135 274.42697 276.62949 278.30048
 279.55881 280.54297 281.48236 282.45737 283.36261 284.06876 284.83072 285.68970
 286.51245 287.26062 287.91422 288.74713
 366.78100 356.35203 345.80105 334.68408 323.10411 311.31513 299.20216 287.02219
 274.75122 262.66524 250.69127 240.00930 230.14832 221.26935 213.46838 206.48740
 200.33843 195.29346 191.89248 189.95151 189.00554 189.08656 189.93859 191.26362
 193.00565 195.11767 197.39770 199.77373 202.23575 204.73278 206.83781 208.69683
 210.33986 211.50189 211.74791 211.99294 211.94697 211.66899 211.31902 210.96605
 210.60008 210.32710 210.15213 210.03316 209.97818 210.32621 210.72924 211.13526
 211.94529 213.14032 214.40734 216.20737 218.15240 220.21242 222.32445 224.42448
 226.50151 228.60253 230.71656 232.83959 234.98561 237.17464 239.44767 241.83469
 244.47272 246.74075 248.75977 250.54180 251.97583 253.11585 253.95488 254.28791
 254.34194 254.13296 253.50999 252.47502 251.09804 249.27607 247.20210 245.05212
 242.86015 240.68118 238.51820 236.37423 234.25126 232.13528 230.17831 228.35234
 226.65237 225.14139 223.78842 222.57745 221.47647 220.45350 219.57453 218.73255
 217.99158 217.18861 216.30363 215.68466 215.15169 214.62764 213.54118 214.39761
 215.92844 216.11224 216.28528 216.95113 218.22601 221.01971 225.93196 230.79039
 234.56410 238.33112 241.88177 245.43880 249.18265 252.59758 256.02856 259.10669
 262.10071 264.91287 267.52640 269.81381 272.17130 274.56973 276.48834 278.12912
 279.34390 280.35715 281.32458 282.23636 283.08072 283.90781 284.66241 285.34601
 285.96085 286.50836 286.98663 287.59619
 366.78100 356.34864 345.79428 334.67392 323.09055 311.29819 299.18183 286.99847
 274.72411 262.63475 250.65739 239.97203 230.10766 221.22530 213.42094 206.43658
 200.28422 195.23586 191.83150 189.88713 188.93777 189.01541 189.86405 191.18569
 192.92433 195.03297 197.30961 199.68224 202.14088 204.63452 206.73616 208.59180
 210.23144 211.39008 211.63271 211.87435 211.82499 211.54363 211.19027 210.83391
 210.46455 210.18819 210.00982 209.88746 209.82910 210.17374 210.57338 210.97602
 211.78266 212.97429 214.23793 216.03457 217.97621 220.03285 222.14149 224.23813
 226.31177 228.40940 230.52004 232.63968 234.78232 236.96796 239.23760 241.62124
 244.25587 246.52051 248.53615 250.31479 251.74543 252.88207 253.71771 254.04735
 254.09798 253.88562 253.25926 252.22090 250.84054 249.01518 246.93782 244.78445
 242.58909 240.40673 238.24037 236.09301 233.96665 231.84729 229.88692 228.05756
 226.35420 224.83984 223.48348 222.26912 221.16476 220.13840 219.25603 218.41067
 217.66631 216.85995 215.97159 215.34923 214.81287 214.48807 213.81709 214.29250
 215.65190 216.18639 216.60782 217.30777 218.47319 221.18541 226.00420 230.82922
 234.63937 238.38686 241.90366 245.43492 249.09041 252.57951 256.06192 259.25537
 262.24323 265.00092 267.58804 269.75711 272.20959 274.39612 276.38272 277.97403
 279.17905 280.27267 281.21039 282.32098 283.28214 284.13251 284.90833 285.61118
 286.24332 286.80624 287.29800 287.92468
 366.78100 356.34835 345.79370 334.67304 323.08939 311.29674 299.18009 286.99644
 274.72179 262.63213 250.65448 239.96883 230.10418 221.22153 213.41687 206.43222
 200.27957 195.23092 191.82627 189.88161 188.93196 189.00931 189.85766 191.17901
 192.91736 195.02570 197.30205 199.67440 202.13275 204.62610 206.72744 208.58279
 210.22214 211.38049 211.62284 211.86418 211.81453 211.53288 211.17923 210.82258
 210.45293 210.17627 209.99762 209.87497 209.81632 210.16067 210.56001 210.96236
 211.76871 212.96006 214.22341 216.01975 217.96110 220.01745 222.12580 224.22215
 226.29550 228.39284 230.50319 232.62254 234.76489 236.95024 239.21958 241.60293
 244.23728 246.50163 248.51698 250.29533 251.72567 252.86202 253.69737 254.02672
 254.07707 253.86441 253.23776 252.19911 250.81846 248.99281 246.91515 244.76150
 242.56585 240.38320 238.21655 236.06890 233.94224 231.82259 229.86194 228.03229
 226.32864 224.81398 223.45733 222.24268 221.13803 220.11138 219.22872 218.38307
 217.63842 216.83177 215.94312 215.32047 214.78381 214.46959 213.84082 214.36955
 215.63992 216.21791 216.59608 217.23468 218.40895 221.13074 225.98102 230.79221
 234.57541 238.28745 241.80614 245.40036 249.08026 252.59413 256.10300 259.26102
 262.16849 264.93219 267.60318 269.82986 272.21448 274.23816 276.19501 277.82553
 279.21747 280.35947 281.65585 282.96155 284.09152 285.09125 286.00336 286.82965
 287.57281 288.23462 288.81274 289.54953
 366.78100 356.34919 345.79538 334.67557 323.09276 311.30095 299.18514 287.00233
 274.72852 262.63971 250.66290 239.97809 230.11428 221.23247 213.42866 206.44485
 200.29304 195.24523 191.84142 189.89761 188.94880 189.02699 189.87618 191.19837
 192.93756 195.04675 197.32394 199.69712 202.15631 204.65050 206.75269 208.60888
 210.24907 211.40826 211.65145 211.89364 211.84483 211.56402 211.21121 210.85540
 210.48659 210.21078 210.03297 209.91116 209.85335 210.19854 210.59873 211.00192
 211.80911 213.00130 214.26549 216.06268 218.00487 220.06206 222.17125 224.26844
 226.34263 228.44082 230.55201 232.67220 234.81539 237.00158 239.27177 241.65596
 244.29115 246.55634 248.57253 250.35172 251.78291 252.92010 253.75629 254.08648
 254.13767 253.92586 253.30005 252.26224 250.88243 249.05762 246.98081 244.82799
 242.63318 240.45137 238.28556 236.13875 234.01294 231.89413 229.93432 228.10551
 226.40270 224.88889 223.53308 222.31927 221.21546 220.18965 219.30784 218.46303
 217.71922 216.91341 216.02560 215.40379 214.86798 214.49005 213.70880 214.35590
 215.68423 216.34004 216.73981 217.22966 218.43240 221.17989 225.97662 230.77715
 234.46617 238.13939 241.70215 245.32318 248.96198 252.46013 256.04483 259.12473
 262.05157 264.92499 267.47437 269.53000 272.11102 274.21240 276.21680 278.07864
 279.72498 281.10938 282.21838 283.11990 283.94003 284.64294 285.28427 285.86526
 286.38779 286.85312 287.25961 287.77762
 366.78100 356.34700 345.79100 334.66901 323.08401 311.29001 299.17201 286.98701
 274.71102 262.62002 250.64102 239.95402 230.08802 221.20403 213.39803 206.41203
 200.25803 195.20803 191.80204 189.85604 188.90504 188.98104 189.82804 191.14805
 192.88505 194.99205 197.26705 199.63805 202.09506 204.58706 206.68706 208.54106
 210.17906 211.33607 211.57707 211.81707 211.76607 211.48307 211.12808 210.77008
 210.39908 210.12108 209.94108 209.81709 209.75709 210.10009 210.49809 210.89909
 211.70410 212.89410 214.15610 215.95110 217.89110 219.94611 222.05311 224.14811
 226.22011 228.31611 230.42512 232.54312 234.68412 236.86812 239.13612 241.51813
 244.15113 246.41413 248.42813 250.20513 251.63414 252.76914 253.60314 253.93114
 253.98014 253.76615 253.13815 252.09815 250.71615 248.88915 246.81016 244.65516
 242.45816 240.27416 238.10616 235.95717 233.82917 231.70817 229.74617 227.91517
 226.21018 224.69418 223.33618 222.12018 221.01418 219.98619 219.10219 218.25519
 217.50919 216.70119 215.81120 215.18720 214.64920 214.34985 213.68295 214.39194
 215.89969 216.48204 216.87970 217.24553 218.34967 221.03108 225.94173 230.63260
 234.31073 237.94031 241.48566 245.07817 248.71445 252.34981 255.87625 258.98297
 261.83798 264.63660 267.18823 269.53116 271.96237 274.14578 276.05322 277.81369
 279.45029 280.82755 281.99420 282.97614 283.76974 284.44791 285.01804 285.22873
 285.27884 285.32349 285.36246 285.41217
 366.78100 356.34773 345.79246 334.67119 323.08692 311.29366 299.17639 286.99212
 274.71685 262.62658 250.64831 239.96204 230.09677 221.21351 213.40824 206.42297
 200.26970 195.22043 191.81516 189.86989 188.91962 188.99636 189.84409 191.16482
 192.90255 195.01028 197.28601 199.65774 202.11547 204.60821 206.70894 208.56367
 210.20240 211.36013 211.60186 211.84259 211.79232 211.51006 211.15579 210.79852
 210.42825 210.15098 209.97171 209.84844 209.78917 210.13290 210.53164 210.93337
 211.73910 212.92983 214.19256 215.98829 217.92902 219.98475 222.09249 224.18822
 226.26095 228.35768 230.46741 232.58614 234.72787 236.91260 239.18134 241.56407
 244.19780 246.46153 248.47626 250.25399 251.68372 252.81945 253.65419 253.98292
 254.03265 253.81938 253.19211 252.15284 250.77157 248.94530 246.86704 244.71277
 242.51650 240.33323 238.16596 236.01769 233.89042 231.77015 229.80889 227.97862
 226.27435 224.75908 223.40181 222.18654 221.08127 220.05400 219.17073 218.32447
 217.57920 216.77193 215.88266 215.25939 214.72212 214.39256 213.65849 214.34209
 216.13176 216.73564 217.02303 217.40773 218.38992 220.93970 225.83986 230.50645
 234.10081 237.64044 241.13855 244.73146 248.47601 252.38391 255.93420 258.89194
 261.72000 264.54449 266.95526 269.57324 272.14374 274.15045 276.05637 277.63208
 279.03928 280.38486 281.52679 282.47879 283.26144 283.93924 284.54752 284.68509
 284.73880 284.78662 284.82837 284.88162
 366.78100 356.34905 345.79510 334.67515 323.09219 311.30024 299.18429 287.00134
 274.72739 262.63844 250.66148 239.97653 230.11258 221.23063 213.42668 206.44273
 200.29077 195.24282 191.83887 189.89492 188.94597 189.02402 189.87306 191.19511
 192.93416 195.04321 197.32026 199.69331 202.15235 204.64640 206.74845 208.60450
 210.24455 211.40360 211.64664 211.88869 211.83974 211.55879 211.20584 210.84989
 210.48093 210.20498 210.02703 209.90508 209.84713 210.19218 210.59222 210.99527
 211.80232 212.99437 214.25842 216.05547 217.99751 220.05456 222.16361 224.26066
 226.33471 228.43276 230.54380 232.66385 234.80690 236.99295 239.26300 241.64705
 244.28210 246.54714 248.56319 250.34224 251.77329 252.91034 253.74639 254.07643
 254.12748 253.91553 253.28958 252.25163 250.87168 249.04672 246.96977 244.81682
 242.62187 240.43992 238.27397 236.12701 234.00106 231.88211 229.92216 228.09321
 226.39026 224.87630 223.52035 222.30640 221.20245 220.17650 219.29455 218.44959
 217.70564 216.89969 216.01174 215.38979 214.85384 214.48502 213.67207 214.19936
 216.05664 216.79475 217.15227 217.64058 218.62106 221.08752 225.83563 230.47626
 234.00162 237.51514 241.01382 244.61745 248.48466 252.48534 255.97830 258.89920
 261.71765 264.55023 267.01147 269.53036 272.06570 274.09970 275.95532 277.54636
 279.01901 280.31964 281.41110 282.32275 283.06668 283.61353 284.01660 284.37854
 284.70407 284.99396 285.24719 285.56992
 366.78100 356.34780 345.79260 334.67141 323.08721 311.29401 299.17681 286.99262
 274.71742 262.62722 250.64902 239.96283 230.09763 221.21443 213.40923 206.42404
 200.27084 195.22164 191.81644 189.87125 188.92105 188.99785 189.84565 191.16646
 192.90426 195.01206 197.28786 199.65967 202.11747 204.61027 206.71107 208.56588
 210.20468 211.36248 211.60428 211.84509 211.79489 211.51269 211.15849 210.80130
 210.43110 210.15390 209.97470 209.85151 209.79231 210.13611 210.53491 210.93672
 211.74252 212.93332 214.19612 215.99193 217.93273 219.98853 222.09633 224.19214
 226.26494 228.36174 230.47154 232.59035 234.73215 236.91695 239.18575 241.56856
 244.20236 246.46616 248.48096 250.25877 251.68857 252.82437 253.65917 253.98798
 254.03778 253.82458 253.19738 252.15819 250.77699 248.95079 246.87259 244.71840
 242.52220 240.33900 238.17180 236.02361 233.89641 231.77621 229.81501 227.98482
 226.28062 224.76542 223.40822 222.19303 221.08783 220.06063 219.17743 218.33124
 217.58604 216.77884 215.88964 215.26645 214.72925 214.42345 213.74026 214.20798
 215.92239 216.76129 217.21236 217.73074 218.68031 221.11710 225.87257 230.49860
 234.02306 237.50859 240.98984 244.63069 248.51860 252.51659 256.00500 258.92566
 261.71222 264.54926 267.18057 269.49692 271.88947 274.03784 275.99936 277.67685
 279.12817 280.39847 281.46021 282.33932 283.03479 283.60577 284.15787 284.66312
 285.11755 285.52222 285.87570 286.32623
 366.78100 356.34661 345.79022 334.66783 323.08244 311.28805 299.16966 286.98427
 274.70788 262.61649 250.63710 239.94971 230.08331 221.19892 213.39253 206.40614
 200.25175 195.20136 191.79497 189.84858 188.89719 188.97280 189.81941 191.13902
 192.87563 194.98224 197.25685 199.62746 202.08407 204.57568 206.67529 208.52890
 210.16651 211.32312 211.56372 211.80333 211.75194 211.46855 211.11316 210.75477
 210.38338 210.10499 209.92460 209.80021 209.73982 210.08243 210.48004 210.88065
 211.68526 212.87487 214.13648 215.93109 217.87070 219.92531 222.03192 224.12653
 226.19813 228.29374 230.40235 232.51996 234.66057 236.84418 239.11179 241.49340
 244.12601 246.38862 248.40223 250.17884 251.60745 252.74206 253.57567 253.90328
 253.95189 253.73750 253.10911 252.06872 250.68633 248.85894 246.77954 244.62415
 242.42676 240.24237 238.07398 235.92459 233.79620 231.67481 229.71242 227.88103
 226.17564 224.65925 223.30086 222.08447 220.97808 219.94969 219.06530 218.21791
 217.47152 216.66313 215.77274 215.14835 214.60995 214.34361 213.72156 214.33614
 216.09537 216.95262 217.32129 217.68901 218.50606 220.99202 225.87717 230.44032
 233.99203 237.41049 240.87282 244.55112 248.45888 252.48941 255.97722 258.88007
 261.66788 264.46982 267.18405 269.60233 271.83008 273.97455 275.86374 277.52649
 278.94241 280.16772 281.21069 282.08392 282.81836 283.45828 284.03946 284.52411
 284.97510 285.28610 285.55545 285.89868
 366.78100 356.34649 345.78999 334.66748 323.08198 311.28747 299.16897 286.98346
 274.70695 262.61545 250.63594 239.94844 230.08193 221.19743 213.39092 206.40442
 200.24991 195.19940 191.79290 189.84639 188.89489 188.97038 189.81688 191.13637
 192.87286 194.97936 197.25385 199.62435 202.08084 204.57234 206.67183 208.52532
 210.16282 211.31931 211.55981 211.79930 211.74780 211.46429 211.10879 210.75028
 210.37877 210.10027 209.91976 209.79526 209.73475 210.07725 210.47474 210.87523
 211.67973 212.86922 214.13072 215.92521 217.86471 219.91920 222.02569 224.12019
 226.19168 228.28718 230.39567 232.51317 234.65366 236.83716 239.10465 241.48614
 244.11864 246.38113 248.39463 250.17112 251.59962 252.73411 253.56760 253.89510
 253.94359 253.72909 253.10058 252.06008 250.67757 248.85006 246.77056 244.61505
 242.41755 240.23304 238.06454 235.91503 233.78652 231.66502 229.70251 227.87101
 226.16550 224.64900 223.29049 222.07399 220.96748 219.93897 219.05447 218.20696
 217.46046 216.65195 215.76145 215.13694 214.59843 214.32855 213.69092 214.38322
 216.29427 217.25465 217.55017 217.75395 218.47980 221.01270 225.86539 230.31665
 233.79926 237.17126 240.65199 244.37387 248.41600 252.45433 255.93907 258.82062
 261.63165 264.42526 267.16055 269.62122 271.80801 273.95129 275.73383 277.28702
 278.66534 279.81985 280.84955 281.69281 282.40030 283.04013 283.64557 284.16418
 284.58984 284.99527 285.32095 285.69708
 366.78100 356.34644 345.78988 334.66732 323.08176 311.28720 299.16865 286.98309
 274.70653 262.61497 250.63541 239.94785 230.08129 221.19673 213.39017 206.40361
 200.24906 195.19850 191.79194 189.84538 188.89382 188.96926 189.81570 191.13514
 192.87158 194.97802 197.25246 199.62291 202.07935 204.57079 206.67023 208.52367
 210.16111 211.31755 211.55799 211.79743 211.74587 211.46231 211.10676 210.74820
 210.37664 210.09808 209.91752 209.79296 209.73240 210.07484 210.47228 210.87272
 211.67717 212.86661 214.12805 215.92249 217.86193 219.91637 222.02281 224.11725
 226.18869 228.28413 230.39257 232.51002 234.65046 236.83390 239.10134 241.48278
 244.11522 246.37766 248.39110 250.16754 251.59598 252.73042 253.56387 253.89131
 253.93975 253.72519 253.09663 252.05607 250.67351 248.84595 246.76639 244.61083
 242.41328 240.22872 238.06016 235.91060 233.78204 231.66048 229.69792 227.86636
 226.16080 224.64424 223.28568 222.06913 220.96257 219.93401 219.04945 218.20189
 217.45533 216.64677 215.75621 215.13165 214.59309 214.33427 213.72278 214.30827
 216.30946 217.43996 217.79224 217.89288 218.47354 220.97577 225.81898 230.22981
 233.63826 236.93486 240.42511 244.19075 248.40462 252.45665 255.91052 258.81555
 261.58310 264.36691 267.10425 269.54938 271.76819 273.88107 275.64523 277.14636
 278.48816 279.64447 280.65430 281.47479 282.14474 282.74612 283.33408 283.83160
 284.26416 284.66293 285.12848 285.72174
 366.78100 356.34595 345.78890 334.66585 323.07980 311.28475 299.16570 286.97966
 274.70261 262.61056 250.63051 239.94246 230.07541 221.19036 213.38331 206.39626
 200.24121 195.19016 191.78311 189.83607 188.88402 188.95897 189.80492 191.12387
 192.85982 194.96577 197.23972 199.60967 202.06562 204.55657 206.65552 208.50848
 210.14543 211.30138 211.54133 211.78028 211.72823 211.44418 211.08813 210.72908
 210.35703 210.07798 209.89693 209.77189 209.71084 210.05279 210.44974 210.84969
 211.65364 212.84259 214.10354 215.89749 217.83644 219.89039 221.99634 224.09030
 226.16125 228.25620 230.36415 232.48110 234.62105 236.80400 239.07095 241.45190
 244.08385 246.34580 248.35875 250.13471 251.56266 252.69661 253.52956 253.85651
 253.90446 253.68941 253.06036 252.01931 250.63626 248.80821 246.72816 244.57212
 242.37407 240.18902 238.01997 235.86992 233.74087 231.61882 229.65577 227.82372
 226.11767 224.60062 223.24157 222.02453 220.91748 219.88843 219.00338 218.15533
 217.40828 216.59923 215.70818 215.08313 214.54408 214.32175 213.79799 214.28006
 216.22020 217.49034 217.96089 218.01938 218.51591 220.99088 225.81949 230.20790
 233.55203 236.78580 240.28340 244.10719 248.42839 252.44547 255.85889 258.79449
 261.58527 264.34106 267.04889 269.48441 271.77451 273.82922 275.56543 277.04678
 278.38254 279.55872 280.53909 281.31729 281.94534 282.50217 283.03836 283.47906
 283.84479 284.36166 284.87527 285.52985
 366.78100 356.34524 345.78749 334.66373 323.07697 311.28121 299.16146 286.97470
 274.69694 262.60419 250.62343 239.93467 230.06692 221.18116 213.37340 206.38564
 200.22989 195.17813 191.77037 189.82262 188.86986 188.94410 189.78935 191.10759
 192.84283 194.94807 197.22132 199.59056 202.04580 204.53605 206.63429 208.48653
 210.12278 211.27802 211.51726 211.75550 211.70275 211.41799 211.06123 210.70148
 210.32872 210.04896 209.86720 209.74145 209.67969 210.02093 210.41718 210.81642
 211.61966 212.80791 214.06815 215.86139 217.79963 219.85288 221.95812 224.05136
 226.12161 228.21585 230.32309 232.43934 234.57858 236.76082 239.02706 241.40731
 244.03855 246.29979 248.31204 250.08728 251.51452 252.64777 253.48001 253.80625
 253.85349 253.63774 253.00798 251.96622 250.58247 248.75371 246.67295 244.51619
 242.31744 240.13168 237.96192 235.81117 233.68141 231.55865 229.59490 227.76214
 226.05538 224.53762 223.17787 221.96011 220.85235 219.82260 218.93684 218.08808
 217.34033 216.53057 215.63881 215.01305 214.47330 214.30461 213.91687 214.29005
 216.14798 217.46599 218.00296 218.05959 218.57555 221.04625 225.81830 230.19881
 233.45386 236.68513 240.18887 244.10327 248.43550 252.42162 255.82568 258.81702
 261.49149 264.18665 266.84213 269.39655 271.80194 273.82013 275.50702 276.95392
 278.29517 279.47333 280.41513 281.15610 281.74841 282.25015 282.70486 283.09247
 283.70074 284.32629 284.87274 285.56912
 366.78100 356.34310 345.78321 334.65731 323.06841 311.27051 299.14862 286.95972
 274.67982 262.58492 250.60203 239.91113 230.04123 221.15333 213.34344 206.35354
 200.19564 195.14174 191.73185 189.78195 188.82705 188.89916 189.74226 191.05836
 192.79146 194.89457 197.16567 199.53277 201.98587 204.47398 206.57008 208.42018
 210.05428 211.20739 211.44449 211.68059 211.62569 211.33880 210.97990 210.61800
 210.24310 209.96121 209.77731 209.64941 209.58552 209.92462 210.31872 210.71582
 211.51693 212.70303 213.96113 215.75223 217.68834 219.73944 221.84254 223.93364
 226.00175 228.09385 230.19895 232.31305 234.45016 236.63026 238.89436 241.27247
 243.90157 246.16067 248.17077 249.94388 251.36898 252.50008 253.33018 253.65429
 253.69939 253.48149 252.84959 251.80570 250.41980 248.58890 246.50600 244.34711
 242.14621 239.95831 237.78641 235.63352 233.50162 231.37672 229.41083 227.57593
 225.86703 224.34713 222.98524 221.76534 220.65544 219.62354 218.73565 217.88475
 217.13485 216.32295 215.42906 214.80116 214.25926 214.22203 214.13818 214.29060
 215.95134 217.33455 217.94731 218.07312 218.72102 221.18556 225.83340 230.18307
 233.35995 236.61755 240.14487 244.14754 248.45753 252.40164 255.83397 258.81415
 261.49524 264.16278 266.80493 269.32379 271.70923 273.71594 275.43604 276.93591
 278.30737 279.45023 280.35764 281.06699 281.60089 282.01346 282.52286 283.33759
 284.07034 284.72287 285.29291 286.01938
 366.78100 356.34097 345.77893 334.65090 323.05986 311.25983 299.13579 286.94476
 274.66273 262.56569 250.58066 239.88762 230.01559 221.12556 213.31352 206.32149
 200.16145 195.10542 191.69338 189.74135 188.78432 188.85428 189.69525 191.00921
 192.74018 194.84114 197.11011 199.47508 201.92604 204.41201 206.50597 208.35394
 209.98590 211.13687 211.37184 211.60580 211.54877 211.25973 210.89870 210.53467
 210.15763 209.87360 209.68756 209.55753 209.49149 209.82846 210.22043 210.61539
 211.41436 212.59832 213.85429 215.64325 217.57722 219.62619 221.72715 223.81612
 225.88208 227.97205 230.07502 232.18698 234.32195 236.49991 238.76188 241.13784
 243.76481 246.02178 248.02974 249.80071 251.22367 252.35264 253.18060 253.50257
 253.54554 253.32550 252.69147 251.64543 250.25740 248.42437 246.33933 244.17830
 241.97526 239.78523 237.61119 235.45616 233.32213 231.19509 229.22706 227.39002
 225.67899 224.15695 222.79292 221.57089 220.45885 219.42482 218.53478 217.68175
 216.92971 216.11568 215.21965 214.58961 214.04558 214.12286 214.29974 214.39397
 215.78555 217.21088 217.93733 218.09326 218.76472 221.25137 225.89568 230.22159
 233.36577 236.59625 240.13017 244.17432 248.48006 252.40811 255.82747 258.80237
 261.49420 264.15927 266.81558 269.39520 271.74030 273.67294 275.34506 276.99509
 278.39261 279.56339 280.50757 281.23587 281.76239 282.19171 282.87152 283.71069
 284.46545 285.13754 285.72467 286.47293
 366.78100 356.34076 345.77852 334.65028 323.05904 311.25880 299.13457 286.94333
 274.66109 262.56385 250.57861 239.88537 230.01313 221.12289 213.31065 206.31841
 200.15817 195.10193 191.68970 189.73746 188.78022 188.84998 189.69074 191.00450
 192.73526 194.83602 197.10478 199.46954 201.92030 204.40606 206.49983 208.34759
 209.97935 211.13011 211.36487 211.59863 211.54139 211.25215 210.89091 210.52667
 210.14943 209.86520 209.67896 209.54872 209.48248 209.81924 210.21100 210.60576
 211.40452 212.58828 213.84404 215.63280 217.56656 219.61533 221.71609 223.80485
 225.87061 227.96037 230.06313 232.17489 234.30965 236.48741 238.74917 241.12493
 243.75169 246.00846 248.01622 249.78698 251.20974 252.33850 253.16626 253.48802
 253.53078 253.31054 252.67630 251.63006 250.24182 248.40859 246.32335 244.16211
 241.95887 239.76863 237.59439 235.43915 233.30491 231.17767 229.20943 227.37219
 225.66096 224.13872 222.77448 221.55224 220.44000 219.40576 218.51552 217.66228
 216.91004 216.09580 215.19956 214.56932 214.02509 214.11081 214.31512 214.57405
 215.86198 217.21991 217.92206 218.01752 218.66238 221.20557 225.89961 230.18716
 233.31436 236.49974 240.04971 244.14368 248.45915 252.37573 255.75560 258.73047
 261.44299 264.13382 266.79810 269.37766 271.66708 273.53671 275.22461 276.91440
 278.37167 279.60623 280.61719 281.42709 282.04681 282.59946 283.25903 284.01416
 284.71652 285.34195 285.88834 286.58463
 366.78100 356.34182 345.78064 334.65346 323.06329 311.26411 299.14093 286.95075
 274.66957 262.57339 250.58921 239.89703 230.02586 221.13668 213.32550 206.33432
 200.17514 195.11996 191.70878 189.75761 188.80143 188.87225 189.71407 191.02889
 192.76071 194.86253 197.13235 199.49818 201.95000 204.43682 206.53164 208.38046
 210.01328 211.16510 211.40093 211.63575 211.57957 211.29139 210.93121 210.56803
 210.19185 209.90867 209.72350 209.59432 209.52914 209.86696 210.25978 210.65560
 211.45542 212.64025 213.89707 215.68689 217.62171 219.67153 221.77335 223.86317
 225.93000 228.02082 230.12464 232.23746 234.37328 236.55210 238.81492 241.19174
 243.81957 246.07739 248.08621 249.85803 251.28185 252.41167 253.24049 253.56332
 253.60714 253.38796 252.75478 251.70960 250.32242 248.49024 246.40606 244.24589
 242.04371 239.85453 237.68135 235.52717 233.39399 231.26781 229.30064 227.46446
 225.75428 224.23310 222.86992 221.64874 220.53756 219.50438 218.61521 217.76303
 217.01185 216.19867 215.30349 214.67431 214.13113 214.17334 214.28311 214.68019
 216.00868 217.22171 217.87996 217.98232 218.63731 221.17978 225.85121 230.09245
 233.15208 236.34082 239.94807 244.12260 248.43678 252.31863 255.68022 258.65265
 261.40912 264.11316 266.79483 269.38391 271.65887 273.39618 274.96603 276.77347
 278.25751 279.50140 280.54288 281.38220 282.08401 282.85510 283.58084 284.27615
 284.90149 285.45837 285.94485 286.56479
 366.78100 356.34349 345.78399 334.65848 323.06998 311.27247 299.15097 286.96246
 274.68296 262.58845 250.60595 239.91544 230.04594 221.15843 213.34892 206.35942
 200.20191 195.14841 191.73890 189.78940 188.83489 188.90739 189.75088 191.06738
 192.80087 194.90437 197.17586 199.54335 201.99685 204.48534 206.58184 208.43233
 210.06683 211.22032 211.45782 211.69431 211.63981 211.35330 210.99480 210.63329
 210.25878 209.97728 209.79377 209.66627 209.60276 209.94226 210.33675 210.73425
 211.53574 212.72224 213.98073 215.77223 217.70872 219.76021 221.86371 223.95520
 226.02370 228.11619 230.22169 232.33618 234.47368 236.65417 238.91867 241.29716
 243.92666 246.18615 248.19664 249.97014 251.39563 252.52713 253.35762 253.68212
 253.72761 253.51011 252.87860 251.83510 250.44959 248.61909 246.53658 244.37807
 242.17757 239.99006 237.81856 235.66605 233.53455 231.41004 229.44454 227.61003
 225.90153 224.38202 223.02052 221.80101 220.69150 219.66000 218.77249 217.92199
 217.17248 216.36098 215.46747 214.83997 214.29846 214.28256 214.26909 214.71611
 216.15485 217.24611 217.82399 217.99170 218.76909 221.27109 225.83434 230.04559
 233.06470 236.27660 239.92044 244.14023 248.45036 252.29550 255.64531 258.60617
 261.38892 264.08984 266.78430 269.36926 271.60791 273.33929 274.82318 276.53946
 278.08322 279.35565 280.38474 281.23663 282.07349 282.95868 283.78903 284.54129
 285.21783 285.82031 286.34662 287.01736
 366.78100 356.34548 345.78795 334.66443 323.07790 311.28238 299.16286 286.97633
 274.69881 262.60628 250.62576 239.93724 230.06971 221.18419 213.37666 206.38914
 200.23362 195.18209 191.77457 189.82704 188.87452 188.94900 189.79447 191.11295
 192.84842 194.95390 197.22738 199.59685 202.05233 204.54280 206.64128 208.49376
 210.13023 211.28571 211.52518 211.76366 211.71114 211.42661 211.07009 210.71056
 210.33804 210.05851 209.87699 209.75147 209.68994 210.03142 210.42789 210.82737
 211.63085 212.81932 214.07980 215.87327 217.81175 219.86523 221.97070 224.06418
 226.13465 228.22913 230.33661 232.45308 234.59256 236.77503 239.04151 241.42199
 244.05346 246.31494 248.32741 250.10289 251.53037 252.66384 253.49632 253.82279
 253.87027 253.65475 253.02522 251.98370 250.60017 248.77165 246.69113 244.53460
 242.33608 240.15055 237.98103 235.83051 233.70098 231.57846 229.61493 227.78241
 226.07589 224.55836 223.19884 221.98131 220.87379 219.84427 218.95874 218.11022
 217.36269 216.55317 215.66165 215.03612 214.49660 214.42101 214.27664 214.72899
 216.24907 217.32280 217.85327 218.02989 218.88080 221.40863 225.88800 229.95607
 232.97185 236.19980 239.88094 244.15060 248.45506 252.24976 255.58334 258.57812
 261.39975 264.15680 266.86591 269.40720 271.52206 273.19147 274.77121 276.46292
 277.96588 279.13538 280.21033 281.59927 282.81729 283.89490 284.87805 285.76874
 286.56982 287.28317 287.90634 288.70050
 366.78100 356.34372 345.78443 334.65915 323.07087 311.27358 299.15230 286.96402
 274.68473 262.59045 250.60817 239.91788 230.04860 221.16132 213.35203 206.36275
 200.20547 195.15218 191.74290 189.79362 188.83933 188.91205 189.75577 191.07248
 192.80620 194.90992 197.18163 199.54935 202.00307 204.49178 206.58850 208.43922
 210.07393 211.22765 211.46537 211.70208 211.64780 211.36152 211.00323 210.64195
 210.26767 209.98638 209.80310 209.67582 209.61253 209.95225 210.34697 210.74468
 211.54640 212.73312 213.99183 215.78355 217.72026 219.77198 221.87570 223.96741
 226.03613 228.12885 230.23456 232.34928 234.48700 236.66771 238.93243 241.31115
 243.94086 246.20058 248.21130 249.98501 251.41073 252.54245 253.37316 253.69788
 253.74360 253.52631 252.89503 251.85175 250.46646 248.63618 246.55390 244.39561
 242.19533 240.00805 237.83676 235.68448 233.55320 231.42891 229.46363 227.62935
 225.92106 224.40178 223.04050 221.82121 220.71193 219.68065 218.79336 217.94308
 217.19380 216.38251 215.48923 214.86195 214.32066 214.36017 214.43275 214.63979
 216.02267 217.38599 218.04065 218.13075 218.90392 221.45131 225.94511 229.97325
 232.95560 236.15227 239.84218 244.18854 248.49884 252.26044 255.56227 258.55408
 261.40134 264.20117 266.93729 269.47662 271.58218 273.15350 274.70413 276.51691
 277.92862 279.08716 280.33322 281.72382 282.92734 283.99216 284.96365 285.84375
 286.63528 287.34015 287.95593 288.74066
 366.78100 356.33977 345.77654 334.64731 323.05507 311.25384 299.12861 286.93638
 274.65315 262.55492 250.56868 239.87445 230.00122 221.10999 213.29676 206.30353
 200.14229 195.08506 191.67183 189.71860 188.76037 188.82914 189.66891 190.98167
 192.71144 194.81121 197.07898 199.44275 201.89252 204.37728 206.47005 208.31682
 209.94759 211.09736 211.33113 211.56389 211.50566 211.21543 210.85320 210.48797
 210.10974 209.82451 209.63727 209.50604 209.43881 209.77458 210.16535 210.55912
 211.35688 212.53965 213.79442 215.58219 217.51496 219.56273 221.66249 223.75026
 225.81503 227.90380 230.00557 232.11634 234.25011 236.42687 238.68764 241.06241
 243.68818 245.94395 247.95072 249.72048 251.14225 252.27002 253.09679 253.41756
 253.45933 253.23809 252.60286 251.55563 250.16640 248.33217 246.24594 244.08371
 241.87947 239.68824 237.51301 235.35678 233.22155 231.09332 229.12408 227.28585
 225.57362 224.05039 222.68516 221.46193 220.34869 219.31346 218.42223 217.56800
 216.81477 215.99954 215.10231 214.47107 213.92584 214.14854 214.65459 214.78629
 215.58372 217.04167 217.95483 218.12654 218.91273 221.47665 225.92841 229.93953
 232.93369 236.18492 239.91153 244.14760 248.37125 252.13269 255.44556 258.47757
 261.37564 264.19534 266.88837 269.34705 271.44955 273.15842 274.76227 276.44720
 277.96469 279.12079 280.06256 280.85617 281.55307 282.38828 283.33191 284.18677
 284.95563 285.64029 286.23840 287.00061
 366.78100 356.33962 345.77625 334.64687 323.05450 311.25312 299.12775 286.93537
 274.65200 262.55362 250.56724 239.87287 229.99949 221.10812 213.29474 206.30137
 200.13999 195.08261 191.66924 189.71586 188.75749 188.82611 189.66574 190.97836
 192.70799 194.80761 197.07523 199.43886 201.88848 204.37311 206.46573 208.31236
 209.94298 211.09260 211.32623 211.55885 211.50048 211.21010 210.84773 210.48235
 210.10398 209.81860 209.63122 209.49985 209.43247 209.76810 210.15872 210.55235
 211.34997 212.53259 213.78722 215.57484 217.50747 219.55509 221.65472 223.74234
 225.80697 227.89559 229.99721 232.10784 234.24146 236.41809 238.67871 241.05334
 243.67896 245.93458 247.94121 249.71083 251.13246 252.26008 253.08671 253.40733
 253.44896 253.22758 252.59220 251.54483 250.15545 248.32108 246.23470 244.07233
 241.86795 239.67657 237.50120 235.34482 233.20945 231.08107 229.11170 227.27332
 225.56095 224.03757 222.67219 221.44882 220.33544 219.30007 218.40869 217.55432
 216.80094 215.98556 215.08819 214.45681 213.91144 214.12997 214.64595 215.01358
 215.74469 217.07251 217.93622 217.93907 218.63234 221.28386 225.87372 229.75874
 232.77412 235.98596 239.74979 244.05797 248.29692 252.03236 255.33769 258.40378
 261.33807 264.16623 266.83484 269.25403 271.33350 273.03870 274.65073 276.39642
 277.90070 279.13232 280.09064 280.91568 281.64294 282.18256 282.62000 283.20224
 283.99353 284.69815 285.31372 286.09818
 366.78100 356.34016 345.77732 334.64848 323.05665 311.25581 299.13097 286.93913
 274.65629 262.55845 250.57262 239.87878 230.00594 221.11510 213.30226 206.30942
 200.14859 195.09175 191.67891 189.72607 188.76823 188.83739 189.67756 190.99072
 192.72088 194.82104 197.08920 199.45336 201.90353 204.38869 206.48185 208.32901
 209.96017 211.11033 211.34450 211.57766 211.51982 211.22998 210.86814 210.50330
 210.12547 209.84063 209.65379 209.52295 209.45611 209.79227 210.18344 210.57760
 211.37576 212.55892 213.81408 215.60224 217.53541 219.58357 221.68373 223.77189
 225.83705 227.92621 230.02838 232.13954 234.27370 236.45086 238.71202 241.08718
 243.71335 245.96951 247.97667 249.74683 251.16899 252.29715 253.12431 253.44548
 253.48764 253.26680 252.63196 251.58512 250.19628 248.36245 246.27661 244.11477
 241.91093 239.72009 237.54525 235.38942 233.25458 231.12674 229.15790 227.32006
 225.60822 224.08539 222.72055 221.49771 220.38487 219.35003 218.45919 217.60536
 216.85252 216.03768 215.14084 214.51000 213.96516 214.17879 214.68076 214.92714
 215.87659 217.23882 217.96024 217.86617 218.54370 221.24585 225.83475 229.66183
 232.61386 235.84314 239.69194 244.08156 248.30063 251.99898 255.31390 258.40805
 261.35132 264.16373 266.81119 269.22144 271.31174 272.96997 274.52957 276.32709
 277.88913 279.06030 279.97650 280.76663 281.47510 281.98511 282.41702 283.07346
 283.86542 284.57068 285.18677 285.97192
 366.78100 356.34040 345.77780 334.64920 323.05760 311.25700 299.13240 286.94080
 274.65820 262.56060 250.57500 239.88139 230.00879 221.11819 213.30559 206.31299
 200.15239 195.09579 191.68319 189.73059 188.77299 188.84239 189.68279 190.99619
 192.72659 194.82699 197.09539 199.45979 201.91019 204.39559 206.48899 208.33639
 209.96778 211.11818 211.35258 211.58598 211.52838 211.23878 210.87718 210.51258
 210.13498 209.85038 209.66378 209.53318 209.46658 209.80298 210.19438 210.58878
 211.38718 212.57058 213.82598 215.61438 217.54778 219.59617 221.69657 223.78497
 225.85037 227.93977 230.04217 232.15357 234.28797 236.46537 238.72677 241.10217
 243.72857 245.98497 247.99237 249.76277 251.18517 252.31357 253.14097 253.46237
 253.50477 253.28417 252.64956 251.60296 250.21436 248.38076 246.29516 244.13356
 241.92996 239.73936 237.56476 235.40916 233.27456 231.14696 229.17836 227.34076
 225.62916 224.10656 222.74196 221.51936 220.40676 219.37216 218.48156 217.62796
 216.87535 216.06075 215.16415 214.53355 213.98895 214.22659 214.77162 214.96603
 215.78069 217.02475 217.79828 217.91554 218.71768 221.34981 225.80991 229.71976
 232.57626 235.84718 239.74686 244.12947 248.31804 252.01166 255.32935 258.41891
 261.34833 264.13153 266.76257 269.16360 271.25528 272.94562 274.47650 276.17419
 277.69034 278.85214 279.74213 280.48047 281.06198 281.86484 282.83578 283.71539
 284.50653 285.21100 285.82645 286.61075
 366.78100 356.34021 345.77742 334.64863 323.05683 311.25604 299.13125 286.93946
 274.65667 262.55888 250.57308 239.87929 230.00650 221.11571 213.30292 206.31013
 200.14934 195.09254 191.67975 189.72696 188.76917 188.83838 189.67859 190.99180
 192.72200 194.82221 197.09042 199.45463 201.90484 204.39005 206.48325 208.33046
 209.96167 211.11188 211.34609 211.57930 211.52151 211.23171 210.86992 210.50513
 210.12734 209.84255 209.65576 209.52496 209.45817 209.79438 210.18559 210.57980
 211.37801 212.56122 213.81642 215.60463 217.53784 219.58605 221.68626 223.77447
 225.83968 227.92888 230.03109 232.14230 234.27651 236.45372 238.71493 241.09013
 243.71634 245.97255 247.97976 249.74997 251.17218 252.30039 253.12759 253.44880
 253.49101 253.27022 252.63543 251.58864 250.19984 248.36605 246.28026 244.11847
 241.91468 239.72389 237.54910 235.39330 233.25851 231.13072 229.16193 227.32414
 225.61235 224.08956 222.72476 221.50197 220.38918 219.35439 218.46360 217.60981
 216.85701 216.04222 215.14543 214.51464 213.96985 214.26103 214.88657 215.02544
 215.78862 217.03949 217.83017 217.98685 218.87025 221.48369 225.89513 229.66624
 232.52686 235.78801 239.76906 244.19502 248.33307 252.00296 255.33397 258.43283
 261.35184 264.12515 266.73526 269.10934 271.13959 272.88025 274.47745 276.17151
 277.54514 278.54382 279.42783 280.82678 282.03745 283.10858 284.08585 284.97116
 285.76740 286.47647 287.09589 287.88528
 366.78100 356.33804 345.77308 334.64212 323.04817 311.24521 299.11825 286.92429
 274.63933 262.53937 250.55141 239.85545 229.98050 221.08754 213.27258 206.27762
 200.11466 195.05570 191.64074 189.68578 188.72583 188.79287 189.63091 190.94195
 192.66999 194.76803 197.03407 199.39611 201.84416 204.32720 206.41824 208.26328
 209.89232 211.04036 211.27240 211.50344 211.44349 211.15153 210.78757 210.42061
 210.04065 209.75369 209.56473 209.43178 209.36282 209.69686 210.08590 210.47794
 211.27398 212.45502 213.70806 215.49411 217.42515 219.47119 221.56923 223.65527
 225.71831 227.80535 229.90539 232.01444 234.14648 236.32152 238.58056 240.95360
 243.57764 245.83168 247.83672 249.60477 251.02481 252.15085 252.97589 253.29493
 253.33497 253.11201 252.47505 251.42610 250.03514 248.19918 246.11122 243.94726
 241.74130 239.54834 237.37139 235.21343 233.07647 230.94651 228.97555 227.13559
 225.42163 223.89667 222.52972 221.30476 220.18980 219.15284 218.25988 217.40392
 216.64896 215.83200 214.93305 214.30009 213.75313 214.18263 215.07173 215.02827
 215.58208 216.98085 217.86652 217.98735 218.84723 221.49243 225.99861 229.73253
 232.58209 235.81949 239.80521 244.24042 248.36298 251.99855 255.31415 258.42340
 261.35464 264.12738 266.74271 269.16061 271.29379 272.94846 274.45419 276.33279
 277.74655 278.63123 280.10333 281.53802 282.77963 283.87811 284.88034 285.78827
 286.60486 287.33203 287.96729 288.77682
 366.78100 356.33751 345.77202 334.64052 323.04603 311.24254 299.11505 286.92056
 274.63506 262.53457 250.54608 239.84959 229.97410 221.08060 213.26511 206.26962
 200.10613 195.04664 191.63114 189.67565 188.71516 188.78167 189.61918 190.92968
 192.65719 194.75470 197.02021 199.38172 201.82922 204.31173 206.40224 208.24675
 209.87526 211.02276 211.25427 211.48478 211.42429 211.13180 210.76730 210.39981
 210.01932 209.73183 209.54234 209.40884 209.33935 209.67286 210.06137 210.45288
 211.24838 212.42889 213.68140 215.46691 217.39742 219.44292 221.54043 223.62594
 225.68845 227.77496 229.87446 231.98297 234.11448 236.28899 238.54750 240.92000
 243.54351 245.79702 247.80153 249.56904 250.98854 252.11405 252.93856 253.25707
 253.29657 253.07308 252.43559 251.38610 249.99461 248.15811 246.06962 243.90513
 241.69864 239.50515 237.32765 235.16916 233.03167 230.90118 228.92969 227.08919
 225.37470 223.84921 222.48172 221.25623 220.14073 219.10324 218.20975 217.35326
 216.59777 215.78027 214.88078 214.24729 213.69980 214.16469 215.16672 215.17171
 215.45721 216.72885 217.67915 217.87714 218.82201 221.51758 225.95166 229.74083
 232.58817 235.86690 239.84250 244.27873 248.35921 251.93440 255.23567 258.35492
 261.29221 264.05923 266.66260 269.05646 271.16739 272.88547 274.42429 276.37820
 277.91003 278.95123 280.00507 281.40326 282.63229 283.71964 284.71170 285.61044
 286.41876 287.13858 287.76740 288.56873
 366.78100 356.33985 345.77670 334.64755 323.05540 311.25425 299.12911 286.93696
 274.65381 262.55566 250.56951 239.87536 230.00221 221.11106 213.29791 206.30476
 200.14362 195.08647 191.67332 189.72017 188.76202 188.83087 189.67072 190.98357
 192.71342 194.81327 197.08113 199.44498 201.89483 204.37968 206.47253 208.31938
 209.95023 211.10008 211.33393 211.56678 211.50864 211.21849 210.85634 210.49119
 210.11304 209.82789 209.64074 209.50959 209.44244 209.77829 210.16914 210.56300
 211.36085 212.54370 213.79855 215.58640 217.51925 219.56710 221.66695 223.75480
 225.81965 227.90851 230.01036 232.12121 234.25506 236.43191 238.69276 241.06761
 243.69346 245.94931 247.95616 249.72602 251.14787 252.27572 253.10257 253.42342
 253.46527 253.24412 252.60897 251.56182 250.17267 248.33852 246.25238 244.09023
 241.88608 239.69493 237.51978 235.36363 233.22848 231.10033 229.13118 227.29303
 225.58089 224.05774 222.69259 221.46944 220.35629 219.32114 218.42999 217.57584
 216.82269 216.00754 215.11040 214.47925 213.93410 214.29941 215.10838 215.25571
 215.54131 216.59322 217.54636 217.79768 218.75952 221.46678 225.87801 229.66483
 232.51707 235.83675 239.85350 244.28502 248.34543 251.89693 255.20346 258.34213
 261.28729 264.04868 266.63538 268.99759 271.06320 272.74585 274.22952 276.28198
 277.72232 278.76108 279.81271 281.17081 282.39224 283.47290 284.45883 285.35202
 286.15533 286.87070 287.49561 288.29199
 366.78100 356.34144 345.77989 334.65233 323.06178 311.26222 299.13866 286.94811
 274.66655 262.57000 250.58544 239.89288 230.02133 221.13177 213.32022 206.32866
 200.16910 195.11355 191.70199 189.75044 188.79388 188.86432 189.70577 191.02021
 192.75166 194.85310 197.12254 199.48799 201.93943 204.42588 206.52032 208.36876
 210.00121 211.15265 211.38810 211.62254 211.56598 211.27743 210.91687 210.55332
 210.17676 209.89320 209.70765 209.57809 209.51254 209.84998 210.24242 210.63787
 211.43731 212.62176 213.87820 215.66764 217.60209 219.65153 221.75298 223.84242
 225.90886 227.99931 230.10275 232.21520 234.35064 236.52908 238.79153 241.16797
 243.79542 246.05286 248.06130 249.83275 251.25619 252.38564 253.21408 253.53652
 253.57997 253.36041 252.72686 251.68130 250.29374 248.46119 246.37663 244.21608
 242.01352 239.82396 237.65041 235.49585 233.36230 231.23574 229.26818 227.43163
 225.72107 224.19952 222.83596 221.61440 220.50285 219.46929 218.57974 217.72718
 216.97562 216.16207 215.26651 214.63696 214.09340 214.40894 215.10249 215.22702
 215.56258 216.50465 217.53119 217.89546 218.84583 221.51912 225.90096 229.62090
 232.45532 235.80157 239.86699 244.32291 248.33208 251.85634 255.18604 258.35220
 261.30411 264.06686 266.64493 268.98550 271.03754 272.74832 274.02786 276.19733
 277.66895 278.58054 279.67703 281.05057 282.26984 283.34857 284.33273 285.22433
 286.02625 286.74033 287.36414 288.15912
 366.78100 356.33905 345.77510 334.64515 323.05220 311.25026 299.12431 286.93136
 274.64741 262.54846 250.56151 239.86656 229.99261 221.10066 213.28672 206.29277
 200.13082 195.07287 191.65892 189.70497 188.74602 188.81407 189.65312 190.96518
 192.69423 194.79328 197.06033 199.42338 201.87243 204.35648 206.44853 208.29458
 209.92464 211.07369 211.30674 211.53879 211.47984 211.18889 210.82594 210.45999
 210.08104 209.79510 209.60715 209.47520 209.40725 209.74230 210.13235 210.52540
 211.32245 212.50450 213.75856 215.54561 217.47766 219.52471 221.62376 223.71081
 225.77486 227.86291 229.96396 232.07402 234.20707 236.38312 238.64317 241.01722
 243.64227 245.89732 247.90337 249.67242 251.09348 252.22053 253.04658 253.36663
 253.40768 253.18573 252.54978 251.50183 250.11188 248.27694 246.18999 244.02704
 241.82209 239.63014 237.45419 235.29724 233.16129 231.03234 229.06240 227.22345
 225.51050 223.98655 222.62060 221.39665 220.28270 219.24675 218.35480 217.49986
 216.74591 215.92996 215.03201 214.40006 213.85411 214.33698 215.31049 215.18011
 215.47807 216.61501 217.69038 217.98457 218.79208 221.43010 225.95338 229.54613
 232.36081 235.71156 239.80321 244.20978 248.23395 251.81213 255.15491 258.32220
 261.27438 264.03024 266.58954 268.90347 270.93884 272.63702 274.08365 275.87607
 277.28284 278.87869 280.54178 282.00208 283.26584 284.38394 285.40402 286.32819
 287.15933 287.89951 288.54608 289.37009
 366.78100 356.33720 345.77139 334.63959 323.04479 311.24099 299.11318 286.91838
 274.63258 262.53177 250.54297 239.84617 229.97037 221.07656 213.26076 206.26496
 200.10115 195.04135 191.62555 189.66975 188.70894 188.77514 189.61234 190.92253
 192.64973 194.74693 197.01213 199.37332 201.82052 204.30272 206.39291 208.23711
 209.86531 211.01251 211.24370 211.47390 211.41310 211.12030 210.75549 210.38769
 210.00689 209.71908 209.52928 209.39548 209.32568 209.65887 210.04707 210.43827
 211.23346 212.41366 213.66586 215.45106 217.38125 219.42645 221.52365 223.60884
 225.67104 227.75724 229.85644 231.96463 234.09583 236.27003 238.52822 240.90042
 243.52362 245.77682 247.78101 249.54821 250.96741 252.09260 252.91680 253.23500
 253.27420 253.05039 252.41259 251.36279 249.97098 248.13418 246.04538 243.88058
 241.67377 239.47997 237.30217 235.14336 233.00556 230.87476 228.90296 227.06215
 225.34735 223.82155 222.45374 221.22794 220.11214 219.07434 218.18053 217.32373
 216.56793 215.75012 214.85032 214.21652 213.66872 214.29106 215.48776 215.19145
 215.19304 216.51892 217.67625 218.05144 218.91685 221.41397 225.93135 229.52007
 232.32428 235.71602 239.84344 244.23357 248.24826 251.86269 255.23352 258.38443
 261.31192 264.04016 266.57080 268.84064 270.87555 272.58752 274.25681 275.93283
 277.83908 279.47302 280.88690 282.12842 283.20285 284.15341 285.02069 285.80637
 286.51300 287.14227 287.69199 288.39252
 366.78100 356.33990 345.77680 334.64769 323.05559 311.25449 299.12939 286.93728
 274.65418 262.55608 250.56998 239.87587 230.00277 221.11167 213.29857 206.30546
 200.14436 195.08726 191.67416 189.72106 188.76295 188.83185 189.67175 190.98465
 192.71454 194.81444 197.08234 199.44624 201.89613 204.38103 206.47393 208.32083
 209.95173 211.10162 211.33552 211.56842 211.51032 211.22021 210.85811 210.49301
 210.11491 209.82980 209.64270 209.51160 209.44450 209.78039 210.17129 210.56519
 211.36309 212.54599 213.80088 215.58878 217.52168 219.56958 221.66947 223.75737
 225.82227 227.91117 230.01306 232.12396 234.25786 236.43476 238.69566 241.07055
 243.69645 245.95235 247.95925 249.72914 251.15104 252.27894 253.10584 253.42673
 253.46863 253.24753 252.61243 251.56532 250.17622 248.34212 246.25602 244.09392
 241.88981 239.69871 237.52361 235.36751 233.23240 231.10430 229.13520 227.29710
 225.58499 224.06189 222.69679 221.47369 220.36059 219.32548 218.43438 217.58028
 216.82718 216.01207 215.11497 214.48387 213.93877 214.43738 215.50325 215.36266
 214.87990 215.98851 217.32034 217.99515 219.04144 221.64565 226.07274 229.69672
 232.46643 235.83006 239.94189 244.31480 248.36694 251.99330 255.36446 258.50745
 261.42883 264.16321 266.69086 268.95547 270.88766 272.63629 274.28262 275.61053
 276.76047 277.74612 278.59903 279.34796 279.99609 280.56955 281.09271 281.56665
 281.99295 282.37253 282.70413 283.12674
 366.78100 356.34119 345.77938 334.65157 323.06077 311.26096 299.13715 286.94634
 274.66453 262.56772 250.58291 239.89010 230.01830 221.12849 213.31668 206.32487
 200.16506 195.10925 191.69744 189.74563 188.78883 188.85902 189.70021 191.01440
 192.74559 194.84678 197.11597 199.48117 201.93236 204.41855 206.51274 208.36093
 209.99312 211.14431 211.37950 211.61370 211.55689 211.26808 210.90727 210.54346
 210.16665 209.88284 209.69703 209.56723 209.50142 209.83861 210.23080 210.62599
 211.42518 212.60937 213.86557 215.65476 217.58895 219.63814 221.73933 223.82852
 225.89471 227.98490 230.08810 232.20029 234.33548 236.51367 238.77586 241.15205
 243.77924 246.03643 248.04463 249.81582 251.23901 252.36820 253.19639 253.51858
 253.56177 253.34197 252.70816 251.66235 250.27454 248.44173 246.35692 244.19611
 241.99330 239.80350 237.62969 235.47488 233.34107 231.21426 229.24645 227.40964
 225.69883 224.17703 222.81322 221.59141 220.47960 219.44579 218.55598 217.70317
 216.95137 216.13756 215.24175 214.61194 214.06813 214.52818 215.52319 215.50374
 214.89114 215.71072 216.98022 217.66078 218.88721 221.65128 226.10268 229.73853
 232.52855 235.91670 240.02466 244.40161 248.45419 252.07895 255.43987 258.59409
 261.52927 264.28333 266.84409 269.12183 271.09406 272.76328 274.31738 275.75342
 276.99982 278.06818 278.99268 279.80444 280.50696 281.12851 281.69556 282.20929
 282.67133 283.08276 283.44220 283.90027
 366.78100 356.34032 345.77764 334.64897 323.05729 311.25661 299.13193 286.94025
 274.65758 262.55990 250.57422 239.88054 230.00786 221.11719 213.30451 206.31183
 200.15115 195.09447 191.68180 189.72912 188.77144 188.84076 189.68108 190.99441
 192.72473 194.82505 197.09337 199.45769 201.90802 204.39334 206.48666 208.33398
 209.96530 211.11563 211.34995 211.58327 211.52559 211.23591 210.87424 210.50956
 210.13188 209.84720 209.66052 209.52985 209.46317 209.79949 210.19081 210.58513
 211.38346 212.56678 213.82210 215.61042 217.54374 219.59207 221.69239 223.78071
 225.84603 227.93535 230.03768 232.14900 234.28332 236.46064 238.72196 241.09729
 243.72361 245.97993 247.98725 249.75757 251.17990 252.30822 253.13554 253.45686
 253.49918 253.27851 252.64383 251.59715 250.20847 248.37479 246.28912 244.12744
 241.92376 239.73308 237.55840 235.40273 233.26805 231.14037 229.17169 227.33402
 225.62234 224.09966 222.73498 221.51230 220.39963 219.36495 218.47427 217.62059
 216.86791 216.05324 215.15656 214.52588 213.98120 214.51837 215.62602 215.48947
 214.91005 215.72034 216.81157 217.38841 218.75252 221.62608 226.08301 229.72293
 232.52740 235.95891 240.08983 244.46399 248.50421 252.12000 255.47203 258.61755
 261.54230 264.29660 266.88184 269.18289 271.22137 272.97925 274.90933 278.10510
 280.87891 283.25647 285.31384 287.12039 288.68381 290.06702 291.32898 292.47226
 293.50049 294.41614 295.21603 296.23541
 366.78100 356.33989 345.77678 334.64767 323.05556 311.25445 299.12934 286.93724
 274.65413 262.55602 250.56991 239.87580 230.00269 221.11158 213.29847 206.30536
 200.14425 195.08714 191.67403 189.72093 188.76282 188.83171 189.67160 190.98449
 192.71438 194.81427 197.08216 199.44605 201.89594 204.38083 206.47372 208.32061
 209.95151 211.10140 211.33529 211.56818 211.51007 211.21996 210.85785 210.49274
 210.11463 209.82952 209.64241 209.51130 209.44420 209.78009 210.17098 210.56487
 211.36276 212.54565 213.80054 215.58843 217.52132 219.56921 221.66910 223.75699
 225.82188 227.91078 230.01267 232.12356 234.25745 236.43434 238.69523 241.07012
 243.69601 245.95190 247.95879 249.72868 251.15057 252.27847 253.10536 253.42625
 253.46814 253.24703 252.61192 251.56481 250.17570 248.34159 246.25548 244.09337
 241.88926 239.69815 237.52305 235.36694 233.23183 231.10372 229.13461 227.29650
 225.58439 224.06128 222.69617 221.47306 220.35995 219.32484 218.43374 217.57963
 216.82652 216.01141 215.11430 214.48319 213.93808 214.52162 215.73759 215.51884
 214.79407 215.62454 216.63834 217.20010 218.67972 221.64069 226.08028 229.72858
 232.55875 236.02354 240.14848 244.51448 248.55624 252.18285 255.54236 258.68607
 261.59573 264.32065 266.88736 269.18646 271.24652 273.04950 275.57858 278.90421
 281.79071 284.26489 286.40588 288.28586 289.91278 291.35220 292.66547 293.85516
 294.92520 295.87805 296.71045 297.77124
 366.78100 356.33928 345.77555 334.64583 323.05310 311.25138 299.12565 286.93293
 274.64920 262.55048 250.56375 239.86903 229.99530 221.10358 213.28985 206.29613
 200.13440 195.07668 191.66295 189.70923 188.75051 188.81878 189.65806 190.97033
 192.69961 194.79888 197.06616 199.42943 201.87871 204.36298 206.45526 208.30153
 209.93181 211.08108 211.31436 211.54663 211.48791 211.19718 210.83446 210.46874
 210.09001 209.80429 209.61656 209.48484 209.41711 209.75239 210.14266 210.53594
 211.33321 212.51549 213.76976 215.55704 217.48931 219.53659 221.63586 223.72314
 225.78741 227.87569 229.97697 232.08724 234.22052 236.39679 238.65707 241.03134
 243.65662 245.91189 247.91817 249.68744 251.10872 252.23599 253.06227 253.38254
 253.42382 253.20209 252.56637 251.51864 250.12892 248.29419 246.20747 244.04475
 241.84002 239.64830 237.47257 235.31585 233.18012 231.05140 229.08167 227.24295
 225.53022 224.00650 222.64077 221.41705 220.30332 219.26760 218.37587 217.52115
 216.76742 215.95170 215.05398 214.42225 213.87653 214.51588 215.82791 215.59450
 214.75670 215.45013 216.43620 217.01093 218.60219 221.66882 226.11833 229.74564
 232.55197 236.04251 240.19760 244.57344 248.61641 252.25725 255.64178 258.79437
 261.70419 264.44196 267.03174 269.34653 271.40588 273.31674 275.87784 278.93137
 281.68018 284.03632 286.07520 287.86545 289.41479 290.78552 292.03613 293.16910
 294.18808 295.09546 295.88815 296.89835
 366.78100 356.33868 345.77437 334.64405 323.05073 311.24842 299.12210 286.92878
 274.64447 262.54515 250.55783 239.86252 229.98820 221.09588 213.28157 206.28725
 200.12493 195.06661 191.65230 189.69798 188.73866 188.80635 189.64503 190.95671
 192.68540 194.78408 197.05076 199.41345 201.86213 204.34581 206.43750 208.28318
 209.91286 211.06155 211.29423 211.52591 211.46660 211.17528 210.81196 210.44565
 210.06633 209.78001 209.59170 209.45938 209.39106 209.72574 210.11543 210.50811
 211.30479 212.48648 213.74016 215.52684 217.45853 219.50521 221.60389 223.69058
 225.75426 227.84194 229.94263 232.05231 234.18499 236.36068 238.62036 240.99404
 243.61873 245.87341 247.87909 249.64778 251.06846 252.19514 253.02083 253.34051
 253.38119 253.15887 252.52256 251.47424 250.08392 248.24861 246.16129 243.99797
 241.79266 239.60034 237.42402 235.26671 233.13039 231.00107 229.03076 227.19144
 225.47812 223.95381 222.58749 221.36317 220.24886 219.21254 218.32022 217.46491
 216.71059 215.89427 214.99596 214.36364 213.81732 214.50124 215.90640 215.69235
 214.86963 215.31735 216.18988 216.75417 218.46608 221.72035 226.10667 229.79301
 232.67624 236.16991 240.26088 244.59438 248.64842 252.23563 255.59134 258.72220
 261.63568 264.38950 266.99463 269.36020 271.52911 273.63333 275.93301 278.35577
 280.79150 282.94861 284.81522 286.45422 287.87268 289.12762 290.27258 291.30981
 292.24271 293.07346 293.79916 294.72403
 366.78100 356.33929 345.77558 334.64587 323.05316 311.25145 299.12574 286.93303
 274.64932 262.55061 250.56390 239.86919 229.99548 221.10377 213.29006 206.29635
 200.13464 195.07693 191.66322 189.70951 188.75080 188.81909 189.65838 190.97067
 192.69997 194.79926 197.06655 199.42984 201.87913 204.36342 206.45571 208.30200
 209.93229 211.08158 211.31487 211.54716 211.48845 211.19774 210.83503 210.46932
 210.09061 209.80490 209.61719 209.48548 209.41777 209.75306 210.14335 210.53664
 211.33393 212.51622 213.77051 215.55780 217.49009 219.53738 221.63667 223.72396
 225.78825 227.87654 229.97783 232.08812 234.22141 236.39770 238.65799 241.03228
 243.65757 245.91286 247.91915 249.68844 251.10973 252.23702 253.06331 253.38361
 253.42490 253.20319 252.56748 251.51977 250.13006 248.29535 246.20864 244.04593
 241.84122 239.64951 237.47380 235.31709 233.18138 231.05267 229.08296 227.24425
 225.53154 224.00783 222.64212 221.41841 220.30470 219.26899 218.37728 217.52257
 216.76886 215.95315 215.05544 214.42373 213.87802 214.54285 215.94293 215.80011
 214.90880 215.24739 216.04710 216.49603 218.27679 221.70982 226.05959 229.75162
 232.64316 236.15590 240.26346 244.59694 248.63304 252.25035 255.61188 258.72299
 261.59802 264.31665 266.88681 269.19247 271.36777 273.53027 275.78113 278.04559
 280.23090 282.25824 284.01257 285.55298 286.88611 288.06555 289.14163 290.11649
 290.99326 291.77405 292.45609 293.32532
 366.78100 356.34023 345.77747 334.64870 323.05694 311.25617 299.13141 286.93964
 274.65688 262.55911 250.57335 239.87958 230.00682 221.11605 213.30329 206.31052
 200.14976 195.09299 191.68023 189.72746 188.76970 188.83893 189.67917 190.99240
 192.72264 194.82287 197.09111 199.45534 201.90558 204.39081 206.48405 208.33128
 209.96252 211.11275 211.34699 211.58022 211.52246 211.23269 210.87093 210.50616
 210.12840 209.84363 209.65687 209.52610 209.45933 209.79557 210.18680 210.58104
 211.37927 212.56251 213.81774 215.60598 217.53921 219.58745 221.68768 223.77592
 225.84115 227.93039 230.03262 232.14386 234.27809 236.45533 238.71656 241.09180
 243.71803 245.97427 247.98150 249.75174 251.17397 252.30221 253.12944 253.45068
 253.49291 253.27215 252.63738 251.59062 250.20185 248.36809 246.28232 244.12056
 241.91679 239.72603 237.55126 235.39550 233.26073 231.13297 229.16420 227.32643
 225.61467 224.09190 222.72714 221.50437 220.39161 219.35684 218.46608 217.61231
 216.85955 216.04478 215.14802 214.51725 213.97249 214.61035 215.95720 215.83093
 214.87598 215.14532 215.96208 216.48259 218.28860 221.64062 226.05067 229.67133
 232.58559 236.13342 240.27737 244.65320 248.71739 252.37361 255.77400 258.89941
 261.76266 264.44766 266.96213 269.21814 271.35233 273.49710 275.70285 278.11761
 280.57285 282.73447 284.60498 286.24744 287.66885 288.92642 290.07379 291.11319
 292.04803 292.88052 293.60776 294.53455
 366.78100 356.34067 345.77834 334.65001 323.05868 311.25835 299.13402 286.94269
 274.66036 262.56303 250.57770 239.88437 230.01204 221.12171 213.30938 206.31705
 200.15672 195.10039 191.68806 189.73573 188.77840 188.84807 189.68874 191.00241
 192.73308 194.83375 197.10242 199.46709 201.91776 204.40343 206.49710 208.34477
 209.97644 211.12711 211.36178 211.59545 211.53812 211.24879 210.88746 210.52313
 210.14580 209.86147 209.67514 209.54481 209.47848 209.81515 210.20682 210.60149
 211.40016 212.58383 213.83950 215.62817 217.56184 219.61051 221.71118 223.79985
 225.86552 227.95519 230.05786 232.16953 234.30420 236.48187 238.74354 241.11921
 243.74588 246.00255 248.01022 249.78089 251.20356 252.33223 253.15990 253.48157
 253.52424 253.30391 252.66958 251.62325 250.23492 248.40159 246.31627 244.15494
 241.95161 239.76128 237.58695 235.43162 233.29729 231.16996 229.20163 227.36430
 225.65297 224.13064 222.76631 221.54398 220.43165 219.39732 218.50699 217.65366
 216.90133 216.08700 215.19067 214.56034 214.01601 214.65089 215.98636 215.87067
 214.86980 214.99803 215.81113 216.38760 218.25598 221.64011 226.07915 229.65820
 232.57080 236.14029 240.31351 244.72110 248.80391 252.49478 255.91621 259.04559
 261.89825 264.56476 267.05426 269.27548 271.39276 273.52014 275.77426 278.23920
 280.75232 282.95645 284.86377 286.53854 287.98792 289.27020 290.44012 291.50000
 292.45325 293.30209 294.04364 294.98865
 366.78100 356.34171 345.78042 334.65314 323.06285 311.26356 299.14027 286.94998
 274.66869 262.57241 250.58812 239.89583 230.02454 221.13525 213.32396 206.33268
 200.17339 195.11810 191.70681 189.75552 188.79924 188.86995 189.71166 191.02637
 192.75808 194.85979 197.12951 199.49522 201.94693 204.43364 206.52835 208.37707
 210.00978 211.16149 211.39720 211.63191 211.57562 211.28734 210.92705 210.56376
 210.18747 209.90418 209.71889 209.58961 209.52432 209.86203 210.25474 210.65045
 211.45017 212.63488 213.89159 215.68130 217.61601 219.66572 221.76744 223.85715
 225.92386 228.01457 230.11828 232.23100 234.36671 236.54542 238.80813 241.18484
 243.81255 246.07027 248.07898 249.85069 251.27440 252.40411 253.23282 253.55554
 253.59925 253.37996 252.74667 251.70138 250.31410 248.48181 246.39752 244.23723
 242.03494 239.84565 237.67237 235.51808 233.38479 231.25850 229.29121 227.45493
 225.74464 224.22335 222.86006 221.63877 220.52748 219.49420 218.60491 217.75262
 217.00133 216.18804 215.29275 214.66347 214.12018 214.71188 215.99142 215.97600
 214.92105 214.85612 215.59723 216.22626 218.16888 221.62895 226.07095 229.62051
 232.53197 236.12724 240.32970 244.74309 248.83395 252.54112 255.96117 259.09164
 261.94113 264.59738 267.07089 269.28320 271.43448 273.55737 275.73483 278.16214
 280.61877 282.82956 284.74265 286.42245 287.87619 289.16235 290.33582 291.39886
 292.35498 293.20639 293.95016 294.89804
 366.78100 356.34321 345.78342 334.65763 323.06884 311.27105 299.14925 286.96046
 274.68067 262.58588 250.60309 239.91230 230.04251 221.15472 213.34493 206.35514
 200.19735 195.14356 191.73376 189.78397 188.82918 188.90139 189.74460 191.06081
 192.79402 194.89723 197.16844 199.53565 201.98886 204.47706 206.57327 208.42348
 210.05769 211.21090 211.44811 211.68432 211.62953 211.34274 210.98395 210.62216
 210.24737 209.96557 209.78178 209.65399 209.59020 209.92941 210.32362 210.72083
 211.52204 212.70825 213.96646 215.75767 217.69387 219.74508 221.84829 223.93950
 226.00771 228.09992 230.20513 232.31934 234.45655 236.63676 238.90097 241.27918
 243.90838 246.16759 248.17780 249.95101 251.37622 252.50743 253.33764 253.66185
 253.70706 253.48927 252.85748 251.81368 250.42789 248.59710 246.51431 244.35552
 242.15473 239.96694 237.79515 235.64236 233.51057 231.38578 229.41998 227.58519
 225.87640 224.35661 222.99482 221.77503 220.66524 219.63345 218.74566 217.89487
 217.14508 216.33329 215.43949 214.81170 214.26991 214.78949 215.96893 216.10916
 214.97719 214.68289 215.33253 216.01236 218.05283 221.63837 226.08481 229.62433
 232.53156 236.14630 240.37418 244.79573 248.90431 252.63609 256.05386 259.18845
 262.04105 264.69449 267.16620 269.38715 271.53918 273.65399 275.65131 277.99829
 280.34335 282.60526 284.56256 286.28122 287.76859 289.08450 290.28510 291.37274
 292.35095 293.22208 293.98306 294.95285
 366.78100 356.34418 345.78536 334.66054 323.07272 311.27590 299.15508 286.96726
 274.68844 262.59462 250.61281 239.92299 230.05417 221.16735 213.35853 206.36971
 200.21289 195.16007 191.75125 189.80243 188.84861 188.92179 189.76597 191.08315
 192.81733 194.92151 197.19369 199.56187 202.01605 204.50523 206.60242 208.45360
 210.08878 211.24296 211.48114 211.71832 211.66450 211.37868 211.02086 210.66004
 210.28622 210.00540 209.82258 209.69576 209.63294 209.97312 210.36830 210.76648
 211.56866 212.75584 214.01503 215.80721 217.74439 219.79657 221.90075 223.99293
 226.06211 228.15529 230.26147 232.37665 234.51483 236.69601 238.96119 241.34037
 243.97055 246.23073 248.24191 250.01609 251.44227 252.57445 253.40564 253.73082
 253.77700 253.56018 252.92936 251.88654 250.50172 248.67190 246.59008 244.43226
 242.23244 240.04562 237.87480 235.72298 233.59216 231.46834 229.50352 227.66970
 225.96188 224.44306 223.08225 221.86343 220.75461 219.72379 218.83697 217.98715
 217.23833 216.42751 215.53469 214.90787 214.36705 214.84186 215.95137 216.23482
 215.12094 214.54184 214.99341 215.75896 217.88286 221.61102 226.05547 229.61920
 232.54097 236.18909 240.44727 244.88962 249.02432 252.77127 256.19559 259.33075
 262.18942 264.85089 267.34378 269.57007 271.69473 273.82382 275.64969 277.66522
 279.80545 281.92551 283.76273 285.37595 286.77203 288.00720 289.13412 290.15503
 291.07324 291.89090 292.60519 293.51547
 366.78100 356.34569 345.78838 334.66508 323.07877 311.28346 299.16415 286.97785
 274.70054 262.60823 250.62792 239.93961 230.07231 221.18700 213.37969 206.39238
 200.23708 195.18577 191.77846 189.83115 188.87884 188.95354 189.79923 191.11792
 192.85361 194.95930 197.23300 199.60269 202.05838 204.54907 206.64777 208.50046
 210.13715 211.29284 211.53253 211.77123 211.71892 211.43461 211.07830 210.71900
 210.34669 210.06738 209.88607 209.76076 209.69946 210.04115 210.43784 210.83753
 211.64123 212.82992 214.09061 215.88430 217.82299 219.87669 221.98238 224.07607
 226.14676 228.24145 230.34915 232.46584 234.60553 236.78822 239.05492 241.43561
 244.06730 246.32899 248.34168 250.11738 251.54507 252.67876 253.51145 253.83815
 253.88584 253.67053 253.04122 251.99991 250.61661 248.78830 246.70799 244.55168
 242.35338 240.16807 237.99876 235.84845 233.71914 231.59684 229.63353 227.80122
 226.09491 224.57760 223.21830 222.00099 220.89368 219.86437 218.97907 218.13076
 217.38345 216.57414 215.68283 215.05753 214.51822 214.92575 215.90506 216.29335
 215.33015 214.57253 214.76768 215.42674 217.63237 221.43748 225.92041 229.49896
 232.47021 236.19057 240.50391 244.98215 249.15071 252.93251 256.37814 259.51492
 262.36609 265.03262 267.53732 269.77875 271.88177 273.93799 275.68738 277.56903
 279.79410 282.01062 283.92868 285.61288 287.07040 288.35995 289.53644 290.60229
 291.56088 292.41452 293.16025 294.11057
 366.78100 356.34663 345.79027 334.66790 323.08253 311.28817 299.16980 286.98443
 274.70806 262.61670 250.63733 239.94996 230.08360 221.19923 213.39286 206.40650
 200.25213 195.20176 191.79539 189.84903 188.89766 188.97329 189.81993 191.13956
 192.87619 194.98283 197.25746 199.62809 202.08473 204.57636 206.67599 208.52962
 210.16726 211.32389 211.56452 211.80416 211.75279 211.46942 211.11406 210.75569
 210.38432 210.10595 209.92559 209.80122 209.74085 210.08349 210.48112 210.88175
 211.68639 212.87602 214.13765 215.93229 217.87192 219.92655 222.03318 224.12782
 226.19945 228.29508 230.40372 232.52135 234.66198 236.84562 239.11325 241.49488
 244.12751 246.39015 248.40378 250.18041 251.60905 252.74368 253.57731 253.90495
 253.95358 253.73921 253.11085 252.07048 250.68811 248.86074 246.78138 244.62601
 242.42864 240.24428 238.07591 235.92654 233.79818 231.67681 229.71444 227.88308
 226.17771 224.66134 223.30297 222.08661 220.98024 219.95187 219.06751 218.22014
 217.47377 216.66541 215.77504 215.15067 214.61230 214.98520 215.86925 216.26820
 215.53763 214.71648 214.68706 215.23509 217.43837 221.28252 225.73418 229.33661
 232.35728 236.15822 240.53632 245.04848 249.24268 253.04869 256.50726 259.64832
 262.50787 265.19345 267.73868 270.01227 272.10757 274.13367 275.85349 277.64273
 279.85156 282.09961 284.04489 285.75302 287.23123 288.53909 289.73230 290.81329
 291.78549 292.65125 293.40756 294.37140
 366.78100 356.34592 345.78884 334.66576 323.07968 311.28459 299.16551 286.97943
 274.70235 262.61027 250.63019 239.94211 230.07503 221.18994 213.38286 206.39578
 200.24070 195.18962 191.78254 189.83546 188.88338 188.95829 189.80421 191.12313
 192.85905 194.96497 197.23889 199.60881 202.06473 204.55564 206.65456 208.50748
 210.14440 211.30032 211.54024 211.77916 211.72708 211.44299 211.08691 210.72783
 210.35575 210.07667 209.89559 209.77051 209.70943 210.05135 210.44826 210.84818
 211.65210 212.84102 214.10194 215.89586 217.83478 219.88870 221.99461 224.08853
 226.15945 228.25437 230.36229 232.47921 234.61913 236.80205 239.06896 241.44988
 244.08180 246.34372 248.35664 250.13256 251.56048 252.69440 253.52731 253.85423
 253.90215 253.68707 253.05799 252.01691 250.63383 248.80575 246.72567 244.56958
 242.37150 240.18642 238.01734 235.86726 233.73818 231.61610 229.65302 227.82093
 226.11485 224.59777 223.23869 222.02161 220.91453 219.88545 219.00037 218.15228
 217.40520 216.59612 215.70504 215.07996 214.54088 214.95811 215.89346 216.19487
 215.70988 214.92447 214.73911 215.22809 217.34781 221.14401 225.49416 229.16061
 232.21339 236.09802 240.53386 245.05324 249.24435 253.02734 256.47037 259.62375
 262.51410 265.24591 267.84467 270.18408 272.32114 274.34476 276.10068 277.69247
 279.74011 281.75586 283.62457 285.26544 286.68549 287.94183 289.08810 290.12650
 291.06046 291.89212 292.61865 293.54456
 366.78100 356.34497 345.78695 334.66292 323.07589 311.27987 299.15984 286.97281
 274.69479 262.60176 250.62074 239.93171 230.06368 221.17766 213.36963 206.38160
 200.22558 195.17355 191.76552 189.81750 188.86447 188.93844 189.78342 191.10139
 192.83636 194.94134 197.21431 199.58328 202.03826 204.52823 206.62621 208.47818
 210.11415 211.26913 211.50810 211.74607 211.69305 211.40802 211.05099 210.69097
 210.31794 210.03791 209.85589 209.72986 209.66783 210.00881 210.40478 210.80375
 211.60673 212.79470 214.05468 215.84765 217.78562 219.83860 221.94357 224.03654
 226.10652 228.20049 230.30746 232.42344 234.56241 236.74438 239.01036 241.39033
 244.02130 246.28228 248.29425 250.06922 251.49620 252.62917 253.46115 253.78712
 253.83409 253.61807 252.98804 251.94601 250.56199 248.73296 246.65193 244.49491
 242.29588 240.10985 237.93983 235.78880 233.65877 231.53575 229.57172 227.73869
 226.03167 224.51364 223.15362 221.93559 220.82756 219.79754 218.91151 218.06248
 217.31446 216.50443 215.61240 214.98638 214.44635 214.91086 215.92896 216.11607
 215.80939 215.13969 214.83090 215.16396 217.24826 220.96898 225.28044 228.99821
 232.04779 236.03470 240.54457 245.08194 249.26552 253.02124 256.43213 259.57159
 262.48550 265.25211 267.90729 270.30792 272.48087 274.50818 276.26868 277.72223
 279.48593 281.23752 282.93176 284.47849 285.81705 287.00134 288.08182 289.06067
 289.94104 290.72501 291.40985 292.28262
 366.78100 356.34485 345.78669 334.66254 323.07538 311.27923 299.15907 286.97192
 274.69376 262.60061 250.61945 239.93030 230.06214 221.17599 213.36783 206.37968
 200.22353 195.17137 191.76322 189.81506 188.86191 188.93575 189.78060 191.09844
 192.83329 194.93813 197.21098 199.57982 202.03467 204.52451 206.62236 208.47421
 210.11005 211.26490 211.50374 211.74159 211.68843 211.40328 211.04612 210.68597
 210.31281 210.03266 209.85050 209.72435 209.66219 210.00304 210.39889 210.79773
 211.60058 212.78842 214.04827 215.84111 217.77896 219.83180 221.93665 224.02949
 226.09934 228.19318 230.30003 232.41587 234.55472 236.73656 239.00241 241.38226
 244.01310 246.27395 248.28579 250.06064 251.48748 252.62033 253.45217 253.77802
 253.82486 253.60871 252.97855 251.93640 250.55224 248.72309 246.64194 244.48478
 242.28563 240.09947 237.92932 235.77816 233.64801 231.52485 229.56070 227.72754
 226.02039 224.50223 223.14208 221.92392 220.81577 219.78562 218.89946 218.05031
 217.30215 216.49200 215.59984 214.97369 214.43353 214.89601 215.92471 216.07689
 215.83794 215.24142 214.85246 215.10249 217.12115 220.81110 225.15947 228.87224
 232.01057 236.04288 240.59669 245.15718 249.34250 253.06229 256.41846 259.52505
 262.44196 265.24493 267.94266 270.40942 272.63013 274.65610 276.41788 277.83395
 279.22192 280.77161 282.25366 283.67999 284.97516 286.12106 287.16653 288.11365
 288.96545 289.72400 290.38666 291.23114
 366.78100 356.34523 345.78745 334.66368 323.07690 311.28113 299.16135 286.97458
 274.69680 262.60403 250.62325 239.93448 230.06671 221.18093 213.37316 206.38538
 200.22961 195.17783 191.77006 189.82228 188.86951 188.94373 189.78896 191.10718
 192.84241 194.94764 197.22086 199.59009 202.04531 204.53554 206.63376 208.48599
 210.12221 211.27744 211.51666 211.75489 211.70212 211.41734 211.06057 210.70079
 210.32802 210.04824 209.86647 209.74069 209.67892 210.02014 210.41637 210.81559
 211.61882 212.80705 214.06727 215.86050 217.79872 219.85195 221.95717 224.05040
 226.12062 228.21485 230.32207 232.43830 234.57753 236.75975 239.02598 241.40620
 244.03743 246.29865 248.31088 250.08610 251.51333 252.64655 253.47878 253.80501
 253.85223 253.63646 253.00668 251.96491 250.58113 248.75236 246.67158 244.51481
 242.31603 240.13026 237.96048 235.80971 233.67994 231.55716 229.59339 227.76061
 226.05384 224.53606 223.17629 221.95851 220.85074 219.82096 218.93519 218.08642
 217.33864 216.52887 215.63709 215.01132 214.47154 214.90237 215.88553 216.10138
 215.83891 215.25450 214.79448 214.97275 216.94376 220.67192 225.11177 228.76559
 232.02760 236.07062 240.64629 245.20287 249.37398 253.08202 256.40509 259.47003
 262.36215 265.17856 267.91855 270.44174 272.69812 274.71985 276.46524 277.89142
 279.14551 280.47375 281.80576 283.07193 284.24341 285.35611 286.37128 287.29095
 288.11807 288.85468 289.49811 290.31812
 366.78100 356.34602 345.78905 334.66607 323.08010 311.28512 299.16615 286.98017
 274.70319 262.61122 250.63124 239.94327 230.07629 221.19132 213.38434 206.39737
 200.24239 195.19141 191.78444 189.83746 188.88549 188.96051 189.80654 191.12556
 192.86158 194.96761 197.24163 199.61166 202.06768 204.55871 206.65773 208.51076
 210.14778 211.30380 211.54383 211.78285 211.73088 211.44690 211.09093 210.73195
 210.35997 210.08100 209.90002 209.77505 209.71407 210.05610 210.45312 210.85315
 211.65717 212.84619 214.10722 215.90124 217.84027 219.89429 222.00032 224.09434
 226.16536 228.26039 230.36841 232.48544 234.62546 236.80849 239.07551 241.45654
 244.08856 246.35058 248.36361 250.13963 251.56766 252.70168 253.53471 253.86173
 253.90975 253.69478 253.06580 252.02483 250.64185 248.81388 246.73390 244.57793
 242.37995 240.19497 238.02600 235.87602 233.74705 231.62507 229.66210 227.83012
 226.12414 224.60717 223.24819 222.03122 220.92424 219.89527 219.01029 218.16232
 217.41534 216.60636 215.71539 215.09041 214.55144 214.93068 215.81369 216.16945
 215.86403 215.23619 214.70056 214.80574 216.78238 220.56682 225.07005 228.66911
 232.01279 236.08694 240.70224 245.26996 249.44208 253.12747 256.42288 259.46536
 262.34033 265.15625 267.92148 270.49161 272.76212 274.75018 276.43790 277.83578
 279.06897 280.27954 281.52927 282.69446 283.74603 284.77945 285.78455 286.69510
 287.51404 288.24329 288.88037 289.69223
 366.78100 356.34729 345.79158 334.66987 323.08516 311.29145 299.17374 286.98903
 274.71332 262.62261 250.64390 239.95719 230.09148 221.20777 213.40206 206.41635
 200.26264 195.21293 191.80722 189.86151 188.91080 188.98709 189.83438 191.15467
 192.89195 194.99924 197.27453 199.64582 202.10311 204.59540 206.69569 208.54998
 210.18827 211.34556 211.58685 211.82714 211.77643 211.49372 211.13901 210.78130
 210.41059 210.13288 209.95317 209.82946 209.76975 210.11304 210.51133 210.91262
 211.71791 212.90820 214.17049 215.96578 217.90607 219.96136 222.06865 224.16394
 226.23623 228.33252 230.44181 232.56010 234.70139 236.88568 239.15397 241.53626
 244.16955 246.43284 248.44713 250.22442 251.65371 252.78900 253.62328 253.95157
 254.00086 253.78715 253.15944 252.11973 250.73802 248.91131 246.83260 244.67789
 242.48118 240.29747 238.12976 235.98105 233.85334 231.73263 229.77092 227.94021
 226.23550 224.71979 223.36208 222.14637 221.04066 220.01295 219.12924 218.28253
 217.53682 216.72911 215.83940 215.21569 214.67798 214.98947 215.72549 216.19955
 215.95477 215.28133 214.69325 214.75735 216.72334 220.49065 224.96892 228.59573
 231.95247 236.10393 240.75500 245.33459 249.50470 253.17603 256.45587 259.49200
 262.34787 265.15781 267.94553 270.55823 272.85059 274.80502 276.42194 277.75873
 278.96115 280.13577 281.23984 282.27045 283.39609 284.47919 285.50452 286.43335
 287.26877 288.01270 288.66257 289.49075
 366.78100 356.34859 345.79418 334.67377 323.09037 311.29796 299.18155 286.99814
 274.72373 262.63432 250.65692 239.97151 230.10710 221.22469 213.42028 206.43587
 200.28347 195.23506 191.83065 189.88624 188.93683 189.01442 189.86302 191.18461
 192.92320 195.03179 197.30838 199.68097 202.13957 204.63316 206.73475 208.59034
 210.22993 211.38852 211.63112 211.87271 211.82330 211.54189 211.18848 210.83207
 210.46267 210.18626 210.00785 209.88544 209.82703 210.17162 210.57122 210.97381
 211.78040 212.97199 214.23558 216.03217 217.97377 220.03036 222.13895 224.23554
 226.30913 228.40672 230.51732 232.63691 234.77950 236.96509 239.23468 241.61827
 244.25287 246.51746 248.53305 250.31164 251.74223 252.87882 253.71442 254.04401
 254.09460 253.88219 253.25578 252.21737 250.83697 249.01156 246.93415 244.78074
 242.58533 240.40292 238.23652 236.08911 233.96270 231.84329 229.88288 228.05347
 226.35007 224.83566 223.47925 222.26484 221.16043 220.13402 219.25162 218.40621
 217.66180 216.85539 215.96698 215.34457 214.80817 215.05447 215.65047 216.18585
 216.05663 215.34996 214.73422 214.79247 216.74443 220.44438 224.87445 228.53845
 231.88649 236.12457 240.81046 245.41115 249.57729 253.23415 256.49649 259.53311
 262.37604 265.18805 267.98877 270.62653 272.93320 274.86884 276.41458 277.69901
 278.86691 279.95901 280.87936 282.02466 283.26062 284.43723 285.51068 286.48318
 287.35782 288.13672 288.81711 289.68423
 366.78100 356.34909 345.79519 334.67528 323.09238 311.30047 299.18456 287.00166
 274.72775 262.63885 250.66194 239.97703 230.11313 221.23122 213.42732 206.44341
 200.29150 195.24360 191.83969 189.89579 188.94688 189.02497 189.87407 191.19616
 192.93526 195.04435 197.32144 199.69454 202.15363 204.64773 206.74982 208.60591
 210.24601 211.40510 211.64820 211.89029 211.84138 211.56048 211.20757 210.85167
 210.48276 210.20685 210.02895 209.90704 209.84914 210.19423 210.59432 210.99742
 211.80451 212.99661 214.26070 216.05779 217.99989 220.05698 222.16608 224.26317
 226.33726 228.43536 230.54645 232.66655 234.80964 236.99573 239.26583 241.64992
 244.28502 246.55011 248.56620 250.34530 251.77639 252.91348 253.74958 254.07967
 254.13077 253.91886 253.29295 252.25505 250.87514 249.05024 246.97333 244.82042
 242.62552 240.44361 238.27771 236.13080 234.00489 231.88599 229.92608 228.09718
 226.39427 224.88036 223.52446 222.31055 221.20665 220.18074 219.29883 218.45393
 217.71002 216.90412 216.01621 215.39430 214.85840 215.08148 215.62466 216.13466
 216.15814 215.44426 214.74858 214.76668 216.72337 220.38240 224.76741 228.43875
 231.80959 236.13022 240.86676 245.49078 249.66383 253.32794 256.59241 259.63434
 262.48373 265.28067 268.07361 270.72226 273.03683 274.91705 276.40085 277.63809
 278.77985 279.79636 280.69058 281.98712 283.32654 284.51157 285.59274 286.57220
 287.45312 288.23761 288.92288 289.79620
 366.78100 356.34696 345.79093 334.66889 323.08386 311.28982 299.17178 286.98675
 274.71071 262.61967 250.64064 239.95360 230.08757 221.20353 213.39749 206.41146
 200.25742 195.20739 191.80135 189.85531 188.90428 188.98024 189.82720 191.14717
 192.88413 194.99110 197.26606 199.63702 202.09399 204.58595 206.68592 208.53988
 210.17784 211.33481 211.57577 211.81574 211.76470 211.48166 211.12663 210.76859
 210.39755 210.11952 209.93948 209.81545 209.75541 210.09837 210.49634 210.89730
 211.70227 212.89223 214.15419 215.94916 217.88912 219.94408 222.05105 224.14601
 226.21798 228.31394 230.42290 232.54087 234.68183 236.86580 239.13376 241.51572
 244.14869 246.41165 248.42561 250.20258 251.63154 252.76651 253.60047 253.92843
 253.97740 253.76336 253.13533 252.09529 250.71325 248.88622 246.80718 244.65214
 242.45511 240.27107 238.10304 235.95400 233.82596 231.70493 229.74289 227.91186
 226.20682 224.69078 223.33275 222.11671 221.01067 219.98264 219.09860 218.25157
 217.50553 216.69749 215.80746 215.18342 214.64539 214.97952 215.73056 215.96260
 216.18385 215.70332 214.87411 214.70673 216.60078 220.24713 224.57280 228.24603
 231.69325 236.10434 240.90419 245.54942 249.71828 253.36673 256.63782 259.70554
 262.57852 265.38925 268.19165 270.87631 273.23367 275.15530 276.65976 277.84543
 278.91885 279.90033 280.79391 282.16855 283.49268 284.66418 285.73300 286.70129
 287.57217 288.34766 289.02515 289.88849
 366.78100 356.34554 345.78808 334.66462 323.07817 311.28271 299.16325 286.97679
 274.69933 262.60687 250.62641 239.93795 230.07050 221.18504 213.37758 206.39012
 200.23466 195.18320 191.77574 189.82828 188.87583 188.95037 189.79591 191.11445
 192.84999 194.95553 197.22907 199.59861 202.05416 204.54470 206.64324 208.49578
 210.13232 211.28786 211.52740 211.76594 211.71349 211.42903 211.07257 210.71311
 210.34065 210.06119 209.87973 209.75428 209.69282 210.03436 210.43090 210.83044
 211.63398 212.82252 214.08306 215.87661 217.81515 219.86869 221.97423 224.06777
 226.13831 228.23285 230.34039 232.45694 234.59648 236.77902 239.04556 241.42610
 244.05764 246.31918 248.33172 250.10727 251.53481 252.66835 253.50089 253.82743
 253.87497 253.65951 253.03005 251.98860 250.60514 248.77668 246.69622 244.53976
 242.34130 240.15584 237.98639 235.83593 233.70647 231.58401 229.62055 227.78809
 226.08163 224.56417 223.20472 221.98726 220.87980 219.85034 218.96488 218.11642
 217.36896 216.55950 215.66805 215.04259 214.50313 214.89400 215.78203 215.91212
 216.01982 215.79996 215.02606 214.71812 216.47528 220.11911 224.46939 228.10104
 231.66339 236.08902 240.90178 245.50586 249.60065 253.19948 256.46045 259.53366
 262.45831 265.34613 268.24359 271.01825 273.49237 275.55875 277.15933 278.37848
 279.44489 280.44455 281.29306 282.13263 283.22321 284.28970 285.27426 286.16623
 286.96841 287.68280 288.30685 289.10214
 366.78100 356.34720 345.79140 334.66960 323.08480 311.29101 299.17321 286.98841
 274.71261 262.62181 250.64301 239.95621 230.09041 221.20661 213.40082 206.41502
 200.26122 195.21142 191.80562 189.85982 188.90902 188.98522 189.83242 191.15263
 192.88983 194.99703 197.27223 199.64343 202.10063 204.59283 206.69303 208.54724
 210.18544 211.34264 211.58384 211.82404 211.77324 211.49044 211.13564 210.77784
 210.40705 210.12925 209.94945 209.82565 209.76585 210.10905 210.50725 210.90845
 211.71365 212.90386 214.16606 215.96126 217.90146 219.95666 222.06386 224.15906
 226.23126 228.32746 230.43667 232.55487 234.69607 236.88027 239.14847 241.53067
 244.16387 246.42707 248.44127 250.21848 251.64768 252.78288 253.61708 253.94528
 253.99448 253.78068 253.15288 252.11308 250.73129 248.90449 246.82569 244.67089
 242.47409 240.29029 238.12249 235.97369 233.84590 231.72510 229.76330 227.93250
 226.22770 224.71190 223.35410 222.13830 221.03250 220.00471 219.12091 218.27411
 217.52831 216.72051 215.83071 215.20691 214.66911 214.95317 215.62422 216.09404
 216.11853 215.76009 215.02608 214.60977 216.31262 220.03632 224.53072 227.92780
 231.62415 236.06516 240.91992 245.52036 249.57562 253.11269 256.31555 259.33301
 262.26364 265.18671 268.10837 270.90274 273.41479 275.54013 277.22391 278.54852
 279.68692 280.73315 281.66324 282.45969 283.17703 284.01089 284.89462 285.69183
 286.42047 287.06931 287.63614 288.35849
 366.78100 356.34809 345.79318 334.67227 323.08836 311.29545 299.17854 286.99463
 274.71972 262.62982 250.65191 239.96600 230.10109 221.21818 213.41327 206.42836
 200.27545 195.22654 191.82163 189.87672 188.92681 189.00390 189.85199 191.17308
 192.91117 195.01926 197.29535 199.66745 202.12554 204.61863 206.71972 208.57481
 210.21390 211.37199 211.61408 211.85517 211.80526 211.52335 211.16944 210.81253
 210.44262 210.16571 209.98680 209.86389 209.80498 210.14908 210.54817 210.95026
 211.75635 212.94744 214.21053 216.00662 217.94771 220.00380 222.11189 224.20798
 226.28107 228.37816 230.48825 232.60734 234.74943 236.93452 239.20362 241.58671
 244.22080 246.48489 248.49998 250.27807 251.70816 252.84425 253.67934 254.00843
 254.05852 253.84561 253.21870 252.17979 250.79888 248.97297 246.89506 244.74115
 242.54525 240.36234 238.19543 236.04752 233.92061 231.80070 229.83979 228.00988
 226.30597 224.79106 223.43415 222.21924 221.11433 220.08742 219.20451 218.35860
 217.61369 216.80678 215.91788 215.29497 214.75806 214.98929 215.53563 216.08751
 216.34140 215.83524 214.95636 214.43912 216.16818 219.98090 224.49576 227.78986
 231.56606 236.06177 240.97629 245.61650 249.69098 253.23563 256.42575 259.39758
 262.24915 265.10291 267.98990 270.77512 273.28613 275.39957 277.06076 278.38739
 279.56958 280.66565 281.63199 282.41928 283.11877 283.89078 284.72168 285.45111
 286.11826 286.75204 287.30566 288.01123
 366.78100 356.34751 345.79202 334.67053 323.08605 311.29256 299.17507 286.99058
 274.71509 262.62460 250.64612 239.95963 230.09414 221.21065 213.40516 206.41967
 200.26619 195.21670 191.81121 189.86572 188.91523 188.99174 189.83926 191.15977
 192.89728 195.00479 197.28030 199.65181 202.10933 204.60184 206.70235 208.55686
 210.19537 211.35288 211.59440 211.83491 211.78442 211.50193 211.14744 210.78995
 210.41947 210.14198 209.96249 209.83900 209.77951 210.12302 210.52154 210.92305
 211.72856 212.91907 214.18158 215.97709 217.91761 219.97312 222.08063 224.17614
 226.24865 228.34516 230.45468 232.57319 234.71470 236.89921 239.16772 241.55023
 244.18375 246.44726 248.46177 250.23928 251.66879 252.80430 253.63882 253.96733
 254.01684 253.80335 253.17586 252.13637 250.75489 248.92840 246.84991 244.69542
 242.49893 240.31544 238.14796 235.99947 233.87198 231.75149 229.79000 227.95951
 226.25503 224.73954 223.38205 222.16656 221.06107 220.03358 219.15009 218.30361
 217.55812 216.75063 215.86114 215.23765 214.70016 214.95786 215.56667 215.99828
 216.36021 215.90665 214.95918 214.39211 216.10155 219.93341 224.42104 227.72433
 231.52785 236.06386 241.01385 245.67709 249.77031 253.34352 256.55728 259.52631
 262.32651 265.11227 267.94989 270.72018 273.25150 275.39441 277.04816 278.35989
 279.56689 280.69794 281.65341 282.38437 283.04227 283.78491 284.57501 285.24518
 285.82690 286.38443 286.87149 287.49219
 366.78100 356.34745 345.79190 334.67035 323.08580 311.29225 299.17470 286.99016
 274.71461 262.62406 250.64551 239.95896 230.09341 221.20986 213.40431 206.41876
 200.26521 195.21566 191.81011 189.86456 188.91402 188.99047 189.83792 191.15837
 192.89582 195.00327 197.27872 199.65017 202.10762 204.60007 206.70052 208.55497
 210.19342 211.35088 211.59233 211.83278 211.78223 211.49968 211.14513 210.78758
 210.41703 210.13948 209.95993 209.83638 209.77683 210.12028 210.51874 210.92019
 211.72564 212.91609 214.17854 215.97399 217.91444 219.96989 222.07734 224.17279
 226.24524 228.34169 230.45114 232.56960 234.71105 236.89550 239.16395 241.54640
 244.17985 246.44330 248.45775 250.23520 251.66465 252.80010 253.63455 253.96300
 254.01246 253.79891 253.17136 252.13181 250.75026 248.92371 246.84516 244.69061
 242.49406 240.31051 238.14296 235.99441 233.86686 231.74632 229.78477 227.95422
 226.24967 224.73412 223.37657 222.16102 221.05547 220.02792 219.14437 218.29782
 217.55227 216.74472 215.85518 215.23163 214.69408 214.95016 215.55522 216.01129
 216.34146 215.94118 214.99725 214.40257 216.09238 219.91255 224.33267 227.63086
 231.47955 236.05554 241.02991 245.68727 249.77289 253.35800 256.59671 259.57550
 262.35126 265.09180 267.89737 270.66483 273.23547 275.44632 277.13370 278.45535
 279.68433 280.82889 281.75256 282.43100 283.01727 283.66443 284.40710 285.02606
 285.55237 286.06598 286.51923 287.09686
 366.78100 356.34765 345.79230 334.67096 323.08661 311.29326 299.17591 286.99157
 274.71622 262.62587 250.64752 239.96117 230.09583 221.21248 213.40713 206.42178
 200.26843 195.21909 191.81374 189.86839 188.91804 188.99470 189.84235 191.16300
 192.90065 195.00830 197.28396 199.65561 202.11326 204.60591 206.70657 208.56122
 210.19987 211.35752 211.59917 211.83983 211.78948 211.50713 211.15278 210.79544
 210.42509 210.14774 209.96839 209.84504 209.78570 210.12935 210.52800 210.92965
 211.73530 212.92596 214.18861 215.98426 217.92491 219.98057 222.08822 224.18387
 226.25652 228.35317 230.46283 232.58148 234.72313 236.90778 239.17644 241.55909
 244.19274 246.45639 248.47104 250.24870 251.67835 252.81400 253.64865 253.97730
 254.02696 253.81361 253.18626 252.14691 250.76557 248.93922 246.86087 244.70652
 242.51017 240.32683 238.15948 236.01113 233.88378 231.76344 229.80209 227.97174
 226.26739 224.75204 223.39470 222.17935 221.07400 220.04665 219.16331 218.31696
 217.57161 216.76426 215.87491 215.25157 214.71422 214.95805 215.53410 216.01764
 216.37299 215.97209 215.03397 214.41620 216.07047 219.82388 224.20952 227.54410
 231.42801 236.04532 241.03604 245.67499 249.75143 253.35469 256.62796 259.62711
 262.38705 265.07907 267.83286 270.59030 273.20337 275.49588 277.22549 278.56174
 279.81613 280.97757 281.88202 282.50870 283.02179 283.56360 284.22452 284.86710
 285.41443 285.89813 286.30893 286.83243
 366.78100 356.34724 345.79149 334.66973 323.08497 311.29122 299.17346 286.98871
 274.71295 262.62219 250.64344 239.95668 230.09092 221.20717 213.40141 206.41566
 200.26190 195.21214 191.80639 189.86063 188.90987 188.98612 189.83336 191.15361
 192.89085 194.99809 197.27334 199.64458 202.10182 204.59407 206.69431 208.54855
 210.18680 211.34404 211.58529 211.82553 211.77477 211.49202 211.13726 210.77950
 210.40875 210.13099 209.95124 209.82748 209.76772 210.11097 210.50921 210.91045
 211.71570 212.90594 214.16819 215.96343 217.90367 219.95892 222.06616 224.16140
 226.23365 228.32989 230.43913 232.55738 234.69862 236.88287 239.15111 241.53335
 244.16660 246.42984 248.44408 250.22133 251.65057 252.78582 253.62006 253.94830
 253.99755 253.78379 253.15603 252.11628 250.73452 248.90777 246.82901 244.67425
 242.47750 240.29374 238.12598 235.97723 233.84947 231.72871 229.76696 227.93620
 226.23145 224.71569 223.35793 222.14218 221.03642 220.00866 219.12491 218.27815
 217.53240 216.72464 215.83488 215.21113 214.67337 214.93803 215.56332 215.97200
 216.39558 215.98788 215.06407 214.43991 216.05678 219.73358 224.09158 227.48993
 231.38914 236.04541 241.04231 245.66101 249.73270 253.35716 256.66290 259.68051
 262.43332 265.07837 267.76587 270.48703 273.14197 275.53992 277.34576 278.72043
 280.00305 281.17947 282.08093 282.68506 283.14615 283.58881 284.15305 284.79013
 285.34885 285.80820 286.15720 286.60196
 366.78100 356.34635 345.78969 334.66704 323.08138 311.28673 299.16807 286.98242
 274.70577 262.61411 250.63446 239.94680 230.08015 221.19549 213.38884 206.40219
 200.24753 195.19688 191.79022 189.84357 188.89191 188.96726 189.81361 191.13295
 192.86930 194.97564 197.24999 199.62033 202.07668 204.56803 206.66737 208.52072
 210.15806 211.31441 211.55475 211.79410 211.74245 211.45879 211.10314 210.74448
 210.37283 210.09417 209.91352 209.78887 209.72821 210.07056 210.46790 210.86825
 211.67259 212.86194 214.12329 215.91763 217.85698 219.91132 222.01767 224.11201
 226.18336 228.27871 230.38705 232.50440 234.64474 236.82809 239.09543 241.47678
 244.10913 246.37147 248.38482 250.16116 251.58951 252.72385 253.55720 253.88455
 253.93289 253.71824 253.08958 252.04893 250.66628 248.83862 246.75897 244.60331
 242.40566 240.22100 238.05235 235.90270 233.77404 231.65239 229.68973 227.85808
 226.15242 224.63577 223.27712 222.06046 220.95381 219.92515 219.04050 218.19284
 217.44619 216.63754 215.74688 215.12223 214.58357 214.89246 215.62221 215.93764
 216.37555 215.98337 215.07823 214.48387 216.07524 219.67255 224.01001 227.46762
 231.36783 236.04752 241.05475 245.65819 249.72159 253.35799 256.68350 259.70959
 262.45474 265.05392 267.65671 270.33524 273.03177 275.53812 277.42151 278.83490
 280.15945 281.36545 282.28305 282.87488 283.28690 283.66925 284.17117 284.78201
 285.35403 285.83859 286.15265 286.55289
 366.78100 356.34520 345.78740 334.66360 323.07680 311.28101 299.16121 286.97441
 274.69661 262.60381 250.62301 239.93421 230.06641 221.18061 213.37281 206.38502
 200.22922 195.17742 191.76962 189.82182 188.86902 188.94322 189.78842 191.10662
 192.84182 194.94703 197.22023 199.58943 202.04463 204.53483 206.63303 208.48523
 210.12143 211.27663 211.51583 211.75404 211.70124 211.41644 211.05964 210.69984
 210.32704 210.04724 209.86544 209.73964 209.67784 210.01905 210.41525 210.81445
 211.61765 212.80585 214.06605 215.85925 217.79745 219.85065 221.95585 224.04906
 226.11926 228.21346 230.32066 232.43686 234.57606 236.75826 239.02446 241.40466
 244.03586 246.29707 248.30927 250.08447 251.51167 252.64487 253.47707 253.80327
 253.85047 253.63467 253.00487 251.96308 250.57928 248.75048 246.66968 244.51288
 242.31408 240.12828 237.95848 235.80768 233.67788 231.55509 229.59129 227.75849
 226.05169 224.53389 223.17409 221.95629 220.84849 219.81869 218.93289 218.08410
 217.33630 216.52650 215.63470 215.00890 214.46910 214.83316 215.69327 215.93372
 216.32448 215.95110 215.06732 214.50781 216.08665 219.61020 223.92183 227.45074
 231.36043 236.06059 241.06285 245.65149 249.71451 253.37463 256.72964 259.77145
 262.52106 265.07285 267.56494 270.15271 272.88245 275.48239 277.40701 278.86252
 280.24802 281.45239 282.31454 282.84763 283.23816 283.61322 284.07590 284.65503
 285.23309 285.72998 286.03714 286.42856
 366.78100 356.34470 345.78640 334.66210 323.07480 311.27850 299.15819 286.97089
 274.69259 262.59929 250.61799 239.92869 230.06039 221.17409 213.36579 206.37749
 200.22119 195.16889 191.76058 189.81228 188.85898 188.93268 189.77738 191.09508
 192.82978 194.93448 197.20718 199.57588 202.03058 204.52028 206.61797 208.46967
 210.10537 211.26007 211.49877 211.73647 211.68317 211.39787 211.04057 210.68027
 210.30697 210.02667 209.84436 209.71806 209.65576 209.99646 210.39216 210.79086
 211.59356 212.78126 214.04096 215.83366 217.77136 219.82405 221.92875 224.02145
 226.09115 228.18485 230.29155 232.40725 234.54595 236.72765 238.99335 241.37305
 244.00375 246.26444 248.27614 250.05084 251.47754 252.61024 253.44194 253.76764
 253.81434 253.59804 252.96774 251.92544 250.54114 248.71183 246.63053 244.47323
 242.27393 240.08763 237.91733 235.76603 233.63573 231.51243 229.54813 227.71483
 226.00753 224.48922 223.12892 221.91062 220.80232 219.77202 218.88572 218.03642
 217.28812 216.47782 215.58552 214.95922 214.41891 214.80557 215.71909 216.00558
 216.24588 215.87758 215.00601 214.46161 216.05243 219.56133 223.86403 227.42923
 231.35455 236.06578 241.07292 245.66223 249.73410 253.41772 256.79688 259.85352
 262.61530 265.15573 267.57697 270.05112 272.73352 275.40726 277.39874 278.88248
 280.29684 281.49835 282.32739 282.80945 283.13718 283.47635 283.93240 284.51578
 285.10358 285.60562 285.89740 286.26923
 366.78100 356.34474 345.78648 334.66222 323.07496 311.27870 299.15843 286.97117
 274.69291 262.59965 250.61839 239.92913 230.06087 221.17461 213.36635 206.37809
 200.22183 195.16957 191.76130 189.81304 188.85978 188.93352 189.77826 191.09600
 192.83074 194.93548 197.20822 199.57696 202.03170 204.52143 206.61917 208.47091
 210.10665 211.26139 211.50013 211.73787 211.68461 211.39935 211.04209 210.68183
 210.30857 210.02830 209.84604 209.71978 209.65752 209.99826 210.39400 210.79274
 211.59548 212.78322 214.04296 215.83570 217.77343 219.82617 221.93091 224.02365
 226.09339 228.18713 230.29387 232.40961 234.54835 236.73009 238.99583 241.37556
 244.00630 246.26704 248.27878 250.05352 251.48026 252.61300 253.44474 253.77048
 253.81722 253.60096 252.97070 251.92843 250.54417 248.71491 246.63365 244.47639
 242.27713 240.09087 237.92061 235.76935 233.63909 231.51583 229.55156 227.71830
 226.01104 224.49278 223.13252 221.91426 220.80600 219.77574 218.88948 218.04022
 217.29196 216.48170 215.58943 214.96317 214.42291 214.80641 215.71245 216.09181
 216.24821 215.70625 214.88493 214.43329 216.06136 219.51297 223.77623 227.45143
 231.37982 236.10104 241.07973 245.65457 249.73830 253.46404 256.88641 259.96478
 262.73630 265.23062 267.54510 269.90213 272.57874 275.38333 277.45688 278.98331
 280.44421 281.60239 282.27777 282.55624 282.83957 283.24194 283.75992 284.35492
 284.92758 285.41135 285.76819 286.22296
 354.97500 345.04800 334.58700 324.11500 313.32600 302.53700 291.65000 280.76700
 269.93100 259.19300 248.62200 238.61700 229.08700 220.35500 212.54000 205.53500
 199.46400 194.49300 191.14300 189.19000 188.08900 188.01400 188.72400 189.90600
 191.46900 193.38200 195.40300 197.55600 199.80700 202.06000 204.28800 206.47900
 208.55200 210.37800 212.02500 213.65900 214.99800 216.11800 217.17200 218.25900
 219.49400 220.64500 221.67900 222.61400 223.54500 224.98200 226.57100 228.19000
 229.79700 231.81100 233.86500 235.97200 238.24200 240.55300 242.89900 245.25300
 247.48800 249.53500 251.36600 252.84800 254.09800 255.16700 256.02700 256.25300
 256.09500 255.54300 253.93500 252.56600 251.38400 250.24500 249.05200 247.70100
 246.01600 243.99600 241.78400 239.39300 236.81300 234.22300 231.65800 229.14400
 226.74000 224.47300 222.33500 220.32500 218.44000 216.67700 214.96200 213.47200
 212.20000 211.10800 210.26000 209.63900 209.24400 209.03100 209.05800 209.33300
 209.78400 210.62600 211.33100 212.39100 213.62500 214.84668 217.72949 219.47640
 220.32566 220.86828 220.88710 220.27371 219.43733 218.84250 219.04934 220.86203
 222.60583 225.72206 229.03064 232.61777 236.12270 239.51333 242.70767 245.68587
 248.41061 250.90679 253.19353 254.91714 256.48655 257.94920 259.39966 260.69384
 261.81714 262.77997 263.71679 264.54570 265.26305 265.89772 266.47676 267.00133
 267.47312 267.89325 268.26027 268.72800
