|-------------------------------------------------------------------------|
|   File Name : in_temp.dat
|   Subject   : temperature profiles used for initial guess atmosphere
|   File Type : input of gmtr
|   Data Type : atmospherical data
|   Author/s  : WRF-Chem
|   Date      : Fri Jul 26 15:39:24 2024
|-------------------------------------------------------------------------|

 WRF-Chem temperature
#
 values of T (K)    (8f10.5)
#
 354.97500 345.04800 334.58700 324.11500 313.32600 302.53700 291.65000 280.76700
 269.93100 259.19300 248.62200 238.61700 229.08700 220.35500 212.54000 205.53500
 199.46400 194.49300 191.14300 189.19000 188.08900 188.01400 188.72400 189.90600
 191.46900 193.38200 195.40300 197.55600 199.80700 202.06000 204.28800 206.47900
 208.55200 210.37800 212.02500 213.65900 214.99800 216.11800 217.17200 218.25900
 219.49400 220.64500 221.67900 222.61400 223.54500 224.98200 226.57100 228.19000
 229.79700 231.81100 233.86500 235.97200 238.24200 240.55300 242.89900 245.25300
 247.48800 249.53500 251.36600 252.84800 254.09800 255.16700 256.02700 256.25300
 256.09500 255.54300 253.93500 252.56600 251.38400 250.24500 249.05200 247.70100
 246.01600 243.99600 241.78400 239.39300 236.81300 234.22300 231.65800 229.14400
 226.74000 224.47300 222.33500 220.32500 218.44000 216.67700 214.96200 213.47200
 212.20000 211.10800 210.26000 209.63900 209.24400 209.03100 209.05800 209.33300
 209.78400 210.62600 211.33100 212.39100 213.62500 214.84668 217.72949 219.47640
 220.32566 220.86828 220.88710 220.27371 219.43733 218.84250 219.04934 220.86203
 222.60583 225.72206 229.03064 232.61777 236.12270 239.51333 242.70767 245.68587
 248.41061 250.90679 253.19353 254.91714 256.48655 257.94920 259.39966 260.69384
 261.81714 262.77997 263.71679 264.54570 265.26305 265.89772 266.47676 267.00133
 267.47312 267.89325 268.26027 268.72800
 366.78100 356.33500 345.76700 334.63300 323.03600 311.23000 299.10000 286.90300
 274.61500 262.51200 250.52100 239.82200 229.94400 221.04800 213.23000 206.23200
 200.06600 195.00400 191.58600 189.62800 188.66500 188.72900 189.56400 190.87200
 192.59700 194.69200 196.95500 199.31400 201.75900 204.23900 206.32700 208.16900
 209.79500 210.94000 211.16900 211.39700 211.33400 211.03900 210.67200 210.30200
 209.91900 209.62900 209.43700 209.30100 209.22900 209.56000 209.94600 210.33500
 211.12800 212.30600 213.55600 215.33900 217.26700 219.31000 221.40500 223.48800
 225.54800 227.63200 229.72900 231.83500 233.96400 236.13600 238.39200 240.76200
 243.38300 245.63400 247.63600 249.40100 250.81800 251.94100 252.76300 253.07900
 253.11600 252.89000 252.25000 251.19800 249.80400 247.96500 245.87400 243.70700
 241.49800 239.30200 237.12200 234.96100 232.82100 230.68800 228.71400 226.87100
 225.15400 223.62600 222.25600 221.02800 219.91000 218.87000 217.97400 217.11500
 216.35700 215.53700 214.63500 213.99900 213.44900 212.85855 212.01316 212.61654
 214.26826 216.08686 218.14273 220.53346 223.40855 226.78828 231.49734 235.90155
 239.42278 243.28576 247.23140 251.11907 254.80144 258.23331 261.38913 264.27520
 266.89312 269.26852 271.44504 273.08845 274.58484 275.98591 277.39845 278.65879
 279.75272 280.69038 281.56708 282.34086 283.01050 283.60295 284.14348 284.63317
 285.07358 285.46577 285.80838 286.24500
 381.81900 372.39900 361.20600 349.77600 337.62200 324.85300 311.81000 298.35300
 284.86000 271.32400 258.56100 246.30400 236.08700 226.79600 218.44800 211.29000
 205.52200 200.89400 197.38100 194.84800 193.01500 192.31500 192.25000 192.43100
 192.91200 193.53700 194.13600 194.71200 195.26200 195.83100 196.39300 196.97600
 197.60400 198.14900 198.58400 199.05700 199.69500 200.37800 201.05400 201.70800
 202.31300 202.85700 203.35500 203.86200 204.56900 205.29700 206.02600 206.98700
 208.19300 209.44100 210.96900 212.57600 214.46200 216.51300 218.63000 220.85300
 223.34100 225.96200 228.73900 231.69700 234.70600 237.70600 240.69200 243.65700
 246.73700 249.69900 252.52100 255.06300 257.29000 259.23300 260.63300 261.68000
 262.46100 262.79800 262.69100 262.22400 261.06900 259.52500 257.70700 255.50700
 253.00100 250.30200 247.39800 244.45200 241.65400 239.05400 236.73300 234.59000
 232.59500 230.72500 228.83400 226.82600 224.66600 222.38700 220.10400 217.71500
 215.45900 213.06600 210.54600 208.09300 205.35400 202.08130 196.05959 200.71215
 209.01611 216.90438 223.84126 229.78593 235.00632 240.20838 245.98943 250.68668
 254.32982 257.93487 261.55666 264.96801 268.15192 271.06452 273.76717 276.25691
 278.57680 280.74479 282.77456 284.60533 286.27232 287.81705 289.31715 290.65561
 291.81734 292.81312 293.70701 294.49387 295.17482 295.77730 296.32696 296.82492
 297.27278 297.67160 298.02000 298.46400
 399.33000 389.90700 379.81300 368.66800 357.52200 345.30100 333.07400 320.22700
 307.21600 293.84800 280.37600 267.29600 254.61000 242.98700 232.15100 221.97700
 212.67200 204.28600 197.66900 192.82100 189.48600 187.45200 186.81400 187.08900
 187.78100 189.05400 190.64800 192.54200 194.63000 196.75200 198.67100 200.15800
 201.53500 202.48700 202.97500 203.34000 203.53900 203.49700 203.38500 203.24700
 203.00500 202.78600 202.60300 202.43700 202.42600 202.88800 203.42000 203.95100
 204.89500 205.99200 207.30100 208.95800 210.73800 213.10000 215.56400 218.18000
 220.96600 223.91800 226.96100 230.09200 233.29300 236.55700 239.95500 243.53700
 246.84500 249.39000 251.54200 253.47400 255.19500 256.48400 257.43100 258.05900
 258.21200 258.04000 257.58200 256.64300 255.23900 253.50700 251.40800 249.05600
 246.57600 243.99400 241.38900 238.83000 236.34400 233.98600 231.96900 230.11800
 228.42300 226.89900 225.54800 224.29700 223.10500 221.96500 220.95800 220.11300
 219.49000 218.92000 218.32500 217.88100 217.42300 216.96366 216.35568 216.80261
 217.73415 218.28582 218.64258 219.10077 220.44626 222.53987 226.38451 230.35736
 233.59734 237.39164 241.29814 245.22796 248.98002 252.51130 255.78595 258.80109
 261.54781 264.05210 266.34239 268.04198 269.58951 271.01303 272.35754 273.55718
 274.59842 275.49092 276.28989 276.99307 277.60161 278.14001 278.63122 279.07623
 279.47646 279.83287 280.14422 280.54100
 399.73800 389.78500 379.66200 368.15100 356.64100 344.35000 331.79200 318.88800
 305.72600 292.49300 279.20900 266.73800 254.69600 244.21100 234.45700 225.43300
 217.56900 210.45100 204.30000 199.30600 195.45800 192.57600 191.02700 190.38600
 190.23900 190.53400 191.16600 191.92500 192.79500 193.76600 194.73200 195.31200
 195.80000 196.05200 196.11500 196.11500 196.03900 195.72300 195.34000 194.98900
 194.75100 194.79200 195.13300 195.59800 196.50600 198.13600 199.85800 201.56600
 204.17900 206.82300 209.89300 213.28400 216.82800 220.60500 224.38700 228.20900
 232.03200 235.82500 239.56000 243.25800 246.84500 250.20100 253.70900 257.46800
 261.53000 264.22100 266.60100 268.68100 270.32900 271.74100 272.83600 273.47400
 273.89800 274.00200 273.75700 273.28800 272.37100 271.10000 269.58900 267.77900
 265.81600 263.72100 261.39300 258.91600 256.29800 253.42300 250.33100 247.11400
 243.83700 240.52900 237.24900 233.99900 230.72800 227.51500 224.25400 220.95200
 217.62700 213.65600 210.12100 206.78900 204.01000 201.99491 199.07309 198.76551
 199.40006 200.48994 201.46112 202.31912 203.45100 204.96110 207.47502 210.85391
 213.70530 217.29629 220.99574 224.72316 228.28753 231.64854 234.68024 237.40893
 239.70644 241.60899 243.46854 245.67368 247.68154 249.52395 251.24767 252.78566
 254.12057 255.26479 256.23740 257.09036 257.82852 258.48160 259.07744 259.61723
 260.10271 260.53504 260.91270 261.39400
 399.73800 389.78500 379.66200 368.15100 356.64100 344.35000 331.79200 318.88800
 305.72600 292.49300 279.20900 266.73800 254.69600 244.21100 234.45700 225.43300
 217.56900 210.45100 204.30000 199.30600 195.45800 192.57600 191.02700 190.38600
 190.23900 190.53400 191.16600 191.92500 192.79500 193.76600 194.73200 195.31200
 195.80000 196.05200 196.11500 196.11500 196.03900 195.72300 195.34000 194.98900
 194.75100 194.79200 195.13300 195.59800 196.50600 198.13600 199.85800 201.56600
 204.17900 206.82300 209.89300 213.28400 216.82800 220.60500 224.38700 228.20900
 232.03200 235.82500 239.56000 243.25800 246.84500 250.20100 253.70900 257.46800
 261.53000 264.22100 266.60100 268.68100 270.32900 271.74100 272.83600 273.47400
 273.89800 274.00200 273.75700 273.28800 272.37100 271.10000 269.58900 267.77900
 265.81600 263.72100 261.39300 258.91600 256.29800 253.42300 250.33100 247.11400
 243.83700 240.52900 237.24900 233.99900 230.72800 227.51500 224.25400 220.95200
 217.62700 213.65600 210.12100 206.78900 204.01000 201.99491 199.07309 198.76551
 199.40006 200.48994 201.46112 202.31912 203.45100 204.96110 207.47502 210.85391
 213.70530 217.29629 220.99574 224.72316 228.28753 231.64854 234.68024 237.40893
 239.70644 241.60899 243.46854 245.67368 247.68154 249.52395 251.24767 252.78566
 254.12057 255.26479 256.23740 257.09036 257.82852 258.48160 259.07744 259.61723
 260.10271 260.53504 260.91270 261.39400
 399.33000 389.90700 379.81300 368.66800 357.52200 345.30100 333.07400 320.22700
 307.21600 293.84800 280.37600 267.29600 254.61000 242.98700 232.15100 221.97700
 212.67200 204.28600 197.66900 192.82100 189.48600 187.45200 186.81400 187.08900
 187.78100 189.05400 190.64800 192.54200 194.63000 196.75200 198.67100 200.15800
 201.53500 202.48700 202.97500 203.34000 203.53900 203.49700 203.38500 203.24700
 203.00500 202.78600 202.60300 202.43700 202.42600 202.88800 203.42000 203.95100
 204.89500 205.99200 207.30100 208.95800 210.73800 213.10000 215.56400 218.18000
 220.96600 223.91800 226.96100 230.09200 233.29300 236.55700 239.95500 243.53700
 246.84500 249.39000 251.54200 253.47400 255.19500 256.48400 257.43100 258.05900
 258.21200 258.04000 257.58200 256.64300 255.23900 253.50700 251.40800 249.05600
 246.57600 243.99400 241.38900 238.83000 236.34400 233.98600 231.96900 230.11800
 228.42300 226.89900 225.54800 224.29700 223.10500 221.96500 220.95800 220.11300
 219.49000 218.92000 218.32500 217.88100 217.42300 216.96366 216.35568 216.80261
 217.73415 218.28582 218.64258 219.10077 220.44626 222.53987 226.38451 230.35736
 233.59734 237.39164 241.29814 245.22796 248.98002 252.51130 255.78595 258.80109
 261.54781 264.05210 266.34239 268.04198 269.58951 271.01303 272.35754 273.55718
 274.59842 275.49092 276.28989 276.99307 277.60161 278.14001 278.63122 279.07623
 279.47646 279.83287 280.14422 280.54100
 381.81900 372.39900 361.20600 349.77600 337.62200 324.85300 311.81000 298.35300
 284.86000 271.32400 258.56100 246.30400 236.08700 226.79600 218.44800 211.29000
 205.52200 200.89400 197.38100 194.84800 193.01500 192.31500 192.25000 192.43100
 192.91200 193.53700 194.13600 194.71200 195.26200 195.83100 196.39300 196.97600
 197.60400 198.14900 198.58400 199.05700 199.69500 200.37800 201.05400 201.70800
 202.31300 202.85700 203.35500 203.86200 204.56900 205.29700 206.02600 206.98700
 208.19300 209.44100 210.96900 212.57600 214.46200 216.51300 218.63000 220.85300
 223.34100 225.96200 228.73900 231.69700 234.70600 237.70600 240.69200 243.65700
 246.73700 249.69900 252.52100 255.06300 257.29000 259.23300 260.63300 261.68000
 262.46100 262.79800 262.69100 262.22400 261.06900 259.52500 257.70700 255.50700
 253.00100 250.30200 247.39800 244.45200 241.65400 239.05400 236.73300 234.59000
 232.59500 230.72500 228.83400 226.82600 224.66600 222.38700 220.10400 217.71500
 215.45900 213.06600 210.54600 208.09300 205.35400 202.08130 196.05959 200.71215
 209.01611 216.90438 223.84126 229.78593 235.00632 240.20838 245.98943 250.68668
 254.32982 257.93487 261.55666 264.96801 268.15192 271.06452 273.76717 276.25691
 278.57680 280.74479 282.77456 284.60533 286.27232 287.81705 289.31715 290.65561
 291.81734 292.81312 293.70701 294.49387 295.17482 295.77730 296.32696 296.82492
 297.27278 297.67160 298.02000 298.46400
 366.78100 356.32566 345.74832 334.60497 322.99863 311.18329 299.04395 286.83761
 274.54026 262.42792 250.42758 239.71924 229.83190 220.92655 213.09921 206.09187
 199.91653 194.84519 191.41784 189.45050 188.47816 188.53282 189.35848 190.65713
 192.37279 194.45845 196.71211 199.06177 201.49742 203.96808 206.04674 207.87940
 209.49606 210.63171 210.85137 211.07003 210.99769 210.69335 210.31700 209.93766
 209.54532 209.24598 209.04464 208.89929 208.81795 209.13961 209.51627 209.89593
 210.67958 211.84824 213.08890 214.86256 216.78122 218.81487 220.90053 222.97419
 225.02485 227.09951 229.18716 231.28382 233.40348 235.56614 237.81280 240.17345
 242.78511 245.02677 247.01943 248.77509 250.18274 251.29640 252.10906 252.41572
 252.44338 252.20803 251.55869 250.49735 249.09401 247.24567 245.14532 242.96898
 240.75064 238.54530 236.35596 234.18561 232.03627 229.89393 227.91059 226.05825
 224.33190 222.79456 221.41522 220.17788 219.05054 218.00119 217.09585 216.22751
 215.46017 214.63083 213.71949 213.07414 212.51480 212.44482 212.29042 213.49307
 215.23354 217.28592 218.41174 218.46045 219.70557 223.11824 228.33075 232.97231
 236.75560 240.55434 244.24019 247.76442 251.09506 253.85957 256.20602 258.68015
 261.86896 264.68265 266.78131 268.55942 270.40402 272.36984 274.15424 275.73193
 277.15109 278.57736 280.08658 281.45236 282.63745 283.69064 284.65656 285.53760
 286.33682 287.05502 287.68970 288.53220
 366.78100 356.32553 345.74806 334.60459 322.99812 311.18266 299.04319 286.83672
 274.53925 262.42678 250.42631 239.71784 229.83037 220.92490 213.09743 206.08997
 199.91450 194.84303 191.41556 189.44809 188.47562 188.53015 189.35568 190.65421
 192.36975 194.45528 196.70881 199.05834 201.49387 203.96440 206.04293 207.87546
 209.49199 210.62752 210.84706 211.06559 210.99312 210.68865 210.31218 209.93271
 209.54024 209.24077 209.03930 208.89384 208.81237 209.13390 209.51043 209.88996
 210.67349 211.84202 213.08255 214.85608 216.77461 218.80815 220.89368 222.96721
 225.01774 227.09227 229.17980 231.27633 233.39586 235.55839 237.80493 240.16546
 242.77699 245.01852 247.01105 248.76658 250.17411 251.28764 252.10017 252.40671
 252.43424 252.19877 251.54930 250.48783 249.08436 247.23589 245.13542 242.95895
 240.74048 238.53502 236.34555 234.17508 232.02561 229.88314 227.89967 226.04720
 224.32073 222.78326 221.40380 220.16633 219.03886 217.98939 217.08392 216.21545
 215.44798 214.61851 213.70704 213.06157 212.50211 212.46771 212.39592 213.62814
 215.32365 217.31543 218.52902 218.65753 219.84854 223.15462 228.27110 232.84114
 236.59042 240.38988 244.09529 247.62134 250.90402 253.62329 255.99580 258.54794
 261.71545 264.50101 266.60825 268.41263 270.26569 272.22549 274.00348 275.59085
 277.03867 278.49423 280.01019 281.37735 282.56342 283.61679 284.58313 285.46460
 286.26404 286.98245 287.61719 288.46014
 366.78100 356.32538 345.74777 334.60415 322.99753 311.18192 299.04230 286.83568
 274.53807 262.42545 250.42484 239.71622 229.82860 220.92299 213.09537 206.08775
 199.91214 194.84052 191.41290 189.44529 188.47267 188.52705 189.35244 190.65082
 192.36620 194.45159 196.70497 199.05435 201.48974 203.96012 206.03851 207.87089
 209.48727 210.62266 210.84204 211.06042 210.98781 210.68319 210.30657 209.92696
 209.53434 209.23472 209.03311 208.88749 208.80587 209.12726 209.50364 209.88302
 210.66641 211.83479 213.07518 214.84856 216.76694 218.80033 220.88571 222.95909
 225.00948 227.08386 229.17124 231.26763 233.38701 235.54939 237.79578 240.15616
 242.76754 245.00893 247.00131 248.75669 250.16408 251.27746 252.08985 252.39623
 252.42361 252.18800 251.53838 250.47676 249.07315 247.22453 245.12391 242.94730
 240.72868 238.52306 236.33345 234.16283 232.01321 229.87060 227.88698 226.03436
 224.30775 222.77013 221.39052 220.15290 219.02528 217.97567 217.07005 216.20143
 215.43382 214.60420 213.69258 213.04697 212.48735 212.49117 212.50822 213.76837
 215.38914 217.35040 218.64682 218.86285 220.01207 223.20564 228.21222 232.71288
 236.42046 240.21846 243.94283 247.46336 250.69821 253.38046 255.78392 258.41385
 261.55902 264.31372 266.42941 268.26315 270.13193 272.08951 273.86340 275.46036
 276.93802 278.41794 279.93735 281.30576 282.49231 283.54626 284.51260 285.39435
 286.19315 286.91254 287.54764 288.39108
 366.78100 356.32527 345.74753 334.60380 322.99706 311.18133 299.04159 286.83486
 274.53712 262.42439 250.42366 239.71492 229.82719 220.92145 213.09372 206.08598
 199.91025 194.83851 191.41078 189.44305 188.47031 188.52458 189.34984 190.64811
 192.36337 194.44864 196.70190 199.05117 201.48644 203.95670 206.03497 207.86723
 209.48350 210.61876 210.83803 211.05629 210.98356 210.67883 210.30209 209.92236
 209.52962 209.22989 209.02815 208.88242 208.80068 209.12195 209.49822 209.87748
 210.66075 211.82901 213.06928 214.84254 216.76081 218.79407 220.87934 222.95261
 225.00287 227.07714 229.16440 231.26067 233.37993 235.54220 237.78846 240.14873
 242.76000 245.00126 246.99353 248.74879 250.15606 251.26932 252.08159 252.38785
 252.41512 252.17939 251.52965 250.46792 249.06418 247.21545 245.11471 242.93798
 240.71924 238.51351 236.32378 234.15304 232.00331 229.86057 227.87684 226.02410
 224.29737 222.75963 221.37990 220.14217 219.01443 217.96470 217.05896 216.19023
 215.42249 214.59276 213.68102 213.03529 212.47556 212.51788 212.62453 213.90891
 215.44775 217.38577 218.75333 219.08009 220.19899 223.26567 228.15581 232.57846
 236.25142 240.05052 243.78212 247.28470 250.47340 253.13084 255.57175 258.27713
 261.39935 264.12427 266.24832 268.11362 270.00262 271.96191 273.73328 275.33994
 276.84494 278.34631 279.86884 281.23730 282.42413 283.47888 284.44540 285.32721
 286.12701 286.84583 287.48117 288.32501
 366.78100 356.32523 345.74747 334.60370 322.99694 311.18117 299.04141 286.83464
 274.53688 262.42411 250.42334 239.71458 229.82681 220.92105 213.09328 206.08552
 199.90975 194.83799 191.41022 189.44245 188.46969 188.52392 189.34916 190.64739
 192.36263 194.44786 196.70110 199.05033 201.48556 203.95580 206.03403 207.86627
 209.48250 210.61774 210.83697 211.05520 210.98244 210.67767 210.30091 209.92114
 209.52838 209.22861 209.02685 208.88108 208.79931 209.12055 209.49678 209.87602
 210.65925 211.82749 213.06772 214.84096 216.75919 218.79242 220.87766 222.95089
 225.00113 227.07536 229.16260 231.25883 233.37807 235.54030 237.78653 240.14677
 242.75800 244.99924 246.99147 248.74671 250.15394 251.26718 252.07941 252.38564
 252.41288 252.17711 251.52735 250.46558 249.06182 247.21305 245.11229 242.93552
 240.71675 238.51099 236.32122 234.15046 232.00069 229.85793 227.87416 226.02140
 224.29463 222.75686 221.37710 220.13933 219.01157 217.96180 217.05604 216.18727
 215.41950 214.58974 213.67797 213.03221 212.47244 212.55045 212.74010 214.04778
 215.50682 217.41890 218.86035 219.29524 220.39684 223.33420 228.10602 232.44150
 236.08688 239.88586 243.61096 247.08592 250.22987 252.87238 255.35744 258.13644
 261.23734 263.93411 266.06470 267.96246 269.87701 271.84317 273.61554 275.23013
 276.75674 278.27789 279.80289 281.17142 282.35950 283.41348 284.37967 285.26303
 286.06216 286.78107 287.41666 288.25955
 366.78100 356.32523 345.74745 334.60368 322.99691 311.18113 299.04136 286.83459
 274.53681 262.42404 250.42326 239.71449 229.82672 220.92094 213.09317 206.08540
 199.90962 194.83785 191.41008 189.44230 188.46953 188.52376 189.34898 190.64721
 192.36244 194.44766 196.70089 199.05012 201.48534 203.95557 206.03379 207.86602
 209.48225 210.61747 210.83670 211.05493 210.98215 210.67738 210.30061 209.92083
 209.52806 209.22829 209.02651 208.88074 208.79897 209.12019 209.49642 209.87565
 210.65887 211.82710 213.06732 214.84055 216.75878 218.79200 220.87723 222.95046
 225.00068 227.07491 229.16214 231.25836 233.37759 235.53982 237.78604 240.14627
 242.75750 244.99872 246.99095 248.74617 250.15340 251.26663 252.07885 252.38508
 252.41231 252.17653 251.52676 250.46499 249.06121 247.21244 245.11167 242.93489
 240.71612 238.51035 236.32057 234.14980 232.00003 229.85725 227.87348 226.02070
 224.29393 222.75616 221.37638 220.13861 219.01084 217.96106 217.05529 216.18652
 215.41874 214.58897 213.67720 213.03142 212.47165 212.58536 212.85812 214.18336
 215.56325 217.45357 218.97559 219.50241 220.59923 223.41188 228.06400 232.31606
 235.92899 239.72321 243.43069 246.86978 249.97163 252.60576 255.13731 257.98608
 261.06827 263.73972 265.87729 267.80832 269.75497 271.73395 273.51083 275.13489
 276.67679 278.21136 279.73727 281.10593 282.29352 283.34821 284.31485 285.19730
 285.99704 286.71631 287.35126 288.19949
 366.78100 356.32527 345.74753 334.60380 322.99706 311.18133 299.04159 286.83486
 274.53712 262.42439 250.42366 239.71492 229.82719 220.92145 213.09372 206.08598
 199.91025 194.83851 191.41078 189.44305 188.47031 188.52458 189.34984 190.64811
 192.36337 194.44864 196.70190 199.05117 201.48644 203.95670 206.03497 207.86723
 209.48350 210.61876 210.83803 211.05629 210.98356 210.67883 210.30209 209.92236
 209.52962 209.22989 209.02815 208.88242 208.80068 209.12195 209.49822 209.87748
 210.66075 211.82901 213.06928 214.84254 216.76081 218.79407 220.87934 222.95261
 225.00287 227.07714 229.16440 231.26067 233.37993 235.54220 237.78846 240.14873
 242.76000 245.00126 246.99353 248.74879 250.15606 251.26932 252.08159 252.38785
 252.41512 252.17939 251.52965 250.46792 249.06418 247.21545 245.11471 242.93798
 240.71924 238.51351 236.32378 234.15304 232.00331 229.86057 227.87684 226.02410
 224.29737 222.75963 221.37990 220.14217 219.01443 217.96470 217.05896 216.19023
 215.42249 214.59276 213.68102 213.03529 212.47556 212.62352 212.97601 214.31325
 215.61920 217.48979 219.09270 219.70395 220.80624 223.49730 228.02888 232.21234
 235.78427 239.56447 243.24416 246.63757 249.69792 252.33028 254.91014 257.82205
 260.88788 263.53793 265.68698 267.65704 269.63956 271.63541 273.42075 275.05399
 276.60718 278.14633 279.67245 281.04120 282.22937 283.28421 284.25116 285.13287
 285.93344 286.65286 287.28979 288.13589
 366.78100 356.32545 345.74791 334.60436 322.99781 311.18227 299.04272 286.83617
 274.53863 262.42608 250.42553 239.71699 229.82944 220.92389 213.09635 206.08880
 199.91325 194.84171 191.41416 189.44661 188.47407 188.52852 189.35397 190.65243
 192.36788 194.45333 196.70679 199.05624 201.49169 203.96215 206.04060 207.87306
 209.48951 210.62496 210.84442 211.06287 210.99032 210.68578 210.30923 209.92968
 209.53714 209.23759 209.03604 208.89050 208.80895 209.13040 209.50686 209.88631
 210.66976 211.83822 213.07867 214.85212 216.77058 218.80403 220.88948 222.96294
 225.01339 227.08784 229.17530 231.27175 233.39120 235.55366 237.80011 240.16056
 242.77202 245.01347 247.00592 248.76138 250.16883 251.28228 252.09474 252.40119
 252.42864 252.19310 251.54355 250.48200 249.07846 247.22991 245.12936 242.95282
 240.73427 238.52872 236.33918 234.16863 232.01908 229.87654 227.89299 226.04044
 224.31390 222.77635 221.39681 220.15926 219.03171 217.98217 217.07662 216.20807
 215.44053 214.61098 213.69943 213.05389 212.49434 212.66988 213.08646 214.43805
 215.68291 217.52898 219.20477 219.90192 221.01440 223.58885 228.00012 232.12299
 235.65672 239.41547 243.05421 246.38593 249.40401 252.04485 254.67891 257.64792
 260.69839 263.33157 265.50052 267.51270 269.53320 271.54764 273.34213 274.98373
 276.54575 278.08331 279.60980 280.97830 282.16586 283.22208 284.18970 285.07309
 285.87292 286.59296 287.22961 288.07812
 366.78100 356.32579 345.74858 334.60537 322.99916 311.18395 299.04474 286.83853
 274.54132 262.42911 250.42890 239.72069 229.83348 220.92827 213.10106 206.09385
 199.91864 194.84743 191.42022 189.45301 188.48080 188.53559 189.36138 190.66017
 192.37596 194.46175 196.71554 199.06533 201.50112 203.97191 206.05070 207.88349
 209.50028 210.63607 210.85586 211.07465 211.00244 210.69823 210.32202 209.94281
 209.55060 209.25139 209.05018 208.90497 208.82376 209.14555 209.52234 209.90213
 210.68592 211.85471 213.09550 214.86929 216.78808 218.82187 220.90766 222.98145
 225.03224 227.10703 229.19482 231.29161 233.41140 235.57419 237.82098 240.18177
 242.79356 245.03535 247.02814 248.78393 250.19172 251.30551 252.11830 252.42509
 252.45288 252.21767 251.56846 250.50725 249.10404 247.25583 245.15562 242.97941
 240.76120 238.55599 236.36678 234.19657 232.04736 229.90515 227.92194 226.06973
 224.34352 222.80631 221.42710 220.18989 219.06268 218.01347 217.10826 216.24005
 215.47284 214.64363 213.73242 213.08721 212.52800 212.72409 213.18828 214.55844
 215.75366 217.57687 219.31831 220.09494 221.21646 223.68362 227.97502 232.03902
 235.54221 239.27454 242.86124 246.11955 249.09529 251.75255 254.44441 257.46649
 260.50565 263.12866 265.32043 267.37582 269.43469 271.46802 273.27142 274.92029
 276.49039 278.02271 279.54797 280.91864 282.10687 283.16272 284.13113 285.01413
 285.81418 286.53583 287.17322 288.02197
 366.78100 356.32614 345.74929 334.60643 323.00058 311.18572 299.04687 286.84101
 274.54416 262.43230 250.43245 239.72459 229.83774 220.93288 213.10603 206.09917
 199.92432 194.85346 191.42661 189.45975 188.48790 188.54304 189.36918 190.66833
 192.38447 194.47062 196.72476 199.07491 201.51105 203.98220 206.06134 207.89449
 209.51163 210.64778 210.86792 211.08707 211.01521 210.71136 210.33550 209.95665
 209.56479 209.26594 209.06508 208.92022 208.83937 209.16151 209.53866 209.91880
 210.70295 211.87209 213.11324 214.88738 216.80653 218.84067 220.92682 223.00096
 225.05211 227.12725 229.21540 231.31254 233.43269 235.59583 237.84298 240.20412
 242.81627 245.05841 247.05155 248.80770 250.21584 251.32999 252.14313 252.45028
 252.47842 252.24357 251.59471 250.53386 249.13100 247.28315 245.18329 243.00744
 240.78958 238.58473 236.39587 234.22602 232.07716 229.93531 227.95245 226.10059
 224.37474 222.83788 221.45903 220.22217 219.09532 218.04646 217.14161 216.27375
 215.50690 214.67804 213.76719 213.12233 212.56348 212.77916 213.28876 214.66733
 215.83023 217.63692 219.44048 220.28317 221.40904 223.77451 227.94965 231.95686
 235.44026 239.14746 242.66989 245.84155 248.77243 251.45325 254.20924 257.28503
 260.31470 262.92618 265.13977 267.24091 269.34186 271.39783 273.21057 274.86639
 276.44318 277.96667 279.49164 280.86075 282.05096 283.10721 284.07672 284.95874
 285.75882 286.48276 287.11926 287.96951
 366.78100 356.32668 345.75036 334.60804 323.00272 311.18840 299.05008 286.84476
 274.54844 262.43712 250.43781 239.73049 229.84417 220.93985 213.11353 206.10721
 199.93289 194.86257 191.43625 189.46993 188.49861 188.55429 189.38097 190.68065
 192.39733 194.48401 196.73869 199.08937 201.52605 203.99773 206.07742 207.91110
 209.52878 210.66546 210.88614 211.10582 211.03450 210.73118 210.35586 209.97754
 209.58622 209.28790 209.08758 208.94326 208.86294 209.18562 209.56330 209.94398
 210.72866 211.89834 213.14003 214.91471 216.83439 218.86907 220.95575 223.03043
 225.08211 227.15779 229.24647 231.34415 233.46483 235.62851 237.87619 240.23787
 242.85055 245.09323 247.08691 248.84359 250.25227 251.36695 252.18064 252.48832
 252.51700 252.28268 251.63436 250.57404 249.17172 247.32440 245.22508 243.04976
 240.83244 238.62812 236.43980 234.27048 232.12216 229.98084 227.99852 226.14720
 224.42188 222.88556 221.50725 220.27093 219.14461 218.09629 217.19197 216.32465
 215.55833 214.73001 213.81969 213.17537 212.61705 212.84294 213.37665 214.77586
 215.90334 217.70956 219.57581 220.46802 221.59346 223.85666 227.92612 231.87906
 235.34270 239.02461 242.47696 245.55943 248.44951 251.15639 253.97438 257.09848
 260.11627 262.71527 264.96017 267.11435 269.26053 271.33957 273.16229 274.82330
 276.40356 277.91592 279.43848 280.80920 281.99927 283.05630 284.02487 284.90799
 285.71054 286.43140 287.06998 287.92194
 366.78100 356.32733 345.75166 334.60999 323.00532 311.19165 299.05397 286.84930
 274.55363 262.44296 250.44429 239.73762 229.85195 220.94828 213.12261 206.11694
 199.94326 194.87359 191.44792 189.48225 188.51158 188.56791 189.39524 190.69557
 192.41290 194.50023 196.75555 199.10688 201.54421 204.01654 206.09687 207.93120
 209.54953 210.68686 210.90819 211.12852 211.05784 210.75517 210.38050 210.00283
 209.61216 209.31449 209.11482 208.97115 208.89148 209.21481 209.59313 209.97446
 210.75979 211.93012 213.17245 214.94778 216.86811 218.90344 220.99077 223.06610
 225.11842 227.19475 229.28408 231.38241 233.50374 235.66807 237.91640 240.27873
 242.89206 245.13539 247.12971 248.88704 250.29637 251.41170 252.22603 252.53436
 252.56369 252.33002 251.68235 250.62268 249.22100 247.37433 245.27566 243.10099
 240.88432 238.68065 236.49298 234.32431 232.17664 230.03597 228.05429 226.20362
 224.47895 222.94328 221.56561 220.32994 219.20427 218.15660 217.25293 216.38626
 215.62058 214.79291 213.88324 213.23957 212.68190 212.91225 213.45648 214.87077
 215.99495 217.78142 219.71298 220.64894 221.76474 223.92801 227.90735 231.81346
 235.25671 238.91403 242.29590 245.28796 248.12924 250.85474 253.72960 256.89832
 259.90710 262.50488 264.78958 266.99933 269.18997 271.28986 273.12231 274.78568
 276.36240 277.86880 279.39078 280.76108 281.95190 283.00919 283.97733 284.86169
 285.66348 286.38492 287.02527 287.87781
 366.78100 356.32794 345.75287 334.61181 323.00775 311.19468 299.05762 286.85355
 274.55849 262.44843 250.45036 239.74430 229.85924 220.95617 213.13111 206.12604
 199.95298 194.88392 191.45885 189.49379 188.52373 188.58066 189.40860 190.70953
 192.42747 194.51541 196.77134 199.12328 201.56122 204.03415 206.11509 207.95003
 209.56896 210.70690 210.92883 211.14977 211.07971 210.77764 210.40358 210.02652
 209.63645 209.33939 209.14032 208.99726 208.91820 209.24213 209.62107 210.00301
 210.78894 211.95988 213.20282 214.97875 216.89969 218.93562 221.02356 223.09950
 225.15243 227.22937 229.31931 231.41824 233.54018 235.70511 237.95405 240.31699
 242.93092 245.17486 247.16980 248.92773 250.33767 251.45360 252.26854 252.57748
 252.60741 252.37435 251.72729 250.66822 249.26716 247.42110 245.32303 243.14897
 240.93290 238.72984 236.54278 234.37471 232.22765 230.08759 228.10652 226.25646
 224.53239 222.99733 221.62027 220.38520 219.26014 218.21308 217.31001 216.44395
 215.67888 214.85182 213.94276 213.29969 212.74263 212.97845 213.53558 214.96527
 216.09309 217.81802 219.82883 220.91763 221.94530 224.03679 227.87823 231.73778
 235.17723 238.81113 242.11375 244.99513 247.77444 250.52402 253.46989 256.69257
 259.70309 262.30820 264.63440 266.89838 269.13031 271.24887 273.08774 274.75378
 276.32675 277.82520 279.34604 280.71609 281.90692 282.96500 283.93332 284.81772
 285.62012 286.34222 286.98309 287.83740
 366.78100 356.32823 345.75346 334.61269 323.00892 311.19615 299.05938 286.85560
 274.56083 262.45106 250.45329 239.74752 229.86275 220.95998 213.13521 206.13044
 199.95767 194.88890 191.46413 189.49936 188.52959 188.58681 189.41504 190.71627
 192.43450 194.52273 196.77896 199.13119 201.56942 204.04265 206.12388 207.95911
 209.57834 210.71657 210.93880 211.16002 211.09025 210.78848 210.41471 210.03794
 209.64817 209.35140 209.15263 209.00986 208.93109 209.25532 209.63455 210.01678
 210.80300 211.97423 213.21746 214.99369 216.91492 218.95115 221.03938 223.11561
 225.16884 227.24607 229.33630 231.43553 233.55776 235.72299 237.97221 240.33544
 242.94967 245.19390 247.18913 248.94736 250.35759 251.47382 252.28905 252.59828
 252.62851 252.39574 251.74897 250.69020 249.28942 247.44365 245.34588 243.17211
 240.95634 238.75357 236.56680 234.39903 232.25226 230.11249 228.13172 226.28195
 224.55818 223.02340 221.64663 220.41186 219.28709 218.24032 217.33755 216.47178
 215.70701 214.88024 213.97147 213.32870 212.77193 213.02673 213.62874 215.04678
 216.18628 217.91199 219.94754 221.13312 222.09000 224.10417 227.87059 231.70720
 235.12225 238.71550 241.92122 244.67831 247.40329 250.19060 253.21663 256.49518
 259.50827 262.11877 264.48703 266.80777 269.08203 271.21887 273.06277 274.72760
 276.29025 277.78488 279.30521 280.67508 281.86728 282.92502 283.89438 284.77792
 285.58102 286.30457 286.94464 287.79810
 366.78100 356.32867 345.75435 334.61402 323.01070 311.19837 299.06205 286.85872
 274.56440 262.45507 250.45775 239.75242 229.86810 220.96577 213.14145 206.13712
 199.96479 194.89647 191.47214 189.50782 188.53849 188.59617 189.42484 190.72652
 192.44519 194.53387 196.79054 199.14322 201.58189 204.05557 206.13724 207.97291
 209.59259 210.73126 210.95394 211.17561 211.10629 210.80496 210.43164 210.05531
 209.66599 209.36966 209.17134 209.02901 208.95069 209.27536 209.65503 210.03771
 210.82438 211.99606 213.23973 215.01641 216.93808 218.97476 221.06343 223.14011
 225.19378 227.27146 229.36213 231.46181 233.58448 235.75016 237.99983 240.36350
 242.97818 245.22285 247.21853 248.97720 250.38788 251.50455 252.32023 252.62990
 252.66058 252.42825 251.78193 250.72360 249.32328 247.47795 245.38062 243.20730
 240.99197 238.78965 236.60332 234.43600 232.28967 230.15035 228.17002 226.32070
 224.59737 223.06305 221.68672 220.45240 219.32807 218.28174 217.37942 216.51409
 215.74977 214.92344 214.01512 213.37279 212.81647 213.08022 213.70337 215.13489
 216.29527 218.04526 220.04607 221.31049 222.21571 224.16483 227.89005 231.69348
 235.06587 238.59695 241.69312 244.34216 247.03670 249.87227 252.97710 256.30780
 259.32208 261.93903 264.35025 266.72681 269.04291 271.19687 273.04449 274.70688
 276.25510 277.74713 279.26758 280.63672 281.82980 282.88779 283.85715 284.74161
 285.54440 286.26834 286.90970 287.76852
 366.78100 356.32940 345.75580 334.61620 323.01360 311.20200 299.06640 286.86380
 274.57020 262.46160 250.46499 239.76039 229.87679 220.97519 213.15159 206.14799
 199.97639 194.90879 191.48519 189.52159 188.55299 188.61139 189.44079 190.74319
 192.46259 194.55199 196.80939 199.16279 201.60219 204.07658 206.15898 207.99538
 209.61578 210.75518 210.97858 211.20098 211.13238 210.83178 210.45918 210.08358
 209.69498 209.39938 209.20178 209.06018 208.98258 209.30798 209.68838 210.07177
 210.85917 212.03157 213.27597 215.05337 216.97577 219.01317 221.10257 223.17997
 225.23437 227.31277 229.40417 231.50457 233.62797 235.79437 238.04477 240.40917
 243.02457 245.26997 247.26636 249.02576 250.43716 251.55456 252.37096 252.68136
 252.71276 252.48116 251.83556 250.77796 249.37836 247.53376 245.43716 243.26456
 241.04996 238.84836 236.66276 234.49616 232.35056 230.21195 228.23235 226.38375
 224.66115 223.12755 221.75195 220.51835 219.39475 218.34915 217.44755 216.58295
 215.81935 214.99375 214.08615 213.44455 212.88895 213.14536 213.75116 215.23672
 216.42242 218.18765 220.14830 221.45673 222.34918 224.23448 227.91873 231.66180
 234.98653 238.44650 241.43834 244.00356 246.67398 249.56030 252.74728 256.13068
 259.15228 261.78098 264.23175 266.65598 269.00592 271.17191 273.02289 274.69058
 276.23587 277.71271 279.23071 280.60059 281.79251 282.85086 283.82169 284.70480
 285.50882 286.23328 286.87537 287.73602
 366.78100 356.32986 345.75672 334.61759 323.01545 311.20431 299.06917 286.86703
 274.57390 262.46576 250.46962 239.76548 229.88235 220.98121 213.15807 206.15493
 199.98379 194.91666 191.49352 189.53038 188.56224 188.62110 189.45097 190.75383
 192.47369 194.56355 196.82141 199.17528 201.61514 204.09000 206.17286 208.00973
 209.63059 210.77045 210.99431 211.21717 211.14904 210.84890 210.47676 210.10162
 209.71348 209.41835 209.22121 209.08007 209.00293 209.32880 209.70966 210.09352
 210.88138 212.05424 213.29911 215.07697 216.99983 219.03769 221.12755 223.20542
 225.26028 227.33914 229.43100 231.53186 233.65573 235.82259 238.07345 240.43831
 243.05418 245.30004 247.29690 249.05676 250.46862 251.58649 252.40335 252.71421
 252.74607 252.51493 251.86980 250.81266 249.41352 247.56938 245.47324 243.30111
 241.08697 238.88583 236.70069 234.53456 232.38942 230.25128 228.27214 226.42400
 224.70187 223.16873 221.79359 220.56045 219.43731 218.39218 217.49104 216.62690
 215.86376 215.03862 214.13149 213.49035 212.93521 213.19543 213.81023 215.32358
 216.55376 218.33907 220.26915 221.58687 222.50914 224.31444 227.93549 231.61383
 234.88632 238.27481 241.17435 243.66788 246.31145 249.25093 252.52541 255.96158
 258.99649 261.63776 264.12741 266.59760 268.97702 271.14929 272.99728 274.66052
 276.19598 277.68375 279.20239 280.57254 281.76569 282.82413 283.79352 284.67795
 285.48026 286.20602 286.84833 287.71014
 366.78100 356.33008 345.75715 334.61823 323.01630 311.20538 299.07046 286.86853
 274.57561 262.46769 250.47176 239.76784 229.88491 220.98399 213.16107 206.15814
 199.98722 194.92030 191.49737 189.53445 188.56652 188.62560 189.45568 190.75875
 192.47883 194.56890 196.82698 199.18106 201.62113 204.09621 206.17929 208.01636
 209.63744 210.77751 211.00159 211.22467 211.15674 210.85682 210.48490 210.10997
 209.72205 209.42712 209.23020 209.08928 209.01235 209.33843 209.71950 210.10358
 210.89166 212.06473 213.30981 215.08789 217.01096 219.04904 221.13911 223.21719
 225.27227 227.35134 229.44342 231.54450 233.66857 235.83565 238.08672 240.45180
 243.06788 245.31395 247.31103 249.07110 250.48318 251.60126 252.41833 252.72941
 252.76149 252.53056 251.88564 250.82871 249.42979 247.58587 245.48994 243.31802
 241.10410 238.90317 236.71825 234.55232 232.40740 230.26948 228.29055 226.44263
 224.72070 223.18778 221.81286 220.57993 219.45701 218.41209 217.51116 216.64724
 215.88431 215.05939 214.15247 213.51154 212.95662 213.23131 213.88029 215.39183
 216.69670 218.50569 220.38585 221.70930 222.69054 224.40570 227.93185 231.56119
 234.77722 238.08426 240.89487 243.32437 245.95468 248.95348 252.31415 255.80241
 258.85178 261.50565 264.03342 266.54837 268.95569 271.13318 272.97430 274.62393
 276.14032 277.65720 279.18094 280.55103 281.74335 282.80148 283.77130 284.65469
 285.45868 286.18271 286.82410 287.68506
 366.78100 356.33025 345.75749 334.61874 323.01698 311.20623 299.07148 286.86972
 274.57697 262.46922 250.47346 239.76971 229.88695 220.98620 213.16345 206.16069
 199.98994 194.92318 191.50043 189.53768 188.56992 188.62917 189.45942 190.76266
 192.48291 194.57315 196.83140 199.18565 201.62589 204.10114 206.18439 208.02163
 209.64288 210.78312 211.00737 211.23062 211.16286 210.86311 210.49135 210.11660
 209.72885 209.43409 209.23734 209.09659 209.01983 209.34608 209.72732 210.11157
 210.89982 212.07306 213.31831 215.09655 217.01980 219.05805 221.14829 223.22654
 225.28179 227.36103 229.45328 231.55452 233.67877 235.84602 238.09726 240.46251
 243.07876 245.32500 247.32225 249.08249 250.49474 251.61299 252.43023 252.74148
 252.77372 252.54297 251.89822 250.84146 249.44271 247.59896 245.50320 243.33145
 241.11769 238.91694 236.73219 234.56643 232.42168 230.28392 228.30517 226.45742
 224.73566 223.20291 221.82816 220.59540 219.47265 218.42789 217.52714 216.66339
 215.90063 215.07588 214.16913 213.52837 212.97362 213.26286 213.94623 215.46265
 216.84528 218.67842 220.50333 221.82216 222.87569 224.52257 227.92299 231.50603
 234.66133 237.86911 240.57985 242.95854 245.60310 248.67030 252.11502 255.65712
 258.72208 261.39371 263.95407 266.50577 268.93503 271.11523 272.95041 274.59863
 276.12280 277.62796 279.14969 280.51898 281.71100 282.76920 283.73843 284.62155
 285.42545 286.14975 286.79120 287.65381
 366.78100 356.33037 345.75775 334.61912 323.01749 311.20686 299.07224 286.87061
 274.57798 262.47036 250.47473 239.77110 229.88847 220.98785 213.16522 206.16259
 199.99197 194.92534 191.50271 189.54008 188.57246 188.63183 189.46220 190.76557
 192.48595 194.57632 196.83469 199.18907 201.62944 204.10481 206.18818 208.02556
 209.64693 210.78730 211.01168 211.23505 211.16742 210.86779 210.49617 210.12154
 209.73391 209.43929 209.24266 209.10203 209.02540 209.35178 209.73315 210.11752
 210.90590 212.07927 213.32464 215.10301 217.02639 219.06476 221.15513 223.23351
 225.28888 227.36825 229.46062 231.56200 233.68637 235.85374 238.10512 240.47049
 243.08686 245.33323 247.33061 249.09098 250.50335 251.62172 252.43910 252.75047
 252.78284 252.55222 251.90759 250.85096 249.45233 247.60871 245.51308 243.34145
 241.12783 238.92720 236.74257 234.57694 232.43232 230.29469 228.31606 226.46844
 224.74681 223.21418 221.83955 220.60693 219.48430 218.43967 217.53905 216.67542
 215.91279 215.08816 214.18154 213.54091 212.98628 213.29001 214.00760 215.54071
 216.99374 218.84509 220.63220 221.92944 223.04649 224.66765 227.93161 231.44704
 234.52908 237.62195 240.22655 242.57683 245.25967 248.40382 251.92943 255.52438
 258.60623 261.29584 263.88654 266.46741 268.91278 271.09503 272.92728 274.56964
 276.06836 277.60611 279.13300 280.50336 281.69492 282.75418 283.72321 284.60712
 285.40884 286.13553 286.77631 287.63962
 366.78100 356.33039 345.75779 334.61918 323.01757 311.20696 299.07236 286.87075
 274.57814 262.47053 250.47493 239.77132 229.88871 220.98810 213.16550 206.16289
 199.99228 194.92568 191.50307 189.54046 188.57285 188.63225 189.46264 190.76603
 192.48642 194.57682 196.83521 199.18960 201.62999 204.10539 206.18878 208.02617
 209.64757 210.78796 211.01235 211.23574 211.16814 210.86853 210.49692 210.12231
 209.73471 209.44010 209.24349 209.10288 209.02628 209.35267 209.73406 210.11846
 210.90685 212.08024 213.32563 215.10403 217.02742 219.06581 221.15620 223.23460
 225.28999 227.36938 229.46177 231.56317 233.68756 235.85495 238.10634 240.47174
 243.08813 245.33452 247.33192 249.09231 250.50470 251.62309 252.44049 252.75188
 252.78427 252.55366 251.90906 250.85245 249.45384 247.61023 245.51463 243.34302
 241.12941 238.92881 236.74420 234.57859 232.43398 230.29638 228.31777 226.47016
 224.74855 223.21595 221.84134 220.60873 219.48612 218.44152 217.54091 216.67730
 215.91470 215.09009 214.18348 213.54287 212.98827 213.30989 214.06976 215.62413
 217.14070 219.00450 220.76605 222.03781 223.20055 224.83247 227.96991 231.38370
 234.37378 237.33586 239.83783 242.18724 244.92799 248.15536 251.75882 255.40154
 258.50119 261.20703 263.82303 266.42755 268.88834 271.07623 272.90677 274.55020
 276.05032 277.58463 279.11151 280.48138 281.67328 282.73431 283.70471 284.59286
 285.40585 286.13788 286.78500 287.65176
 366.78100 356.33027 345.75755 334.61882 323.01710 311.20637 299.07165 286.86992
 274.57720 262.46947 250.47375 239.77002 229.88730 220.98657 213.16385 206.16112
 199.99040 194.92367 191.50094 189.53822 188.57049 188.62977 189.46004 190.76332
 192.48359 194.57387 196.83214 199.18642 201.62669 204.10197 206.18524 208.02252
 209.64379 210.78407 211.00834 211.23161 211.16389 210.86416 210.49244 210.11771
 209.72999 209.43526 209.23854 209.09781 209.02109 209.34736 209.72864 210.11291
 210.90119 212.07446 213.31974 215.09801 217.02128 219.05956 221.14983 223.22811
 225.28338 227.36266 229.45493 231.55621 233.68048 235.84776 238.09903 240.46431
 243.08058 245.32686 247.32413 249.08441 250.49668 251.61495 252.43223 252.74350
 252.77578 252.54505 251.90033 250.84360 249.44488 247.60115 245.50543 243.33370
 241.11998 238.91925 236.73453 234.56880 232.42408 230.28635 228.30763 226.45990
 224.73817 223.20545 221.83072 220.59800 219.47527 218.43055 217.52982 216.66610
 215.90337 215.07865 214.17192 213.53120 212.97647 213.32091 214.13469 215.71234
 217.28172 219.15962 220.89474 222.14400 223.35469 225.01337 228.03511 231.33319
 234.20198 237.00146 239.41078 241.79234 244.61026 247.92424 251.60243 255.28957
 258.40985 261.13126 263.76440 266.38699 268.85709 271.04535 272.86963 274.50494
 275.99619 277.58408 279.11966 280.49005 281.68338 282.74454 283.71768 284.60855
 285.42346 286.15674 286.80768 287.67432
 366.78100 356.33003 345.75706 334.61809 323.01612 311.20515 299.07018 286.86821
 274.57524 262.46727 250.47130 239.76732 229.88435 220.98338 213.16041 206.15744
 199.98647 194.91950 191.49653 189.53356 188.56559 188.62462 189.45465 190.75768
 192.47771 194.56774 196.82577 199.17980 201.61983 204.09486 206.17789 208.01491
 209.63594 210.77597 211.00000 211.22303 211.15506 210.85509 210.48312 210.10815
 209.72018 209.42521 209.22824 209.08727 209.01030 209.33633 209.71736 210.10139
 210.88942 212.06245 213.30748 215.08550 217.00853 219.04656 221.13659 223.21462
 225.26965 227.34868 229.44071 231.54174 233.66577 235.83280 238.08383 240.44886
 243.06489 245.31092 247.30795 249.06798 250.48001 251.59804 252.41507 252.72609
 252.75812 252.52715 251.88218 250.82521 249.42624 247.58227 245.48630 243.31433
 241.10036 238.89939 236.71442 234.54845 232.40348 230.26551 228.28654 226.43857
 224.71660 223.18363 221.80866 220.57568 219.45271 218.40774 217.50677 216.64280
 215.87983 215.05486 214.14789 213.50692 212.95195 213.32326 214.20052 215.80701
 217.41763 219.30544 221.01924 222.25151 223.51143 225.21191 228.12045 231.28490
 234.01520 236.63919 238.95119 241.38176 244.29890 247.71051 251.46237 255.18889
 258.33273 261.06784 263.71475 266.34863 268.82404 271.00919 272.82861 274.45142
 275.90976 277.59418 279.13837 280.50562 281.69595 282.75546 283.72855 284.61874
 285.43387 286.17035 286.81641 287.68506
 366.78100 356.32972 345.75643 334.61715 323.01487 311.20358 299.06830 286.86602
 274.57273 262.46445 250.46817 239.76388 229.88060 220.97932 213.15603 206.15275
 199.98147 194.91418 191.49090 189.52762 188.55933 188.61805 189.44777 190.75048
 192.47020 194.55992 196.81763 199.17135 201.61107 204.08578 206.16850 208.00522
 209.62593 210.76565 210.98937 211.21208 211.14380 210.84352 210.47123 210.09595
 209.70767 209.41238 209.21510 209.07382 208.99653 209.32225 209.70297 210.08668
 210.87440 212.04712 213.29183 215.06955 216.99227 219.02998 221.11970 223.19742
 225.25213 227.33085 229.42257 231.52329 233.64700 235.81372 238.06444 240.42915
 243.04487 245.29059 247.28730 249.04702 250.45874 251.57645 252.39317 252.70389
 252.73560 252.50432 251.85904 250.80175 249.40247 247.55819 245.46190 243.28962
 241.07534 238.87405 236.68877 234.52249 232.37720 230.23892 228.25964 226.41135
 224.68907 223.15579 221.78050 220.54722 219.42394 218.37865 217.47737 216.61309
 215.84980 215.02452 214.11724 213.47595 212.92067 213.32013 214.26390 215.91389
 217.54628 219.43782 221.14235 222.35773 223.67642 225.41547 228.21483 231.24936
 233.83180 236.24963 238.45857 240.96025 244.00163 247.51965 251.33636 255.09435
 258.26288 261.01514 263.67374 266.31464 268.78964 270.96912 272.78418 274.40665
 275.88965 277.58298 279.12741 280.49530 281.68570 282.74521 283.71860 284.60831
 285.42374 286.15936 286.80679 287.67368
 366.78100 356.32918 345.75536 334.61554 323.01272 311.20090 299.06508 286.86226
 274.56844 262.45962 250.46281 239.75799 229.87417 220.97235 213.14853 206.14471
 199.97289 194.90507 191.48125 189.51743 188.54861 188.60679 189.43597 190.73815
 192.45733 194.54651 196.80369 199.15687 201.59605 204.07023 206.15242 207.98860
 209.60878 210.74796 210.97114 211.19332 211.12450 210.82368 210.45086 210.07504
 209.68622 209.39040 209.19258 209.05076 208.97294 209.29812 209.67830 210.06148
 210.84866 212.02084 213.26503 215.04221 216.96439 219.00157 221.09075 223.16793
 225.22211 227.30029 229.39147 231.49165 233.61483 235.78101 238.03119 240.39537
 243.01055 245.25573 247.25191 249.01109 250.42227 251.53945 252.35564 252.66582
 252.69700 252.46518 251.81936 250.76154 249.36172 247.51690 245.42008 243.24726
 241.03244 238.83062 236.64480 234.47798 232.33216 230.19334 228.21352 226.36470
 224.64188 223.10806 221.73225 220.49843 219.37461 218.32879 217.42697 216.56215
 215.79833 214.97251 214.06469 213.42287 212.86705 213.30348 214.33459 216.02237
 217.68401 219.56143 221.23187 222.45401 223.85263 225.63763 228.30862 231.21384
 233.63536 235.84279 237.95450 240.55481 243.72707 247.34323 251.22070 255.00783
 258.20047 260.97113 263.63852 266.28073 268.75290 270.92609 272.73935 274.36301
 275.86871 277.57294 279.11823 280.48517 281.67502 282.73450 283.70551 284.59558
 285.41241 286.14908 286.79514 287.66373
 366.78100 356.32815 345.75329 334.61244 323.00858 311.19573 299.05887 286.85502
 274.56017 262.45031 250.45246 239.74660 229.86175 220.95890 213.13404 206.12919
 199.95633 194.88748 191.46262 189.49777 188.52792 188.58506 189.41321 190.71435
 192.43250 194.52065 196.77679 199.12894 201.56708 204.04023 206.12137 207.95652
 209.57567 210.71381 210.93596 211.15710 211.08725 210.78539 210.41154 210.03469
 209.64483 209.34798 209.14912 209.00627 208.92742 209.25156 209.63071 210.01285
 210.79900 211.97014 213.21329 214.98944 216.91058 218.94673 221.03487 223.11102
 225.16416 227.24131 229.33146 231.43060 233.55275 235.71789 237.96704 240.33019
 242.94433 245.18848 247.18362 248.94177 250.35191 251.46806 252.28321 252.59235
 252.62250 252.38964 251.74279 250.68394 249.28308 247.43723 245.33937 243.16552
 240.94966 238.74681 236.55996 234.39210 232.24525 230.10539 228.12454 226.27468
 224.55083 223.01598 221.63912 220.40427 219.27941 218.23256 217.32971 216.46385
 215.69900 214.87214 213.96329 213.32043 212.76358 213.25940 214.43082 216.12248
 217.82498 219.68257 221.32825 222.53296 223.96886 225.82407 228.44269 231.19905
 233.43730 235.42824 237.45874 240.15141 243.46263 247.18396 251.11693 254.92677
 258.14322 260.93478 263.60812 266.24994 268.71625 270.88406 272.69675 274.32394
 275.85550 277.56241 279.10709 280.47357 281.66293 282.72116 283.69312 284.58450
 285.39948 286.13589 286.78241 287.65018
 366.78100 356.32688 345.75076 334.60864 323.00352 311.18940 299.05128 286.84616
 274.55005 262.43893 250.43981 239.73269 229.84657 220.94245 213.11633 206.11021
 199.93609 194.86597 191.43985 189.47373 188.50261 188.55849 189.38538 190.68526
 192.40214 194.48902 196.74390 199.09478 201.53166 204.00354 206.08342 207.91730
 209.53518 210.67206 210.89294 211.11282 211.04171 210.73859 210.36347 209.98535
 209.59423 209.29611 209.09599 208.95187 208.87175 209.19463 209.57251 209.95339
 210.73827 211.90815 213.15003 214.92492 216.84480 218.87968 220.96656 223.04144
 225.09332 227.16920 229.25808 231.35596 233.47684 235.64072 237.88860 240.25048
 242.86336 245.10625 247.10013 248.85701 250.26589 251.38077 252.19465 252.50253
 252.53141 252.29729 251.64917 250.58905 249.18693 247.33981 245.24069 243.06558
 240.84846 238.64434 236.45622 234.28710 232.13898 229.99786 228.01574 226.16462
 224.43950 222.90338 221.52526 220.28914 219.16302 218.11490 217.21079 216.34367
 215.57755 214.74943 213.83931 213.19519 212.63707 213.20082 214.53275 216.24493
 217.95508 219.79251 221.39853 222.57753 224.11139 226.09065 228.53101 231.11534
 233.22926 235.04556 236.96140 239.76129 243.22009 247.04593 251.02690 254.85318
 258.09152 260.90488 263.58344 266.22330 268.68503 270.85101 272.66760 274.31061
 275.83594 277.55118 279.09521 280.46222 281.65112 282.70944 283.68176 284.57385
 285.39056 286.12894 286.77686 287.64584
 366.78100 356.32608 345.74915 334.60623 323.00031 311.18538 299.04646 286.84053
 274.54361 262.43169 250.43176 239.72384 229.83692 220.93199 213.10507 206.09814
 199.92322 194.85230 191.42537 189.45845 188.48653 188.54160 189.36768 190.66675
 192.38283 194.46891 196.72298 199.07306 201.50914 203.98021 206.05929 207.89236
 209.50944 210.64552 210.86559 211.08467 211.01275 210.70882 210.33290 209.95397
 209.56205 209.26313 209.06220 208.91728 208.83636 209.15843 209.53551 209.91558
 210.69966 211.86874 213.10981 214.88389 216.80297 218.83704 220.92312 222.99719
 225.04827 227.12335 229.21142 231.30850 233.42858 235.59165 237.83873 240.19980
 242.81188 245.05396 247.04703 248.80311 250.21119 251.32526 252.13834 252.44541
 252.47349 252.23857 251.58964 250.52872 249.12580 247.27787 245.17795 243.00202
 240.78410 238.57918 236.39025 234.22033 232.07141 229.92948 227.94656 226.09463
 224.36871 222.83179 221.45286 220.21594 219.08902 218.04009 217.13517 216.26724
 215.50032 214.67140 213.76047 213.11555 212.55663 213.16475 214.60149 216.39029
 218.08780 219.89453 221.47342 222.65514 224.21817 226.23409 228.54271 231.07127
 233.05522 234.65498 236.42584 239.37093 242.99623 246.93929 250.98265 254.84723
 258.11603 260.93155 263.58893 266.20096 268.63968 270.78122 272.57150 274.19876
 275.80899 277.51285 279.04523 280.40811 281.59149 282.64542 283.61029 284.49463
 285.29709 286.01212 286.62509 287.37622
 366.78100 356.32556 345.74811 334.60467 322.99822 311.18278 299.04333 286.83689
 274.53944 262.42700 250.42655 239.71811 229.83066 220.92522 213.09777 206.09033
 199.91488 194.84344 191.41599 189.44855 188.47610 188.53066 189.35621 190.65477
 192.37032 194.45588 196.70943 199.05899 201.49454 203.96510 206.04365 207.87621
 209.49276 210.62832 210.84787 211.06643 210.99398 210.68954 210.31309 209.93365
 209.54120 209.24176 209.04031 208.89487 208.81342 209.13498 209.51153 209.89109
 210.67464 211.84320 213.08375 214.85731 216.77586 218.80942 220.89497 222.96853
 225.01908 227.09364 229.18119 231.27775 233.39730 235.55986 237.80641 240.16697
 242.77852 245.02008 247.01263 248.76819 250.17574 251.28930 252.10185 252.40841
 252.43596 252.20052 251.55107 250.48963 249.08618 247.23774 245.13729 242.96085
 240.74240 238.53696 236.34751 234.17707 232.02762 229.88518 227.90173 226.04929
 224.32284 222.78540 221.40595 220.16851 219.04106 217.99162 217.08617 216.21773
 215.45028 214.62084 213.70939 213.06395 212.50450 213.14655 214.66541 216.50719
 218.18886 220.00131 221.58208 222.80452 224.30905 226.29877 228.54994 231.08705
 232.89767 234.24667 235.89851 238.99751 242.76332 246.86359 250.94022 254.82971
 258.10297 260.92181 263.56180 266.15637 268.57806 270.69427 272.47501 274.15399
 275.79108 277.44980 278.95331 280.30688 281.48532 282.53162 283.49066 284.36560
 285.16385 285.87955 286.50269 287.29678
 366.78100 356.32444 345.74587 334.60131 322.99375 311.17718 299.03662 286.82906
 274.53049 262.41693 250.41537 239.70580 229.81724 220.91068 213.08211 206.07355
 199.89699 194.82442 191.39586 189.42730 188.45373 188.50717 189.33161 190.62904
 192.34348 194.42792 196.68035 199.02879 201.46323 203.93266 206.01010 207.84154
 209.45697 210.59141 210.80985 211.02728 210.95372 210.64816 210.27059 209.89003
 209.49647 209.19590 208.99334 208.84678 208.76421 209.08465 209.46009 209.83852
 210.62096 211.78840 213.02783 214.80027 216.71771 218.75014 220.83458 222.90702
 224.95646 227.02989 229.11633 231.21177 233.33020 235.49164 237.73708 240.09651
 242.70695 244.94739 246.93882 248.69326 250.09970 251.21213 252.02357 252.32901
 252.35544 252.11888 251.46832 250.40575 249.00119 247.15163 245.05006 242.87250
 240.65294 238.44637 236.25581 234.08425 231.93368 229.79012 227.80556 225.95199
 224.22443 222.68587 221.30530 220.06674 218.93818 217.88761 216.98105 216.11149
 215.34292 214.51236 213.59980 212.95323 212.39267 213.09918 214.77570 216.61969
 218.25797 220.09262 221.67030 222.92892 224.41545 226.36815 228.60368 231.12877
 232.73581 233.85092 235.43553 238.65469 242.55812 246.76126 250.87508 254.79691
 258.07672 260.91110 263.56348 266.13901 268.54346 270.64386 272.40509 274.06937
 275.82703 277.44949 278.93427 280.26761 281.43597 282.47510 283.42810 284.29865
 285.08768 285.78424 286.38867 287.15897
 366.78100 356.32310 345.74321 334.59731 322.98841 311.17052 299.02862 286.81973
 274.51983 262.40493 250.40204 239.69114 229.80124 220.89335 213.06345 206.05356
 199.87566 194.80176 191.37187 189.40197 188.42707 188.47918 189.30228 190.59838
 192.31149 194.39459 196.64570 198.99280 201.42590 203.89401 205.97011 207.80021
 209.41432 210.54742 210.76453 210.98063 210.90573 210.59884 210.21994 209.83804
 209.44315 209.14125 208.93735 208.78946 208.70556 209.02467 209.39877 209.77587
 210.55698 211.72308 212.96118 214.73229 216.64839 218.67950 220.76260 222.83370
 224.88181 226.95391 229.03901 231.13312 233.25022 235.41033 237.65443 240.01253
 242.62164 244.86074 246.85084 248.60395 250.00905 251.12015 251.93026 252.23436
 252.25947 252.02157 251.36967 250.30578 248.89988 247.04898 244.94609 242.76719
 240.54630 238.33840 236.14650 233.97361 231.82171 229.67681 227.69092 225.83602
 224.10712 222.56723 221.18533 219.94544 218.81554 217.76364 216.85575 215.98485
 215.21495 214.38306 213.46916 212.82127 212.25937 213.03517 214.87386 216.77072
 218.38440 220.19160 221.73701 223.01373 224.53795 226.42950 228.68623 231.13063
 232.53247 233.43703 235.01317 238.34483 242.41045 246.70055 250.82159 254.72855
 258.05582 260.92258 263.58109 266.14761 268.54102 270.64078 272.34561 273.93677
 275.86600 277.47415 278.94882 280.26596 281.41339 282.44382 283.39075 284.25659
 285.04150 285.73846 286.34369 287.11496
 366.78100 356.32229 345.74157 334.59486 322.98514 311.16643 299.02371 286.81400
 274.51329 262.39757 250.39386 239.68214 229.79143 220.88272 213.05200 206.04129
 199.86257 194.78786 191.35714 189.38643 188.41072 188.46200 189.28429 190.57957
 192.29186 194.37415 196.62443 198.97072 201.40300 203.87029 205.94557 207.77486
 209.38815 210.52043 210.73672 210.95200 210.87629 210.56858 210.18886 209.80615
 209.41043 209.10772 208.90300 208.75429 208.66958 208.98786 209.36115 209.73743
 210.51772 211.68301 212.92029 214.69058 216.60586 218.63615 220.71843 222.78872
 224.83601 226.90729 228.99158 231.08486 233.20115 235.36043 237.60372 239.96101
 242.56929 244.80758 246.79686 248.54915 249.95344 251.06372 251.87301 252.17629
 252.20058 251.96186 251.30915 250.24444 248.83772 246.98601 244.88229 242.70258
 240.48087 238.27215 236.07944 233.90572 231.75301 229.60729 227.62058 225.76487
 224.03515 222.49444 221.11172 219.87101 218.74030 217.68758 216.77887 215.90715
 215.13644 214.30372 213.38901 212.74030 212.17758 212.99500 214.93166 216.92596
 218.54025 220.29265 221.81125 223.10953 224.65550 226.45268 228.73227 231.08441
 232.26540 232.99706 234.61740 238.05301 242.30017 246.65309 250.78807 254.69698
 258.04898 260.93091 263.58142 266.12308 268.49222 270.57288 272.30640 273.97372
 275.79364 277.42599 278.91492 280.25394 281.41916 282.45477 283.40851 284.28458
 285.08044 285.79312 286.41534 287.20828
 366.78100 356.32164 345.74028 334.59292 322.98256 311.16320 299.01984 286.80948
 274.50812 262.39176 250.38740 239.67504 229.78368 220.87431 213.04295 206.03159
 199.85223 194.77687 191.34551 189.37415 188.39779 188.44843 189.27007 190.56471
 192.27635 194.35799 196.60763 198.95327 201.38491 203.85155 205.92619 207.75483
 209.36747 210.49911 210.71475 210.92939 210.85303 210.54467 210.16431 209.78094
 209.38458 209.08122 208.87586 208.72650 208.64114 208.95878 209.33142 209.70706
 210.48670 211.65134 212.88798 214.65762 216.57226 218.60190 220.68354 222.75318
 224.79982 226.87046 228.95410 231.04674 233.16238 235.32102 237.56366 239.92030
 242.52793 244.76557 246.75421 248.50585 249.90949 251.01913 251.82777 252.13041
 252.15405 251.91469 251.26133 250.19597 248.78861 246.93625 244.83189 242.65153
 240.42917 238.21981 236.02645 233.85209 231.69873 229.55237 227.56501 225.70865
 223.97829 222.43693 221.05356 219.81220 218.68084 217.62748 216.71812 215.84576
 215.07440 214.24104 213.32568 212.67632 212.11296 212.96947 215.00096 217.06158
 218.65315 220.36772 221.88025 223.22766 224.77835 226.47697 228.76872 231.03555
 231.98422 232.57503 234.19386 237.85196 242.18579 246.60432 250.71405 254.61874
 258.01187 260.92444 263.59604 266.12256 268.48105 270.55536 272.32663 274.02426
 275.74908 277.39276 278.87820 280.20947 281.37302 282.40643 283.35800 284.22781
 285.01920 285.72806 286.34717 287.13614
 366.78100 356.32069 345.73838 334.59007 322.97876 311.15845 299.01414 286.80283
 274.50051 262.38320 250.37789 239.66458 229.77227 220.86196 213.02965 206.01734
 199.83703 194.76072 191.32841 189.35610 188.37879 188.42848 189.24916 190.54285
 192.25354 194.33423 196.58292 198.92761 201.35830 203.82399 205.89768 207.72537
 209.33706 210.46775 210.68244 210.89613 210.81881 210.50950 210.12819 209.74388
 209.34657 209.04226 208.83595 208.68564 208.59933 208.91602 209.28771 209.66240
 210.44109 211.60478 212.84046 214.60915 216.52284 218.55153 220.63222 222.70091
 224.74660 226.81629 228.89898 230.99067 233.10536 235.26305 237.50474 239.86043
 242.46711 244.70380 246.69149 248.44218 249.84487 250.95356 251.76125 252.06294
 252.08563 251.84532 251.19101 250.12470 248.71639 246.86308 244.75776 242.57645
 240.35314 238.14283 235.94852 233.77321 231.61890 229.47159 227.48328 225.62597
 223.89466 222.35235 220.96804 219.72573 218.59341 217.53910 216.62879 215.75548
 214.98317 214.14886 213.23255 212.58224 212.01793 212.92851 215.08321 217.22174
 218.74484 220.41396 221.92314 223.34790 224.89920 226.53468 228.86339 230.94437
 231.76810 232.29373 234.00909 237.68239 242.05550 246.43770 250.59828 254.50922
 257.93658 260.90634 263.60324 266.14716 268.51538 270.61337 272.38678 274.04346
 275.73917 277.46152 278.99603 280.35809 281.54236 282.59641 283.56750 284.46750
 285.29587 286.06348 286.75388 287.63370
 366.78100 356.31959 345.73617 334.58676 322.97434 311.15293 299.00751 286.79510
 274.49168 262.37327 250.36686 239.65244 229.75903 220.84761 213.01420 206.00078
 199.81937 194.74196 191.30854 189.33513 188.35671 188.40530 189.22488 190.51747
 192.22705 194.30664 196.55423 198.89781 201.32740 203.79198 205.86457 207.69115
 209.30174 210.43133 210.64491 210.85750 210.77908 210.46867 210.08625 209.70084
 209.30242 208.99701 208.78960 208.63818 208.55077 208.86635 209.23694 209.61052
 210.38811 211.55070 212.78528 214.55287 216.46545 218.49304 220.57262 222.64021
 224.68479 226.75338 228.83497 230.92555 233.03914 235.19572 237.43631 239.79089
 242.39648 244.63207 246.61865 248.36824 249.76982 250.87741 251.68399 251.98458
 252.00616 251.76475 251.10934 250.04192 248.63251 246.77809 244.67168 242.48926
 240.26485 238.05344 235.85802 233.68161 231.52619 229.37778 227.38836 225.52995
 223.79753 222.25412 220.86871 219.62529 218.49188 217.43646 216.52505 215.65063
 214.87722 214.04181 213.12439 212.47298 211.90756 212.87741 215.16881 217.39153
 218.81949 220.44890 221.99129 223.49879 225.04036 226.62759 228.95784 230.78600
 231.53627 232.02400 233.80508 237.50349 241.93315 246.33940 250.50520 254.39928
 257.84149 260.86591 263.61456 266.19131 268.57812 270.71039 272.48984 274.00732
 275.86877 277.51028 279.05347 280.41827 281.60385 282.65863 283.62830 284.52057
 285.33884 286.07626 286.71957 287.59415
 366.78100 356.31880 345.73461 334.58441 322.97121 311.14901 299.00282 286.78962
 274.48542 262.36622 250.35903 239.64383 229.74963 220.83744 213.00324 205.98904
 199.80684 194.72865 191.29445 189.32025 188.34105 188.38886 189.20766 190.49946
 192.20826 194.28707 196.53387 198.87667 201.30548 203.76928 205.84108 207.66688
 209.27669 210.40549 210.61829 210.83009 210.75090 210.43970 210.05650 209.67031
 209.27111 208.96491 208.75671 208.60452 208.51632 208.83112 209.20092 209.57373
 210.35053 211.51233 212.74613 214.51294 216.42474 218.45154 220.53035 222.59715
 224.64095 226.70875 228.78956 230.87936 232.99216 235.14796 237.38777 239.74157
 242.34637 244.58118 246.56698 248.31578 249.71658 250.82339 251.62919 251.92899
 251.94979 251.70760 251.05140 249.98320 248.57300 246.71781 244.61061 242.42741
 240.20222 237.99002 235.79382 233.61662 231.46043 229.31123 227.32103 225.46183
 223.72864 222.18444 220.79824 219.55405 218.41985 217.36365 216.45145 215.57626
 214.80206 213.96586 213.04766 212.39547 211.82927 212.84674 215.25064 217.52699
 218.88608 220.49097 222.07346 223.64345 225.17259 226.70770 229.00090 230.63524
 231.25821 231.70331 233.54456 237.33653 241.83246 246.25142 250.40562 254.29045
 257.74832 260.81577 263.61084 266.21381 268.61584 270.76645 272.55405 274.14911
 275.81219 277.52087 279.06467 280.42877 281.61368 282.66687 283.63647 284.52490
 285.33951 286.07675 286.70490 287.57721
 366.78100 356.31866 345.73432 334.58398 322.97064 311.14830 299.00196 286.78861
 274.48427 262.36493 250.35759 239.64225 229.74791 220.83557 213.00123 205.98689
 199.80455 194.72621 191.29187 189.31753 188.33819 188.38584 189.20450 190.49616
 192.20482 194.28348 196.53014 198.87280 201.30146 203.76512 205.83678 207.66244
 209.27210 210.40076 210.61341 210.82507 210.74573 210.43439 210.05105 209.66471
 209.26537 208.95903 208.75069 208.59835 208.51001 208.82467 209.19433 209.56699
 210.34364 211.50530 212.73896 214.50562 216.41728 218.44394 220.52260 222.58926
 224.63292 226.70058 228.78124 230.87090 232.98356 235.13921 237.37887 239.73253
 242.33719 244.57185 246.55751 248.30617 249.70683 250.81349 251.61915 251.91881
 251.93947 251.69713 251.04079 249.97244 248.56210 246.70676 244.59942 242.41608
 240.19074 237.97840 235.78206 233.60472 231.44838 229.29904 227.30870 225.44936
 223.71602 222.17167 220.78533 219.54099 218.40665 217.35031 216.43797 215.56263
 214.78829 213.95195 213.03361 212.38127 211.81493 212.85229 215.30318 217.65283
 218.96915 220.54128 222.15892 223.76923 225.30695 226.77341 229.01477 230.50005
 230.97495 231.36458 233.29126 237.20129 241.75262 246.17313 250.31635 254.18927
 257.67050 260.78485 263.62167 266.24094 268.64926 270.80716 272.58752 274.19095
 275.79373 277.52200 279.06927 280.43286 281.61826 282.67181 283.64069 284.53067
 285.34308 286.07904 286.71140 287.58539
 366.78100 356.31844 345.73387 334.58331 322.96975 311.14719 299.00062 286.78706
 274.48250 262.36294 250.35537 239.63981 229.74525 220.83269 212.99812 205.98356
 199.80100 194.72244 191.28787 189.31331 188.33375 188.38119 189.19962 190.49106
 192.19950 194.27793 196.52437 198.86681 201.29525 203.75868 205.83012 207.65556
 209.26500 210.39343 210.60587 210.81731 210.73775 210.42618 210.04262 209.65606
 209.25650 208.94993 208.74137 208.58881 208.50025 208.81468 209.18412 209.55656
 210.33300 211.49443 212.72787 214.49431 216.40574 218.43218 220.51062 222.57706
 224.62049 226.68793 228.76837 230.85781 232.97024 235.12568 237.36512 239.71856
 242.32299 244.55743 246.54287 248.29131 249.69174 250.79818 251.60362 251.90306
 251.92349 251.68093 251.02437 249.95580 248.54524 246.68968 244.58212 242.39855
 240.17299 237.96043 235.76387 233.58630 231.42974 229.28018 227.28962 225.43005
 223.69649 222.15193 220.76537 219.52080 218.38624 217.32968 216.41712 215.54155
 214.76699 213.93043 213.01187 212.35930 211.79274 212.85564 215.36684 217.75989
 219.07318 220.59120 222.22835 223.89497 225.41547 226.84041 229.02037 230.33531
 230.67140 231.03445 233.07336 237.08842 241.67812 246.09645 250.23618 254.11281
 257.61734 260.77173 263.64313 266.27039 268.67859 270.83627 272.60449 274.19235
 275.79678 277.52652 279.07623 280.44232 281.62744 282.68298 283.65289 284.54254
 285.35825 286.09424 286.73151 287.61340
 366.78100 356.31783 345.73265 334.58148 322.96730 311.14413 298.99696 286.78278
 274.47761 262.35744 250.34926 239.63309 229.73791 220.82474 212.98957 205.97439
 199.79122 194.71204 191.27687 189.30170 188.32152 188.36835 189.18617 190.47700
 192.18483 194.26265 196.50848 198.85031 201.27813 203.74096 205.81178 207.63661
 209.24544 210.37326 210.58509 210.79591 210.71574 210.40357 210.01939 209.63222
 209.23205 208.92487 208.71570 208.56252 208.47335 208.78718 209.15600 209.52783
 210.30365 211.46448 212.69731 214.46313 216.37396 218.39978 220.47761 222.54344
 224.58626 226.65309 228.73292 230.82174 232.93357 235.08839 237.32722 239.68005
 242.28387 244.51770 246.50252 248.25035 249.65018 250.75600 251.56083 251.85966
 251.87948 251.63631 250.97913 249.90996 248.49879 246.64261 244.53444 242.35026
 240.12409 237.91092 235.71374 233.53557 231.37840 229.22822 227.23705 225.37687
 223.64270 222.09753 220.71035 219.46518 218.33000 217.27283 216.35966 215.48348
 214.70831 213.87113 212.95196 212.29879 211.73161 212.83914 215.45578 217.86555
 219.15608 220.68359 222.25435 223.92610 225.54666 226.93463 229.04155 230.22052
 230.39751 230.68394 232.81752 236.97153 241.61295 246.04784 250.18480 254.05292
 257.57401 260.76141 263.66348 266.29886 268.70654 270.86633 272.62048 274.19318
 275.79498 277.52670 279.07889 280.44638 281.63251 282.68857 283.65845 284.54999
 285.36395 286.10162 286.74573 287.62558
 366.78100 356.31743 345.73186 334.58029 322.96572 311.14215 298.99458 286.78001
 274.47444 262.35388 250.34531 239.62874 229.73317 220.81960 212.98403 205.96846
 199.78489 194.70532 191.26975 189.29418 188.31361 188.36004 189.17747 190.46790
 192.17533 194.25277 196.49820 198.83963 201.26706 203.72949 205.79992 207.62435
 209.23278 210.36021 210.57164 210.78207 210.70150 210.38893 210.00436 209.61679
 209.21622 208.90866 208.69909 208.54552 208.45595 208.76938 209.13781 209.50924
 210.28467 211.44510 212.67753 214.44296 216.35339 218.37882 220.45625 222.52168
 224.56411 226.63055 228.70998 230.79841 232.90984 235.06427 237.30270 239.65513
 242.25856 244.49199 246.47642 248.22385 249.62328 250.72871 251.53314 251.83157
 251.85100 251.60744 250.94987 249.88030 248.46873 246.61216 244.50359 242.31902
 240.09245 237.87888 235.68131 233.50274 231.34517 229.19460 227.20303 225.34246
 223.60789 222.06233 220.67476 219.42919 218.29362 217.23605 216.32248 215.44591
 214.67034 213.83277 212.91320 212.25963 211.69206 212.83353 215.53040 217.99031
 219.23155 220.74979 222.35013 224.01880 225.54572 226.95811 229.08705 230.24933
 230.13361 230.16830 232.59303 236.92163 241.57944 246.01738 250.13948 253.99095
 257.52707 260.75027 263.68637 266.33197 268.74194 270.90308 272.64267 274.19855
 275.79413 277.52701 279.08157 280.44992 281.63708 282.69479 283.66742 284.55750
 285.37686 286.11832 286.77002 287.67172
 366.78100 356.31720 345.73139 334.57959 322.96478 311.14098 298.99317 286.77837
 274.47256 262.35176 250.34295 239.62615 229.73034 220.81654 212.98073 205.96493
 199.78112 194.70132 191.26551 189.28971 188.30890 188.35510 189.17229 190.46249
 192.16968 194.24688 196.49207 198.83327 201.26047 203.72266 205.79286 207.61705
 209.22525 210.35244 210.56364 210.77383 210.69303 210.38022 209.99542 209.60761
 209.20681 208.89900 208.68920 208.53539 208.44559 208.75878 209.12698 209.49817
 210.27337 211.43356 212.66576 214.43095 216.34115 218.36634 220.44354 222.50873
 224.55093 226.61713 228.69632 230.78452 232.89571 235.04991 237.28810 239.64030
 242.24349 244.47669 246.46088 248.20808 249.60727 250.71247 251.51666 251.81486
 251.83405 251.59025 250.93244 249.86264 248.45083 246.59403 244.48522 242.30042
 240.07361 237.85981 235.66200 233.48320 231.32540 229.17459 227.18279 225.32198
 223.58718 222.04137 220.65357 219.40776 218.27196 217.21415 216.30035 215.42354
 214.64774 213.80993 212.89013 212.23632 211.66852 212.83740 215.59904 218.11142
 219.31961 220.79108 222.46364 224.15666 225.57251 226.97704 229.03180 230.12219
 229.86301 229.80019 232.42813 236.88425 241.55309 245.97964 250.08243 253.92427
 257.47922 260.74173 263.71289 266.37112 268.78424 270.94556 272.66888 274.20715
 275.79282 277.52585 279.08078 280.45050 281.63864 282.69540 283.66745 284.55789
 285.37692 286.11804 286.77133 287.67831
 366.78100 356.31707 345.73114 334.57921 322.96428 311.14035 298.99242 286.77749
 274.47156 262.35063 250.34170 239.62477 229.72884 220.81491 212.97898 205.96305
 199.77912 194.69919 191.26326 189.28733 188.30640 188.35247 189.16954 190.45961
 192.16669 194.24376 196.48883 198.82990 201.25697 203.71904 205.78911 207.61318
 209.22125 210.34832 210.55939 210.76946 210.68853 210.37560 209.99067 209.60274
 209.20181 208.89388 208.68395 208.53002 208.44009 208.75316 209.12123 209.49230
 210.26737 211.42744 212.65951 214.42458 216.33465 218.35972 220.43679 222.50186
 224.54393 226.61000 228.68907 230.77714 232.88821 235.04228 237.28035 239.63242
 242.23549 244.46856 246.45263 248.19970 249.59877 250.70384 251.50791 251.80598
 251.82506 251.58113 250.92320 249.85327 248.44134 246.58441 244.47548 242.29055
 240.06362 237.84969 235.65176 233.47283 231.31490 229.16397 227.17204 225.31111
 223.57618 222.03025 220.64232 219.39639 218.26046 217.20253 216.28860 215.41167
 214.63574 213.79781 212.87788 212.22395 211.65602 212.84866 215.66641 218.22075
 219.41646 220.85136 222.52347 224.27577 225.69728 227.04036 228.89963 229.86630
 229.59158 229.55766 232.29169 236.83347 241.51694 245.93991 250.02533 253.86003
 257.43518 260.73587 263.74228 266.41312 268.82687 270.98633 272.69376 274.21185
 275.79013 277.52368 279.07993 280.44891 281.63724 282.69534 283.66763 284.55917
 285.37744 286.11783 286.77209 287.68289
 366.78100 356.31699 345.73098 334.57897 322.96396 311.13995 298.99193 286.77692
 274.47091 262.34990 250.34089 239.62388 229.72787 220.81386 212.97785 205.96184
 199.77782 194.69781 191.26180 189.28579 188.30478 188.35077 189.16776 190.45775
 192.16474 194.24173 196.48671 198.82770 201.25469 203.71668 205.78667 207.61066
 209.21865 210.34564 210.55663 210.76662 210.68561 210.37259 209.98758 209.59957
 209.19856 208.89055 208.68054 208.52653 208.43652 208.74951 209.11750 209.48848
 210.26347 211.42346 212.65545 214.42044 216.33043 218.35542 220.43241 222.49740
 224.53939 226.60537 228.68436 230.77235 232.88334 235.03733 237.27532 239.62731
 242.23030 244.46329 246.44728 248.19427 249.59325 250.69824 251.50223 251.80022
 251.81921 251.57520 250.91719 249.84718 248.43517 246.57816 244.46914 242.28413
 240.05712 237.84311 235.64510 233.46609 231.30808 229.15707 227.16506 225.30405
 223.56904 222.02302 220.63501 219.38900 218.25299 217.19498 216.28097 215.40396
 214.62795 213.78994 212.86993 212.21591 211.64790 212.86337 215.73503 218.32205
 219.50104 220.94513 222.57884 224.33583 225.84837 227.12794 228.75117 229.59970
 229.32146 229.35593 232.16832 236.76640 241.48549 245.90582 249.97472 253.79974
 257.39166 260.72955 263.77084 266.45413 268.86880 271.02405 272.71762 274.21613
 275.78580 277.51959 279.07608 280.44791 281.63736 282.69461 283.66690 284.55728
 285.37595 286.11813 286.77151 287.68799
 366.78100 356.31695 345.73091 334.57886 322.96382 311.13977 298.99173 286.77668
 274.47064 262.34959 250.34055 239.62350 229.72746 220.81341 212.97737 205.96132
 199.77728 194.69723 191.26119 189.28514 188.30410 188.35005 189.16701 190.45696
 192.16392 194.24087 196.48583 198.82678 201.25374 203.71569 205.78565 207.60960
 209.21756 210.34451 210.55547 210.76542 210.68437 210.37133 209.98628 209.59824
 209.19719 208.88915 208.67910 208.52506 208.43501 208.74797 209.11592 209.48688
 210.26183 211.42179 212.65374 214.41870 216.32865 218.35361 220.43056 222.49552
 224.53747 226.60343 228.68238 230.77034 232.88129 235.03525 237.27320 239.62516
 242.22811 244.46107 246.44502 248.19198 249.59093 250.69588 251.49984 251.79779
 251.81675 251.57270 250.91466 249.84461 248.43257 246.57552 244.46648 242.28143
 240.05439 237.84034 235.64230 233.46325 231.30521 229.15416 227.16212 225.30107
 223.56603 222.01998 220.63194 219.38589 218.24985 217.19180 216.27776 215.40071
 214.62467 213.78662 212.86658 212.21253 211.64449 212.88159 215.80438 218.41147
 219.58945 221.04913 222.65434 224.35596 225.93704 227.20956 228.64418 229.37743
 229.04379 229.13557 232.05806 236.70810 241.46028 245.87827 249.93539 253.74841
 257.34955 260.71881 263.79431 266.49243 268.90848 271.05887 272.74173 274.22052
 275.78177 277.51480 279.07242 280.44351 281.63351 282.69180 283.66412 284.55417
 285.37244 286.11523 286.76849 287.68872
 366.78100 356.31703 345.73105 334.57908 322.96410 311.14013 298.99216 286.77718
 274.47121 262.35024 250.34126 239.62429 229.72831 220.81434 212.97837 205.96239
 199.77842 194.69844 191.26247 189.28650 188.30552 188.35155 189.16857 190.45860
 192.16563 194.24265 196.48768 198.82871 201.25573 203.71776 205.78778 207.61181
 209.21984 210.34686 210.55789 210.76791 210.68694 210.37397 209.98899 209.60102
 209.20004 208.89207 208.68210 208.52812 208.43815 208.75118 209.11920 209.49023
 210.26525 211.42528 212.65731 214.42233 216.33236 218.35738 220.43441 222.49944
 224.54146 226.60749 228.68651 230.77454 232.88557 235.03959 237.27762 239.62965
 242.23267 244.46570 246.44972 248.19675 249.59578 250.70080 251.50483 251.80285
 251.82188 251.57791 250.91993 249.84996 248.43798 246.58101 244.47204 242.28706
 240.06009 237.84612 235.64814 233.46917 231.31119 229.16022 227.16825 225.30727
 223.57230 222.02632 220.63835 219.39238 218.25640 217.19843 216.28445 215.40748
 214.63151 213.79353 212.87356 212.21959 211.65161 212.90640 215.87099 218.48717
 219.68782 221.14386 222.74121 224.41118 226.00507 227.23830 228.56117 229.15076
 228.75238 228.93591 231.95953 236.65652 241.42728 245.84637 249.89987 253.70517
 257.31290 260.70718 263.81223 266.52591 268.94443 271.08871 272.76123 274.22388
 275.77530 277.50793 279.06668 280.43808 281.62833 282.68704 283.65836 284.54999
 285.36713 286.10660 286.76175 287.68616
 366.78100 356.31723 345.73147 334.57970 322.96494 311.14117 298.99341 286.77864
 274.47288 262.35211 250.34334 239.62658 229.73081 220.81705 212.98128 205.96552
 199.78175 194.70198 191.26622 189.29045 188.30969 188.35592 189.17316 190.46339
 192.17063 194.24786 196.49309 198.83433 201.26156 203.72380 205.79403 207.61827
 209.22650 210.35374 210.56497 210.77520 210.69444 210.38167 209.99691 209.60914
 209.20838 208.90061 208.69084 208.53708 208.44731 208.76055 209.12878 209.50002
 210.27525 211.43549 212.66772 214.43295 216.34319 218.36842 220.44566 222.51089
 224.55313 226.61936 228.69859 230.78683 232.89806 235.05230 237.29053 239.64277
 242.24600 244.47924 246.46347 248.21070 249.60994 250.71517 251.51941 251.81764
 251.83688 251.59311 250.93535 249.86558 248.45381 246.59705 244.48828 242.30352
 240.07675 237.86299 235.66522 233.48645 231.32869 229.17792 227.18616 225.32539
 223.59063 222.04486 220.65710 219.41133 218.27556 217.21780 216.30403 215.42727
 214.65150 213.81374 212.89397 212.24021 211.67244 212.93939 215.93272 218.55318
 219.79124 221.23853 222.83917 224.49484 226.04520 227.22726 228.49919 228.91713
 228.45839 228.76768 231.87814 236.60654 241.38499 245.80684 249.86252 253.66620
 257.28110 260.69479 263.82513 266.55374 268.97360 271.11246 272.77393 274.22375
 275.76785 277.50000 279.05945 280.43005 281.62088 282.67990 283.65134 284.54205
 285.35776 286.09738 286.75238 287.67807
 366.78100 356.31753 345.73206 334.58059 322.96612 311.14266 298.99519 286.78072
 274.47525 262.35478 250.34631 239.62984 229.73437 220.82090 212.98543 205.96997
 199.78650 194.70703 191.27156 189.29609 188.31562 188.36215 189.17968 190.47021
 192.17774 194.25528 196.50081 198.84234 201.26987 203.73240 205.80293 207.62746
 209.23599 210.36352 210.57505 210.78559 210.70512 210.39265 210.00818 209.62071
 209.22024 208.91277 208.70330 208.54983 208.46037 208.77390 209.14243 209.51396
 210.28949 211.45002 212.68255 214.44808 216.35861 218.38414 220.46168 222.52721
 224.56974 226.63627 228.71580 230.80433 232.91586 235.07039 237.30892 239.66145
 242.26499 244.49852 246.48305 248.23058 249.63011 250.73564 251.54017 251.83870
 251.85823 251.61476 250.95730 249.88783 248.47636 246.61989 244.51142 242.32695
 240.10048 237.88701 235.68954 233.51108 231.35361 229.20314 227.21167 225.35120
 223.61673 222.07126 220.68379 219.43832 218.30285 217.24539 216.33192 215.45545
 214.67998 213.84251 212.92304 212.26957 211.70210 212.97731 215.99014 218.61177
 219.89146 221.34274 222.94574 224.58215 226.05603 227.20045 228.44389 228.68912
 228.18112 228.62711 231.81085 236.55399 241.33711 245.76360 249.82538 253.63028
 257.24982 260.67923 263.83148 266.57428 268.99600 271.12799 272.78134 274.22125
 275.75882 277.49045 279.04968 280.42233 281.61313 282.67123 283.64392 284.53278
 285.34885 286.08893 286.74289 287.67230
 366.78100 356.31786 345.73272 334.58157 322.96743 311.14429 298.99715 286.78301
 274.47786 262.35772 250.34958 239.63344 229.73829 220.82515 212.99001 205.97487
 199.79173 194.71258 191.27744 189.30230 188.32216 188.36902 189.18687 190.47773
 192.18559 194.26345 196.50930 198.85116 201.27902 203.74188 205.81274 207.63759
 209.24645 210.37431 210.58617 210.79703 210.71688 210.40474 210.02060 209.63346
 209.23331 208.92617 208.71703 208.56389 208.47475 208.78860 209.15746 209.52932
 210.30518 211.46604 212.69889 214.46475 216.37561 218.40147 220.47932 222.54518
 224.58804 226.65490 228.73476 230.82361 232.93547 235.09033 237.32919 239.68205
 242.28590 244.51976 246.50462 248.25248 249.65234 250.75819 251.56305 251.86191
 251.88177 251.63862 250.98148 249.91234 248.50120 246.64506 244.53691 242.35277
 240.12663 237.91349 235.71635 233.53820 231.38106 229.23092 227.23978 225.37963
 223.64549 222.10035 220.71321 219.46807 218.33292 217.27578 216.36264 215.48650
 214.71136 213.87421 212.95507 212.30193 211.73479 213.01672 216.04544 218.66345
 219.98567 221.45369 223.05809 224.66571 226.05209 227.17183 228.38452 228.46971
 227.92691 228.51003 231.75258 236.49832 241.28525 245.71983 249.79129 253.59840
 257.21909 260.65872 263.82895 266.58682 269.01038 271.13379 272.78302 274.21786
 275.75015 277.48105 279.04123 280.41336 281.60507 282.66449 283.63657 284.52768
 285.34341 286.08368 286.73822 287.67075
 366.78100 356.31821 345.73343 334.58264 322.96885 311.14607 298.99928 286.78549
 274.48070 262.36092 250.35313 239.63734 229.74256 220.82977 212.99498 205.98020
 199.79741 194.71862 191.28384 189.30905 188.32926 188.37647 189.19469 190.48590
 192.19411 194.27233 196.51854 198.86075 201.28897 203.75218 205.82339 207.64861
 209.25782 210.38603 210.59825 210.80946 210.72967 210.41788 210.03410 209.64731
 209.24752 208.94074 208.73195 208.57916 208.49038 208.80459 209.17380 209.54602
 210.32223 211.48344 212.71665 214.48287 216.39408 218.42029 220.49851 222.56472
 224.60793 226.67515 228.75536 230.84457 232.95679 235.11200 237.35121 239.70442
 242.30864 244.54285 246.52806 248.27628 249.67649 250.78270 251.58792 251.88713
 251.90734 251.66456 251.00777 249.93898 248.52820 246.67241 244.56462 242.38083
 240.15505 237.94226 235.74547 233.56769 231.41090 229.26111 227.27033 225.41054
 223.67675 222.13197 220.74518 219.50039 218.36560 217.30882 216.39603 215.52024
 214.74546 213.90867 212.98988 212.33710 211.77031 213.05768 216.09920 218.70985
 220.07462 221.57047 223.17024 224.74335 226.04926 227.14796 228.31627 228.26219
 227.69672 228.40936 231.69870 236.44012 241.23114 245.67732 249.76143 253.57198
 257.19016 260.63443 263.81842 266.59161 269.01691 271.12982 272.77740 274.21198
 275.74344 277.47504 279.03543 280.40845 281.60059 282.66028 283.63287 284.52411
 285.34021 286.08154 286.73584 287.67258
 366.78100 356.31858 345.73416 334.58373 322.97031 311.14789 299.00147 286.78805
 274.48362 262.36420 250.35678 239.64136 229.74694 220.83451 213.00009 205.98567
 199.80325 194.72482 191.29040 189.31598 188.33656 188.38414 189.20271 190.49429
 192.20287 194.28145 196.52803 198.87060 201.29918 203.76276 205.83434 207.65992
 209.26949 210.39807 210.61065 210.82223 210.74281 210.43138 210.04796 209.66154
 209.26212 208.95570 208.74727 208.59485 208.50643 208.82101 209.19058 209.56316
 210.33974 211.50132 212.73490 214.50147 216.41305 218.43963 220.51821 222.58479
 224.62836 226.69594 228.77652 230.86610 232.97868 235.13425 237.37383 239.72741
 242.33199 244.56657 246.55214 248.30072 249.70130 250.80788 251.61346 251.91303
 251.93361 251.69119 251.03477 249.96634 248.55592 246.70050 244.59308 242.40966
 240.18423 237.97181 235.77539 233.59797 231.44155 229.29212 227.30170 225.44228
 223.70886 222.16444 220.77801 219.53359 218.39917 217.34275 216.43033 215.55490
 214.78048 213.94406 213.02564 212.37322 211.80679 213.09897 216.15190 218.75014
 220.16191 221.68974 223.28384 224.81003 226.04959 227.13681 228.24442 228.05974
 227.48274 228.32301 231.65167 236.38020 241.17293 245.63394 249.73535 253.55240
 257.16519 260.60779 263.80157 266.58838 269.01404 271.11417 272.76172 274.20062
 275.73737 277.47058 279.03171 280.40546 281.59821 282.65860 283.63284 284.52347
 285.33929 286.08084 286.73550 287.67361
 366.78100 356.31903 345.73505 334.58508 322.97210 311.15013 299.00415 286.79118
 274.48720 262.36823 250.36125 239.64628 229.75230 220.84033 213.00635 205.99238
 199.81041 194.73243 191.29846 189.32448 188.34551 188.39353 189.21256 190.50458
 192.21361 194.29263 196.53966 198.88268 201.31171 203.77573 205.84776 207.67378
 209.28381 210.41284 210.62586 210.83789 210.75891 210.44794 210.06496 209.67899
 209.28001 208.97404 208.76606 208.61409 208.52611 208.84114 209.21116 209.58419
 210.36122 211.52324 212.75727 214.52429 216.43632 218.46334 220.54237 222.60939
 224.65342 226.72144 228.80247 230.89249 233.00552 235.16154 237.40157 239.75560
 242.36062 244.59565 246.58167 248.33070 249.73172 250.83875 251.64477 251.94480
 251.96582 251.72385 251.06787 249.99990 248.58992 246.73495 244.62797 242.44500
 240.22003 238.00805 235.81208 233.63510 231.47913 229.33015 227.34018 225.48120
 223.74823 222.20425 220.81828 219.57430 218.44033 217.38435 216.47238 215.59741
 214.82343 213.98746 213.06948 212.41751 211.85153 213.14444 216.19908 218.78940
 220.24944 221.80063 223.39503 224.88538 226.06218 227.12357 228.16890 227.87019
 227.28358 228.24402 231.60318 236.31630 241.11478 245.59326 249.71396 253.53885
 257.14331 260.57999 263.77826 266.57782 269.00259 271.09021 272.73825 274.18399
 275.73297 277.46783 279.03049 280.40457 281.59842 282.65833 283.63321 284.52310
 285.34012 286.08093 286.73538 287.67670
 366.78100 356.31949 345.73599 334.58648 322.97397 311.15247 299.00696 286.79445
 274.49095 262.37244 250.36593 239.65143 229.75792 220.84641 213.01291 205.99940
 199.81789 194.74039 191.30688 189.33337 188.35487 188.40336 189.22285 190.51535
 192.22484 194.30433 196.55183 198.89532 201.32481 203.78931 205.86180 207.68829
 209.29879 210.42828 210.64177 210.85427 210.77576 210.46525 210.08275 209.69724
 209.29873 208.99323 208.78572 208.63421 208.54671 208.86220 209.23269 209.60619
 210.38368 211.54617 212.78067 214.54816 216.46065 218.48815 220.56764 222.63513
 224.67963 226.74812 228.82961 230.92011 233.03360 235.19009 237.43059 239.78508
 242.39057 244.62606 246.61256 248.36205 249.76354 250.87104 251.67753 251.97802
 251.99952 251.75801 251.10250 250.03500 248.62549 246.77098 244.66448 242.48197
 240.25746 238.04596 235.85045 233.67394 231.51844 229.36993 227.38042 225.52192
 223.78941 222.24590 220.86040 219.61689 218.48338 217.42788 216.51637 215.64186
 214.86836 214.03285 213.11534 212.46384 211.89833 213.19060 216.24370 218.83032
 220.32260 221.91972 223.49953 224.94685 226.09145 227.13948 228.07808 227.68764
 227.11089 228.16991 231.56180 236.25558 241.05194 245.54839 249.69389 253.52963
 257.12466 260.55145 263.75043 266.56140 268.98471 271.05881 272.71176 274.17084
 275.72809 277.46539 279.02768 280.40265 281.59641 282.65860 283.63297 284.52539
 285.34067 286.08038 286.73746 287.67764
 366.78100 356.31998 345.73697 334.58795 322.97593 311.15492 299.00990 286.79788
 274.49487 262.37685 250.37083 239.65682 229.76380 220.85278 213.01977 206.00675
 199.82573 194.74872 191.31570 189.34268 188.36467 188.41365 189.23364 190.52662
 192.23660 194.31659 196.56457 198.90855 201.33854 203.80352 205.87650 207.70349
 209.31447 210.44445 210.65844 210.87142 210.79340 210.48339 210.10137 209.71635
 209.31834 209.01332 208.80630 208.65529 208.56827 208.88425 209.25524 209.62922
 210.40720 211.57019 212.80517 214.57315 216.48614 218.51412 220.59410 222.66209
 224.70707 226.77605 228.85804 230.94902 233.06301 235.21999 237.46097 239.81596
 242.42194 244.65792 246.64491 248.39489 249.79687 250.90486 251.71184 252.01282
 252.03481 251.79379 251.13877 250.07176 248.66274 246.80872 244.70271 242.52069
 240.29667 238.08566 235.89064 233.71462 231.55961 229.41159 227.42257 225.56456
 223.83254 222.28952 220.90451 219.66149 218.52847 217.47346 216.56244 215.68842
 214.91541 214.08039 213.16338 212.51236 211.94734 213.23647 216.28217 218.88849
 220.37029 222.02301 223.62619 225.00183 226.09496 227.15747 228.05678 227.51331
 226.90369 228.09251 231.50351 236.17744 240.98344 245.50963 249.68491 253.52846
 257.11038 260.52255 263.71841 266.53830 268.95941 271.02087 272.67755 274.13977
 275.72397 277.46564 279.02866 280.40454 281.59848 282.66064 283.63507 284.52597
 285.34396 286.08295 286.74106 287.68033
 366.78100 356.32055 345.73810 334.58965 322.97820 311.15775 299.01331 286.80186
 274.49941 262.38196 250.37651 239.66306 229.77061 220.86016 213.02771 206.01526
 199.83481 194.75837 191.32592 189.35347 188.37602 188.42557 189.24612 190.53967
 192.25022 194.33077 196.57932 198.92387 201.35443 203.81998 205.89353 207.72108
 209.33263 210.46318 210.67773 210.89128 210.81383 210.50438 210.12293 209.73848
 209.34104 209.03659 208.83014 208.67969 208.59324 208.90979 209.28134 209.65589
 210.43444 211.59799 212.83354 214.60210 216.51565 218.54420 220.62475 222.69330
 224.73885 226.80840 228.89095 230.98250 233.09705 235.25460 237.49616 239.85171
 242.45826 244.69481 246.68236 248.43291 249.83546 250.94401 251.75156 252.05311
 252.07566 251.83522 251.18077 250.11432 248.70587 246.85242 244.74697 242.56552
 240.34207 238.13162 235.93717 233.76172 231.60728 229.45983 227.47138 225.61393
 223.88248 222.34003 220.95558 219.71313 218.58068 217.52623 216.61578 215.74233
 214.96989 214.13544 213.21899 212.56854 212.00409 213.28587 216.31422 218.93967
 220.44817 222.10124 223.76872 225.12726 226.07831 227.05809 227.97810 227.55196
 226.83618 227.89487 231.41646 236.12169 240.93611 245.49037 249.68333 253.53038
 257.09686 260.49109 263.68152 266.50790 268.92401 270.96921 272.62988 274.12192
 275.71497 277.45844 279.02191 280.39801 281.59421 282.65817 283.63196 284.52502
 285.34085 286.08197 286.73499 287.68265
 366.78100 356.32103 345.73905 334.59108 322.98010 311.16013 299.01615 286.80518
 274.50321 262.38623 250.38126 239.66828 229.77631 220.86633 213.03436 206.02239
 199.84241 194.76644 191.33446 189.36249 188.38551 188.43554 189.25657 190.55059
 192.26162 194.34264 196.59167 198.93670 201.36772 203.83375 205.90777 207.73580
 209.34782 210.47885 210.69388 210.90790 210.83093 210.52195 210.14098 209.75700
 209.36003 209.05606 208.85008 208.70011 208.61413 208.93116 209.30318 209.67821
 210.45724 211.62126 212.85729 214.62631 216.54034 218.56936 220.65039 222.71942
 224.76544 226.83547 228.91849 231.01052 233.12554 235.28357 237.52560 239.88162
 242.48865 244.72567 246.71370 248.46473 249.86775 250.97678 251.78480 252.08683
 252.10985 251.86988 251.21591 250.14993 248.74196 246.88898 244.78401 242.60303
 240.38006 238.17009 235.97611 233.80114 231.64716 229.50019 227.51221 225.65524
 223.92427 222.38229 220.99832 219.75634 218.62437 217.57039 216.66042 215.78745
 215.01547 214.18150 213.26552 212.61555 212.05157 213.33057 216.35233 218.97484
 220.54254 222.16264 223.86372 225.27463 226.14622 226.99168 227.80592 227.54964
 226.83443 227.75108 231.35165 236.08339 240.89481 245.46649 249.67500 253.52982
 257.08380 260.46054 263.64343 266.47369 268.88266 270.91095 272.57458 274.07245
 275.70996 277.45801 279.02106 280.39648 281.59201 282.65518 283.63071 284.52130
 285.33856 286.07745 286.73322 287.67728
 366.78100 356.32153 345.74005 334.59258 322.98210 311.16263 299.01915 286.80868
 274.50720 262.39073 250.38625 239.67378 229.78230 220.87283 213.04135 206.02988
 199.85041 194.77493 191.34346 189.37198 188.39551 188.44603 189.26756 190.56208
 192.27361 194.35513 196.60466 198.95018 201.38171 203.84823 205.92276 207.75128
 209.36381 210.49534 210.71086 210.92539 210.84891 210.54044 210.15996 209.77649
 209.38001 209.07654 208.87106 208.72159 208.63611 208.95364 209.32616 209.70169
 210.48122 211.64574 212.88227 214.65179 216.56632 218.59584 220.67737 222.74689
 224.79342 226.86394 228.94747 231.03999 233.15552 235.31404 237.55657 239.91310
 242.52062 244.75815 246.74667 248.49820 249.90172 251.01125 251.81977 252.12230
 252.14582 251.90635 251.25287 250.18740 248.77992 246.92745 244.82297 242.64250
 240.42003 238.21055 236.01708 233.84260 231.68913 229.54265 227.55518 225.69870
 223.96823 222.42675 221.04328 219.80180 218.67033 217.61685 216.70738 215.83491
 215.06343 214.22996 213.31448 212.66501 212.10153 213.37610 216.38742 219.01100
 220.62480 222.23773 223.92084 225.38577 226.27216 227.00882 227.62236 227.45285
 226.80386 227.65968 231.30476 236.04474 240.84749 245.43593 249.66702 253.53108
 257.07162 260.42950 263.60229 266.43442 268.83450 270.84430 272.51273 274.08084
 275.68179 277.42929 278.99756 280.37778 281.57764 282.64206 283.62012 284.51315
 285.32919 286.07147 286.72519 287.67105
 366.78100 356.32214 345.74129 334.59443 322.98458 311.16572 299.02286 286.81301
 274.51215 262.39630 250.39244 239.68058 229.78973 220.88087 213.05001 206.03916
 199.86030 194.78545 191.35459 189.38373 188.40788 188.45902 189.28117 190.57631
 192.28845 194.37060 196.62074 198.96689 201.39903 203.86617 205.94132 207.77046
 209.38361 210.51575 210.73189 210.94704 210.87118 210.56332 210.18347 209.80061
 209.40476 209.10190 208.89704 208.74819 208.66333 208.98148 209.35462 209.73076
 210.51091 211.67605 212.91320 214.68334 216.59848 218.62863 220.71077 222.78092
 224.82806 226.89920 228.98335 231.07649 233.19263 235.35178 237.59492 239.95207
 242.56021 244.79835 246.78750 248.53964 249.94379 251.05393 251.86307 252.16622
 252.19036 251.95151 251.29865 250.23379 248.82694 246.97508 244.87123 242.69137
 240.46951 238.26066 236.06780 233.89394 231.74109 229.59523 227.60838 225.75252
 224.02266 222.48181 221.09895 219.85810 218.72724 217.67438 216.76553 215.89367
 215.12282 214.28996 213.37510 212.72625 212.16339 213.42723 216.41319 219.05571
 220.69449 222.32260 223.96919 225.45805 226.41029 227.06079 227.47343 227.31946
 226.73117 227.58292 231.26472 236.00317 240.79997 245.40935 249.66316 253.53465
 257.06113 260.39902 263.56192 266.39481 268.78476 270.77664 272.44687 273.89151
 275.72449 277.47733 279.02115 280.38898 281.58078 282.64157 283.61566 284.50699
 285.32217 286.06265 286.71521 287.66202
 366.78100 356.32281 345.74262 334.59642 322.98723 311.16904 299.02685 286.81766
 274.51747 262.40227 250.39908 239.68789 229.79770 220.88951 213.05932 206.04912
 199.87093 194.79674 191.36655 189.39636 188.42117 188.47297 189.29578 190.59159
 192.30440 194.38721 196.63802 198.98482 201.41763 203.88544 205.96125 207.79106
 209.40486 210.53767 210.75448 210.97029 210.89510 210.58791 210.20871 209.82652
 209.43133 209.12914 208.92495 208.77676 208.69256 209.01137 209.38518 209.76199
 210.54280 211.70861 212.94641 214.71722 216.63303 218.66384 220.74665 222.81746
 224.86526 226.93707 229.02188 231.11569 233.23250 235.39231 237.63611 239.99392
 242.60273 244.84154 246.83135 248.58415 249.98896 251.09977 251.90958 252.21339
 252.23820 252.00000 251.34781 250.28362 248.87743 247.02624 244.92305 242.74385
 240.52266 238.31447 236.12228 233.94909 231.79690 229.65170 227.66551 225.81032
 224.08113 222.54094 221.15875 219.91855 218.78836 217.73617 216.82798 215.95679
 215.18659 214.35440 213.44021 212.79202 212.22983 213.48056 216.43552 219.10007
 220.76308 222.40326 224.02090 225.51393 226.53558 227.11530 227.36523 227.17000
 226.61765 227.51192 231.23099 235.96373 240.75809 245.38794 249.66176 253.54005
 257.05200 260.36966 263.52020 266.35074 268.72876 270.70135 272.37207 273.77417
 275.71243 277.48044 279.02365 280.39020 281.57776 282.63495 283.60745 284.49719
 285.30988 286.04883 286.70139 287.64560
 366.78100 356.32343 345.74385 334.59828 322.98970 311.17213 299.03056 286.82198
 274.52241 262.40783 250.40526 239.69469 229.80511 220.89754 213.06796 206.05839
 199.88082 194.80724 191.37767 189.40809 188.43352 188.48595 189.30937 190.60580
 192.31922 194.40265 196.65407 199.00150 201.43493 203.90335 205.97978 207.81020
 209.42463 210.55806 210.77548 210.99191 210.91733 210.61076 210.23219 209.85061
 209.45604 209.15446 208.95089 208.80332 208.71974 209.03917 209.41359 209.79102
 210.57245 211.73887 212.97730 214.74872 216.66515 218.69658 220.78000 222.85143
 224.89985 226.97228 229.05771 231.15213 233.26956 235.42998 237.67441 240.03284
 242.64226 244.88169 246.87211 248.62554 250.03096 251.14239 251.95282 252.25724
 252.28267 252.04509 251.39352 250.32995 248.92437 247.07380 244.97122 242.79265
 240.57208 238.36450 236.17293 234.00035 231.84878 229.70421 227.71863 225.86406
 224.13548 222.59591 221.21434 219.97476 218.84519 217.79361 216.88604 216.01547
 215.24589 214.41432 213.50074 212.85317 212.29160 213.53130 216.46021 219.13815
 220.83379 222.47935 224.07379 225.56578 226.64282 227.17122 227.28860 227.00095
 226.46829 227.45110 231.20607 235.92996 240.72346 245.36905 249.66028 253.54379
 257.04330 260.34271 263.48080 266.30722 268.67224 270.62289 272.29428 273.72278
 275.67377 277.45193 279.00061 280.36746 281.55637 282.61346 283.58658 284.47488
 285.28830 286.02707 286.68192 287.62558
 366.78100 356.32404 345.74507 334.60011 322.99215 311.17518 299.03422 286.82626
 274.52730 262.41333 250.41137 239.70141 229.81244 220.90548 213.07652 206.06755
 199.89059 194.81763 191.38866 189.41970 188.44574 188.49878 189.32281 190.61985
 192.33389 194.41792 196.66996 199.01800 201.45203 203.92107 205.99811 207.82914
 209.44418 210.57822 210.79626 211.01329 210.93933 210.63337 210.25540 209.87444
 209.48048 209.17951 208.97655 208.82959 208.74662 209.06666 209.44170 209.81974
 210.60177 211.76881 213.00785 214.77988 216.69692 218.72896 220.81299 222.88503
 224.93407 227.00710 229.09314 231.18818 233.30621 235.46725 237.71229 240.07133
 242.68136 244.92140 246.91244 248.66647 250.07251 251.18455 251.99558 252.30062
 252.32666 252.08969 251.43873 250.37577 248.97081 247.12084 245.01888 242.84092
 240.62095 238.41399 236.22303 234.05106 231.90010 229.75614 227.77117 225.91721
 224.18925 222.65029 221.26932 220.03036 218.90140 217.85043 216.94347 216.07351
 215.30454 214.47358 213.56062 212.91365 212.35269 213.58195 216.48625 219.17052
 220.90378 222.55444 224.12581 225.61508 226.73318 227.23250 227.23213 226.81311
 226.29364 227.40230 231.18987 235.90207 240.69479 245.35181 249.65654 253.54500
 257.03363 260.31650 263.44177 266.26346 268.61380 270.54639 272.21875 273.67209
 275.62701 277.41525 278.96970 280.33951 281.53070 282.59079 283.56372 284.45297
 285.26648 286.00705 286.66077 287.60403
 366.78100 356.32471 345.74642 334.60213 322.99484 311.17855 299.03826 286.83097
 274.53268 262.41939 250.41810 239.70881 229.82052 220.91423 213.08594 206.07765
 199.90136 194.82907 191.40078 189.43249 188.45920 188.51291 189.33762 190.63533
 192.35004 194.43475 196.68746 199.03617 201.47088 203.94059 206.01830 207.85001
 209.46572 210.60043 210.81914 211.03685 210.96356 210.65827 210.28098 209.90069
 209.50740 209.20711 209.00482 208.85853 208.77624 209.09695 209.47266 209.85137
 210.63408 211.80179 213.04150 214.81421 216.73192 218.76463 220.84934 222.92205
 224.97176 227.04547 229.13218 231.22789 233.34660 235.50831 237.75402 240.11373
 242.72444 244.96515 246.95686 248.71157 250.11828 251.23099 252.04270 252.34841
 252.37512 252.13883 251.48854 250.42625 249.02196 247.17267 245.07138 242.89409
 240.67480 238.46851 236.27822 234.10693 231.95664 229.81335 227.82906 225.97577
 224.24848 222.71019 221.32990 220.09161 218.96332 217.91303 217.00674 216.13745
 215.36916 214.53887 213.62658 212.98029 212.42000 213.63631 216.50995 219.19987
 220.97282 222.62462 224.17911 225.66634 226.81131 227.30058 227.19026 226.60986
 226.10043 227.36195 231.18135 235.88124 240.67181 245.33549 249.65070 253.54417
 257.02313 260.29083 263.40338 266.21869 268.55688 270.47174 272.14227 273.60568
 275.57080 277.36713 278.92566 280.29810 281.49136 282.55280 283.52673 284.41785
 285.23141 285.97208 286.62396 287.57077
 366.78100 356.32540 345.74781 334.60421 322.99762 311.18202 299.04242 286.83583
 274.53823 262.42564 250.42504 239.71645 229.82885 220.92325 213.09566 206.08806
 199.91247 194.84087 191.41327 189.44568 188.47308 188.52749 189.35289 190.65129
 192.36670 194.45210 196.70551 199.05491 201.49031 203.96072 206.03912 207.87153
 209.48793 210.62334 210.84274 211.06114 210.98855 210.68395 210.30736 209.92776
 209.53516 209.23557 209.03397 208.88838 208.80678 209.12818 209.50459 209.88399
 210.66740 211.83580 213.07621 214.84961 216.76801 218.80142 220.88682 222.96023
 225.01063 227.08503 229.17244 231.26884 233.38825 235.55065 237.79705 240.15746
 242.76886 245.01027 247.00267 248.75807 250.16548 251.27888 252.09129 252.39769
 252.42510 252.18950 251.53990 250.47831 249.07471 247.22612 245.12552 242.94892
 240.73033 238.52473 236.33514 234.16454 232.01494 229.87235 227.88875 226.03616
 224.30956 222.77197 221.39237 220.15477 219.02718 217.97758 217.07199 216.20339
 215.43579 214.60620 213.69460 213.04901 212.48941 213.69160 216.53194 219.22537
 221.04260 222.68741 224.22827 225.71809 226.88585 227.37721 227.16075 226.40601
 225.90009 227.32307 231.17776 235.86671 240.65317 245.31837 249.64098 253.53851
 257.00909 260.26285 263.36371 266.17419 268.50076 270.39975 272.06934 273.56976
 275.52652 277.31851 278.87531 280.24738 281.44019 282.50180 283.47693 284.36771
 285.18106 285.92136 286.57642 287.51666
 366.78100 356.32615 345.74930 334.60645 323.00060 311.18575 299.04690 286.84105
 274.54420 262.43235 250.43250 239.72465 229.83780 220.93295 213.10610 206.09924
 199.92439 194.85354 191.42669 189.45984 188.48799 188.54314 189.36929 190.66844
 192.38459 194.47074 196.72489 199.07504 201.51119 203.98234 206.06149 207.89464
 209.51179 210.64794 210.86809 211.08724 211.01539 210.71154 210.33569 209.95684
 209.56499 209.26614 209.06529 208.92043 208.83958 209.16173 209.53888 209.91903
 210.70318 211.87233 213.11348 214.88763 216.80678 218.84093 220.92708 223.00123
 225.05238 227.12753 229.21568 231.31283 233.43298 235.59613 237.84328 240.20443
 242.81658 245.05873 247.05188 248.80803 250.21618 251.33033 252.14348 252.45063
 252.47877 252.24392 251.59507 250.53422 249.13137 247.28352 245.18367 243.00782
 240.78997 238.58512 236.39627 234.22642 232.07757 229.93572 227.95287 226.10102
 224.37517 222.83832 221.45947 220.22262 219.09577 218.04692 217.14207 216.27422
 215.50737 214.67852 213.76767 213.12282 212.56396 213.74890 216.54843 219.25366
 221.11055 222.74049 224.27048 225.76332 226.95358 227.46530 227.14320 226.20857
 225.70503 227.28525 231.17514 235.85838 240.63971 245.29993 249.62462 253.52191
 256.98495 260.22577 263.31519 266.11987 268.43765 270.32556 272.00192 273.58789
 275.47186 277.25488 278.81516 280.18796 281.38217 282.44440 283.41983 284.31125
 285.12607 285.86713 286.52231 287.46643
 366.78100 356.32688 345.75076 334.60864 323.00352 311.18940 299.05128 286.84616
 274.55004 262.43892 250.43979 239.73267 229.84655 220.94243 213.11631 206.11019
 199.93607 194.86595 191.43983 189.47371 188.50259 188.55847 189.38535 190.68523
 192.40211 194.48899 196.74387 199.09475 201.53163 204.00350 206.08338 207.91726
 209.53514 210.67202 210.89290 211.11278 211.04166 210.73854 210.36342 209.98530
 209.59418 209.29606 209.09594 208.95182 208.87170 209.19458 209.57246 209.95334
 210.73821 211.90809 213.14997 214.92485 216.84473 218.87961 220.96649 223.04137
 225.09325 227.16913 229.25801 231.35589 233.47677 235.64065 237.88853 240.25041
 242.86329 245.10617 247.10005 248.85692 250.26580 251.38068 252.19456 252.50244
 252.53132 252.29720 251.64908 250.58896 249.18684 247.33972 245.24060 243.06548
 240.84836 238.64424 236.45612 234.28700 232.13888 229.99776 228.01563 226.16451
 224.43939 222.90327 221.52515 220.28903 219.16291 218.11479 217.21067 216.34355
 215.57743 214.74931 213.83919 213.19507 212.63695 213.80476 216.56384 219.28058
 221.18430 222.78101 224.30386 225.80969 227.02179 227.55153 227.13564 226.02498
 225.51282 227.24892 231.17819 235.85495 240.62857 245.28030 249.60599 253.50594
 256.96460 260.19446 263.27176 266.07361 268.38559 270.26532 271.94296 273.46487
 275.40585 277.18707 278.73938 280.11105 281.30280 282.36597 283.34091 284.23322
 285.04980 285.79086 286.44647 287.39069
 366.78100 356.32762 345.75225 334.61087 323.00649 311.19312 299.05574 286.85136
 274.55599 262.44561 250.44723 239.74086 229.85548 220.95210 213.12673 206.12135
 199.94797 194.87860 191.45322 189.48784 188.51747 188.57409 189.40171 190.70234
 192.41996 194.50758 196.76321 199.11483 201.55245 204.02508 206.10570 207.94032
 209.55895 210.69657 210.91819 211.13882 211.06844 210.76606 210.39169 210.01431
 209.62393 209.32656 209.12718 208.98380 208.90443 209.22805 209.60667 209.98830
 210.77392 211.94454 213.18717 214.96279 216.88341 218.91904 221.00666 223.08228
 225.13491 227.21153 229.30115 231.39978 233.52140 235.68602 237.93465 240.29727
 242.91089 245.15452 247.14914 248.90676 250.31639 251.43201 252.24663 252.55526
 252.58488 252.35150 251.70413 250.64475 249.24337 247.39700 245.29862 243.12424
 240.90787 238.70449 236.51711 234.34874 232.20136 230.06098 228.07961 226.22923
 224.50485 222.96948 221.59210 220.35672 219.23135 218.18397 217.28059 216.41422
 215.64884 214.82146 213.91209 213.26871 212.71133 213.86064 216.57602 219.30998
 221.25085 222.82658 224.31770 225.83348 227.10161 227.66354 227.12369 225.85011
 225.34790 227.21429 231.17210 235.85321 240.62172 245.26253 249.58649 253.48593
 256.94046 260.15796 263.22394 266.02225 268.32712 270.19443 271.87738 273.42355
 275.34097 277.10770 278.65451 280.02185 281.21310 282.27536 283.25012 284.14352
 284.95941 285.70251 286.35977 287.30356
 366.78100 356.32841 345.75381 334.61322 323.00963 311.19703 299.06044 286.85685
 274.56226 262.45266 250.45507 239.74948 229.86488 220.96229 213.13770 206.13310
 199.96051 194.89192 191.46732 189.50273 188.53314 188.59054 189.41895 190.72036
 192.43877 194.52717 196.78358 199.13599 201.57439 204.04780 206.12921 207.96461
 209.58402 210.72243 210.94483 211.16624 211.09665 210.79505 210.42146 210.04487
 209.65528 209.35868 209.16009 209.01750 208.93890 209.26331 209.64272 210.02512
 210.81153 211.98294 213.22634 215.00275 216.92416 218.96056 221.04897 223.12538
 225.17879 227.25619 229.34660 231.44601 233.56841 235.73382 237.98323 240.34663
 242.96104 245.20545 247.20085 248.95926 250.36967 251.48607 252.30148 252.61089
 252.64130 252.40870 251.76211 250.70352 249.30292 247.45733 245.35974 243.18614
 240.97055 238.76796 236.58136 234.41377 232.26718 230.12758 228.14699 226.29740
 224.57381 223.03921 221.66262 220.42803 219.30343 218.25684 217.35425 216.48865
 215.72406 214.89747 213.98887 213.34628 212.78969 213.91743 216.58185 219.34157
 221.31917 222.85410 224.34361 225.84520 227.13852 227.78082 227.17609 225.66231
 225.12627 227.18259 231.18393 235.86340 240.62231 245.24220 249.55711 253.45256
 256.90353 260.11444 263.17282 265.97055 268.27374 270.13397 271.82001 273.46094
 275.23895 276.99521 278.55157 279.92389 281.11801 282.18170 283.15863 284.05444
 284.87109 285.61624 286.27557 287.22055
 366.78100 356.32893 345.75486 334.61478 323.01171 311.19964 299.06357 286.86050
 274.56643 262.45735 250.46028 239.75521 229.87114 220.96907 213.14500 206.14092
 199.96885 194.90078 191.47671 189.51264 188.54357 188.60149 189.43042 190.73235
 192.45128 194.54021 196.79714 199.15006 201.58899 204.06292 206.14485 207.98078
 209.60070 210.73963 210.96256 211.18449 211.11542 210.81435 210.44127 210.06520
 209.67613 209.38006 209.18199 209.03992 208.96184 209.28677 209.66670 210.04963
 210.83656 212.00849 213.25241 215.02934 216.95127 218.98820 221.07713 223.15406
 225.20798 227.28591 229.37684 231.47677 233.59970 235.76562 238.01555 240.37948
 242.99441 245.23934 247.23527 248.99419 250.40512 251.52205 252.33798 252.64791
 252.67884 252.44676 251.80069 250.74262 249.34255 247.49748 245.40041 243.22733
 241.01226 238.81019 236.62412 234.45705 232.31098 230.17190 228.19183 226.34276
 224.61969 223.08562 221.70954 220.47547 219.35140 218.30533 217.40326 216.53819
 215.77411 214.94804 214.03997 213.39790 212.84183 213.96051 216.60353 219.34796
 221.41273 222.89485 224.29344 225.85860 227.24168 227.89366 227.19876 225.54861
 224.98219 227.13577 231.18021 235.87064 240.61603 245.21066 249.51604 253.41254
 256.86615 260.07422 263.12503 265.92377 268.22690 270.08224 271.76740 273.42502
 275.15305 276.90167 278.46024 279.83228 281.02701 282.09018 283.06790 283.96295
 284.78186 285.52686 286.18814 287.12814
 366.78100 356.32948 345.75596 334.61644 323.01391 311.20239 299.06687 286.86435
 274.57083 262.46231 250.46579 239.76126 229.87774 220.97622 213.15270 206.14918
 199.97766 194.91013 191.48661 189.52309 188.55457 188.61305 189.44253 190.74501
 192.46448 194.55396 196.81144 199.16492 201.60440 204.07888 206.16136 207.99783
 209.61831 210.75779 210.98127 211.20375 211.13523 210.83470 210.46218 210.08666
 209.69814 209.40262 209.20510 209.06358 208.98605 209.31153 209.69201 210.07549
 210.86297 212.03545 213.27993 215.05740 216.97988 219.01736 221.10684 223.18432
 225.23880 227.31727 229.40875 231.50923 233.63271 235.79919 238.04967 240.41415
 243.02962 245.27510 247.27158 249.03106 250.44254 251.56002 252.37650 252.68697
 252.71845 252.48693 251.84141 250.78389 249.38437 247.53984 245.44332 243.27080
 241.05628 238.85476 236.66924 234.50272 232.35719 230.21867 228.23915 226.39063
 224.66811 223.13459 221.75907 220.52554 219.40202 218.35650 217.45498 216.59046
 215.82694 215.00142 214.09389 213.45237 212.89685 214.00381 216.61911 219.36395
 221.47707 222.95825 224.31236 225.89308 227.30183 227.92421 227.17558 225.51521
 224.93399 227.08401 231.15698 235.86815 240.60123 245.17509 249.47597 253.37633
 256.83334 260.03680 263.07962 265.87756 268.18073 270.03329 271.71646 273.37332
 275.07010 276.81140 278.36667 279.73898 280.93323 281.99576 282.97305 283.86810
 284.68680 285.43472 286.09546 287.03476
 366.78100 356.33017 345.75734 334.61851 323.01668 311.20585 299.07102 286.86919
 274.57636 262.46853 250.47270 239.76887 229.88604 220.98521 213.16238 206.15956
 199.98873 194.92190 191.49907 189.53624 188.56841 188.62758 189.45775 190.76092
 192.48109 194.57126 196.82943 199.18360 201.62377 204.09894 206.18211 208.01928
 209.64045 210.78062 211.00479 211.22796 211.16013 210.86030 210.48847 210.11364
 209.72581 209.43098 209.23415 209.09332 209.01649 209.34267 209.72384 210.10801
 210.89618 212.06935 213.31452 215.09269 217.01586 219.05403 221.14420 223.22237
 225.27754 227.35671 229.44888 231.55005 233.67422 235.84139 238.09256 240.45773
 243.07390 245.32007 247.31724 249.07741 250.48958 251.60775 252.42492 252.73609
 252.76826 252.53743 251.89261 250.83578 249.43695 247.59312 245.49729 243.32546
 241.11163 238.91080 236.72597 234.56014 232.41531 230.27748 228.29865 226.45082
 224.72899 223.19616 221.82133 220.58850 219.46567 218.42084 217.52001 216.65618
 215.89335 215.06852 214.16169 213.52086 212.96603 214.05336 216.62230 219.39369
 221.53156 223.01060 224.35606 225.92778 227.32616 227.92953 227.16063 225.52098
 224.92082 227.02991 231.12395 235.86101 240.58690 245.14429 249.44102 253.34366
 256.80170 259.99899 263.03278 265.83176 268.13754 269.98752 271.67053 273.32333
 274.98691 276.71826 278.27194 279.64288 280.83603 281.89749 282.87570 283.76913
 284.58765 285.33804 285.99911 286.93896
 366.78100 356.33084 345.75868 334.62053 323.01937 311.20921 299.07505 286.87389
 274.58174 262.47458 250.47942 239.77626 229.89410 220.99395 213.17179 206.16963
 199.99947 194.93331 191.51116 189.54900 188.58184 188.64168 189.47252 190.77637
 192.49721 194.58805 196.84689 199.20173 201.64258 204.11842 206.20226 208.04010
 209.66194 210.80279 211.02763 211.25147 211.18431 210.88516 210.51400 210.13984
 209.75268 209.45852 209.26237 209.12221 209.04605 209.37289 209.75473 210.13958
 210.92842 212.10226 213.34810 215.12694 217.05079 219.08963 221.18047 223.25931
 225.31515 227.39500 229.48784 231.58968 233.71452 235.88236 238.13421 240.50005
 243.11689 245.36373 247.36157 249.12242 250.53526 251.65410 252.47194 252.78378
 252.81663 252.58647 251.94231 250.88615 249.48799 247.64484 245.54968 243.37852
 241.16536 238.96520 236.78105 234.61589 232.47173 230.33457 228.35641 226.50926
 224.78810 223.25594 221.88178 220.64962 219.52747 218.48331 217.58315 216.71999
 215.95783 215.13368 214.22752 213.58736 213.03320 214.10132 216.62486 219.41843
 221.59024 223.06055 224.38930 225.94286 227.33530 227.94696 227.16618 225.52803
 224.90500 226.97827 231.09116 235.85796 240.57942 245.11855 249.40814 253.31053
 256.76932 259.96091 262.98734 265.78772 268.09659 269.94659 271.62726 273.27521
 274.90570 276.62448 278.17566 279.54565 280.73679 281.79984 282.77704 283.67145
 284.49011 285.23694 285.90012 286.83905
 366.78100 356.33146 345.75993 334.62239 323.02186 311.21232 299.07879 286.87825
 274.58672 262.48018 250.48565 239.78311 229.90158 221.00204 213.18051 206.17897
 200.00944 194.94390 191.52237 189.56083 188.59429 188.65476 189.48622 190.79069
 192.51215 194.60362 196.86308 199.21855 201.66001 204.13648 206.22094 208.05941
 209.68187 210.82334 211.04880 211.27327 211.20673 210.90820 210.53766 210.16412
 209.77759 209.48405 209.28852 209.14898 209.07345 209.40091 209.78338 210.16884
 210.95831 212.13277 213.37924 215.15870 217.08317 219.12263 221.21410 223.29356
 225.35003 227.43049 229.52396 231.62642 233.75188 235.92035 238.17281 240.53928
 243.15674 245.40421 247.40267 249.16414 250.57760 251.69707 252.51553 252.82800
 252.86146 252.63193 251.98839 250.93286 249.53532 247.69279 245.59825 243.42771
 241.21518 239.01564 236.83211 234.66757 232.52404 230.38750 228.40997 226.56343
 224.84290 223.31136 221.93783 220.70629 219.58476 218.54122 217.64169 216.77915
 216.01762 215.19408 214.28854 213.64901 213.09547 214.14629 216.62895 219.43616
 221.64922 223.11324 224.41426 225.94214 227.33351 227.96970 227.18069 225.52998
 224.88747 226.93611 231.06580 235.86124 240.57610 245.09474 249.37512 253.27693
 256.73654 259.92383 262.94366 265.74545 268.05826 269.90869 271.58661 273.22708
 274.82617 276.53113 278.07986 279.44919 280.63889 281.70123 282.67633 283.57233
 284.39075 285.13864 285.79947 286.74020
 366.78100 356.33206 345.76112 334.62418 323.02423 311.21529 299.08235 286.88241
 274.59147 262.48553 250.49158 239.78964 229.90870 221.00976 213.18882 206.18788
 200.01894 194.95399 191.53305 189.57211 188.60617 188.66723 189.49929 190.80434
 192.52640 194.61846 196.87852 199.23458 201.67664 204.15370 206.23875 208.07781
 209.70087 210.84293 211.06899 211.29405 211.22810 210.93016 210.56022 210.18728
 209.80134 209.50840 209.31346 209.17451 209.09957 209.42763 209.81069 210.19675
 210.98681 212.16186 213.40892 215.18898 217.11404 219.15410 221.24616 223.32622
 225.38327 227.46433 229.55839 231.66145 233.78751 235.95657 238.20962 240.57668
 243.19474 245.44280 247.44186 249.20392 250.61798 251.73803 252.55709 252.87015
 252.90421 252.67527 252.03233 250.97738 249.58044 247.73850 245.64456 243.47462
 241.26268 239.06374 236.88079 234.71685 232.57391 230.43797 228.46103 226.61509
 224.89514 223.36420 221.99126 220.76032 219.63938 218.59644 217.69750 216.83555
 216.07461 215.25167 214.34673 213.70779 213.15485 214.18953 216.63409 219.44933
 221.70827 223.16809 224.43703 225.93472 227.32108 227.98463 227.19571 225.53867
 224.88107 226.90422 231.04774 235.86803 240.57324 245.07216 249.34416 253.24509
 256.70560 259.88885 262.90106 265.70419 268.02094 269.87292 271.54730 273.18018
 274.75073 276.44107 277.98572 279.35403 280.54395 281.60452 282.57901 283.47543
 284.29282 285.04010 285.70187 286.63214
 366.78100 356.33262 345.76225 334.62587 323.02649 311.21812 299.08574 286.88636
 274.59599 262.49061 250.49723 239.79586 229.91548 221.01711 213.19673 206.19635
 200.02798 194.96360 191.54322 189.58285 188.61747 188.67909 189.51172 190.81734
 192.53996 194.63259 196.89321 199.24983 201.69246 204.17008 206.25570 208.09533
 209.71895 210.86158 211.08820 211.31382 211.24845 210.95107 210.58169 210.20932
 209.82394 209.53156 209.33719 209.19881 209.12443 209.45306 209.83668 210.22330
 211.01393 212.18955 213.43717 215.21780 217.14342 219.18405 221.27667 223.35729
 225.41492 227.49654 229.59116 231.69479 233.82141 235.99103 238.24466 240.61228
 243.23090 245.47953 247.47915 249.24177 250.65640 251.77702 252.59664 252.91027
 252.94489 252.71652 252.07414 251.01976 249.62339 247.78201 245.68863 243.51926
 241.30788 239.10950 236.92713 234.76375 232.62137 230.48600 228.50962 226.66424
 224.94487 223.41449 222.04211 220.81174 219.69136 218.64899 217.75061 216.88923
 216.12886 215.30648 214.40210 213.76373 213.21135 214.23131 216.64108 219.45711
 221.76648 223.22614 224.45921 225.92348 227.30142 227.98497 227.20280 225.55968
 224.89281 226.88196 231.03607 235.87631 240.57120 245.05257 249.31665 253.21547
 256.67514 259.85339 262.85898 265.66284 267.98492 269.83926 271.50906 273.13589
 274.68497 276.35461 277.89365 279.25955 280.44931 281.50876 282.48343 283.37717
 284.19406 284.94128 285.60193 286.52350
 366.78100 356.33317 345.76333 334.62750 323.02866 311.22083 299.08899 286.89016
 274.60032 262.49549 250.50265 239.80182 229.92198 221.02415 213.20431 206.20448
 200.03665 194.97281 191.55298 189.59314 188.62831 188.69047 189.52364 190.82980
 192.55297 194.64613 196.90730 199.26446 201.70763 204.18579 206.27196 208.11213
 209.73629 210.87946 211.10662 211.33279 211.26795 210.97112 210.60228 210.23045
 209.84561 209.55378 209.35994 209.22211 209.14827 209.47744 209.86161 210.24877
 211.03994 212.21610 213.46427 215.24543 217.17160 219.21276 221.30593 223.38709
 225.44526 227.52742 229.62259 231.72675 233.85392 236.02409 238.27825 240.64642
 243.26558 245.51475 247.51491 249.27808 250.69324 251.81441 252.63457 252.94874
 252.98390 252.75607 252.11423 251.06040 249.66457 247.82373 245.73090 243.56206
 241.35123 239.15339 236.97156 234.80872 232.66689 230.53205 228.55622 226.71138
 224.99255 223.46271 222.09088 220.86105 219.74121 218.69938 217.80154 216.94071
 216.18087 215.35904 214.45520 213.81737 213.26553 214.27203 216.65001 219.45947
 221.81993 223.28915 224.48256 225.90903 227.27739 227.96893 227.19872 225.59259
 224.92242 226.87054 231.03157 235.88562 240.57130 245.03844 249.29434 253.18884
 256.64536 259.81708 262.81659 265.61853 267.94534 269.80261 271.46951 273.09082
 274.63431 276.27231 277.80392 279.17078 280.35867 281.41766 282.39249 283.28452
 284.10159 284.84793 285.51419 286.43115
 366.78100 356.33368 345.76436 334.62905 323.03073 311.22341 299.09209 286.89378
 274.60446 262.50014 250.50782 239.80750 229.92819 221.03087 213.21155 206.21223
 200.04491 194.98160 191.56228 189.60296 188.63864 188.70133 189.53501 190.84169
 192.56537 194.65905 196.92074 199.27842 201.72210 204.20078 206.28746 208.12815
 209.75283 210.89651 211.12419 211.35088 211.28656 210.99024 210.62192 210.25060
 209.86629 209.57497 209.38165 209.24433 209.17101 209.50070 209.88538 210.27306
 211.06474 212.24143 213.49011 215.27179 217.19847 219.24015 221.33384 223.41552
 225.47420 227.55688 229.65256 231.75725 233.88493 236.05561 238.31029 240.67898
 243.29866 245.54834 247.54902 249.31270 250.72839 251.85007 252.67075 252.98543
 253.02111 252.79380 252.15248 251.09916 249.70384 247.86353 245.77121 243.60289
 241.39257 239.19525 237.01394 234.85162 232.71030 230.57598 228.60066 226.75635
 225.03803 223.50871 222.13739 220.90808 219.78876 218.74744 217.85012 216.98980
 216.23049 215.40917 214.50585 213.86853 213.31721 214.31160 216.66093 219.45804
 221.86636 223.35655 224.50960 225.89279 227.24722 227.93449 227.18306 225.63206
 224.96442 226.87050 231.03430 235.89754 240.57744 245.03195 249.27737 253.16550
 256.61703 259.78156 262.77295 265.57178 267.90164 269.76215 271.42743 273.04462
 274.59448 276.19409 277.71768 279.08481 280.27353 281.33160 282.30591 283.19995
 284.02005 284.76987 285.43781 286.34543
 366.78100 356.33416 345.76533 334.63049 323.03266 311.22582 299.09499 286.89715
 274.60832 262.50448 250.51265 239.81281 229.93398 221.03714 213.21831 206.21947
 200.05264 194.98980 191.57097 189.61213 188.64830 188.71146 189.54563 190.85279
 192.57696 194.67112 196.93329 199.29145 201.73562 204.21478 206.30195 208.14311
 209.76828 210.91244 211.14061 211.36777 211.30394 211.00810 210.64027 210.26943
 209.88560 209.59476 209.40193 209.26509 209.19226 209.52242 209.90759 210.29575
 211.08792 212.26508 213.51425 215.29641 217.22358 219.26574 221.35991 223.44207
 225.50124 227.58440 229.68057 231.78573 233.91390 236.08506 238.34023 240.70939
 243.32956 245.57972 247.58089 249.34505 250.76122 251.88338 252.70455 253.01971
 253.05588 252.82904 252.18821 251.13537 249.74054 247.90070 245.80887 243.64103
 241.43120 239.23436 237.05352 234.89169 232.75085 230.61702 228.64218 226.79835
 225.08051 223.55168 222.18084 220.95201 219.83317 218.79234 217.89550 217.03567
 216.27683 215.45600 214.55316 213.91633 213.36549 214.34958 216.67456 219.45589
 221.90506 223.42659 224.54259 225.87897 227.20749 227.87866 227.15630 225.67224
 225.01329 226.88058 231.04355 235.91388 240.59077 245.03400 249.26649 253.14470
 256.58902 259.74530 262.72900 265.52463 267.85757 269.72186 271.38507 272.99405
 274.54160 276.12180 277.64069 279.00717 280.19501 281.25372 282.22647 283.12018
 283.94278 284.69775 285.36407 286.25928
 366.78100 356.33461 345.76622 334.63184 323.03445 311.22806 299.09767 286.90028
 274.61189 262.50851 250.51712 239.81773 229.93934 221.04295 213.22456 206.22618
 200.05979 194.99740 191.57901 189.62062 188.65723 188.72085 189.55546 190.86307
 192.58768 194.68229 196.94490 199.30352 201.74813 204.22774 206.31535 208.15696
 209.78257 210.92719 211.15580 211.38341 211.32002 211.02463 210.65725 210.28686
 209.90347 209.61308 209.42069 209.28430 209.21192 209.54253 209.92814 210.31675
 211.10936 212.28697 213.53659 215.31920 217.24681 219.28942 221.38403 223.46664
 225.52626 227.60987 229.70648 231.81209 233.94070 236.11231 238.36793 240.73754
 243.35815 245.60876 247.61037 249.37498 250.79160 251.91421 252.73582 253.05143
 253.08804 252.86166 252.22127 251.16888 249.77449 247.93510 245.84371 243.67633
 241.46694 239.27055 237.09016 234.92877 232.78838 230.65500 228.68061 226.83722
 225.11983 223.59144 222.22105 220.99267 219.87428 218.83389 217.93750 217.07811
 216.31972 215.49934 214.59695 213.96056 213.41017 214.38576 216.69072 219.45448
 221.93515 223.49565 224.58217 225.86842 227.15665 227.80370 227.12035 225.70897
 225.06462 226.89941 231.05789 235.93597 240.61357 245.04514 249.26234 253.12694
 256.56049 259.70755 262.68396 265.47516 267.81189 269.68393 271.34546 272.94116
 274.48340 276.05249 277.56525 278.93002 280.11700 281.17426 282.14420 283.03674
 283.85941 284.61938 285.27942 286.16214
 366.78100 356.33495 345.76690 334.63285 323.03580 311.22974 299.09969 286.90264
 274.61459 262.51154 250.52049 239.82144 229.94339 221.04733 213.22928 206.23123
 200.06518 195.00313 191.58508 189.62703 188.66398 188.72792 189.56287 190.87082
 192.59577 194.69072 196.95367 199.31262 201.75757 204.23751 206.32546 208.16741
 209.79336 210.93831 211.16726 211.39521 211.33216 211.03710 210.67005 210.30000
 209.91695 209.62690 209.43485 209.29880 209.22675 209.55770 209.94364 210.33259
 211.12554 212.30349 213.55344 215.33639 217.26434 219.30729 221.40223 223.48518
 225.54513 227.62908 229.72603 231.83198 233.96093 236.13288 238.38882 240.75877
 243.37972 245.63067 247.63262 249.39757 250.81452 251.93747 252.75941 253.07536
 253.11231 252.88626 252.24621 251.19416 249.80011 247.96106 245.87000 243.70295
 241.49390 239.29785 237.11780 234.95675 232.81670 230.68365 228.70960 226.86654
 225.14949 223.62144 222.25139 221.02334 219.90529 218.86524 217.96919 217.11013
 216.35208 215.53203 214.62998 213.99393 213.44388 214.41641 216.71413 219.44687
 221.96068 223.56441 224.62550 225.86459 227.09895 227.71341 227.07413 225.73610
 225.11391 226.92474 231.07626 235.96301 240.64493 245.06580 249.26614 253.11459
 256.53436 259.66992 262.63779 265.42416 267.76324 269.63940 271.29648 272.87775
 274.41132 275.98792 277.50223 278.86423 280.05209 281.10776 282.07440 282.96594
 283.78946 284.55835 285.19977 286.07388
 366.78100 356.33528 345.76756 334.63384 323.03711 311.23139 299.10167 286.90495
 274.61723 262.51451 250.52378 239.82506 229.94734 221.05162 213.23390 206.23618
 200.07045 195.00873 191.59101 189.63329 188.67057 188.73485 189.57012 190.87840
 192.60368 194.69896 196.96224 199.32152 201.76679 204.24707 206.33535 208.17763
 209.80391 210.94919 211.17846 211.40674 211.34402 211.04930 210.68258 210.31286
 209.93013 209.64041 209.44869 209.31297 209.24125 209.57253 209.95881 210.34808
 211.14136 212.31964 213.56992 215.35320 217.28148 219.32475 221.42003 223.50331
 225.56359 227.64787 229.74515 231.85142 233.98070 236.15298 238.40926 240.77954
 243.40082 245.65209 247.65437 249.41965 250.83693 251.96021 252.78249 253.09876
 253.13604 252.91032 252.27060 251.21888 249.82516 247.98643 245.89571 243.72899
 241.52027 239.32455 237.14483 234.98410 232.84438 230.71166 228.73794 226.89522
 225.17850 223.65078 222.28105 221.05333 219.93561 218.89589 218.00017 217.14145
 216.38372 215.56400 214.66228 214.02656 213.47684 214.44653 216.73755 219.43925
 221.97569 223.63332 224.68271 225.87079 227.03723 227.60648 227.01350 225.75266
 225.15901 226.95503 231.09753 235.99408 240.68428 245.09625 249.27802 253.10753
 256.51184 259.63361 262.59164 265.37360 267.71588 269.60187 271.25629 272.83234
 274.38193 275.91653 277.39816 278.75253 279.93515 280.98566 281.94293 282.82590
 283.66296 284.44186 285.08109 285.94421
 366.78100 356.33541 345.76782 334.63424 323.03765 311.23206 299.10247 286.90588
 274.61830 262.51571 250.52512 239.82653 229.94894 221.05335 213.23577 206.23818
 200.07259 195.01100 191.59341 189.63583 188.67324 188.73765 189.57306 190.88147
 192.60689 194.70230 196.96571 199.32512 201.77053 204.25094 206.33936 208.18177
 209.80818 210.95359 211.18300 211.41142 211.34883 211.05424 210.68765 210.31806
 209.93548 209.64589 209.45430 209.31871 209.24712 209.57853 209.96495 210.35436
 211.14777 212.32618 213.57659 215.36001 217.28842 219.33183 221.42724 223.51065
 225.57107 227.65548 229.75289 231.85930 233.98871 236.16113 238.41754 240.78795
 243.40936 245.66077 247.66318 249.42860 250.84601 251.96942 252.79183 253.10824
 253.14566 252.92007 252.28048 251.22889 249.83530 247.99672 245.90613 243.73954
 241.53095 239.33536 237.15577 234.99519 232.85560 230.72301 228.74942 226.90683
 225.19025 223.66266 222.29307 221.06548 219.94789 218.90831 218.01272 217.15413
 216.39654 215.57695 214.67536 214.03978 213.49019 214.46617 216.77205 219.43318
 221.95891 223.70056 224.76334 225.89778 226.96991 227.48163 226.93712 225.75809
 225.19974 226.98584 231.12177 236.02531 240.72919 245.13901 249.30106 253.10970
 256.49158 259.59949 262.54800 265.32581 267.67401 269.56183 271.20142 272.74707
 274.26190 275.86417 277.36566 278.72507 279.91116 280.97339 281.96234 282.87167
 283.69443 284.41333 285.04358 285.89746
 366.78100 356.33576 345.76853 334.63529 323.03905 311.23381 299.10458 286.90834
 274.62110 262.51887 250.52863 239.83039 229.95315 221.05792 213.24068 206.24344
 200.07821 195.01697 191.59973 189.64249 188.68026 188.74502 189.58078 190.88955
 192.61531 194.71107 196.97483 199.33460 201.78036 204.26112 206.34989 208.19265
 209.81941 210.96517 211.19494 211.42370 211.36146 211.06723 210.70099 210.33175
 209.94951 209.66028 209.46904 209.33380 209.26256 209.59433 209.98109 210.37085
 211.16462 212.34338 213.59414 215.37790 217.30667 219.35043 221.44619 223.52996
 225.59072 227.67548 229.77324 231.88001 234.00977 236.18253 238.43930 240.81006
 243.43182 245.68358 247.68635 249.45211 250.86987 251.99364 252.81640 253.13316
 253.17092 252.94569 252.30645 251.25521 249.86198 248.02374 245.93350 243.76726
 241.55903 239.36379 237.18455 235.02432 232.88508 230.75284 228.77960 226.93737
 225.22113 223.69389 222.32466 221.09742 219.98018 218.94094 218.04571 217.18747
 216.43023 215.61100 214.70976 214.07452 213.52528 214.49571 216.78847 219.44122
 221.94170 223.72849 224.83469 225.93759 226.91602 227.37668 226.87314 225.73317
 225.19485 227.00452 231.14676 236.06305 240.78766 245.19933 249.34238 253.12665
 256.48953 259.57397 262.50516 265.27063 267.61322 269.48892 271.09836 272.63199
 274.44135 275.82144 277.34705 278.71518 279.90701 280.97525 281.97028 282.88385
 283.70193 284.41684 285.05457 285.90674
 366.78100 356.33643 345.76986 334.63728 323.04171 311.23714 299.10857 286.91299
 274.62642 262.52485 250.53528 239.83770 229.96113 221.06656 213.24999 206.25341
 200.08884 195.02827 191.61170 189.65513 188.69355 188.75898 189.59541 190.90484
 192.63126 194.72769 196.99212 199.35255 201.79897 204.28040 206.36983 208.21326
 209.84069 210.98711 211.21754 211.44697 211.38540 211.09182 210.72625 210.35768
 209.97611 209.68753 209.49696 209.36239 209.29182 209.62424 210.01167 210.40210
 211.19653 212.37596 213.62738 215.41181 217.34124 219.38567 221.48209 223.56652
 225.62795 227.71338 229.81180 231.91923 234.04966 236.22309 238.48052 240.85194
 243.47437 245.72680 247.73023 249.49665 250.91508 252.03951 252.86294 253.18036
 253.21879 252.99422 252.35565 251.30507 249.91250 248.07493 245.98536 243.81979
 241.61221 239.41764 237.23907 235.07950 232.94092 230.80935 228.83678 226.99521
 225.27963 223.75306 222.38449 221.15792 220.04135 219.00277 218.10820 217.25063
 216.49406 215.67548 214.77491 214.14034 213.59177 214.54655 216.80235 219.43930
 221.94788 223.73457 224.86000 225.93341 226.85542 227.31377 226.86461 225.71828
 225.14795 226.98154 231.15207 236.09604 240.84567 245.26323 249.39717 253.16324
 256.51971 259.58884 262.51105 265.27350 267.61938 269.47116 271.01547 272.60577
 274.32361 275.71735 277.25037 278.58759 279.74289 280.80078 281.79410 282.68570
 283.37936 284.02753 284.61768 285.36594
 366.78100 356.33706 345.77112 334.63918 323.04424 311.24030 299.11236 286.91742
 274.63148 262.53054 250.54160 239.84466 229.96872 221.07478 213.25884 206.26290
 200.09896 195.03902 191.62308 189.66714 188.70620 188.77226 189.60932 190.91938
 192.64644 194.74350 197.00856 199.36962 201.81668 204.29874 206.38880 208.23285
 209.86091 211.00797 211.23903 211.46909 211.40815 211.11521 210.75027 210.38233
 210.00139 209.71345 209.52351 209.38957 209.31963 209.65269 210.04075 210.43181
 211.22687 212.40693 213.65899 215.44405 217.37411 219.41917 221.51623 223.60129
 225.66335 227.74941 229.84847 231.95653 234.08759 236.26165 238.51971 240.89177
 243.51483 245.76789 247.77195 249.53901 250.95807 252.08313 252.90719 253.22525
 253.26431 253.04037 252.40243 251.35249 249.96055 248.12361 246.03467 243.86973
 241.66279 239.46885 237.29091 235.13197 232.99403 230.86309 228.89115 227.05021
 225.33527 223.80933 222.44139 221.21545 220.09950 219.06156 218.16762 217.31068
 216.55474 215.73680 214.83686 214.20292 213.65498 214.59219 216.80644 219.42706
 221.95615 223.76645 224.87910 225.89796 226.76860 227.23801 226.89381 225.78917
 225.14316 226.96838 231.17459 236.12125 240.87593 245.29332 249.42027 253.16071
 256.50937 259.56641 262.49380 265.26730 267.62845 269.48862 271.03934 272.48734
 274.18402 275.64609 277.08514 278.31656 279.41660 280.46274 281.44571 282.32278
 282.92899 283.57278 284.16037 284.90915
 366.78100 356.33717 345.77134 334.63952 323.04469 311.24086 299.11303 286.91820
 274.63237 262.53155 250.54272 239.84589 229.97006 221.07623 213.26040 206.26458
 200.10075 195.04092 191.62509 189.66926 188.70843 188.77461 189.61178 190.92195
 192.64912 194.74629 197.01146 199.37264 201.81981 204.30198 206.39215 208.23632
 209.86449 211.01167 211.24284 211.47301 211.41218 211.11935 210.75452 210.38670
 210.00587 209.71804 209.52821 209.39438 209.32455 209.65773 210.04590 210.43707
 211.23224 212.41241 213.66458 215.44976 217.37993 219.42510 221.52227 223.60744
 225.66961 227.75579 229.85496 231.96313 234.09430 236.26847 238.52664 240.89882
 243.52199 245.77516 247.77933 249.54650 250.96567 252.09085 252.91502 253.23319
 253.27236 253.04853 252.41070 251.36088 249.96905 248.13222 246.04339 243.87856
 241.67173 239.47791 237.30008 235.14125 233.00342 230.87259 228.90076 227.05994
 225.34511 223.81928 222.45145 221.22562 220.10979 219.07197 218.17814 217.32131
 216.56548 215.74765 214.84782 214.21400 213.66617 214.60881 216.83592 219.43727
 221.94122 223.81560 224.93677 225.88278 226.66611 227.11124 226.87560 225.82315
 225.18013 226.99913 231.19334 236.13493 240.89725 245.31879 249.43892 253.16624
 256.50351 259.57037 262.49521 265.27066 267.67462 269.58084 271.14380 272.52130
 274.05640 275.59778 276.98746 278.19031 279.22699 280.23251 281.20743 282.08347
 282.72583 283.38815 284.00931 284.80087
 366.78100 356.33694 345.77088 334.63882 323.04376 311.23970 299.11163 286.91657
 274.63051 262.52945 250.54039 239.84333 229.96727 221.07321 213.25715 206.26109
 200.09703 195.03697 191.62090 189.66484 188.70378 188.76972 189.60666 190.91660
 192.64354 194.74048 197.00542 199.36636 201.81330 204.29524 206.38517 208.22911
 209.85705 211.00399 211.23493 211.46487 211.40381 211.11075 210.74569 210.37763
 209.99657 209.70850 209.51844 209.38438 209.31432 209.64726 210.03520 210.42614
 211.22108 212.40102 213.65296 215.43790 217.36784 219.41277 221.50971 223.59465
 225.65659 227.74253 229.84147 231.94941 234.08035 236.25429 238.51223 240.88417
 243.50710 245.76004 247.76398 249.53092 250.94986 252.07480 252.89874 253.21668
 253.25562 253.03156 252.39350 251.34344 249.95137 248.11431 246.02525 243.86019
 241.65313 239.45907 237.28101 235.12195 232.98389 230.85283 228.88077 227.03971
 225.32464 223.79858 222.43052 221.20446 220.08840 219.05034 218.15628 217.29922
 216.54316 215.72510 214.82504 214.19097 213.64291 214.60527 216.87895 219.46547
 221.90280 223.82190 225.01260 225.91785 226.61819 227.00262 226.81042 225.78639
 225.20490 227.04837 231.21663 236.15826 240.94228 245.33495 249.44630 253.14764
 256.47467 259.52402 262.44888 265.21912 267.63120 269.58295 271.17294 272.57983
 274.03131 275.57233 276.93015 278.12131 279.14224 280.15839 281.12750 281.99359
 282.73636 283.41922 284.05753 284.88995
 366.78100 356.33676 345.77053 334.63829 323.04305 311.23881 299.11058 286.91534
 274.62910 262.52787 250.53863 239.84139 229.96515 221.07092 213.25468 206.25844
 200.09421 195.03397 191.61773 189.66150 188.70026 188.76602 189.60278 190.91255
 192.63931 194.73607 197.00084 199.36160 201.80836 204.29012 206.37989 208.22365
 209.85141 210.99818 211.22894 211.45870 211.39746 211.10423 210.73899 210.37075
 209.98952 209.70128 209.51104 209.37680 209.30657 209.63933 210.02709 210.41786
 211.21262 212.39238 213.64414 215.42891 217.35867 219.40343 221.50020 223.58496
 225.64672 227.73249 229.83125 231.93901 234.06977 236.24354 238.50130 240.87306
 243.49583 245.74859 247.75235 249.51911 250.93788 252.06264 252.88640 253.20417
 253.24293 253.01869 252.38045 251.33022 249.93798 248.10074 246.01151 243.84627
 241.63903 239.44479 237.26656 235.10732 232.96908 230.83785 228.86561 227.02437
 225.30914 223.78290 222.41466 221.18842 220.07219 219.03395 218.13971 217.28248
 216.52624 215.70800 214.80776 214.17353 213.62529 214.60387 216.91585 219.47385
 221.88141 223.80736 225.04787 225.93961 226.59691 226.94186 226.74765 225.72009
 225.20218 227.09433 231.25296 236.16249 240.95703 245.39218 249.48268 253.16011
 256.45773 259.49435 262.40369 265.15497 267.55865 269.52740 271.12454 272.53424
 274.02267 275.52505 276.87308 278.07047 279.10065 280.14673 281.12207 281.99533
 282.75211 283.44797 284.09378 284.94385
 366.78100 356.33650 345.77001 334.63751 323.04202 311.23752 299.10903 286.91353
 274.62704 262.52554 250.53605 239.83855 229.96205 221.06756 213.25106 206.25457
 200.09007 195.02958 191.61308 189.65659 188.69509 188.76060 189.59710 190.90661
 192.63311 194.72961 196.99412 199.35462 201.80113 204.28263 206.37214 208.21564
 209.84315 210.98965 211.22016 211.44966 211.38816 211.09467 210.72917 210.36068
 209.97918 209.69069 209.50019 209.36570 209.29520 209.62771 210.01521 210.40571
 211.20022 212.37972 213.63123 215.41573 217.34524 219.38974 221.48625 223.57075
 225.63226 227.71776 229.81626 231.92377 234.05427 236.22778 238.48528 240.85679
 243.47929 245.73180 247.73530 249.50181 250.92031 252.04482 252.86832 253.18582
 253.22433 252.99983 252.36134 251.31084 249.91835 248.08085 245.99136 243.82586
 241.61837 239.42387 237.24537 235.08588 232.94738 230.81589 228.84339 227.00190
 225.28640 223.75991 222.39141 221.16492 220.04842 219.00992 218.11543 217.25793
 216.50144 215.68294 214.78245 214.14795 213.59946 214.59976 216.96309 219.46222
 221.86682 223.77617 225.04086 225.95383 226.58723 226.88995 226.68600 225.67079
 225.21939 227.14201 231.24619 236.16913 240.96053 245.43761 249.51526 253.17496
 256.48334 259.50015 262.41199 265.14499 267.54608 269.52261 271.11786 272.52057
 274.00797 275.45676 276.78207 277.97873 279.09137 280.12976 281.03061 281.74042
 282.43408 283.12601 283.77332 284.60269
 366.78100 356.33652 345.77005 334.63757 323.04209 311.23761 299.10914 286.91366
 274.62718 262.52571 250.53623 239.83875 229.96227 221.06780 213.25132 206.25484
 200.09037 195.02989 191.61341 189.65693 188.69546 188.76098 189.59750 190.90703
 192.63355 194.73007 196.99459 199.35512 201.80164 204.28316 206.37269 208.21621
 209.84373 210.99025 211.22078 211.45030 211.38882 211.09535 210.72987 210.36139
 209.97992 209.69144 209.50096 209.36648 209.29601 209.62853 210.01605 210.40658
 211.20110 212.38062 213.63214 215.41667 217.34619 219.39071 221.48724 223.57176
 225.63328 227.71880 229.81733 231.92485 234.05537 236.22890 238.48642 240.85794
 243.48046 245.73299 247.73651 249.50303 250.92156 252.04608 252.86960 253.18712
 253.22565 253.00117 252.36269 251.31222 249.91974 248.08226 245.99278 243.82731
 241.61983 239.42535 237.24688 235.08740 232.94892 230.81744 228.84497 227.00349
 225.28801 223.76154 222.39306 221.16658 220.05010 219.01163 218.11715 217.25967
 216.50320 215.68472 214.78424 214.14976 213.60129 214.60655 216.98155 219.48535
 221.80205 223.68860 225.05577 225.99487 226.58339 226.83023 226.62453 225.65633
 225.25089 227.19954 231.25632 236.16803 240.95157 245.44087 249.51364 253.16269
 256.47559 259.47760 262.39856 265.12747 267.52032 269.48926 271.08963 272.50378
 273.94958 275.37802 276.67499 277.87833 278.97937 280.02539 280.83762 281.43268
 282.16422 282.88281 283.52359 284.34018
 366.78100 356.33747 345.77195 334.64042 323.04590 311.24237 299.11485 286.92032
 274.63480 262.53427 250.54575 239.84922 229.97370 221.08017 213.26465 206.26912
 200.10560 195.04607 191.63055 189.67502 188.71450 188.78097 189.61845 190.92892
 192.65640 194.75387 197.01935 199.38082 201.82830 204.31077 206.40125 208.24572
 209.87420 211.02167 211.25315 211.48362 211.42310 211.13057 210.76605 210.39852
 210.01799 209.73047 209.54094 209.40742 209.33789 209.67137 210.05984 210.45132
 211.24679 212.42727 213.67974 215.46522 217.39569 219.44117 221.53864 223.62412
 225.68659 227.77307 229.87254 231.98102 234.11249 236.28697 238.54544 240.91792
 243.54139 245.79487 247.79934 249.56682 250.98629 252.11177 252.93624 253.25472
 253.29419 253.07067 252.43314 251.38362 249.99209 248.15557 246.06704 243.90252
 241.69599 239.50246 237.32494 235.16641 233.02889 230.89836 228.92684 227.08631
 225.37179 223.84626 222.47874 221.25321 220.13769 219.10016 218.20664 217.35011
 216.59459 215.77706 214.87754 214.24401 213.69649 214.66298 216.94951 219.55757
 221.70537 223.58658 225.11128 226.02827 226.54201 226.75050 226.57498 225.66159
 225.25543 227.24414 231.27205 236.16225 240.93910 245.43285 249.50647 253.17549
 256.47253 259.45627 262.36908 265.08777 267.47452 269.46204 271.09076 272.50647
 273.93845 275.35156 276.63947 277.84915 278.87747 279.88022 280.68698 281.50079
 282.31372 283.07141 283.73334 284.57687
 366.78100 356.33825 345.77351 334.64276 323.04902 311.24627 299.11952 286.92578
 274.64103 262.54129 250.55354 239.85780 229.98305 221.09030 213.27556 206.28081
 200.11807 195.05932 191.64457 189.68983 188.73008 188.79734 189.63559 190.94685
 192.67510 194.77335 197.03961 199.40186 201.85012 204.33337 206.42462 208.26988
 209.89913 211.04739 211.27964 211.51089 211.45115 211.15940 210.79566 210.42891
 210.04917 209.76242 209.57367 209.44093 209.37218 209.70644 210.09569 210.48794
 211.28420 212.46545 213.71871 215.50496 217.43622 219.48247 221.58072 223.66698
 225.73023 227.81749 229.91774 232.02699 234.15925 236.33450 238.59376 240.96701
 243.59126 245.84552 247.85077 249.61903 251.03928 252.16554 252.99079 253.31004
 253.35030 253.12755 252.49081 251.44206 250.05131 248.21557 246.12782 243.96408
 241.75833 239.56559 237.38884 235.23109 233.09435 230.96460 228.99386 227.15411
 225.44036 223.91562 222.54887 221.32413 220.20938 219.17264 218.27989 217.42414
 216.66940 215.85265 214.95391 214.32116 213.77441 214.71451 216.93556 219.58224
 221.71600 223.59042 225.12035 226.00797 226.46208 226.65807 226.55013 225.63121
 225.31807 227.33833 231.32744 236.15425 240.90160 245.37596 249.53662 253.18379
 256.46283 259.43219 262.31470 265.01923 267.41180 269.43439 271.12369 272.58975
 274.02191 275.44168 276.73074 277.93100 278.99411 280.02072 280.86667 281.65906
 282.44879 283.20569 283.86691 284.70956
 366.78100 356.33872 345.77444 334.64416 323.05087 311.24859 299.12231 286.92903
 274.64475 262.54547 250.55819 239.86290 229.98862 221.09634 213.28206 206.28778
 200.12550 195.06722 191.65294 189.69865 188.73937 188.80709 189.64581 190.95753
 192.68625 194.78497 197.05168 199.41440 201.86312 204.34684 206.43856 208.28428
 209.91400 211.06271 211.29543 211.52715 211.46787 211.17659 210.81331 210.44703
 210.06774 209.78146 209.59318 209.46090 209.39262 209.72734 210.11706 210.50978
 211.30649 212.48821 213.74193 215.52865 217.46037 219.50709 221.60581 223.69252
 225.75624 227.84396 229.94468 232.05440 234.18712 236.36284 238.62255 240.99627
 243.62099 245.87571 247.88143 249.65015 251.07087 252.19758 253.02330 253.34302
 253.38374 253.16146 252.52518 251.47690 250.08661 248.25133 246.16405 244.00077
 241.79549 239.60321 237.42693 235.26965 233.13336 231.00408 229.03380 227.19452
 225.48124 223.95696 222.59068 221.36639 220.25211 219.21583 218.32355 217.46827
 216.71399 215.89771 214.99942 214.36714 213.82086 214.74944 216.94330 219.53496
 221.83014 223.67497 225.03314 225.90605 226.40533 226.63147 226.49608 225.54799
 225.36481 227.45955 231.41112 236.17882 240.91248 245.34947 249.50189 253.14302
 256.38510 259.42313 262.31070 264.99362 267.37274 269.40469 271.14023 272.65802
 274.09555 275.51978 276.82544 278.00394 279.12650 280.16724 281.08829 281.91464
 282.70007 283.45743 284.16599 285.06900
 366.78100 356.33970 345.77639 334.64709 323.05478 311.25348 299.12818 286.93587
 274.65257 262.55427 250.56796 239.87366 230.00035 221.10905 213.29575 206.30244
 200.14114 195.08384 191.67053 189.71723 188.75892 188.82762 189.66732 190.98001
 192.70971 194.80941 197.07710 199.44080 201.89049 204.37519 206.46789 208.31458
 209.94528 211.09498 211.32867 211.56137 211.50306 211.21276 210.85046 210.48515
 210.10685 209.82155 209.63424 209.50294 209.43563 209.77133 210.16203 210.55572
 211.35342 212.53612 213.79081 215.57851 217.51120 219.55890 221.65860 223.74629
 225.81099 227.89969 230.00138 232.11208 234.24577 236.42247 238.68317 241.05786
 243.68356 245.93926 247.94595 249.71565 251.13734 252.26504 253.09174 253.41243
 253.45413 253.23283 252.59752 251.55022 250.16091 248.32661 246.24031 244.07800
 241.87370 239.68240 237.50709 235.35079 233.21548 231.08718 229.11788 227.27957
 225.56727 224.04397 222.67866 221.45536 220.34205 219.30675 218.41545 217.56114
 216.80784 215.99254 215.09523 214.46393 213.91862 214.81281 216.92543 219.51036
 221.86961 223.64185 224.89935 225.77988 226.41255 226.70027 226.41748 225.48480
 225.40959 227.50433 231.42201 236.17807 240.93358 245.36424 249.49318 253.14383
 256.40222 259.44226 262.32791 264.98520 267.32516 269.33463 271.08322 272.66486
 274.17587 275.62558 276.93442 278.08313 279.25720 280.29333 281.22507 282.09836
 282.91724 283.74088 284.46039 285.37732
 366.78100 356.34015 345.77731 334.64846 323.05662 311.25577 299.13093 286.93908
 274.65624 262.55839 250.57255 239.87870 230.00586 221.11501 213.30217 206.30932
 200.14848 195.09163 191.67879 189.72594 188.76810 188.83725 189.67741 190.99056
 192.72071 194.82087 197.08902 199.45318 201.90333 204.38849 206.48164 208.32880
 209.95995 211.11011 211.34426 211.57742 211.51957 211.22973 210.86788 210.50304
 210.12519 209.84035 209.65350 209.52266 209.45581 209.79196 210.18312 210.57727
 211.37543 212.55858 213.81374 215.60189 217.53505 219.58320 221.68336 223.77151
 225.83667 227.92582 230.02798 232.13913 234.27329 236.45044 238.71160 241.08675
 243.71291 245.96906 247.97622 249.74637 251.16852 252.29668 253.12383 253.44499
 253.48714 253.26630 252.63145 251.58461 250.19576 248.36192 246.27607 244.11423
 241.91038 239.71954 237.54469 235.38885 233.25400 231.12616 229.15731 227.31947
 225.60762 224.08478 222.71993 221.49708 220.38424 219.34939 218.45855 217.60470
 216.85186 216.03701 215.14017 214.50932 213.96448 214.84544 216.93773 219.52596
 221.81197 223.51579 224.82622 225.75047 226.43620 226.69563 226.37607 225.46355
 225.41261 227.50633 231.39583 236.15532 240.93964 245.38361 249.48001 253.16008
 256.43839 259.47058 262.32294 264.95840 267.27774 269.27060 271.02435 272.65924
 274.23938 275.71420 277.01123 278.25116 279.43619 280.48630 281.44492 282.34549
 283.25543 284.07507 284.79108 285.70355
 366.78100 356.33901 345.77502 334.64503 323.05204 311.25005 299.12406 286.93107
 274.64709 262.54810 250.56111 239.86612 229.99213 221.10014 213.28615 206.29216
 200.13017 195.07218 191.65819 189.70420 188.74521 188.81322 189.65223 190.96425
 192.69326 194.79227 197.05928 199.42229 201.87130 204.35531 206.44732 208.29333
 209.92334 211.07235 211.30536 211.53737 211.47838 211.18739 210.82441 210.45842
 210.07943 209.79344 209.60545 209.47346 209.40547 209.74048 210.13049 210.52350
 211.32051 212.50252 213.75653 215.54354 217.47555 219.52257 221.62158 223.70859
 225.77260 227.86061 229.96162 232.07163 234.20464 236.38065 238.64066 241.01467
 243.63968 245.89469 247.90070 249.66971 251.09073 252.21774 253.04375 253.36376
 253.40477 253.18278 252.54679 251.49880 250.10881 248.27382 246.18683 244.02384
 241.81885 239.62686 237.45088 235.29389 233.15790 231.02891 229.05892 227.21993
 225.50694 223.98295 222.61696 221.39297 220.27898 219.24299 218.35100 217.49601
 216.74202 215.92604 215.02805 214.39606 213.85007 214.79222 217.03189 219.49419
 221.76167 223.46486 224.77119 225.71707 226.46553 226.62581 226.30022 225.52347
 225.48895 227.43079 231.38530 236.14209 240.93549 245.39783 249.48830 253.19659
 256.49677 259.51721 262.34009 264.93625 267.23987 269.21518 270.93750 272.57785
 274.21921 275.72937 277.06711 278.36957 279.55505 280.61124 281.57935 282.51404
 283.42456 284.23538 284.94370 285.84637
 366.78100 356.33872 345.77444 334.64415 323.05087 311.24859 299.12231 286.92902
 274.64474 262.54546 250.55818 239.86289 229.98861 221.09633 213.28205 206.28776
 200.12548 195.06720 191.65292 189.69863 188.73935 188.80707 189.64579 190.95750
 192.68622 194.78494 197.05166 199.41437 201.86309 204.34681 206.43853 208.28424
 209.91396 211.06268 211.29540 211.52711 211.46783 211.17655 210.81327 210.44698
 210.06770 209.78142 209.59314 209.46085 209.39257 209.72729 210.11701 210.50972
 211.30644 212.48816 213.74188 215.52860 217.46031 219.50703 221.60575 223.69247
 225.75618 227.84390 229.94462 232.05434 234.18705 236.36277 238.62249 240.99621
 243.62092 245.87564 247.88136 249.65008 251.07079 252.19751 253.02323 253.34295
 253.38366 253.16138 252.52510 251.47682 250.08653 248.25125 246.16397 244.00069
 241.79540 239.60312 237.42684 235.26956 233.13327 231.00399 229.03371 227.19443
 225.48114 223.95686 222.59058 221.36630 220.25201 219.21573 218.32345 217.46817
 216.71388 215.89760 214.99932 214.36704 213.82076 214.78381 217.08429 219.51590
 221.63727 223.35875 224.74657 225.68579 226.40251 226.49068 226.31528 225.69923
 225.35483 227.29480 231.40576 236.15245 240.92955 245.39952 249.49799 253.22365
 256.56174 259.57932 262.38754 264.97397 267.26080 269.23550 270.93222 272.54495
 274.16217 275.68488 277.07379 278.39352 279.58591 280.65305 281.65491 282.63492
 283.51636 284.30130 284.98697 285.86081
 366.78100 356.34007 345.77714 334.64821 323.05628 311.25535 299.13042 286.93849
 274.65556 262.55763 250.57169 239.87776 230.00483 221.11390 213.30097 206.30804
 200.14711 195.09018 191.67725 189.72432 188.76639 188.83546 189.67553 190.98860
 192.71867 194.81874 197.08681 199.45088 201.90095 204.38601 206.47908 208.32615
 209.95722 211.10729 211.34136 211.57443 211.51650 211.22657 210.86464 210.49971
 210.12178 209.83685 209.64992 209.51899 209.45206 209.78813 210.17920 210.57327
 211.37133 212.55440 213.80947 215.59754 217.53061 219.57868 221.67875 223.76682
 225.83189 227.92096 230.02303 232.13410 234.26817 236.44524 238.70631 241.08138
 243.70745 245.96352 247.97059 249.74066 251.16272 252.29079 253.11786 253.43893
 253.48100 253.26007 252.62514 251.57821 250.18928 248.35535 246.26942 244.10749
 241.90356 239.71263 237.53770 235.38177 233.24684 231.11891 229.14998 227.31204
 225.60011 224.07718 222.71225 221.48932 220.37639 219.34146 218.45053 217.59660
 216.84367 216.02874 215.13181 214.50088 213.95595 214.86066 217.04170 219.58429
 221.55258 223.24364 224.74626 225.68887 226.27844 226.29829 226.33327 225.83377
 225.27557 227.32941 231.51117 236.18883 240.93872 245.40845 249.51448 253.25803
 256.62320 259.64813 262.42920 264.96979 267.26132 269.28122 271.03125 272.64246
 274.22488 275.74023 277.12311 278.46851 279.67313 280.76932 281.82422 282.79736
 283.67261 284.45203 285.13290 286.00058
 366.78100 356.34034 345.77768 334.64902 323.05736 311.25670 299.13204 286.94038
 274.65772 262.56006 250.57440 239.88074 230.00808 221.11742 213.30476 206.31210
 200.15145 195.09479 191.68213 189.72947 188.77181 188.84115 189.68149 190.99483
 192.72517 194.82551 197.09385 199.45819 201.90853 204.39387 206.48721 208.33455
 209.96589 211.11623 211.35057 211.58391 211.52625 211.23659 210.87493 210.51027
 210.13261 209.84795 209.66129 209.53063 209.46397 209.80031 210.19165 210.58600
 211.38434 212.56768 213.82302 215.61136 217.54470 219.59304 221.69338 223.78172
 225.84706 227.93640 230.03874 232.15008 234.28442 236.46176 238.72310 241.09844
 243.72478 245.98112 247.98846 249.75880 251.18114 252.30948 253.13682 253.45816
 253.50050 253.27984 252.64518 251.59852 250.20986 248.37620 246.29055 244.12889
 241.92523 239.73457 237.55991 235.40425 233.26959 231.14193 229.17327 227.33561
 225.62395 224.10129 222.73663 221.51397 220.40131 219.36665 218.47599 217.62233
 216.86967 216.05501 215.15835 214.52769 213.98303 214.88560 217.05974 219.55469
 221.58238 223.20830 224.69044 225.68445 226.13640 226.10654 226.31419 225.68127
 225.37016 227.40860 231.60832 236.22388 240.96817 245.44318 249.55766 253.30984
 256.68640 259.70453 262.43417 264.91815 267.18961 269.26022 271.10269 272.76691
 274.35013 275.85324 277.19510 278.53653 279.73746 280.83521 281.88840 282.85635
 283.72696 284.50223 285.17947 286.04254
 366.78100 356.33997 345.77693 334.64790 323.05586 311.25483 299.12979 286.93776
 274.65472 262.55669 250.57065 239.87662 230.00358 221.11255 213.29951 206.30648
 200.14544 195.08841 191.67537 189.72234 188.76431 188.83327 189.67324 190.98620
 192.71617 194.81613 197.08410 199.44806 201.89803 204.38299 206.47596 208.32292
 209.95389 211.10385 211.33782 211.57078 211.51275 211.22271 210.86068 210.49565
 210.11761 209.83258 209.64554 209.51451 209.44747 209.78344 210.17440 210.56837
 211.36633 212.54930 213.80426 215.59223 217.52519 219.57316 221.67312 223.76109
 225.82605 227.91502 230.01699 232.12795 234.26192 236.43888 238.69985 241.07481
 243.70078 245.95674 247.96371 249.73367 251.15564 252.28360 253.11057 253.43153
 253.47350 253.25246 252.61743 251.57039 250.18136 248.34733 246.26129 244.09926
 241.89522 239.70419 237.52915 235.37312 233.23808 231.11005 229.14101 227.30298
 225.59094 224.06791 222.70287 221.47984 220.36680 219.33177 218.44073 217.58670
 216.83367 216.01863 215.12160 214.49056 213.94553 214.87547 217.10692 219.51523
 221.58192 223.20253 224.62144 225.66447 225.99190 225.91002 226.23415 225.45901
 225.53049 227.54308 231.64632 236.25685 241.00365 245.48756 249.62045 253.38577
 256.76837 259.77884 262.46674 264.89368 267.11169 269.17429 271.07559 272.80386
 274.42392 275.93307 277.25339 278.57977 279.78247 280.86789 281.90985 282.86978
 283.73312 284.50195 285.17358 286.02948
 366.78100 356.34055 345.77811 334.64966 323.05821 311.25777 299.13332 286.94187
 274.65943 262.56198 250.57653 239.88309 230.01064 221.12019 213.30774 206.31530
 200.15485 195.09840 191.68596 189.73351 188.77606 188.84562 189.68617 190.99972
 192.73028 194.83083 197.09938 199.46394 201.91449 204.40004 206.49360 208.34115
 209.97270 211.12326 211.35781 211.59136 211.53391 211.24447 210.88302 210.51857
 210.14113 209.85668 209.67023 209.53979 209.47334 209.80989 210.20145 210.59600
 211.39455 212.57811 213.83366 215.62221 217.55577 219.60432 221.70487 223.79343
 225.85898 227.94853 230.05108 232.16264 234.29719 236.47474 238.73630 241.11185
 243.73840 245.99496 248.00251 249.77306 251.19562 252.32417 253.15172 253.47328
 253.51583 253.29538 252.66094 251.61449 250.22604 248.39260 246.30715 244.14570
 241.94225 239.75181 237.57736 235.42191 233.28747 231.16002 229.19157 227.35413
 225.64268 224.12023 222.75579 221.53334 220.42089 219.38645 218.49600 217.64255
 216.89011 216.07566 215.17921 214.54877 214.00432 214.91017 217.08379 219.55742
 221.54701 223.19258 224.61108 225.59392 225.82600 225.74152 226.04404 225.29588
 225.72128 227.71080 231.67072 236.30014 241.04227 245.53180 249.68456 253.47435
 256.86356 259.85983 262.52127 264.91251 267.08676 269.11472 271.02859 272.79825
 274.45721 275.97983 277.28973 278.57898 279.77814 280.84961 281.87320 282.83231
 283.69495 284.46313 285.13419 285.98938
 366.78100 356.34101 345.77901 334.65102 323.06002 311.26003 299.13603 286.94504
 274.66304 262.56605 250.58105 239.88806 230.01606 221.12607 213.31407 206.32208
 200.16208 195.10609 191.69410 189.74210 188.78511 188.85511 189.69612 191.01012
 192.74113 194.84213 197.11114 199.47614 201.92715 204.41315 206.50716 208.35516
 209.98717 211.13817 211.37318 211.60719 211.55019 211.26120 210.90020 210.53621
 210.15921 209.87522 209.68922 209.55923 209.49323 209.83024 210.22224 210.61725
 211.41625 212.60026 213.85627 215.64527 217.57928 219.62828 221.72929 223.81829
 225.88430 227.97430 230.07731 232.18931 234.32432 236.50232 238.76433 241.14033
 243.76734 246.02434 248.03235 249.80336 251.22636 252.35537 253.18337 253.50538
 253.54838 253.32839 252.69439 251.64840 250.26040 248.42741 246.34241 244.18142
 241.97842 239.78843 237.61443 235.45944 233.32545 231.19845 229.23046 227.39346
 225.68247 224.16047 222.79648 221.57448 220.46249 219.42849 218.53850 217.68550
 216.93351 216.11951 215.22352 214.59352 214.04953 214.93893 217.06192 219.57214
 221.58685 223.25845 224.59970 225.41092 225.64717 225.65631 225.76018 225.20490
 225.91066 227.94868 231.71851 236.36066 241.10771 245.59978 249.75658 253.56975
 256.97934 259.95419 262.56647 264.92010 267.07635 269.09329 271.00021 272.78925
 274.46149 275.98041 277.27637 278.51572 279.71133 280.76471 281.73886 282.68625
 283.56036 284.33875 285.01874 285.88531
 366.78100 356.34060 345.77819 334.64979 323.05838 311.25798 299.13357 286.94217
 274.65976 262.56236 250.57695 239.88355 230.01114 221.12074 213.30833 206.31593
 200.15552 195.09912 191.68672 189.73431 188.77691 188.84650 189.68710 191.00069
 192.73129 194.83188 197.10048 199.46507 201.91567 204.40126 206.49486 208.34245
 209.97405 211.12464 211.35924 211.59284 211.53543 211.24603 210.88462 210.52022
 210.14281 209.85841 209.67200 209.54160 209.47519 209.81179 210.20338 210.59798
 211.39657 212.58017 213.83576 215.62436 217.55796 219.60655 221.70715 223.79574
 225.86134 227.95093 230.05353 232.16512 234.29972 236.47731 238.73891 241.11450
 243.74110 245.99769 248.00529 249.77588 251.19848 252.32708 253.15467 253.47627
 253.51886 253.29846 252.66405 251.61765 250.22924 248.39584 246.31043 244.14903
 241.94562 239.75522 237.58081 235.42541 233.29100 231.16360 229.19520 227.35779
 225.64639 224.12398 222.75958 221.53717 220.42477 219.39036 218.49996 217.64655
 216.89415 216.07974 215.18334 214.55293 214.00853 214.92592 217.09970 219.50194
 221.67218 223.37332 224.48160 225.23210 225.51450 225.56230 225.48892 225.10303
 226.01610 228.19194 231.85043 236.44812 241.20801 245.70113 249.84602 253.66510
 257.09616 260.07181 262.62451 264.92615 267.06342 269.07648 270.99622 272.80386
 274.48135 275.99622 277.24612 278.39020 279.55157 280.58603 281.53333 282.42084
 283.28787 284.06497 284.74380 285.60895
 366.78100 356.34069 345.77837 334.65006 323.05875 311.25843 299.13412 286.94280
 274.66049 262.56318 250.57786 239.88455 230.01224 221.12192 213.30961 206.31730
 200.15698 195.10067 191.68836 189.73604 188.77873 188.84841 189.68910 191.00279
 192.73347 194.83416 197.10285 199.46753 201.91822 204.40391 206.49759 208.34528
 209.97696 211.12765 211.36234 211.59602 211.53871 211.24940 210.88808 210.52377
 210.14646 209.86214 209.67583 209.54551 209.47920 209.81589 210.20757 210.60226
 211.40095 212.58463 213.84032 215.62901 217.56269 219.61138 221.71207 223.80075
 225.86644 227.95612 230.05881 232.17050 234.30518 236.48287 238.74456 241.12024
 243.74693 246.00362 248.01130 249.78199 251.20467 252.33336 253.16105 253.48273
 253.52542 253.30511 252.67079 251.62448 250.23617 248.40285 246.31754 244.15622
 241.95291 239.76260 237.58828 235.43297 233.29866 231.17134 229.20303 227.36572
 225.65440 224.13209 222.76778 221.54546 220.43315 219.39883 218.50852 217.65521
 216.90289 216.08858 215.19227 214.56195 214.01764 214.94017 217.13293 219.46490
 221.66768 223.29628 224.33852 225.19551 225.44077 225.36533 225.22800 224.91393
 226.11252 228.31813 231.94238 236.54518 241.30794 245.79790 249.93919 253.74413
 257.16574 260.14026 262.69101 264.97183 267.08398 269.08160 270.99393 272.79602
 274.48505 275.98712 277.23563 278.31274 279.43079 280.47650 281.44513 282.38190
 283.25797 284.03809 284.71957 285.58804
 366.78100 356.34199 345.78099 334.65398 323.06397 311.26496 299.14196 286.95195
 274.67094 262.57494 250.59093 239.89892 230.02791 221.13891 213.32790 206.33689
 200.17789 195.12288 191.71187 189.76086 188.80486 188.87585 189.71784 191.03284
 192.76483 194.86682 197.13681 199.50281 201.95480 204.44179 206.53679 208.38578
 210.01877 211.17076 211.40676 211.64175 211.58574 211.29774 210.93773 210.57472
 210.19871 209.91571 209.73070 209.60169 209.53669 209.87468 210.26767 210.66366
 211.46366 212.64865 213.90564 215.69564 217.63063 219.68062 221.78261 223.87261
 225.93960 228.03059 230.13459 232.24758 234.38357 236.56256 238.82556 241.20255
 243.83054 246.08854 248.09753 249.86952 251.29351 252.42351 253.25250 253.57549
 253.61949 253.40048 252.76747 251.72246 250.33546 248.50345 246.41944 244.25944
 242.05743 239.86842 237.69541 235.54141 233.40840 231.28239 229.31539 227.47938
 225.76937 224.24836 222.88536 221.66435 220.55334 219.52033 218.63133 217.77932
 217.02831 216.21531 215.32030 214.69129 214.14828 215.01541 217.10466 219.52127
 221.55202 223.06993 224.34171 225.24268 225.32710 225.06596 224.97820 224.73074
 226.21989 228.46744 232.13774 236.69214 241.41643 245.89246 250.03433 253.82930
 257.22382 260.17551 262.72913 265.01968 267.13019 269.13132 271.04449 272.84470
 274.50302 275.97519 277.19290 278.36389 279.55875 280.66150 281.73703 282.72061
 283.60526 284.39301 285.08121 285.95819
 366.78100 356.34284 345.78269 334.65653 323.06738 311.26922 299.14707 286.95791
 274.67776 262.58260 250.59945 239.90829 230.03814 221.14998 213.33983 206.34967
 200.19152 195.13736 191.72721 189.77705 188.82190 188.89374 189.73659 191.05243
 192.78528 194.88812 197.15897 199.52581 201.97866 204.46650 206.56235 208.41219
 210.04604 211.19888 211.43573 211.67157 211.61642 211.32926 210.97011 210.60795
 210.23280 209.95064 209.76649 209.63833 209.57418 209.91302 210.30687 210.70371
 211.50456 212.69040 213.94824 215.73909 217.67493 219.72578 221.82862 223.91947
 225.98731 228.07916 230.18400 232.29785 234.43469 236.61454 238.87838 241.25623
 243.88507 246.14392 248.15376 249.92661 251.35145 252.48230 253.31214 253.63599
 253.68083 253.46268 252.83052 251.78637 250.40021 248.56906 246.48590 244.32675
 242.12559 239.93744 237.76528 235.61213 233.47997 231.35482 229.38866 227.55351
 225.84435 224.32420 222.96204 221.74189 220.63173 219.59958 218.71142 217.86027
 217.11011 216.29796 215.40380 214.77565 214.23349 215.06790 217.10260 219.54153
 221.52335 223.11771 224.43723 225.12428 225.13162 224.79834 224.71126 224.78188
 226.28159 228.66298 232.34161 236.85989 241.55197 246.00816 250.13757 253.92793
 257.30399 260.23944 262.76721 265.04507 267.17389 269.18823 271.10245 272.89377
 274.52814 275.96429 277.19751 278.55246 279.79892 280.99503 282.10461 283.10983
 284.01392 284.81900 285.52231 286.41858
 366.78100 356.34296 345.78292 334.65688 323.06784 311.26980 299.14776 286.95871
 274.67867 262.58363 250.60059 239.90955 230.03951 221.15147 213.34143 206.35139
 200.19335 195.13931 191.72927 189.77922 188.82418 188.89614 189.73910 191.05506
 192.78802 194.89098 197.16194 199.52890 201.98186 204.46982 206.56578 208.41573
 210.04969 211.20265 211.43961 211.67557 211.62053 211.33349 210.97445 210.61241
 210.23737 209.95533 209.77129 209.64325 209.57920 209.91816 210.31212 210.70908
 211.51004 212.69600 213.95396 215.74492 217.68088 219.73184 221.83480 223.92576
 225.99371 228.08567 230.19063 232.30459 234.44155 236.62151 238.88547 241.26343
 243.89239 246.15135 248.16131 249.93427 251.35922 252.49018 253.32014 253.64410
 253.68906 253.47102 252.83898 251.79494 250.40890 248.57786 246.49482 244.33578
 242.13474 239.94669 237.77465 235.62161 233.48957 231.36453 229.39849 227.56345
 225.85441 224.33437 222.97233 221.75229 220.64225 219.61020 218.72216 217.87112
 217.12108 216.30904 215.41500 214.78696 214.24492 215.08408 217.13608 219.52176
 221.52454 223.13393 224.44125 225.01692 224.94136 224.56732 224.44949 224.76059
 226.29460 228.80026 232.51642 237.03416 241.70647 246.13908 250.24020 254.02080
 257.39645 260.32977 262.84402 265.10651 267.21439 269.22495 271.13785 272.91266
 274.50186 275.88211 277.30905 278.70450 279.99420 281.22537 282.34863 283.36621
 284.28143 285.09644 285.80838 286.71570
 366.78100 356.34276 345.78252 334.65628 323.06703 311.26879 299.14655 286.95731
 274.67707 262.58183 250.59859 239.90734 230.03710 221.14886 213.33862 206.34838
 200.19014 195.13590 191.72565 189.77541 188.82017 188.89193 189.73469 191.05045
 192.78320 194.88596 197.15672 199.52348 201.97624 204.46400 206.55976 208.40951
 210.04327 211.19603 211.43279 211.66855 211.61331 211.32607 210.96682 210.60458
 210.22934 209.94710 209.76286 209.63462 209.57038 209.90913 210.30289 210.69965
 211.50041 212.68617 213.94393 215.73469 217.67044 219.72120 221.82396 223.91472
 225.98248 228.07424 230.17900 232.29275 234.42951 236.60927 238.87303 241.25079
 243.87955 246.13830 248.14806 249.92082 251.34558 252.47634 253.30610 253.62986
 253.67461 253.45637 252.82413 251.77989 250.39365 248.56241 246.47917 244.31992
 242.11868 239.93044 237.75820 235.60496 233.47272 231.34748 229.38123 227.54599
 225.83675 224.31651 222.95427 221.73403 220.62379 219.59154 218.70330 217.85206
 217.10182 216.28958 215.39534 214.76709 214.22485 215.08591 217.18883 219.47928
 221.54054 223.15253 224.42560 224.94972 224.77789 224.30493 224.20294 224.73579
 226.24846 228.90068 232.71370 237.22852 241.86926 246.27841 250.34308 254.09995
 257.46014 260.37762 262.93491 265.24911 267.36041 269.33542 271.20969 272.92520
 274.45203 275.83475 277.36362 278.79245 280.15378 281.38245 282.50342 283.51895
 284.43231 285.24567 285.95618 286.86166
 366.78100 356.34222 345.78144 334.65465 323.06487 311.26609 299.14331 286.95353
 274.67275 262.57696 250.59318 239.90140 230.03062 221.14184 213.33106 206.34027
 200.18149 195.12671 191.71593 189.76515 188.80936 188.88058 189.72280 191.03802
 192.77024 194.87246 197.14267 199.50889 201.96111 204.44833 206.54355 208.39276
 210.02598 211.17820 211.41442 211.64964 211.59386 211.30607 210.94629 210.58351
 210.20773 209.92495 209.74017 209.61138 209.54660 209.88482 210.27804 210.67426
 211.47447 212.65969 213.91691 215.70713 217.64235 219.69257 221.79478 223.88500
 225.95222 228.04344 230.14766 232.26088 234.39709 236.57631 238.83953 241.21675
 243.84497 246.10318 248.11240 249.88462 251.30884 252.43906 253.26828 253.59149
 253.63571 253.41693 252.78415 251.73937 250.35258 248.52080 246.43702 244.27724
 242.07546 239.88668 237.71389 235.56011 233.42733 231.30155 229.33477 227.49899
 225.78920 224.26842 222.90564 221.68486 220.57408 219.54129 218.65251 217.80073
 217.04995 216.23717 215.34239 214.71360 214.17082 215.07095 217.25563 219.42998
 221.52409 223.22026 224.38766 224.80531 224.63405 224.12057 223.95160 224.62894
 226.20897 228.98558 232.89009 237.41547 242.03726 246.42918 250.46252 254.18500
 257.50217 260.40198 262.98138 265.38257 267.58643 269.59909 271.43463 273.06812
 274.49396 275.88498 277.46140 278.96875 280.35883 281.58868 282.71075 283.72726
 284.64151 285.45563 286.16687 287.07321
 366.78100 356.34251 345.78202 334.65553 323.06604 311.26755 299.14506 286.95557
 274.67508 262.57960 250.59611 239.90462 230.03413 221.14564 213.33515 206.34466
 200.18617 195.13168 191.72119 189.77070 188.81521 188.88672 189.72923 191.04474
 192.77725 194.87976 197.15028 199.51679 201.96930 204.45681 206.55232 208.40183
 210.03534 211.18785 211.42436 211.65987 211.60438 211.31689 210.95740 210.59491
 210.21942 209.93693 209.75244 209.62395 209.55947 209.89798 210.29149 210.68800
 211.48851 212.67402 213.93153 215.72204 217.65755 219.70806 221.81057 223.90108
 225.96859 228.06010 230.16461 232.27812 234.41463 236.59415 238.85766 241.23517
 243.86368 246.12219 248.13170 249.90421 251.32872 252.45923 253.28874 253.61225
 253.65676 253.43827 252.80578 251.76129 250.37480 248.54331 246.45983 244.30034
 242.09885 239.91036 237.73787 235.58438 233.45189 231.32640 229.35991 227.52442
 225.81493 224.29444 222.93195 221.71146 220.60097 219.56848 218.67999 217.82851
 217.07802 216.26553 215.37104 214.74255 214.20006 215.08922 217.25000 219.44928
 221.42819 223.22910 224.30620 224.56265 224.47934 224.00182 223.73428 224.48900
 226.03949 229.06201 233.10750 237.63129 242.22517 246.58932 250.60402 254.30829
 257.59421 260.45447 262.99841 265.40698 267.70724 269.84833 271.77652 273.42291
 274.77921 276.00104 277.51685 278.97180 280.35376 281.58603 282.71027 283.72876
 284.64481 285.46051 286.17313 287.08127
 366.78100 356.34309 345.78317 334.65726 323.06835 311.27044 299.14852 286.95961
 274.67970 262.58478 250.60187 239.91096 230.04105 221.15313 213.34322 206.35331
 200.19540 195.14148 191.73157 189.78166 188.82674 188.89883 189.74192 191.05801
 192.79109 194.89418 197.16527 199.53235 201.98544 204.47353 206.56962 208.41970
 210.05379 211.20688 211.44397 211.68005 211.62514 211.33823 210.97931 210.61740
 210.24249 209.96058 209.77666 209.64875 209.58484 209.92392 210.31801 210.71510
 211.51619 212.70227 213.96036 215.75145 217.68753 219.73862 221.84171 223.93280
 226.00088 228.09297 230.19806 232.31215 234.44923 236.62932 238.89341 241.27149
 243.90058 246.15967 248.16976 249.94284 251.36793 252.49902 253.32910 253.65319
 253.69828 253.48037 252.84845 251.80454 250.41863 248.58772 246.50480 244.34589
 242.14498 239.95706 237.78515 235.63224 233.50033 231.37541 229.40950 227.57459
 225.86567 224.34576 222.98385 221.76394 220.65402 219.62211 218.73420 217.88328
 217.13337 216.32146 215.42755 214.79963 214.25772 215.11467 217.19044 219.51707
 221.34102 223.03622 224.17081 224.38823 224.32971 223.82822 223.47118 224.34962
 225.83157 229.06049 233.27596 237.82748 242.40677 246.74675 250.73895 254.40735
 257.67880 260.54309 263.09195 265.44995 267.72174 269.89484 271.90176 273.63602
 275.04202 276.20819 277.46182 278.83087 280.07144 281.25198 282.34735 283.33969
 284.23218 285.02695 285.72125 286.60605
 366.78100 356.34322 345.78345 334.65767 323.06890 311.27112 299.14934 286.96057
 274.68079 262.58602 250.60324 239.91246 230.04269 221.15491 213.34514 206.35536
 200.19759 195.14381 191.73403 189.78426 188.82948 188.90171 189.74493 191.06115
 192.79438 194.89760 197.16883 199.53605 201.98927 204.47750 206.57372 208.42395
 210.05817 211.21139 211.44862 211.68484 211.63007 211.34329 210.98452 210.62274
 210.24796 209.96619 209.78241 209.65464 209.59086 209.93008 210.32431 210.72153
 211.52276 212.70898 213.96720 215.75843 217.69465 219.74588 221.84910 223.94032
 226.00855 228.10077 230.20600 232.32022 234.45744 236.63767 238.90189 241.28012
 243.90934 246.16857 248.17879 249.95201 251.37724 252.50846 253.33869 253.66291
 253.70813 253.49036 252.85858 251.81481 250.42903 248.59825 246.51548 244.35670
 242.15593 239.96815 237.79637 235.64360 233.51182 231.38705 229.42127 227.58650
 225.87772 224.35794 222.99617 221.77639 220.66662 219.63484 218.74706 217.89629
 217.14651 216.33474 215.44096 214.81318 214.27141 215.12263 217.17012 219.53467
 221.37172 222.78406 224.02000 224.39449 224.14676 223.52795 223.19560 224.17155
 225.70287 229.10669 233.45139 238.02458 242.58943 246.90749 250.85847 254.49472
 257.75058 260.61307 263.18912 265.58374 267.84091 269.98447 271.97150 273.69980
 275.11340 276.28717 277.38501 278.71228 279.91791 281.02789 282.10638 283.10001
 283.99368 284.78949 285.48468 286.37064
 366.78100 356.34359 345.78418 334.65877 323.07036 311.27296 299.15155 286.96314
 274.68373 262.58932 250.60691 239.91650 230.04709 221.15968 213.35027 206.36087
 200.20346 195.15005 191.74064 189.79123 188.83682 188.90941 189.75300 191.06959
 192.80319 194.90678 197.17837 199.54596 201.99955 204.48814 206.58473 208.43532
 210.06991 211.22350 211.46110 211.69769 211.64328 211.35687 210.99846 210.63705
 210.26264 209.98123 209.79782 209.67042 209.60701 209.94660 210.34119 210.73878
 211.54037 212.72696 213.98555 215.77714 217.71373 219.76533 221.86892 223.96051
 226.02910 228.12169 230.22728 232.34187 234.47946 236.66005 238.92465 241.30324
 243.93283 246.19242 248.20301 249.97660 251.40219 252.53378 253.36437 253.68896
 253.73456 253.51715 252.88574 251.84233 250.45692 248.62651 246.54410 244.38569
 242.18528 239.99788 237.82647 235.67406 233.54265 231.41824 229.45283 227.61842
 225.91001 224.39060 223.02919 221.80979 220.70038 219.66897 218.78156 217.93115
 217.18174 216.37033 215.47692 214.84951 214.30811 215.15025 217.18469 219.52805
 221.37798 222.74748 224.02756 224.28569 223.91847 223.23068 222.95761 224.13489
 225.73637 229.23717 233.64137 238.23323 242.77182 247.05455 250.97980 254.58618
 257.82303 260.68768 263.27432 265.69150 267.98541 270.13461 272.09366 273.79254
 275.20276 276.42245 277.49771 278.80716 280.03818 281.18896 282.29135 283.29007
 284.18829 284.98819 285.68692 286.57742
 366.78100 356.34510 345.78719 334.66329 323.07638 311.28048 299.16058 286.97367
 274.69577 262.60286 250.62196 239.93305 230.06515 221.17925 213.37134 206.38344
 200.22753 195.17563 191.76773 189.81982 188.86692 188.94101 189.78611 191.10421
 192.83930 194.94440 197.21749 199.58659 202.04168 204.53178 206.62988 208.48197
 210.11807 211.27316 211.51226 211.75036 211.69745 211.41255 211.05564 210.69574
 210.32284 210.04293 209.86103 209.73512 209.67322 210.01431 210.41041 210.80951
 211.61260 212.80070 214.06079 215.85389 217.79199 219.84508 221.95018 224.04327
 226.11337 228.20746 230.31456 232.43066 234.56975 236.75185 239.01794 241.39804
 244.02914 246.29023 248.30233 250.07742 251.50452 252.63762 253.46971 253.79581
 253.84290 253.62700 252.99709 251.95519 250.57129 248.74238 246.66148 244.50457
 242.30567 240.11977 237.94986 235.79896 233.66905 231.54615 229.58225 227.74934
 226.04244 224.52453 223.16463 221.94672 220.83882 219.80892 218.92301 218.07411
 217.32620 216.51630 215.62440 214.99849 214.45859 215.23158 217.11783 219.62302
 221.27527 222.70753 224.03813 224.02301 223.68788 223.01535 222.73694 223.98952
 225.72981 229.35818 233.82887 238.42801 242.94530 247.20525 251.11728 254.70874
 257.93613 260.80856 263.40701 265.82492 268.11536 270.25485 272.17218 273.80270
 275.13312 276.33517 277.62936 279.00729 280.24081 281.38638 282.47577 283.46268
 284.35028 285.14072 285.83124 286.71118
 366.78100 356.34527 345.78754 334.66381 323.07708 311.28135 299.16162 286.97488
 274.69715 262.60442 250.62369 239.93496 230.06723 221.18150 213.37377 206.38604
 200.23031 195.17858 191.77085 189.82312 188.87038 188.94465 189.78992 191.10819
 192.84346 194.94873 197.22200 199.59127 202.04654 204.53681 206.63508 208.48735
 210.12361 211.27888 211.51815 211.75642 211.70369 211.41896 211.06223 210.70250
 210.32977 210.05004 209.86831 209.74258 209.68085 210.02211 210.41838 210.81765
 211.62092 212.80919 214.06946 215.86273 217.80100 219.85427 221.95954 224.05281
 226.12308 228.21735 230.32461 232.44088 234.58015 236.76242 239.02869 241.40896
 244.04023 246.30150 248.31377 250.08904 251.51631 252.64958 253.48185 253.80811
 253.85538 253.63965 253.00992 251.96819 250.58446 248.75573 246.67500 244.51827
 242.31954 240.13381 237.96408 235.81334 233.68361 231.56088 229.59715 227.76442
 226.05769 224.53996 223.18023 221.96250 220.85477 219.82504 218.93931 218.09058
 217.34284 216.53311 215.64138 215.01565 214.47592 215.24155 217.06905 219.67477
 221.35391 222.68346 223.95265 223.78404 223.37418 222.78452 222.60919 223.76181
 225.68462 229.45818 234.02281 238.61031 243.11426 247.36530 251.25288 254.83702
 258.06473 260.94534 263.56985 265.99875 268.27747 270.41089 272.32007 273.88998
 275.11780 276.21960 277.40659 278.71542 279.90756 280.98160 281.98770 282.92831
 283.78650 284.55072 285.21835 286.06915
 366.78100 356.34373 345.78446 334.65919 323.07091 311.27364 299.15237 286.96410
 274.68483 262.59056 250.60828 239.91801 230.04874 221.16147 213.35220 206.36293
 200.20565 195.15238 191.74311 189.79384 188.83957 188.91230 189.75602 191.07275
 192.80648 194.91021 197.18194 199.54967 202.00339 204.49212 206.58885 208.43958
 210.07431 211.22804 211.46577 211.70249 211.64822 211.36195 211.00368 210.64241
 210.26814 209.98686 209.80359 209.67632 209.61305 209.95278 210.34751 210.74523
 211.54696 212.73369 213.99242 215.78415 217.72088 219.77260 221.87633 223.96806
 226.03679 228.12952 230.23525 232.34997 234.48770 236.66843 238.93316 241.31189
 243.94162 246.20134 248.21207 249.98580 251.41153 252.54326 253.37399 253.69872
 253.74444 253.52717 252.89590 251.85263 250.46736 248.63709 246.55481 244.39654
 242.19627 240.00900 237.83773 235.68546 233.55418 231.42991 229.46464 227.63037
 225.92210 224.40283 223.04155 221.82228 220.71301 219.68174 218.79447 217.94420
 217.19492 216.38365 215.49038 214.86311 214.32184 215.16608 217.16069 219.55693
 221.53957 222.84845 223.79163 223.62654 223.09865 222.49315 222.48871 223.64706
 225.82817 229.65866 234.22701 238.78798 243.27541 247.51205 251.38188 254.96558
 258.18777 261.06927 263.70480 266.14108 268.41852 270.55499 272.47900 274.06781
 275.32611 276.37173 277.36707 278.39832 279.46198 280.50052 281.47266 282.35419
 283.13538 283.84418 284.48776 285.30798
 366.78100 356.34292 345.78284 334.65676 323.06768 311.26960 299.14752 286.95844
 274.67836 262.58328 250.60020 239.90912 230.03904 221.15096 213.34088 206.35080
 200.19271 195.13863 191.72855 189.77847 188.82339 188.89531 189.73823 191.05415
 192.78707 194.88999 197.16091 199.52783 201.98075 204.46867 206.56459 208.41451
 210.04843 211.20135 211.43827 211.67419 211.61911 211.33203 210.97295 210.61087
 210.23579 209.95371 209.76963 209.64155 209.57747 209.91639 210.31030 210.70722
 211.50814 212.69406 213.95198 215.74290 217.67882 219.72974 221.83266 223.92358
 225.99150 228.08342 230.18834 232.30226 234.43918 236.61910 238.88302 241.26094
 243.88986 246.14878 248.15870 249.93162 251.35654 252.48746 253.31738 253.64130
 253.68622 253.46814 252.83606 251.79198 250.40589 248.57481 246.49173 244.33265
 242.13157 239.94349 237.77141 235.61833 233.48625 231.36117 229.39509 227.56001
 225.85093 224.33085 222.96877 221.74869 220.63861 219.60653 218.71845 217.86737
 217.11729 216.30521 215.41113 214.78305 214.24097 215.12921 217.22780 219.47510
 221.58746 222.92088 223.65633 223.49013 222.88936 222.19476 222.24416 223.52374
 225.84854 229.79506 234.42091 238.98524 243.44179 247.65659 251.51520 255.07991
 258.29932 261.19809 263.84949 266.29953 268.57513 270.70062 272.61874 274.17941
 275.39047 276.42557 277.40680 278.41635 279.39059 280.28696 281.23950 282.12271
 282.90997 283.60477 284.21973 285.04266
 366.78100 356.34312 345.78323 334.65735 323.06847 311.27058 299.14870 286.95982
 274.67993 262.58505 250.60217 239.91128 230.04140 221.15352 213.34364 206.35375
 200.19587 195.14199 191.73210 189.78222 188.82734 188.89945 189.74257 191.05869
 192.79180 194.89492 197.16604 199.53315 201.98627 204.47439 206.57050 208.42062
 210.05474 211.20785 211.44497 211.68109 211.62621 211.33932 210.98044 210.61856
 210.24367 209.96179 209.77791 209.65002 209.58614 209.92526 210.31937 210.71649
 211.51761 212.70372 213.96184 215.75296 217.68907 219.74019 221.84331 223.93442
 226.00254 228.09466 230.19978 232.31389 234.45101 236.63113 238.89524 241.27336
 243.90248 246.16159 248.17171 249.94483 251.36994 252.50106 253.33118 253.65529
 253.70041 253.48253 252.85064 251.80676 250.42088 248.58999 246.50711 244.34823
 242.14734 239.95946 237.78758 235.63470 233.50281 231.37793 229.41205 227.57716
 225.86828 224.34840 222.98651 221.76663 220.65675 219.62486 218.73698 217.88610
 217.13621 216.32433 215.43045 214.80256 214.26068 215.14503 217.23441 219.46011
 221.56972 222.92090 223.56516 223.35297 222.66508 221.90439 221.98494 223.38219
 225.84846 229.90863 234.59570 239.19742 243.61847 247.79654 251.64497 255.20486
 258.43381 261.35135 264.01459 266.46930 268.73663 270.84186 272.74786 274.29752
 275.46353 276.46426 277.42783 278.44742 279.42691 280.31479 281.24829 282.11548
 282.79910 283.47299 284.08246 284.92447
 366.78100 356.34360 345.78421 334.65881 323.07041 311.27302 299.15162 286.96322
 274.68383 262.58943 250.60704 239.91664 230.04724 221.15985 213.35045 206.36105
 200.20366 195.15026 191.74086 189.79147 188.83707 188.90967 189.75328 191.06988
 192.80349 194.90709 197.17869 199.54630 201.99990 204.48850 206.58511 208.43571
 210.07031 211.22392 211.46152 211.69812 211.64373 211.35733 210.99894 210.63754
 210.26314 209.98175 209.79835 209.67095 209.60756 209.94716 210.34176 210.73937
 211.54097 212.72757 213.98618 215.77778 217.71439 219.76599 221.86959 223.96120
 226.02980 228.12240 230.22801 232.34261 234.48021 236.66082 238.92542 241.30402
 243.93363 246.19323 248.20384 249.97744 251.40304 252.53465 253.36525 253.68985
 253.73546 253.51806 252.88666 251.84327 250.45787 248.62747 246.54508 244.38668
 242.18629 239.99889 237.82749 235.67510 233.54370 231.41930 229.45391 227.61951
 225.91111 224.39172 223.03032 221.81092 220.70153 219.67013 218.78274 217.93234
 217.18294 216.37155 215.47815 214.85075 214.30936 215.17671 217.22592 219.46260
 221.53491 222.90764 223.50722 223.20651 222.41144 221.61525 221.72417 223.24374
 225.85539 230.01250 234.75499 239.41232 243.80791 247.93687 251.77428 255.33487
 258.57147 261.50739 264.18335 266.63910 268.89117 270.97232 272.86447 274.41095
 275.55496 276.53528 277.48795 278.51740 279.50449 280.39783 281.31961 282.16864
 282.85306 283.51706 284.12427 284.95938
 366.78100 356.34401 345.78502 334.66003 323.07204 311.27505 299.15406 286.96607
 274.68708 262.59309 250.61111 239.92112 230.05213 221.16514 213.35615 206.36716
 200.21017 195.15718 191.74819 189.79920 188.84521 188.91822 189.76223 191.07924
 192.81325 194.91726 197.18927 199.55728 202.01129 204.50031 206.59732 208.44833
 210.08334 211.23735 211.47536 211.71237 211.65838 211.37239 211.01440 210.65341
 210.27942 209.99843 209.81544 209.68845 209.62546 209.96547 210.36048 210.75849
 211.56050 212.74752 214.00653 215.79854 217.73555 219.78756 221.89157 223.98358
 226.05259 228.14560 230.25161 232.36662 234.50463 236.68564 238.95065 241.32966
 243.95967 246.21968 248.23069 250.00470 251.43072 252.56273 253.39374 253.71875
 253.76476 253.54777 252.91678 251.87379 250.48880 248.65881 246.57682 244.41883
 242.21884 240.03185 237.86086 235.70887 233.57788 231.45389 229.48890 227.65492
 225.94693 224.42794 223.06695 221.84796 220.73897 219.70798 218.82099 217.97100
 217.22201 216.41102 215.51803 214.89104 214.35005 215.20456 217.22343 219.46187
 221.49467 222.89001 223.47260 223.05807 222.14908 221.30746 221.44815 223.12773
 225.88298 230.11469 234.90071 239.62067 244.03058 248.07906 251.89363 255.46379
 258.71338 261.65839 264.35074 266.80542 269.04416 271.09598 272.96933 274.52948
 275.65714 276.60266 277.54395 278.56381 279.52969 280.51208 281.45734 282.31876
 283.09323 283.78497 284.39102 285.19312
 366.78100 356.34453 345.78607 334.66160 323.07413 311.27767 299.15720 286.96973
 274.69127 262.59780 250.61633 239.92687 230.05840 221.17193 213.36347 206.37500
 200.21853 195.16607 191.75760 189.80913 188.85567 188.92920 189.77373 191.09127
 192.82580 194.93033 197.20287 199.57140 202.02593 204.51547 206.61300 208.46453
 210.10007 211.25460 211.49313 211.73066 211.67720 211.39173 211.03426 210.67380
 210.30033 210.01986 209.83740 209.71093 209.64846 209.98900 210.38453 210.78306
 211.58560 212.77313 214.03266 215.82520 217.76273 219.81526 221.91980 224.01233
 226.08186 228.17540 230.28193 232.39746 234.53600 236.71753 238.98306 241.36260
 243.99313 246.25366 248.26520 250.03973 251.46626 252.59880 253.43033 253.75586
 253.80240 253.58593 252.95546 251.91300 250.52853 248.69906 246.61760 244.46013
 242.26066 240.07420 237.90373 235.75226 233.62180 231.49833 229.53386 227.70040
 225.99293 224.47446 223.11400 221.89553 220.78706 219.75660 218.87013 218.02066
 217.27220 216.46173 215.56926 214.94280 214.40233 215.23788 217.21199 219.47299
 221.44626 222.85420 223.45476 222.95255 221.88564 220.96552 221.15355 223.01013
 225.91992 230.22711 235.05164 239.80182 244.25737 248.25624 252.01125 255.58920
 258.86224 261.82715 264.52322 266.97110 269.19092 271.21234 273.06027 274.61969
 275.75778 276.71603 277.64038 278.64059 279.64914 280.67303 281.63608 282.51581
 283.30646 284.00720 284.61292 285.41275
 366.78100 356.34503 345.78707 334.66310 323.07613 311.28017 299.16020 286.97323
 274.69527 262.60230 250.62133 239.93237 230.06440 221.17844 213.37047 206.38250
 200.22654 195.17457 191.76660 189.81864 188.86567 188.93970 189.78474 191.10277
 192.83780 194.94284 197.21587 199.58490 202.03994 204.52997 206.62800 208.48004
 210.11607 211.27110 211.51014 211.74817 211.69520 211.41024 211.05327 210.69331
 210.32034 210.04037 209.85841 209.73244 209.67047 210.01151 210.40754 210.80657
 211.60961 212.79764 214.05767 215.85071 217.78874 219.84177 221.94681 224.03984
 226.10987 228.20391 230.31094 232.42697 234.56601 236.74804 239.01408 241.39411
 244.02514 246.28618 248.29821 250.07324 251.50028 252.63331 253.46534 253.79138
 253.83841 253.62244 252.99248 251.95051 250.56654 248.73758 246.65661 244.49964
 242.30068 240.11471 237.94474 235.79378 233.66381 231.54084 229.57688 227.74391
 226.03695 224.51898 223.15901 221.94105 220.83308 219.80311 218.91715 218.06818
 217.32021 216.51025 215.61828 214.99231 214.45235 215.26984 217.20125 219.47644
 221.41875 222.79126 223.42325 222.88498 221.68457 220.60263 220.77567 222.92560
 226.00301 230.34744 235.20891 239.97743 244.44986 248.48526 252.13730 255.71124
 259.01340 261.98792 264.68256 267.12643 269.33182 271.32864 273.14795 274.71042
 275.86996 276.84445 277.77374 278.77731 279.81821 280.83258 281.77155 282.63693
 283.43942 284.17502 284.79050 285.59338
 366.78100 356.34520 345.78740 334.66360 323.07681 311.28101 299.16121 286.97441
 274.69661 262.60381 250.62301 239.93421 230.06642 221.18062 213.37282 206.38502
 200.22922 195.17742 191.76962 189.82182 188.86903 188.94323 189.78843 191.10663
 192.84183 194.94703 197.22023 199.58944 202.04464 204.53484 206.63304 208.48524
 210.12144 211.27664 211.51584 211.75405 211.70125 211.41645 211.05965 210.69985
 210.32705 210.04725 209.86546 209.73966 209.67786 210.01906 210.41526 210.81446
 211.61766 212.80586 214.06607 215.85927 217.79747 219.85067 221.95587 224.04907
 226.11927 228.21347 230.32068 232.43688 234.57608 236.75828 239.02448 241.40468
 244.03588 246.29709 248.30929 250.08449 251.51169 252.64489 253.47709 253.80329
 253.85049 253.63470 253.00490 251.96310 250.57930 248.75050 246.66970 244.51290
 242.31411 240.12831 237.95851 235.80771 233.67791 231.55511 229.59131 227.75851
 226.05172 224.53392 223.17412 221.95632 220.84852 219.81872 218.93292 218.08412
 217.33633 216.52653 215.63473 215.00893 214.46913 215.28293 217.20563 219.45653
 221.41025 222.74434 223.32442 222.83273 221.59854 220.17096 220.42857 222.86931
 226.04254 230.44745 235.36624 240.15540 244.61101 248.67432 252.32912 255.83076
 259.15063 262.14221 264.83105 267.26614 269.45984 271.43469 273.22162 274.77203
 275.93353 276.90900 277.85980 278.93005 280.04584 281.08301 282.03378 282.90356
 283.70615 284.44382 285.07120 285.88336
 366.78100 356.34530 345.78759 334.66389 323.07718 311.28148 299.16177 286.97507
 274.69736 262.60466 250.62395 239.93525 230.06754 221.18184 213.37413 206.38643
 200.23072 195.17902 191.77131 189.82361 188.87090 188.94520 189.79049 191.10879
 192.84408 194.94938 197.22267 199.59197 202.04726 204.53756 206.63585 208.48815
 210.12444 211.27974 211.51904 211.75733 211.70463 211.41992 211.06322 210.70351
 210.33081 210.05110 209.86940 209.74369 209.68199 210.02328 210.41958 210.81887
 211.62217 212.81046 214.07076 215.86405 217.80235 219.85564 221.96094 224.05423
 226.12453 228.21882 230.32612 232.44241 234.58171 236.76400 239.03030 241.41059
 244.04189 246.30319 248.31548 250.09078 251.51807 252.65137 253.48366 253.80996
 253.85725 253.64155 253.01184 251.97014 250.58643 248.75773 246.67702 244.52032
 242.32161 240.13591 237.96620 235.81550 233.68579 231.56309 229.59938 227.76668
 226.05997 224.54227 223.18256 221.96486 220.85715 219.82745 218.94174 218.09304
 217.34533 216.53563 215.64393 215.01822 214.47852 215.29143 217.21199 219.43321
 221.39076 222.72148 223.22131 222.71228 221.44792 219.85487 220.11713 222.72652
 226.07431 230.57959 235.52684 240.33018 244.77065 248.83989 252.55989 255.97368
 259.25876 262.27933 264.97018 267.39581 269.57321 271.52432 273.28769 274.81653
 275.96674 276.94498 277.94812 279.09543 280.24670 281.29306 282.25064 283.12384
 283.92792 284.66556 285.30338 286.13159
 366.78100 356.34550 345.78801 334.66451 323.07801 311.28252 299.16302 286.97653
 274.69903 262.60653 250.62604 239.93754 230.07004 221.18455 213.37705 206.38956
 200.23406 195.18256 191.77507 189.82757 188.87507 188.94958 189.79508 191.11359
 192.84909 194.95459 197.22810 199.59760 202.05310 204.54361 206.64211 208.49462
 210.13112 211.28662 211.52613 211.76463 211.71213 211.42764 211.07114 210.71165
 210.33915 210.05965 209.87816 209.75266 209.69116 210.03267 210.42917 210.82868
 211.63218 212.82068 214.08119 215.87469 217.81319 219.86670 221.97220 224.06571
 226.13621 228.23071 230.33822 232.45472 234.59422 236.77673 239.04323 241.42374
 244.05524 246.31674 248.32925 250.10475 251.53225 252.66576 253.49826 253.82477
 253.87227 253.65677 253.02728 251.98578 250.60228 248.77379 246.69329 244.53680
 242.33830 240.15280 237.98331 235.83281 233.70331 231.58082 229.61732 227.78483
 226.07833 224.56083 223.20134 221.98384 220.87634 219.84685 218.96135 218.11286
 217.36536 216.55586 215.66437 215.03887 214.49937 215.30618 217.21234 219.42361
 221.35822 222.69600 223.13858 222.56873 221.24976 219.58403 219.82472 222.56969
 226.10907 230.71857 235.68233 240.50020 244.93221 249.01260 252.75092 256.15305
 259.37314 262.39413 265.08603 267.50388 269.67368 271.60675 273.35196 274.87137
 276.02505 276.97775 277.98544 279.23901 280.38281 281.42236 282.37808 283.25198
 284.05386 284.78735 285.43524 286.26706
 366.78100 356.34566 345.78832 334.66498 323.07864 311.28330 299.16396 286.97763
 274.70029 262.60795 250.62761 239.93927 230.07193 221.18659 213.37925 206.39191
 200.23657 195.18523 191.77789 189.83055 188.87822 188.95288 189.79854 191.11720
 192.85286 194.95852 197.23218 199.60184 202.05750 204.54816 206.64682 208.49948
 210.13614 211.29180 211.53147 211.77013 211.71779 211.43345 211.07711 210.71777
 210.34543 210.06609 209.88475 209.75941 209.69807 210.03973 210.43639 210.83606
 211.63972 212.82838 214.08904 215.88270 217.82136 219.87502 221.98068 224.07434
 226.14500 228.23966 230.34732 232.46398 234.60365 236.78631 239.05297 241.43363
 244.06529 246.32695 248.33961 250.11527 251.54293 252.67659 253.50925 253.83591
 253.88357 253.66824 253.03890 251.99756 250.61422 248.78588 246.70554 244.54920
 242.35086 240.16552 237.99618 235.84584 233.71650 231.59416 229.63083 227.79849
 226.09215 224.57481 223.21547 221.99813 220.89079 219.86145 218.97611 218.12777
 217.38043 216.57109 215.67975 215.05441 214.51508 215.31590 217.20796 219.41745
 221.32959 222.66891 223.06230 222.40897 221.02505 219.33714 219.55528 222.41789
 226.14787 230.85941 235.83430 240.65878 245.08040 249.15749 252.93735 256.38434
 259.53424 262.49603 265.18610 267.58597 269.73196 271.65781 273.38904 274.89944
 276.08621 277.07251 278.13162 279.30060 280.44873 281.48972 282.44751 283.32373
 284.12616 284.86237 285.51733 286.36597
 366.78100 356.34571 345.78842 334.66514 323.07885 311.28356 299.16427 286.97799
 274.70070 262.60841 250.62812 239.93983 230.07255 221.18726 213.37997 206.39268
 200.23739 195.18611 191.77882 189.83153 188.87924 188.95396 189.79967 191.11838
 192.85409 194.95980 197.23352 199.60323 202.05894 204.54965 206.64837 208.50108
 210.13779 211.29350 211.53321 211.77193 211.71964 211.43535 211.07906 210.71977
 210.34749 210.06820 209.88691 209.76162 209.70034 210.04205 210.43876 210.83847
 211.64218 212.83090 214.09161 215.88532 217.82403 219.87775 221.98346 224.07717
 226.14788 228.24259 230.35031 232.46702 234.60673 236.78944 239.05616 241.43687
 244.06858 246.33029 248.34300 250.11872 251.54643 252.68014 253.51285 253.83956
 253.88728 253.67199 253.04270 252.00141 250.61813 248.78984 246.70955 244.55326
 242.35497 240.16969 238.00040 235.85011 233.72082 231.59854 229.63525 227.80296
 226.09667 224.57938 223.22010 222.00281 220.89552 219.86623 218.98094 218.13266
 217.38537 216.57608 215.68479 215.05951 214.52022 215.32008 217.20985 219.40134
 221.30157 222.63191 222.99904 222.23305 220.80486 219.10991 219.30135 222.28262
 226.19016 230.99106 235.97803 240.80440 245.22597 249.31592 253.13405 256.61047
 259.71649 262.56226 265.21396 267.65033 269.81677 271.73770 273.40756 274.90256
 276.13022 277.16479 278.20697 279.34332 280.44125 281.45181 282.34131 283.20010
 283.99835 284.73120 285.39099 286.25522
 366.78100 356.34571 345.78841 334.66512 323.07882 311.28353 299.16423 286.97794
 274.70064 262.60835 250.62805 239.93976 230.07246 221.18717 213.37987 206.39258
 200.23728 195.18599 191.77869 189.83140 188.87910 188.95381 189.79951 191.11822
 192.85392 194.95963 197.23333 199.60304 202.05874 204.54945 206.64815 208.50086
 210.13756 211.29327 211.53297 211.77168 211.71938 211.43509 211.07879 210.71950
 210.34720 210.06791 209.88661 209.76132 209.70002 210.04173 210.43843 210.83814
 211.64184 212.83055 214.09125 215.88496 217.82366 219.87737 221.98307 224.07678
 226.14748 228.24219 230.34989 232.46660 234.60630 236.78901 239.05571 241.43642
 244.06812 246.32983 248.34253 250.11824 251.54594 252.67965 253.51235 253.83906
 253.88676 253.67147 253.04217 252.00088 250.61758 248.78929 246.70899 244.55270
 242.35440 240.16911 237.99981 235.84952 233.72022 231.59793 229.63463 227.80234
 226.09604 224.57875 223.21945 222.00216 220.89486 219.86557 218.98027 218.13198
 217.38468 216.57539 215.68409 215.05880 214.51950 215.31929 217.20891 219.38486
 221.27773 222.58958 222.94244 222.06830 220.53537 218.87381 219.08818 222.18582
 226.24777 231.12007 236.11826 240.94177 245.37044 249.49301 253.34526 256.84662
 259.93042 262.69510 265.24841 267.62091 269.74646 271.63193 273.33017 274.79947
 276.08124 277.24841 278.33267 279.36960 280.29367 281.27185 282.16953 283.01123
 283.79095 284.49387 285.08212 285.65994
 354.97500 345.04800 334.58700 324.11500 313.32600 302.53700 291.65000 280.76700
 269.93100 259.19300 248.62200 238.61700 229.08700 220.35500 212.54000 205.53500
 199.46400 194.49300 191.14300 189.19000 188.08900 188.01400 188.72400 189.90600
 191.46900 193.38200 195.40300 197.55600 199.80700 202.06000 204.28800 206.47900
 208.55200 210.37800 212.02500 213.65900 214.99800 216.11800 217.17200 218.25900
 219.49400 220.64500 221.67900 222.61400 223.54500 224.98200 226.57100 228.19000
 229.79700 231.81100 233.86500 235.97200 238.24200 240.55300 242.89900 245.25300
 247.48800 249.53500 251.36600 252.84800 254.09800 255.16700 256.02700 256.25300
 256.09500 255.54300 253.93500 252.56600 251.38400 250.24500 249.05200 247.70100
 246.01600 243.99600 241.78400 239.39300 236.81300 234.22300 231.65800 229.14400
 226.74000 224.47300 222.33500 220.32500 218.44000 216.67700 214.96200 213.47200
 212.20000 211.10800 210.26000 209.63900 209.24400 209.03100 209.05800 209.33300
 209.78400 210.62600 211.33100 212.39100 213.62500 214.84668 217.72949 219.47640
 220.32566 220.86828 220.88710 220.27371 219.43733 218.84250 219.04934 220.86203
 222.60583 225.72206 229.03064 232.61777 236.12270 239.51333 242.70767 245.68587
 248.41061 250.90679 253.19353 254.91714 256.48655 257.94920 259.39966 260.69384
 261.81714 262.77997 263.71679 264.54570 265.26305 265.89772 266.47676 267.00133
 267.47312 267.89325 268.26027 268.72800
