|-------------------------------------------------------------------------|
|   File Name : in_temp.dat
|   Subject   : temperature profiles used for initial guess atmosphere
|   File Type : input of gmtr
|   Data Type : atmospherical data
|   Author/s  : WRF-Chem
|   Date      : Fri Jul 26 15:39:24 2024
|-------------------------------------------------------------------------|

 WRF-Chem temperature
#
 values of T (K)    (8f10.5)
#
 354.97500 345.04800 334.58700 324.11500 313.32600 302.53700 291.65000 280.76700
 269.93100 259.19300 248.62200 238.61700 229.08700 220.35500 212.54000 205.53500
 199.46400 194.49300 191.14300 189.19000 188.08900 188.01400 188.72400 189.90600
 191.46900 193.38200 195.40300 197.55600 199.80700 202.06000 204.28800 206.47900
 208.55200 210.37800 212.02500 213.65900 214.99800 216.11800 217.17200 218.25900
 219.49400 220.64500 221.67900 222.61400 223.54500 224.98200 226.57100 228.19000
 229.79700 231.81100 233.86500 235.97200 238.24200 240.55300 242.89900 245.25300
 247.48800 249.53500 251.36600 252.84800 254.09800 255.16700 256.02700 256.25300
 256.09500 255.54300 253.93500 252.56600 251.38400 250.24500 249.05200 247.70100
 246.01600 243.99600 241.78400 239.39300 236.81300 234.22300 231.65800 229.14400
 226.74000 224.47300 222.33500 220.32500 218.44000 216.67700 214.96200 213.47200
 212.20000 211.10800 210.26000 209.63900 209.24400 209.03100 209.05800 209.33300
 209.78400 210.62600 211.33100 212.39100 213.62500 214.84668 217.72949 219.47640
 220.32566 220.86828 220.88710 220.27371 219.43733 218.84250 219.04934 220.86203
 222.60583 225.72206 229.03064 232.61777 236.12270 239.51333 242.70767 245.68587
 248.41061 250.90679 253.19353 254.91714 256.48655 257.94920 259.39966 260.69384
 261.81714 262.77997 263.71679 264.54570 265.26305 265.89772 266.47676 267.00133
 267.47312 267.89325 268.26027 268.72800
 366.78100 356.33500 345.76700 334.63300 323.03600 311.23000 299.10000 286.90300
 274.61500 262.51200 250.52100 239.82200 229.94400 221.04800 213.23000 206.23200
 200.06600 195.00400 191.58600 189.62800 188.66500 188.72900 189.56400 190.87200
 192.59700 194.69200 196.95500 199.31400 201.75900 204.23900 206.32700 208.16900
 209.79500 210.94000 211.16900 211.39700 211.33400 211.03900 210.67200 210.30200
 209.91900 209.62900 209.43700 209.30100 209.22900 209.56000 209.94600 210.33500
 211.12800 212.30600 213.55600 215.33900 217.26700 219.31000 221.40500 223.48800
 225.54800 227.63200 229.72900 231.83500 233.96400 236.13600 238.39200 240.76200
 243.38300 245.63400 247.63600 249.40100 250.81800 251.94100 252.76300 253.07900
 253.11600 252.89000 252.25000 251.19800 249.80400 247.96500 245.87400 243.70700
 241.49800 239.30200 237.12200 234.96100 232.82100 230.68800 228.71400 226.87100
 225.15400 223.62600 222.25600 221.02800 219.91000 218.87000 217.97400 217.11500
 216.35700 215.53700 214.63500 213.99900 213.44900 212.85855 212.01316 212.61654
 214.26826 216.08686 218.14273 220.53346 223.40855 226.78828 231.49734 235.90155
 239.42278 243.28576 247.23140 251.11907 254.80144 258.23331 261.38913 264.27520
 266.89312 269.26852 271.44504 273.08845 274.58484 275.98591 277.39845 278.65879
 279.75272 280.69038 281.56708 282.34086 283.01050 283.60295 284.14348 284.63317
 285.07358 285.46577 285.80838 286.24500
 381.81900 372.39900 361.20600 349.77600 337.62200 324.85300 311.81000 298.35300
 284.86000 271.32400 258.56100 246.30400 236.08700 226.79600 218.44800 211.29000
 205.52200 200.89400 197.38100 194.84800 193.01500 192.31500 192.25000 192.43100
 192.91200 193.53700 194.13600 194.71200 195.26200 195.83100 196.39300 196.97600
 197.60400 198.14900 198.58400 199.05700 199.69500 200.37800 201.05400 201.70800
 202.31300 202.85700 203.35500 203.86200 204.56900 205.29700 206.02600 206.98700
 208.19300 209.44100 210.96900 212.57600 214.46200 216.51300 218.63000 220.85300
 223.34100 225.96200 228.73900 231.69700 234.70600 237.70600 240.69200 243.65700
 246.73700 249.69900 252.52100 255.06300 257.29000 259.23300 260.63300 261.68000
 262.46100 262.79800 262.69100 262.22400 261.06900 259.52500 257.70700 255.50700
 253.00100 250.30200 247.39800 244.45200 241.65400 239.05400 236.73300 234.59000
 232.59500 230.72500 228.83400 226.82600 224.66600 222.38700 220.10400 217.71500
 215.45900 213.06600 210.54600 208.09300 205.35400 202.08130 196.05959 200.71215
 209.01611 216.90438 223.84126 229.78593 235.00632 240.20838 245.98943 250.68668
 254.32982 257.93487 261.55666 264.96801 268.15192 271.06452 273.76717 276.25691
 278.57680 280.74479 282.77456 284.60533 286.27232 287.81705 289.31715 290.65561
 291.81734 292.81312 293.70701 294.49387 295.17482 295.77730 296.32696 296.82492
 297.27278 297.67160 298.02000 298.46400
 399.33000 389.90700 379.81300 368.66800 357.52200 345.30100 333.07400 320.22700
 307.21600 293.84800 280.37600 267.29600 254.61000 242.98700 232.15100 221.97700
 212.67200 204.28600 197.66900 192.82100 189.48600 187.45200 186.81400 187.08900
 187.78100 189.05400 190.64800 192.54200 194.63000 196.75200 198.67100 200.15800
 201.53500 202.48700 202.97500 203.34000 203.53900 203.49700 203.38500 203.24700
 203.00500 202.78600 202.60300 202.43700 202.42600 202.88800 203.42000 203.95100
 204.89500 205.99200 207.30100 208.95800 210.73800 213.10000 215.56400 218.18000
 220.96600 223.91800 226.96100 230.09200 233.29300 236.55700 239.95500 243.53700
 246.84500 249.39000 251.54200 253.47400 255.19500 256.48400 257.43100 258.05900
 258.21200 258.04000 257.58200 256.64300 255.23900 253.50700 251.40800 249.05600
 246.57600 243.99400 241.38900 238.83000 236.34400 233.98600 231.96900 230.11800
 228.42300 226.89900 225.54800 224.29700 223.10500 221.96500 220.95800 220.11300
 219.49000 218.92000 218.32500 217.88100 217.42300 216.96366 216.35568 216.80261
 217.73415 218.28582 218.64258 219.10077 220.44626 222.53987 226.38451 230.35736
 233.59734 237.39164 241.29814 245.22796 248.98002 252.51130 255.78595 258.80109
 261.54781 264.05210 266.34239 268.04198 269.58951 271.01303 272.35754 273.55718
 274.59842 275.49092 276.28989 276.99307 277.60161 278.14001 278.63122 279.07623
 279.47646 279.83287 280.14422 280.54100
 399.73800 389.78500 379.66200 368.15100 356.64100 344.35000 331.79200 318.88800
 305.72600 292.49300 279.20900 266.73800 254.69600 244.21100 234.45700 225.43300
 217.56900 210.45100 204.30000 199.30600 195.45800 192.57600 191.02700 190.38600
 190.23900 190.53400 191.16600 191.92500 192.79500 193.76600 194.73200 195.31200
 195.80000 196.05200 196.11500 196.11500 196.03900 195.72300 195.34000 194.98900
 194.75100 194.79200 195.13300 195.59800 196.50600 198.13600 199.85800 201.56600
 204.17900 206.82300 209.89300 213.28400 216.82800 220.60500 224.38700 228.20900
 232.03200 235.82500 239.56000 243.25800 246.84500 250.20100 253.70900 257.46800
 261.53000 264.22100 266.60100 268.68100 270.32900 271.74100 272.83600 273.47400
 273.89800 274.00200 273.75700 273.28800 272.37100 271.10000 269.58900 267.77900
 265.81600 263.72100 261.39300 258.91600 256.29800 253.42300 250.33100 247.11400
 243.83700 240.52900 237.24900 233.99900 230.72800 227.51500 224.25400 220.95200
 217.62700 213.65600 210.12100 206.78900 204.01000 201.99491 199.07309 198.76551
 199.40006 200.48994 201.46112 202.31912 203.45100 204.96110 207.47502 210.85391
 213.70530 217.29629 220.99574 224.72316 228.28753 231.64854 234.68024 237.40893
 239.70644 241.60899 243.46854 245.67368 247.68154 249.52395 251.24767 252.78566
 254.12057 255.26479 256.23740 257.09036 257.82852 258.48160 259.07744 259.61723
 260.10271 260.53504 260.91270 261.39400
 399.73800 389.78500 379.66200 368.15100 356.64100 344.35000 331.79200 318.88800
 305.72600 292.49300 279.20900 266.73800 254.69600 244.21100 234.45700 225.43300
 217.56900 210.45100 204.30000 199.30600 195.45800 192.57600 191.02700 190.38600
 190.23900 190.53400 191.16600 191.92500 192.79500 193.76600 194.73200 195.31200
 195.80000 196.05200 196.11500 196.11500 196.03900 195.72300 195.34000 194.98900
 194.75100 194.79200 195.13300 195.59800 196.50600 198.13600 199.85800 201.56600
 204.17900 206.82300 209.89300 213.28400 216.82800 220.60500 224.38700 228.20900
 232.03200 235.82500 239.56000 243.25800 246.84500 250.20100 253.70900 257.46800
 261.53000 264.22100 266.60100 268.68100 270.32900 271.74100 272.83600 273.47400
 273.89800 274.00200 273.75700 273.28800 272.37100 271.10000 269.58900 267.77900
 265.81600 263.72100 261.39300 258.91600 256.29800 253.42300 250.33100 247.11400
 243.83700 240.52900 237.24900 233.99900 230.72800 227.51500 224.25400 220.95200
 217.62700 213.65600 210.12100 206.78900 204.01000 201.99491 199.07309 198.76551
 199.40006 200.48994 201.46112 202.31912 203.45100 204.96110 207.47502 210.85391
 213.70530 217.29629 220.99574 224.72316 228.28753 231.64854 234.68024 237.40893
 239.70644 241.60899 243.46854 245.67368 247.68154 249.52395 251.24767 252.78566
 254.12057 255.26479 256.23740 257.09036 257.82852 258.48160 259.07744 259.61723
 260.10271 260.53504 260.91270 261.39400
 399.33000 389.90700 379.81300 368.66800 357.52200 345.30100 333.07400 320.22700
 307.21600 293.84800 280.37600 267.29600 254.61000 242.98700 232.15100 221.97700
 212.67200 204.28600 197.66900 192.82100 189.48600 187.45200 186.81400 187.08900
 187.78100 189.05400 190.64800 192.54200 194.63000 196.75200 198.67100 200.15800
 201.53500 202.48700 202.97500 203.34000 203.53900 203.49700 203.38500 203.24700
 203.00500 202.78600 202.60300 202.43700 202.42600 202.88800 203.42000 203.95100
 204.89500 205.99200 207.30100 208.95800 210.73800 213.10000 215.56400 218.18000
 220.96600 223.91800 226.96100 230.09200 233.29300 236.55700 239.95500 243.53700
 246.84500 249.39000 251.54200 253.47400 255.19500 256.48400 257.43100 258.05900
 258.21200 258.04000 257.58200 256.64300 255.23900 253.50700 251.40800 249.05600
 246.57600 243.99400 241.38900 238.83000 236.34400 233.98600 231.96900 230.11800
 228.42300 226.89900 225.54800 224.29700 223.10500 221.96500 220.95800 220.11300
 219.49000 218.92000 218.32500 217.88100 217.42300 216.96366 216.35568 216.80261
 217.73415 218.28582 218.64258 219.10077 220.44626 222.53987 226.38451 230.35736
 233.59734 237.39164 241.29814 245.22796 248.98002 252.51130 255.78595 258.80109
 261.54781 264.05210 266.34239 268.04198 269.58951 271.01303 272.35754 273.55718
 274.59842 275.49092 276.28989 276.99307 277.60161 278.14001 278.63122 279.07623
 279.47646 279.83287 280.14422 280.54100
 381.81900 372.39900 361.20600 349.77600 337.62200 324.85300 311.81000 298.35300
 284.86000 271.32400 258.56100 246.30400 236.08700 226.79600 218.44800 211.29000
 205.52200 200.89400 197.38100 194.84800 193.01500 192.31500 192.25000 192.43100
 192.91200 193.53700 194.13600 194.71200 195.26200 195.83100 196.39300 196.97600
 197.60400 198.14900 198.58400 199.05700 199.69500 200.37800 201.05400 201.70800
 202.31300 202.85700 203.35500 203.86200 204.56900 205.29700 206.02600 206.98700
 208.19300 209.44100 210.96900 212.57600 214.46200 216.51300 218.63000 220.85300
 223.34100 225.96200 228.73900 231.69700 234.70600 237.70600 240.69200 243.65700
 246.73700 249.69900 252.52100 255.06300 257.29000 259.23300 260.63300 261.68000
 262.46100 262.79800 262.69100 262.22400 261.06900 259.52500 257.70700 255.50700
 253.00100 250.30200 247.39800 244.45200 241.65400 239.05400 236.73300 234.59000
 232.59500 230.72500 228.83400 226.82600 224.66600 222.38700 220.10400 217.71500
 215.45900 213.06600 210.54600 208.09300 205.35400 202.08130 196.05959 200.71215
 209.01611 216.90438 223.84126 229.78593 235.00632 240.20838 245.98943 250.68668
 254.32982 257.93487 261.55666 264.96801 268.15192 271.06452 273.76717 276.25691
 278.57680 280.74479 282.77456 284.60533 286.27232 287.81705 289.31715 290.65561
 291.81734 292.81312 293.70701 294.49387 295.17482 295.77730 296.32696 296.82492
 297.27278 297.67160 298.02000 298.46400
 366.78100 356.34047 345.77794 334.64941 323.05788 311.25736 299.13283 286.94130
 274.65877 262.56124 250.57571 239.88218 230.00965 221.11913 213.30660 206.31407
 200.15354 195.09701 191.68448 189.73195 188.77442 188.84390 189.68437 190.99784
 192.72831 194.82878 197.09725 199.46172 201.91219 204.39767 206.49114 208.33861
 209.97008 211.12055 211.35502 211.58849 211.53096 211.24144 210.87991 210.51538
 210.13785 209.85332 209.66679 209.53626 209.46973 209.80621 210.19768 210.59215
 211.39062 212.57409 213.82956 215.61803 217.55150 219.59998 221.70045 223.78892
 225.85439 227.94386 230.04633 232.15780 234.29227 236.46975 238.73122 241.10669
 243.73316 245.98963 247.99710 249.76757 251.19004 252.31852 253.14599 253.46746
 253.50993 253.28940 252.65487 251.60834 250.21981 248.38629 246.30076 244.13923
 241.93570 239.74517 237.57064 235.41511 233.28058 231.15306 229.18453 227.34700
 225.63547 224.11294 222.74841 221.52588 220.41335 219.37883 218.48830 217.63477
 216.88224 216.06771 215.17118 214.54065 213.99612 213.02899 210.75230 210.07143
 210.49701 211.18925 212.64110 215.28685 219.26520 224.01605 229.72778 234.83563
 238.73328 242.70413 246.90466 251.09467 254.88965 258.66431 261.52856 263.33136
 265.94476 268.73532 271.21790 273.25540 275.24515 277.12228 278.62503 280.14478
 281.81824 283.38574 284.88861 286.24707 287.42633 288.47156 289.42352 290.29108
 291.07291 291.77377 292.38882 293.20221
 366.78100 356.34051 345.77802 334.64953 323.05804 311.25755 299.13306 286.94157
 274.65908 262.56158 250.57609 239.88260 230.01011 221.11962 213.30713 206.31464
 200.15415 195.09766 191.68517 189.73268 188.77519 188.84470 189.68521 190.99872
 192.72923 194.82973 197.09824 199.46275 201.91326 204.39877 206.49228 208.33979
 209.97130 211.12181 211.35632 211.58983 211.53234 211.24285 210.88136 210.51687
 210.13938 209.85488 209.66839 209.53790 209.47141 209.80792 210.19943 210.59394
 211.39245 212.57596 213.83147 215.61998 217.55349 219.60200 221.70251 223.79102
 225.85653 227.94604 230.04854 232.16005 234.29456 236.47207 238.73358 241.10909
 243.73560 245.99211 247.99962 249.77013 251.19264 252.32115 253.14866 253.47017
 253.51268 253.29219 252.65769 251.61120 250.22271 248.38922 246.30373 244.14224
 241.93875 239.74826 237.57377 235.41828 233.28379 231.15630 229.18781 227.35032
 225.63883 224.11634 222.75185 221.52935 220.41686 219.38237 218.49188 217.63839
 216.88590 216.07141 215.17492 214.54443 213.99994 213.06123 210.85085 210.18382
 210.51367 211.23907 212.69055 215.25340 219.15532 223.93758 229.65558 234.76318
 238.65231 242.61237 246.81839 251.02513 254.83217 258.61331 261.48611 263.30356
 265.93015 268.72815 271.19952 273.18701 275.18182 277.09671 278.57129 280.05722
 281.73026 283.29904 284.79834 286.15695 287.33633 288.38196 289.33484 290.20105
 290.98489 291.68558 292.30045 293.11728
 366.78100 356.34043 345.77786 334.64929 323.05773 311.25716 299.13259 286.94102
 274.65845 262.56088 250.57531 239.88175 230.00918 221.11861 213.30604 206.31347
 200.15290 195.09633 191.68377 189.73120 188.77363 188.84306 189.68349 190.99692
 192.72735 194.82779 197.09622 199.46065 201.91108 204.39651 206.48994 208.33737
 209.96881 211.11924 211.35367 211.58710 211.52953 211.23996 210.87839 210.51383
 210.13626 209.85169 209.66512 209.53455 209.46798 209.80441 210.19585 210.59028
 211.38871 212.57214 213.82757 215.61600 217.54943 219.59787 221.69830 223.78673
 225.85216 227.94159 230.04402 232.15545 234.28989 236.46732 238.72875 241.10418
 243.73061 245.98704 247.99447 249.76490 251.18734 252.31577 253.14320 253.46463
 253.50706 253.28649 252.65192 251.60536 250.21679 248.38322 246.29765 244.13608
 241.93251 239.74194 237.56738 235.41181 233.27724 231.14967 229.18110 227.34353
 225.63196 224.10940 222.74483 221.52226 220.40969 219.37512 218.48455 217.63098
 216.87842 216.06385 215.16728 214.53671 213.99214 213.08662 210.95377 210.29698
 210.53143 211.27974 212.73700 215.23502 219.04199 223.85014 229.59265 234.69455
 238.57422 242.52347 246.73363 250.95665 254.77695 258.56235 261.44211 263.27328
 265.91061 268.71448 271.17712 273.11911 275.11887 277.07156 278.52148 279.97491
 281.64352 283.21344 284.71002 286.06726 287.24860 288.29288 289.24683 290.11520
 290.89594 291.59998 292.21561 293.03271
 366.78100 356.34024 345.77749 334.64873 323.05698 311.25622 299.13147 286.93971
 274.65695 262.55920 250.57344 239.87969 230.00693 221.11617 213.30342 206.31066
 200.14991 195.09315 191.68040 189.72764 188.76988 188.83913 189.67937 190.99262
 192.72286 194.82310 197.09135 199.45559 201.90584 204.39108 206.48433 208.33157
 209.96281 211.11306 211.34730 211.58055 211.52279 211.23304 210.87128 210.50652
 210.12877 209.84401 209.65726 209.52650 209.45974 209.79599 210.18723 210.58148
 211.37972 212.56297 213.81821 215.60645 217.53970 219.58794 221.68819 223.77643
 225.84167 227.93092 230.03316 232.14441 234.27865 236.45590 238.71714 241.09238
 243.71863 245.97487 247.98212 249.75236 251.17461 252.30285 253.13009 253.45134
 253.49358 253.27283 252.63807 251.59131 250.20256 248.36880 246.28305 244.12129
 241.91754 239.72678 237.55202 235.39627 233.26151 231.13376 229.16500 227.32724
 225.61549 224.09273 222.72798 221.50522 220.39247 219.35771 218.46695 217.61320
 216.86044 216.04569 215.14893 214.51817 213.97342 213.10564 211.06094 210.41162
 210.54836 211.31999 212.77203 215.21463 218.94327 223.75938 229.53653 234.62738
 238.49580 242.43431 246.64885 250.88788 254.72318 258.51105 261.39597 263.24060
 265.88519 268.69418 271.15057 273.05157 275.05643 277.04498 278.47644 279.89835
 281.55997 283.13022 284.62268 285.98080 287.16159 288.20587 289.16046 290.02750
 290.81201 291.51276 292.13089 292.94995
 366.78100 356.33993 345.77687 334.64780 323.05574 311.25467 299.12960 286.93754
 274.65447 262.55641 250.57034 239.87627 230.00321 221.11214 213.29908 206.30601
 200.14494 195.08788 191.67481 189.72175 188.76368 188.83261 189.67255 190.98548
 192.71542 194.81535 197.08328 199.44722 201.89715 204.38209 206.47502 208.32195
 209.95289 211.10282 211.33676 211.56969 211.51162 211.22156 210.85949 210.49443
 210.11636 209.83129 209.64423 209.51316 209.44610 209.78203 210.17296 210.56690
 211.36483 212.54777 213.80270 215.59063 217.52357 219.57150 221.67143 223.75937
 225.82430 227.91324 230.01517 232.12610 234.26004 236.43697 238.69791 241.07284
 243.69877 245.95471 247.96164 249.73158 251.15351 252.28144 253.10838 253.42931
 253.47125 253.25018 252.61511 251.56805 250.17898 248.34492 246.25885 244.09678
 241.89272 239.70165 237.52659 235.37052 233.23545 231.10739 229.13832 227.30026
 225.58819 224.06512 222.70006 221.47699 220.36393 219.32886 218.43779 217.58373
 216.83066 216.01560 215.11853 214.48746 213.94240 213.11739 211.17282 210.52411
 210.57741 211.35970 212.79123 215.19293 218.86189 223.66707 229.48105 234.55859
 238.41618 242.34633 246.56453 250.81996 254.67252 258.46243 261.34991 263.20679
 265.85355 268.66534 271.11749 272.98257 274.99133 277.01334 278.43457 279.82916
 281.48157 283.05072 284.53732 285.89554 287.07654 288.12112 289.07562 289.94278
 290.72595 291.43146 292.04782 292.86862
 366.78100 356.33958 345.77615 334.64673 323.05430 311.25288 299.12746 286.93503
 274.65161 262.55318 250.56676 239.87233 229.99891 221.10749 213.29406 206.30064
 200.13921 195.08179 191.66837 189.71494 188.75652 188.82509 189.66467 190.97724
 192.70682 194.80640 197.07397 199.43755 201.88712 204.37170 206.46428 208.31085
 209.94143 211.09100 211.32458 211.55715 211.49873 211.20831 210.84588 210.48046
 210.10203 209.81661 209.62919 209.49776 209.43034 209.76591 210.15649 210.55007
 211.34764 212.53022 213.78479 215.57237 217.50494 219.55252 221.65210 223.73967
 225.80425 227.89282 229.99440 232.10498 234.23855 236.41513 238.67570 241.05028
 243.67585 245.93143 247.93801 249.70758 251.12916 252.25673 253.08331 253.40389
 253.44546 253.22404 252.58861 251.54119 250.15177 248.31734 246.23092 244.06849
 241.86407 239.67264 237.49722 235.34080 233.20537 231.07695 229.10752 227.26910
 225.55668 224.03325 222.66783 221.44440 220.33098 219.29555 218.40413 217.54971
 216.79628 215.98086 215.08343 214.45201 213.90659 213.12589 211.28520 210.63895
 210.61882 211.38989 212.80188 215.17537 218.78412 223.57358 229.42218 234.48842
 238.33791 242.26132 246.48204 250.75267 254.62460 258.41589 261.30435 263.17111
 265.81592 268.62790 271.07605 272.91125 274.92377 276.97464 278.39304 279.76764
 281.40775 282.97525 284.45480 285.81317 286.99368 288.03891 288.99442 289.86160
 290.64551 291.34937 291.96735 292.79196
 366.78100 356.33917 345.77535 334.64552 323.05269 311.25086 299.12504 286.93221
 274.64838 262.54955 250.56273 239.86790 229.99407 221.10224 213.28842 206.29459
 200.13276 195.07493 191.66111 189.70728 188.74845 188.81662 189.65580 190.96797
 192.69714 194.79631 197.06349 199.42666 201.87583 204.36000 206.45218 208.29835
 209.92852 211.07769 211.31087 211.54304 211.48421 211.19338 210.83056 210.46473
 210.08590 209.80008 209.61225 209.48042 209.41259 209.74777 210.13794 210.53111
 211.32828 212.51046 213.76463 215.55180 217.48397 219.53115 221.63032 223.71749
 225.78166 227.86984 229.97101 232.08118 234.21435 236.39053 238.65070 241.02487
 243.65004 245.90522 247.91139 249.68056 251.10173 252.22891 253.05508 253.37525
 253.41642 253.19460 252.55877 251.51094 250.12112 248.28629 246.19946 244.03663
 241.83181 239.63998 237.46415 235.30732 233.17150 231.04267 229.07284 227.23401
 225.52119 223.99736 222.63153 221.40770 220.29388 219.25805 218.36622 217.51139
 216.75757 215.94174 215.04391 214.41208 213.86626 213.13120 211.39754 210.75357
 210.67357 211.41489 212.80803 215.16214 218.71083 223.48022 229.36014 234.41547
 238.25845 242.17651 246.39943 250.68434 254.58057 258.37411 261.26425 263.13840
 265.77359 268.58185 271.02585 272.83643 274.85168 276.92676 278.35022 279.71066
 281.34045 282.90048 284.37509 285.73337 286.91400 287.95950 288.91391 289.78113
 290.56760 291.27103 291.88910 292.71811
 366.78100 356.33877 345.77454 334.64431 323.05107 311.24884 299.12261 286.92938
 274.64515 262.54592 250.55869 239.86346 229.98922 221.09699 213.28276 206.28853
 200.12630 195.06807 191.65384 189.69960 188.74037 188.80814 189.64691 190.95868
 192.68745 194.78622 197.05299 199.41575 201.86452 204.34829 206.44006 208.28583
 209.91560 211.06437 211.29713 211.52890 211.46967 211.17844 210.81521 210.44898
 210.06975 209.78352 209.59528 209.46305 209.39482 209.72959 210.11936 210.51213
 211.30890 212.49066 213.74443 215.53120 217.46297 219.50974 221.60851 223.69528
 225.75905 227.84681 229.94758 232.05735 234.19012 236.36589 238.62566 240.99943
 243.62419 245.87896 247.88473 249.65350 251.07427 252.20104 253.02681 253.34658
 253.38734 253.16511 252.52888 251.48065 250.09042 248.25519 246.16796 244.00472
 241.79949 239.60726 237.43103 235.27380 233.13757 231.00834 229.03811 227.19887
 225.48564 223.96141 222.59518 221.37095 220.25672 219.22049 218.32825 217.47302
 216.71879 215.90256 215.00433 214.37210 213.82587 213.13625 211.50928 210.86873
 210.73964 211.43637 212.81233 215.15219 218.63652 223.38455 229.29698 234.34003
 238.17686 242.09134 246.31610 250.61652 254.54131 258.33719 261.22681 263.10815
 265.72583 268.52502 270.96710 272.75708 274.77420 276.87015 278.30753 279.66324
 281.27774 282.82840 284.29730 285.65475 286.83582 287.88095 288.83652 289.70447
 290.49023 291.19385 291.81351 292.63834
 366.78100 356.33860 345.77420 334.64380 323.05039 311.24799 299.12159 286.92819
 274.64379 262.54439 250.55698 239.86158 229.98718 221.09478 213.28038 206.28598
 200.12357 195.06517 191.65077 189.69637 188.73697 188.80457 189.64316 190.95476
 192.68336 194.78196 197.04856 199.41116 201.85975 204.34335 206.43495 208.28055
 209.91015 211.05875 211.29134 211.52294 211.46354 211.17214 210.80874 210.44234
 210.06294 209.77653 209.58813 209.45573 209.38733 209.72193 210.11153 210.50412
 211.30072 212.48232 213.73592 215.52252 217.45412 219.50071 221.59931 223.68591
 225.74951 227.83711 229.93771 232.04730 234.17990 236.35550 238.61510 240.98870
 243.61330 245.86789 247.87349 249.64209 251.06269 252.18929 253.01489 253.33448
 253.37508 253.15268 252.51628 251.46788 250.07748 248.24208 246.15467 243.99127
 241.78587 239.59347 237.41707 235.25967 233.12326 230.99386 229.02346 227.18406
 225.47066 223.94626 222.57985 221.35545 220.24105 219.20465 218.31225 217.45685
 216.70244 215.88604 214.98764 214.35524 213.80884 213.15207 211.60234 211.00241
 210.80673 211.45822 212.80693 215.13361 218.57877 223.29536 229.23257 234.26422
 238.09647 242.00751 246.23224 250.54686 254.50417 258.30206 261.18793 263.07516
 265.67154 268.45950 270.90231 272.67859 274.69629 276.80887 278.26959 279.62781
 281.22345 282.75754 284.21906 285.57620 286.75656 287.80231 288.75674 289.62637
 290.41202 291.11652 291.73648 292.56674
 366.78100 356.33835 345.77370 334.64305 323.04941 311.24676 299.12011 286.92646
 274.64181 262.54216 250.55451 239.85886 229.98422 221.09157 213.27692 206.28227
 200.11962 195.06097 191.64632 189.69168 188.73203 188.79938 189.63773 190.94908
 192.67743 194.77578 197.04213 199.40449 201.85284 204.33619 206.42754 208.27289
 209.90224 211.05059 211.28295 211.51430 211.45465 211.16300 210.79935 210.43270
 210.05305 209.76640 209.57776 209.44511 209.37646 209.71081 210.10016 210.49251
 211.28886 212.47022 213.72357 215.50992 217.44127 219.48762 221.58597 223.67232
 225.73567 227.82303 229.92338 232.03273 234.16508 236.34043 238.59978 240.97313
 243.59749 245.85184 247.85719 249.62554 251.04589 252.17224 252.99759 253.31695
 253.35730 253.13465 252.49800 251.44935 250.05870 248.22305 246.13540 243.97176
 241.76611 239.57346 237.39681 235.23916 233.10251 230.97286 229.00222 227.16257
 225.44892 223.92427 222.55762 221.33297 220.21832 219.18167 218.28903 217.43338
 216.67873 215.86208 214.96343 214.33078 213.78413 213.16434 211.70149 211.11360
 210.90872 211.46858 212.80980 215.13901 218.49615 223.20181 229.16873 234.18506
 238.00853 241.91582 246.14146 250.47173 254.46837 258.27069 261.15457 263.04938
 265.61789 268.39014 270.83264 272.59897 274.61465 276.74075 278.23074 279.59851
 281.17599 282.69150 284.14099 285.49866 286.67838 287.72409 288.67969 289.54846
 290.33398 291.03894 291.65982 292.48788
 366.78100 356.33891 345.77483 334.64474 323.05165 311.24956 299.12348 286.93039
 274.64630 262.54722 250.56013 239.86504 229.99095 221.09887 213.28478 206.29069
 200.12861 195.07052 191.65643 189.70234 188.74326 188.81117 189.65008 190.96200
 192.69091 194.78982 197.05673 199.41965 201.86856 204.35247 206.44439 208.29030
 209.92021 211.06912 211.30204 211.53395 211.47486 211.18378 210.82069 210.45460
 210.07551 209.78943 209.60134 209.46925 209.40117 209.73608 210.12599 210.51890
 211.31582 212.49773 213.75164 215.53856 217.47047 219.51738 221.61629 223.70321
 225.76712 227.85503 229.95595 232.06586 234.19877 236.37468 238.63460 241.00851
 243.63342 245.88834 247.89425 249.66316 251.08407 252.21099 253.03690 253.35681
 253.39773 253.17564 252.53955 251.49146 250.10138 248.26629 246.17920 244.01612
 241.81103 239.61894 237.44285 235.28577 233.14968 231.02059 229.05051 227.21142
 225.49833 223.97424 222.60816 221.38407 220.26998 219.23390 218.34181 217.48672
 216.73263 215.91655 215.01846 214.38637 213.84029 213.21678 211.74527 211.25888
 211.02296 211.49921 212.80045 215.10854 218.42424 223.10738 229.09743 234.09372
 237.90936 241.81828 246.04967 250.40010 254.44298 258.25330 261.13925 263.04062
 265.56653 268.31476 270.75375 272.51071 274.52444 276.65930 278.17972 279.56729
 281.13000 282.62509 284.06403 285.42114 286.60022 287.64685 288.60239 289.47116
 290.25766 290.96283 291.58221 292.41449
 366.78100 356.33948 345.77596 334.64644 323.05392 311.25240 299.12688 286.93436
 274.65085 262.55233 250.56581 239.87129 229.99777 221.10625 213.29273 206.29921
 200.13769 195.08017 191.66665 189.71313 188.75461 188.82309 189.66257 190.97505
 192.70454 194.80402 197.07150 199.43498 201.88446 204.36894 206.46142 208.30790
 209.93838 211.08786 211.32134 211.55382 211.49530 211.20478 210.84226 210.47675
 210.09823 209.81271 209.62519 209.49367 209.42615 209.76163 210.15211 210.54559
 211.34307 212.52555 213.78003 215.56751 217.49999 219.54747 221.64695 223.73444
 225.79892 227.88740 229.98888 232.09936 234.23284 236.40932 238.66980 241.04428
 243.66976 245.92524 247.93172 249.70120 251.12268 252.25016 253.07664 253.39713
 253.43861 253.21709 252.58157 251.53405 250.14453 248.31001 246.22349 244.06097
 241.85645 239.66493 237.48941 235.33289 233.19737 231.06885 229.09934 227.26082
 225.54830 224.02478 222.65926 221.43574 220.32222 219.28670 218.39518 217.54066
 216.78714 215.97162 215.07410 214.44258 213.89706 213.27177 211.79576 211.36450
 211.19032 211.56960 212.77306 215.02908 218.30925 223.00346 229.02116 234.00482
 237.82515 241.73979 245.97339 250.34253 254.43112 258.24725 261.12866 263.02988
 265.50677 268.22839 270.66171 272.41214 274.42719 276.56903 278.12320 279.53781
 281.08554 282.56223 283.98819 285.34393 286.52411 287.56943 288.52588 289.39609
 290.18283 290.88837 291.51175 292.33963
 366.78100 356.33905 345.77509 334.64514 323.05218 311.25023 299.12428 286.93132
 274.64737 262.54842 250.56146 239.86651 229.99255 221.10060 213.28665 206.29269
 200.13074 195.07279 191.65883 189.70488 188.74592 188.81397 189.65302 190.96506
 192.69411 194.79316 197.06020 199.42325 201.87229 204.35634 206.44839 208.29443
 209.92448 211.07353 211.30657 211.53862 211.47966 211.18871 210.82576 210.45980
 210.08085 209.79490 209.60694 209.47499 209.40703 209.74208 210.13213 210.52517
 211.32222 212.50426 213.75831 215.54536 217.47740 219.52445 221.62350 223.71054
 225.77459 227.86263 229.96368 232.07373 234.20677 236.38282 238.64287 241.01691
 243.64196 245.89700 247.90305 249.67210 251.09314 252.22019 253.04624 253.36628
 253.40733 253.18537 252.54942 251.50147 250.11151 248.27656 246.18961 244.02665
 241.82170 239.62974 237.45379 235.29684 233.16088 231.03193 229.06198 227.22302
 225.51007 223.98611 222.62016 221.39621 220.28225 219.24630 218.35435 217.49939
 216.74544 215.92948 215.03153 214.39958 213.85362 213.27689 211.91504 211.42488
 211.35239 211.64380 212.72470 214.92514 218.17526 222.90433 228.98354 233.96152
 237.77750 241.68758 245.90981 250.28828 254.41858 258.23230 261.09692 262.99832
 265.43442 268.13217 270.56497 272.31390 274.33328 276.48141 278.07587 279.51904
 281.04938 282.50467 283.91440 285.26984 286.45013 287.49612 288.45193 289.32266
 290.11011 290.81656 291.43729 292.26971
 366.78100 356.33852 345.77404 334.64356 323.05008 311.24760 299.12112 286.92764
 274.64316 262.54369 250.55621 239.86073 229.98625 221.09377 213.27929 206.28481
 200.12233 195.06385 191.64937 189.69489 188.73541 188.80293 189.64145 190.95297
 192.68149 194.78001 197.04653 199.40906 201.85758 204.34110 206.43262 208.27814
 209.90766 211.05618 211.28870 211.52022 211.46074 211.16926 210.80578 210.43930
 210.05982 209.77334 209.58486 209.45238 209.38390 209.71843 210.10795 210.50047
 211.29699 212.47851 213.73203 215.51855 217.45007 219.49659 221.59511 223.68163
 225.74515 227.83267 229.93319 232.04271 234.17523 236.35075 238.61027 240.98380
 243.60832 245.86284 247.86836 249.63688 251.05740 252.18392 253.00944 253.32896
 253.36948 253.14700 252.51052 251.46204 250.07156 248.23608 246.14860 243.98512
 241.77964 239.58717 237.41069 235.25321 233.11673 230.98725 229.01677 227.17729
 225.46381 223.93933 222.57285 221.34837 220.23389 219.19741 218.30493 217.44945
 216.69497 215.87849 214.98001 214.34754 213.80106 213.27701 212.03923 211.49139
 211.43866 211.68881 212.71219 214.88747 218.09419 222.85011 228.95854 233.92213
 237.72150 241.62076 245.83211 250.21999 254.39523 258.20261 261.04657 262.95535
 265.35846 268.03549 270.47037 272.22366 274.24500 276.39673 278.03601 279.50897
 281.01801 282.45361 283.84256 285.19812 286.37808 287.42453 288.38144 289.25067
 290.03833 290.74670 291.36697 292.19797
 366.78100 356.33837 345.77374 334.64310 323.04947 311.24684 299.12021 286.92658
 274.64195 262.54231 250.55468 239.85905 229.98442 221.09179 213.27716 206.28252
 200.11989 195.06126 191.64663 189.69200 188.73237 188.79973 189.63810 190.94947
 192.67784 194.77621 197.04258 199.40494 201.85331 204.33668 206.42805 208.27342
 209.90278 211.05115 211.28352 211.51489 211.45526 211.16363 210.79999 210.43336
 210.05373 209.76710 209.57847 209.44584 209.37720 209.71157 210.10094 210.49331
 211.28968 212.47105 213.72441 215.51078 217.44215 219.48852 221.58689 223.67326
 225.73662 227.82399 229.92436 232.03373 234.16610 236.34146 238.60083 240.97420
 243.59857 245.85294 247.85831 249.62667 251.04704 252.17341 252.99878 253.31815
 253.35852 253.13588 252.49925 251.45062 250.05999 248.22436 246.13673 243.97309
 241.76746 239.57483 237.39820 235.24057 233.10394 230.97430 229.00367 227.16404
 225.45041 223.92578 222.55914 221.33451 220.21988 219.18325 218.29062 217.43499
 216.68035 215.86372 214.96509 214.33246 213.78583 213.29570 212.13786 211.58704
 211.48282 211.72853 212.70706 214.88882 218.07161 222.81569 228.92007 233.85791
 237.63885 241.53265 245.74265 250.14635 254.37076 258.17261 260.99838 262.91772
 265.28595 267.94055 270.37714 272.13776 274.15839 276.31186 277.99429 279.49814
 280.98892 282.40488 283.77524 285.12985 286.31006 287.35648 288.31375 289.18356
 289.97217 290.67859 291.30045 292.13568
 366.78100 356.33857 345.77414 334.64372 323.05029 311.24786 299.12143 286.92800
 274.64357 262.54415 250.55672 239.86129 229.98686 221.09443 213.28000 206.28558
 200.12315 195.06472 191.65029 189.69586 188.73643 188.80401 189.64258 190.95415
 192.68272 194.78129 197.04786 199.41044 201.85901 204.34258 206.43415 208.27972
 209.90929 211.05787 211.29044 211.52201 211.46258 211.17115 210.80772 210.44130
 210.06187 209.77544 209.58701 209.45458 209.38615 209.72073 210.11030 210.50287
 211.29944 212.48101 213.73458 215.52116 217.45273 219.49930 221.59787 223.68444
 225.74801 227.83559 229.93616 232.04573 234.17830 236.35387 238.61344 240.98702
 243.61159 245.86616 247.87173 249.64030 251.06087 252.18745 253.01302 253.33259
 253.37316 253.15073 252.51430 251.46588 250.07545 248.24002 246.15259 243.98916
 241.78373 239.59131 237.41488 235.25745 233.12102 230.99159 229.02116 227.18174
 225.46831 223.94388 222.57745 221.35302 220.23859 219.20217 218.30974 217.45431
 216.69988 215.88345 214.98502 214.35260 213.80617 213.33311 212.21550 211.69460
 211.50650 211.77722 212.71472 214.89833 218.08186 222.77837 228.86909 233.77715
 237.54666 241.44200 245.65485 250.07605 254.35017 258.14569 260.95291 262.87943
 265.21152 267.84323 270.27997 272.04910 274.07117 276.22449 277.94775 279.48306
 280.95911 282.35657 283.71188 285.06589 286.24548 287.29349 288.25012 289.12100
 289.90930 290.61584 291.24060 292.07306
 366.78100 356.33893 345.77485 334.64478 323.05170 311.24963 299.12355 286.93048
 274.64641 262.54733 250.56026 239.86518 229.99111 221.09904 213.28496 206.29089
 200.12881 195.07074 191.65666 189.70259 188.74352 188.81144 189.65037 190.96229
 192.69122 194.79015 197.05707 199.42000 201.86892 204.35285 206.44477 208.29070
 209.92063 211.06955 211.30248 211.53440 211.47533 211.18426 210.82118 210.45511
 210.07603 209.78996 209.60188 209.46981 209.40174 209.73666 210.12659 210.51951
 211.31644 212.49837 213.75229 215.53922 217.47114 219.51807 221.61699 223.70392
 225.76785 227.85577 229.95670 232.06662 234.19955 236.37548 238.63540 241.00933
 243.63425 245.88918 247.89510 249.66403 251.08496 252.21188 253.03781 253.35773
 253.39866 253.17659 252.54051 251.49244 250.10236 248.26729 246.18021 244.01714
 241.81207 239.61999 237.44392 235.28684 233.15077 231.02170 229.05162 227.21255
 225.49947 223.97540 222.60932 221.38525 220.27118 219.23510 218.34303 217.48795
 216.73388 215.91781 215.01973 214.38766 213.84158 213.37926 212.28699 211.79607
 211.52119 211.82585 212.75090 214.91577 218.09691 222.73567 228.81461 233.69627
 237.45941 241.35733 245.57141 250.00928 254.32925 258.11398 260.89670 262.82986
 265.13107 267.74319 270.18002 271.95947 273.98535 276.13870 277.89978 279.46613
 280.92865 282.31061 283.65057 285.00476 286.18686 287.23337 288.18970 289.06259
 289.84869 290.55740 291.18115 292.01599
 366.78100 356.33935 345.77570 334.64605 323.05340 311.25175 299.12610 286.93345
 274.64980 262.55115 250.56450 239.86985 229.99620 221.10455 213.29090 206.29725
 200.13560 195.07795 191.66430 189.71065 188.75200 188.82035 189.65970 190.97205
 192.70140 194.80075 197.06810 199.43145 201.88080 204.36515 206.45750 208.30385
 209.93420 211.08355 211.31690 211.54925 211.49060 211.19995 210.83730 210.47165
 210.09300 209.80735 209.61970 209.48805 209.42040 209.75575 210.14610 210.53945
 211.33680 212.51915 213.77350 215.56085 217.49320 219.54055 221.63990 223.72725
 225.79160 227.87995 229.98130 232.09165 234.22500 236.40135 238.66170 241.03605
 243.66140 245.91675 247.92310 249.69245 251.11380 252.24115 253.06750 253.38785
 253.42920 253.20755 252.57190 251.52425 250.13460 248.29995 246.21330 244.05065
 241.84600 239.65435 237.47870 235.32205 233.18640 231.05775 229.08810 227.24945
 225.53680 224.01315 222.64750 221.42385 220.31020 219.27455 218.38290 217.52825
 216.77460 215.95895 215.06130 214.42965 213.88400 213.42987 212.35695 211.88004
 211.54877 211.87013 212.80330 214.94293 218.10077 222.69200 228.76254 233.62398
 237.37828 241.27573 245.48944 249.94342 254.30511 258.07227 260.82578 262.76813
 265.04694 267.64325 270.08044 271.87332 273.90302 276.05734 277.85220 279.44739
 280.89914 282.26553 283.59708 284.95053 286.13092 287.17865 288.13443 289.00845
 289.79462 290.50461 291.12567 291.96353
 366.78100 356.33987 345.77674 334.64761 323.05548 311.25435 299.12923 286.93710
 274.65397 262.55584 250.56971 239.87558 230.00245 221.11132 213.29819 206.30506
 200.14394 195.08681 191.67368 189.72055 188.76242 188.83129 189.67116 190.98403
 192.71390 194.81377 197.08165 199.44552 201.89539 204.38026 206.47313 208.32000
 209.95087 211.10074 211.33461 211.56748 211.50935 211.21923 210.85710 210.49197
 210.11384 209.82871 209.64158 209.51045 209.44332 209.77919 210.17006 210.56394
 211.36181 212.54468 213.79955 215.58742 217.52029 219.56816 221.66803 223.75590
 225.82077 227.90964 230.01152 232.12239 234.25626 236.43313 238.69400 241.06887
 243.69474 245.95061 247.95748 249.72735 251.14923 252.27710 253.10397 253.42484
 253.46671 253.24558 252.61045 251.56332 250.17419 248.34006 246.25394 244.09181
 241.88768 239.69655 237.52142 235.36529 233.23016 231.10203 229.13290 227.29477
 225.58264 224.05952 222.69439 221.47126 220.35813 219.32300 218.43187 217.57774
 216.82461 216.00948 215.11235 214.48123 213.93610 213.48587 212.42218 211.95068
 211.59268 211.91092 212.86148 214.98167 218.09653 222.65079 228.71216 233.55779
 237.29869 241.19243 245.40750 249.87904 254.27689 258.02161 260.74365 262.69656
 264.96054 267.54483 269.98193 271.79077 273.82626 275.98068 277.80469 279.42410
 280.86911 282.22482 283.54630 284.90192 286.08099 287.12820 288.08527 288.95822
 289.74615 290.45413 291.07907 291.91696
 366.78100 356.34046 345.77793 334.64939 323.05786 311.25732 299.13278 286.94125
 274.65871 262.56117 250.57564 239.88210 230.00957 221.11903 213.30649 206.31396
 200.15342 195.09688 191.68435 189.73181 188.77428 188.84374 189.68420 190.99767
 192.72813 194.82859 197.09706 199.46152 201.91199 204.39745 206.49091 208.33838
 209.96984 211.12030 211.35477 211.58823 211.53070 211.24116 210.87962 210.51509
 210.13755 209.85301 209.66648 209.53594 209.46941 209.80587 210.19733 210.59180
 211.39026 212.57372 213.82919 215.61765 217.55112 219.59958 221.70004 223.78851
 225.85397 227.94343 230.04590 232.15736 234.29183 236.46929 238.73075 241.10622
 243.73268 245.98914 247.99661 249.76707 251.18954 252.31800 253.14546 253.46693
 253.50939 253.28885 252.65432 251.60778 250.21925 248.38571 246.30017 244.13864
 241.93510 239.74457 237.57003 235.41449 233.27996 231.15242 229.18388 227.34635
 225.63481 224.11228 222.74774 221.52520 220.41267 219.37813 218.48759 217.63406
 216.88152 216.06699 215.17045 214.53991 213.99538 213.54555 212.48276 212.01398
 211.64453 211.94954 212.92363 215.03239 218.09479 222.61235 228.66144 233.49104
 237.21759 241.10811 245.32745 249.81686 254.24542 257.96356 260.65097 262.61441
 264.87186 267.44818 269.88321 271.71054 273.75354 275.90970 277.75729 279.39670
 280.83762 282.18607 283.50391 284.85770 286.03812 287.08447 288.04297 288.91498
 289.70410 290.41165 291.03644 291.86942
 366.78100 356.34119 345.77937 334.65156 323.06074 311.26093 299.13711 286.94630
 274.66448 262.56767 250.58285 239.89004 230.01822 221.12841 213.31659 206.32478
 200.16496 195.10915 191.69733 189.74552 188.78870 188.85889 189.70007 191.01426
 192.74544 194.84663 197.11582 199.48100 201.93219 204.41837 206.51256 208.36074
 209.99293 211.14411 211.37930 211.61348 211.55667 211.26785 210.90704 210.54322
 210.16641 209.88259 209.69678 209.56696 209.50115 209.83833 210.23052 210.62570
 211.42489 212.60907 213.86526 215.65445 217.58863 219.63782 221.73900 223.82819
 225.89437 227.98456 230.08774 232.19993 234.33511 236.51330 238.77548 241.15167
 243.77885 246.03604 248.04422 249.81541 251.23859 252.36778 253.19596 253.51815
 253.56133 253.34152 252.70770 251.66189 250.27408 248.44126 246.35645 244.19563
 241.99282 239.80300 237.62919 235.47437 233.34056 231.21374 229.24593 227.40911
 225.69830 224.17648 222.81267 221.59085 220.47904 219.44522 218.55541 217.70259
 216.95078 216.13696 215.24115 214.61133 214.06752 213.61151 212.53410 212.07727
 211.70067 211.98373 212.99149 215.09079 218.10045 222.57928 228.61244 233.41913
 237.13185 241.02199 245.24988 249.75876 254.21167 257.89551 260.54623 262.51974
 264.78030 267.35156 269.78342 271.63196 273.68710 275.84387 277.70850 279.36417
 280.80643 282.15259 283.46683 284.82056 286.00058 287.04800 288.00635 288.87762
 289.66830 290.37558 291.00021 291.84021
 366.78100 356.34198 345.78096 334.65393 323.06391 311.26489 299.14187 286.95185
 274.67082 262.57480 250.59078 239.89876 230.02774 221.13871 213.32769 206.33667
 200.17765 195.12263 191.71160 189.76058 188.80456 188.87554 189.71752 191.03250
 192.76447 194.86645 197.13643 199.50241 201.95439 204.44136 206.53634 208.38532
 210.01830 211.17028 211.40625 211.64123 211.58521 211.29719 210.93717 210.57414
 210.19812 209.91510 209.73008 209.60106 209.53603 209.87401 210.26699 210.66297
 211.46295 212.64792 213.90490 215.69488 217.62986 219.67984 221.78181 223.87179
 225.93877 228.02975 230.13373 232.24670 234.38268 236.56166 238.82464 241.20162
 243.82960 246.08757 248.09655 249.86853 251.29251 252.42249 253.25146 253.57444
 253.61842 253.39940 252.76638 251.72135 250.33433 248.50231 246.41829 244.25827
 242.05624 239.86722 237.69420 235.54018 233.40716 231.28113 229.31411 227.47809
 225.76807 224.24705 222.88402 221.66300 220.55198 219.51896 218.62994 217.77791
 217.02689 216.21387 215.31885 214.68983 214.14680 213.68066 212.57935 212.13408
 211.76607 212.01984 213.05321 215.15886 218.12260 222.54393 228.56277 233.34245
 237.04182 240.93494 245.17505 249.70500 254.17645 257.81900 260.43051 262.41357
 264.68784 267.25809 269.68311 271.55490 273.62354 275.78281 277.65805 279.32623
 280.77448 282.12375 283.43579 284.79083 285.97137 287.01825 287.97556 288.84818
 289.63715 290.34650 290.96881 291.80804
 366.78100 356.34278 345.78257 334.65635 323.06713 311.26892 299.14670 286.95748
 274.67727 262.58205 250.59883 239.90762 230.03740 221.14918 213.33897 206.34875
 200.19053 195.13632 191.72610 189.77588 188.82067 188.89245 189.73523 191.05101
 192.78380 194.88658 197.15736 199.52415 201.97693 204.46471 206.56050 208.41028
 210.04406 211.19685 211.43363 211.66941 211.61420 211.32698 210.96776 210.60555
 210.23033 209.94811 209.76390 209.63568 209.57146 209.91025 210.30403 210.70081
 211.50160 212.68738 213.94516 215.73595 217.67173 219.72251 221.82530 223.91608
 225.98386 228.07565 230.18043 232.29421 234.43100 236.61078 238.87456 241.25235
 243.88113 246.13991 248.14969 249.92248 251.34726 252.47804 253.30783 253.63161
 253.67639 253.45818 252.82596 251.78174 250.39553 248.56431 246.48109 244.32188
 242.12066 239.93244 237.76023 235.60701 233.47479 231.34958 229.38336 227.54814
 225.83893 224.31871 222.95649 221.73628 220.62606 219.59384 218.70563 217.85441
 217.10419 216.29198 215.39776 214.76954 214.22733 213.74939 212.62022 212.19269
 211.82805 212.06342 213.12915 215.22250 218.13751 222.51059 228.51144 233.26320
 236.94981 240.84651 245.10370 249.65533 254.13976 257.73361 260.30368 262.29651
 264.59616 267.16812 269.58438 271.48099 273.56555 275.72754 277.60837 279.28494
 280.74286 282.09885 283.41458 284.76892 285.94891 286.99588 287.95312 288.82571
 289.61481 290.32169 290.94955 291.78409
 366.78100 356.34396 345.78493 334.65989 323.07186 311.27482 299.15378 286.96575
 274.68671 262.59267 250.61064 239.92060 230.05157 221.16453 213.35549 206.36646
 200.20942 195.15639 191.74735 189.79831 188.84428 188.91724 189.76120 191.07817
 192.81213 194.91610 197.18806 199.55602 202.00999 204.49895 206.59591 208.44688
 210.08184 211.23581 211.47377 211.71073 211.65670 211.37066 211.01263 210.65159
 210.27755 209.99652 209.81348 209.68644 209.62341 209.96337 210.35834 210.75630
 211.55826 212.74523 214.00419 215.79616 217.73312 219.78508 221.88905 223.98101
 226.04997 228.14294 230.24890 232.36387 234.50183 236.68279 238.94776 241.32672
 243.95668 246.21665 248.22761 250.00158 251.42754 252.55950 253.39047 253.71543
 253.76140 253.54436 252.91332 251.87029 250.48525 248.65521 246.57318 244.41514
 242.21511 240.02807 237.85703 235.70500 233.57396 231.44993 229.48489 227.65085
 225.94282 224.42378 223.06274 221.84371 220.73467 219.70364 218.81660 217.96656
 217.21753 216.40649 215.51346 214.88642 214.34538 213.83693 212.63567 212.24803
 211.93945 212.10327 213.16212 215.29344 218.17603 222.47183 228.45404 233.17908
 236.85336 240.75484 245.03333 249.61029 254.09814 257.64035 260.16730 262.17276
 264.50824 267.08426 269.49069 271.41367 273.51453 275.67871 277.56165 279.24185
 280.71307 282.07657 283.39920 284.75436 285.93466 286.98175 287.93890 288.81009
 289.59946 290.30682 290.93158 291.76965
 366.78100 356.34538 345.78776 334.66414 323.07752 311.28189 299.16227 286.97565
 274.69803 262.60541 250.62479 239.93617 230.06855 221.18293 213.37530 206.38768
 200.23206 195.18044 191.77282 189.82520 188.87258 188.94696 189.79234 191.11072
 192.84609 194.95147 197.22485 199.59423 202.04961 204.53999 206.63837 208.49075
 210.12713 211.28250 211.52188 211.76026 211.70764 211.42302 211.06640 210.70678
 210.33416 210.05454 209.87291 209.74729 209.68567 210.02705 210.42343 210.82281
 211.62619 212.81457 214.07495 215.86833 217.80670 219.86008 221.96546 224.05884
 226.12922 228.22360 230.33098 232.44736 234.58674 236.76911 239.03549 241.41587
 244.04725 246.30863 248.32101 250.09639 251.52377 252.65715 253.48952 253.81590
 253.86328 253.64766 253.01804 251.97642 250.59280 248.76418 246.68356 244.52694
 242.32831 240.14269 237.97307 235.82245 233.69283 231.57021 229.60659 227.77397
 226.06735 224.54972 223.19010 221.97248 220.86486 219.83524 218.94962 218.10100
 217.35338 216.54376 215.65213 215.02651 214.48689 213.93593 212.63423 212.30368
 212.05290 212.15685 213.23015 215.35370 218.16815 222.41573 228.40326 233.10222
 236.76051 240.66643 244.96770 249.57021 254.05615 257.54449 260.02560 262.04440
 264.42386 267.00427 269.39728 271.34787 273.46649 275.63190 277.51251 279.19608
 280.68326 282.05933 283.39035 284.74481 285.92462 286.97061 287.92868 288.79959
 289.58835 290.29648 290.92145 291.75980
 366.78100 356.34612 345.78925 334.66637 323.08049 311.28562 299.16674 286.98086
 274.70399 262.61211 250.63224 239.94436 230.07748 221.19261 213.38573 206.39885
 200.24398 195.19310 191.78622 189.83935 188.88747 188.96259 189.80872 191.12784
 192.86397 194.97009 197.24421 199.61434 202.07046 204.56158 206.66071 208.51383
 210.15095 211.30708 211.54720 211.78632 211.73445 211.45057 211.09470 210.73582
 210.36394 210.08507 209.90419 209.77931 209.71844 210.06056 210.45768 210.85781
 211.66193 212.85105 214.11218 215.90630 217.84542 219.89955 222.00567 224.09980
 226.17092 228.26604 230.37417 232.49129 234.63141 236.81454 239.08166 241.46278
 244.09491 246.35703 248.37015 250.14628 251.57440 252.70853 253.54165 253.86877
 253.91690 253.70202 253.07314 252.03227 250.64939 248.82151 246.74164 244.58576
 242.38788 240.20301 238.03413 235.88426 233.75538 231.63350 229.67063 227.83875
 226.13287 224.61600 223.25712 222.04024 220.93337 219.90449 219.01961 218.17174
 217.42486 216.61598 215.72511 215.10023 214.56136 213.99998 212.67368 212.32895
 212.16336 212.20799 213.25774 215.43587 218.23016 222.37787 228.33769 233.01259
 236.66473 240.57805 244.90611 249.53442 254.01343 257.44485 259.87979 261.91174
 264.33972 266.92419 269.30072 271.27963 273.41705 275.58295 277.45731 279.14301
 280.65070 282.04559 283.38431 284.73938 285.91968 286.96582 287.92203 288.79352
 289.58151 290.28781 290.91397 291.74780
 366.78100 356.34630 345.78961 334.66691 323.08122 311.28652 299.16782 286.98213
 274.70543 262.61374 250.63404 239.94634 230.07965 221.19495 213.38826 206.40156
 200.24687 195.19617 191.78947 189.84278 188.89108 188.96639 189.81269 191.13199
 192.86830 194.97460 197.24891 199.61921 202.07551 204.56682 206.66612 208.51943
 210.15673 211.31303 211.55334 211.79264 211.74095 211.45725 211.10155 210.74286
 210.37116 210.09247 209.91177 209.78707 209.72638 210.06868 210.46599 210.86629
 211.67060 212.85990 214.12120 215.91551 217.85481 219.90912 222.01542 224.10972
 226.18103 228.27633 230.38464 232.50194 234.64224 236.82555 239.09285 241.47416
 244.10646 246.36876 248.38207 250.15837 251.58668 252.72098 253.55428 253.88159
 253.92989 253.71520 253.08650 252.04581 250.66311 248.83541 246.75572 244.60002
 242.40233 240.21763 238.04893 235.89924 233.77054 231.64885 229.68615 227.85445
 226.14876 224.63206 223.27337 222.05667 220.94997 219.92128 219.03658 218.18889
 217.44219 216.63349 215.74280 215.11810 214.57941 214.03433 212.74652 212.32425
 212.27763 212.30406 213.25879 215.45515 218.28276 222.35823 228.28891 232.94337
 236.57727 240.49704 244.85121 249.50305 253.97015 257.34244 259.72891 261.77466
 264.25565 266.84366 269.20056 271.20959 273.36670 275.53311 277.39890 279.08627
 280.61917 282.03503 283.38196 284.73801 285.91803 286.96414 287.92044 288.79041
 289.57880 290.28604 290.91040 291.74667
 366.78100 356.34667 345.79035 334.66802 323.08269 311.28837 299.17004 286.98472
 274.70839 262.61706 250.63774 239.95041 230.08408 221.19976 213.39343 206.40710
 200.25278 195.20245 191.79613 189.84980 188.89847 188.97415 189.82082 191.14049
 192.87717 194.98384 197.25851 199.62919 202.08586 204.57754 206.67721 208.53088
 210.16856 211.32523 211.56590 211.80558 211.75425 211.47092 211.11560 210.75727
 210.38595 210.10762 209.92729 209.80297 209.74264 210.08531 210.48299 210.88366
 211.68833 212.87801 214.13968 215.93436 217.87403 219.92870 222.03538 224.13005
 226.20172 228.29740 230.40607 232.52374 234.66442 236.84809 239.11577 241.49744
 244.13011 246.39279 248.40646 250.18313 251.61181 252.74648 253.58015 253.90783
 253.95650 253.74218 253.11385 252.07352 250.69120 248.86387 246.78454 244.62922
 242.43189 240.24756 238.07924 235.92991 233.80159 231.68026 229.71793 227.88661
 226.18128 224.66495 223.30663 222.09030 220.98397 219.95565 219.07132 218.22400
 217.47767 216.66934 215.77902 215.15469 214.61636 214.07610 212.79965 212.34836
 212.36880 212.37732 213.27618 215.50121 218.33957 222.33266 228.24689 232.87682
 236.48804 240.41510 244.79721 249.47217 253.91969 257.22931 259.56842 261.63333
 264.17252 266.76495 269.10330 271.14359 273.32257 275.48843 277.34500 279.03381
 280.59076 282.02756 283.38425 284.73944 285.92007 286.96521 287.92148 288.79092
 289.57828 290.28583 290.91049 291.74554
 366.78100 356.34738 345.79176 334.67013 323.08551 311.29189 299.17427 286.98964
 274.71402 262.62340 250.64478 239.95815 230.09253 221.20891 213.40329 206.41767
 200.26404 195.21442 191.80880 189.86318 188.91255 188.98893 189.83631 191.15669
 192.89406 195.00144 197.27682 199.64820 202.10557 204.59795 206.69833 208.55271
 210.19109 211.34846 211.58984 211.83022 211.77960 211.49697 211.14235 210.78473
 210.41411 210.13648 209.95686 209.83324 209.77362 210.11700 210.51537 210.91675
 211.72213 212.91251 214.17488 215.97026 217.91064 219.96602 222.07339 224.16877
 226.24115 228.33753 230.44691 232.56528 234.70666 236.89104 239.15942 241.54179
 244.17517 246.43855 248.45293 250.23030 251.65968 252.79506 253.62944 253.95781
 254.00719 253.79357 253.16595 252.12633 250.74470 248.91808 246.83946 244.68484
 242.48821 240.30459 238.13697 235.98835 233.86072 231.74010 229.77848 227.94786
 226.24324 224.72761 223.36999 222.15437 221.04875 220.02112 219.13750 218.29088
 217.54526 216.73763 215.84801 215.22439 214.68677 214.13205 212.82149 212.41780
 212.42737 212.43634 213.31783 215.57571 218.40225 222.29510 228.19363 232.79796
 236.39340 240.33131 244.74464 249.44101 253.86342 257.10925 259.40457 261.49399
 264.09317 266.69141 269.01276 271.08380 273.28458 275.45111 277.29630 278.98495
 280.56647 282.02167 283.38806 284.74350 285.92432 286.96887 287.92526 288.79266
 289.58109 290.28943 290.91302 291.74646
 366.78100 356.34806 345.79313 334.67219 323.08826 311.29532 299.17839 286.99445
 274.71952 262.62958 250.65165 239.96571 230.10078 221.21784 213.41290 206.42797
 200.27503 195.22610 191.82116 189.87623 188.92629 189.00336 189.85142 191.17249
 192.91055 195.01862 197.29468 199.66674 202.12481 204.61787 206.71894 208.57400
 210.21307 211.37113 211.61320 211.85426 211.80433 211.52239 211.16846 210.81152
 210.44159 210.16465 209.98571 209.86278 209.80384 210.14791 210.54697 210.94904
 211.75510 212.94617 214.20923 216.00530 217.94636 220.00243 222.11049 224.20655
 226.27962 228.37668 230.48675 232.60581 234.74788 236.93294 239.20201 241.58507
 244.21914 246.48320 248.49827 250.27633 251.70639 252.84246 253.67752 254.00659
 254.05665 253.84372 253.21678 252.17785 250.79691 248.97098 246.89304 244.73911
 242.54317 240.36023 238.19330 236.04536 233.91843 231.79849 229.83756 228.00762
 226.30369 224.78875 223.43182 222.21688 221.11195 220.08501 219.20207 218.35614
 217.61120 216.80427 215.91533 215.29240 214.75546 214.18471 212.83624 212.50443
 212.46867 212.49522 213.37520 215.65662 218.45372 222.25488 228.13036 232.71205
 236.29903 240.25137 244.69708 249.41107 253.80467 256.98734 259.24194 261.35968
 264.01764 266.62085 268.92624 271.02881 273.25098 275.41803 277.25250 278.93958
 280.54431 282.01974 283.39203 284.74808 285.92633 286.97318 287.92746 288.79626
 289.58228 290.28940 290.91617 291.74869
 366.78100 356.34854 345.79408 334.67362 323.09017 311.29771 299.18125 286.99779
 274.72333 262.63387 250.65642 239.97096 230.10650 221.22404 213.41958 206.43512
 200.28267 195.23421 191.82975 189.88529 188.93583 189.01337 189.86192 191.18346
 192.92200 195.03054 197.30708 199.67962 202.13817 204.63171 206.73325 208.58879
 210.22833 211.38687 211.62941 211.87096 211.82150 211.54004 211.18658 210.83012
 210.46066 210.18421 210.00575 209.88329 209.82483 210.16937 210.56891 210.97146
 211.77800 212.96954 214.23308 216.02962 217.97116 220.02771 222.13625 224.23279
 226.30633 228.40387 230.51441 232.63396 234.77650 236.96204 239.23158 241.61512
 244.24966 246.51421 248.52975 250.30829 251.73883 252.87537 253.71091 254.04045
 254.09100 253.87854 253.25208 252.21362 250.83316 249.00770 246.93025 244.77679
 242.58133 240.39887 238.23241 236.08495 233.95850 231.83904 229.87858 228.04912
 226.34566 224.83120 223.47475 222.26029 221.15583 220.12937 219.24691 218.40145
 217.65700 216.85054 215.96208 215.33962 214.80316 214.22478 212.85832 212.58791
 212.51672 212.54874 213.44438 215.73167 218.48584 222.21764 228.06534 232.62555
 236.20851 240.17654 244.65370 249.38187 253.74205 256.86282 259.07944 261.22919
 263.94394 266.55130 268.84213 270.97604 273.21936 275.38705 277.20959 278.89514
 280.52158 282.01404 283.39755 284.75385 285.93304 286.97824 287.93433 288.80035
 289.58997 290.29526 290.92038 291.75317
 366.78100 356.34883 345.79467 334.67450 323.09134 311.29917 299.18301 286.99984
 274.72568 262.63651 250.65935 239.97418 230.11002 221.22785 213.42369 206.43952
 200.28736 195.23919 191.83503 189.89086 188.94169 189.01953 189.86836 191.19020
 192.92903 195.03787 197.31470 199.68754 202.14637 204.64021 206.74204 208.59788
 210.23771 211.39655 211.63938 211.88122 211.83205 211.55089 211.19772 210.84155
 210.47239 210.19622 210.01806 209.89589 209.83773 210.18256 210.58240 210.98523
 211.79207 212.98390 214.24774 216.04457 217.98641 220.04324 222.15208 224.24891
 226.32275 228.42058 230.53141 232.65125 234.79408 236.97992 239.24975 241.63359
 244.26842 246.53326 248.54909 250.32793 251.75876 252.89560 253.73143 254.06127
 254.11210 253.89994 253.27377 252.23561 250.85544 249.03027 246.95311 244.79994
 242.60478 240.42261 238.25645 236.10928 233.98312 231.86395 229.90379 228.07462
 226.37146 224.85729 223.50113 222.28696 221.18280 220.15663 219.27447 218.42930
 217.68513 216.87897 215.99080 215.36864 214.83247 214.25378 212.88658 212.66457
 212.58452 212.59120 213.51607 215.79918 218.51323 222.18251 227.99812 232.53734
 236.11995 240.10625 244.61360 249.35091 253.67419 256.73343 258.91705 261.10382
 263.87125 266.48291 268.76184 270.92780 273.19196 275.36087 277.17365 278.85748
 280.50214 282.00946 283.40018 284.75583 285.93549 286.98157 287.93573 288.80499
 289.59378 290.30643 290.93121 291.76346
 366.78100 356.34901 345.79501 334.67502 323.09202 311.30003 299.18403 287.00104
 274.72704 262.63805 250.66105 239.97606 230.11207 221.23007 213.42608 206.44208
 200.29009 195.24209 191.83810 189.89410 188.94511 189.02312 189.87212 191.19413
 192.93313 195.04214 197.31914 199.69215 202.15115 204.64516 206.74716 208.60317
 210.24318 211.40218 211.64519 211.88719 211.83820 211.55720 211.20421 210.84821
 210.47922 210.20322 210.02523 209.90324 209.84524 210.19025 210.59025 210.99326
 211.80026 212.99227 214.25627 216.05328 217.99529 220.05229 222.16130 224.25830
 226.33231 228.43031 230.54132 232.66132 234.80433 236.99033 239.26034 241.64435
 244.27935 246.54436 248.56036 250.33937 251.77037 252.90738 253.74338 254.07339
 254.12439 253.91240 253.28641 252.24841 250.86842 249.04342 246.96643 244.81343
 242.61844 240.43644 238.27045 236.12346 233.99746 231.87847 229.91847 228.08948
 226.38648 224.87249 223.51649 222.30250 221.19850 220.17251 219.29052 218.44552
 217.70153 216.89553 216.00754 215.38554 214.84955 214.27490 212.91724 212.73871
 212.66692 212.62997 213.58716 215.85701 218.53671 222.14633 227.92755 232.44936
 236.03586 240.04161 244.57552 249.31721 253.59885 256.59845 258.75607 260.98450
 263.79999 266.41586 268.68753 270.88547 273.16891 275.34052 277.14435 278.82642
 280.48514 282.00406 283.40253 284.76135 285.94125 286.98746 287.94330 288.81534
 289.60675 290.31863 290.94647 291.77795
 366.78100 356.34913 345.79526 334.67538 323.09251 311.30064 299.18477 287.00190
 274.72802 262.63915 250.66228 239.97741 230.11353 221.23166 213.42779 206.44392
 200.29205 195.24417 191.84030 189.89643 188.94756 189.02569 189.87481 191.19694
 192.93607 195.04520 197.32232 199.69545 202.15458 204.64871 206.75084 208.60696
 210.24709 211.40622 211.64935 211.89148 211.84260 211.56173 211.20886 210.85299
 210.48411 210.20824 210.03037 209.90850 209.85063 210.19575 210.59588 210.99901
 211.80614 212.99827 214.26239 216.05952 218.00165 220.05878 222.16790 224.26503
 226.33916 228.43729 230.54842 232.66854 234.81167 236.99780 239.26793 241.65206
 244.28718 246.55231 248.56844 250.34757 251.77869 252.91582 253.75195 254.08208
 254.13321 253.92133 253.29546 252.25759 250.87772 249.05285 246.97597 244.82310
 242.62823 240.44636 238.28048 236.13361 234.00774 231.88887 229.92900 228.10012
 226.39725 224.88338 223.52751 222.31364 221.20976 220.18389 219.30202 218.45715
 217.71327 216.90740 216.01953 215.39766 214.86179 214.29158 212.94443 212.81824
 212.75458 212.67188 213.66031 215.90489 218.54201 222.10921 227.85988 232.36372
 235.95464 239.98122 244.53902 249.27896 253.51361 256.45724 258.59714 260.87347
 263.73074 266.35031 268.62064 270.85004 273.15128 275.32715 277.12262 278.80099
 280.46973 281.99484 283.40610 284.76468 285.94351 286.99124 287.94592 288.81509
 289.60287 290.31033 290.93405 291.76636
 366.78100 356.34903 345.79507 334.67510 323.09213 311.30017 299.18420 287.00123
 274.72727 262.63830 250.66133 239.97637 230.11240 221.23043 213.42647 206.44250
 200.29053 195.24257 191.83860 189.89463 188.94567 189.02370 189.87273 191.19477
 192.93380 195.04284 197.31987 199.69290 202.15194 204.64597 206.74800 208.60404
 210.24407 211.40310 211.64614 211.88817 211.83920 211.55824 211.20527 210.84930
 210.48034 210.20437 210.02640 209.90444 209.84647 210.19150 210.59154 210.99457
 211.80160 212.99364 214.25767 216.05470 217.99674 220.05377 222.16280 224.25984
 226.33387 228.43190 230.54294 232.66297 234.80600 236.99204 239.26207 241.64610
 244.28114 246.54617 248.56220 250.34124 251.77227 252.90931 253.74534 254.07537
 254.12641 253.91444 253.28847 252.25051 250.87054 249.04557 246.96861 244.81564
 242.62067 240.43871 238.27274 236.12577 233.99981 231.88084 229.92087 228.09191
 226.38894 224.87497 223.51901 222.30504 221.20107 220.17511 219.29314 218.44817
 217.70421 216.89824 216.01027 215.38831 214.85234 214.29523 212.97900 212.89520
 212.84444 212.72546 213.72897 215.94356 218.53284 222.07025 227.79128 232.27814
 235.87527 239.92497 244.50485 249.23595 253.41733 256.30719 258.43936 260.76868
 263.66083 266.28516 268.56104 270.82159 273.14178 275.32410 277.11310 278.78455
 280.45563 281.98373 283.40701 284.76480 285.94577 286.99133 287.94641 288.81586
 289.60107 290.30786 290.93210 291.76480
 366.78100 356.34906 345.79512 334.67518 323.09224 311.30030 299.18435 287.00141
 274.72747 262.63853 250.66159 239.97665 230.11271 221.23077 213.42683 206.44289
 200.29094 195.24300 191.83906 189.89512 188.94618 189.02424 189.87330 191.19536
 192.93442 195.04348 197.32054 199.69359 202.15265 204.64671 206.74877 208.60483
 210.24489 211.40395 211.64701 211.88907 211.84013 211.55918 211.20624 210.85030
 210.48136 210.20542 210.02748 209.90554 209.84760 210.19266 210.59272 210.99577
 211.80283 212.99489 214.25895 216.05601 217.99807 220.05513 222.16419 224.26125
 226.33531 228.43337 230.54442 232.66448 234.80754 236.99360 239.26366 241.64772
 244.28278 246.54784 248.56390 250.34296 251.77401 252.91107 253.74713 254.07719
 254.12825 253.91631 253.29037 252.25243 250.87249 249.04755 246.97061 244.81766
 242.62272 240.44078 238.27484 236.12790 234.00196 231.88302 229.92308 228.09414
 226.39120 224.87725 223.52131 222.30737 221.20343 220.17749 219.29555 218.45061
 217.70667 216.90073 216.01279 215.39085 214.85490 214.30298 212.99899 212.99094
 212.93486 212.77792 213.80128 215.97729 218.51007 222.02699 227.72244 232.19218
 235.79893 239.87410 244.47258 249.18793 253.31029 256.14893 258.28180 260.67001
 263.58942 266.21902 268.50806 270.79968 273.14108 275.33420 277.11557 278.77707
 280.44547 281.97427 283.40808 284.76740 285.94888 286.99426 287.94873 288.82034
 289.60663 290.31366 290.93649 291.77087
 366.78100 356.34850 345.79400 334.67351 323.09001 311.29751 299.18101 286.99751
 274.72302 262.63352 250.65602 239.97052 230.10602 221.22353 213.41903 206.43453
 200.28203 195.23353 191.82903 189.88454 188.93504 189.01254 189.86104 191.18254
 192.92105 195.02955 197.30605 199.67855 202.13705 204.63056 206.73206 208.58756
 210.22706 211.38556 211.62807 211.86957 211.82007 211.53857 211.18507 210.82858
 210.45908 210.18258 210.00408 209.88158 209.82309 210.16759 210.56709 210.96959
 211.77609 212.96760 214.23110 216.02760 217.96910 220.02560 222.13410 224.23061
 226.30411 228.40161 230.51211 232.63161 234.77412 236.95962 239.22912 241.61262
 244.24712 246.51163 248.52713 250.30563 251.73613 252.87263 253.70814 254.03764
 254.08814 253.87564 253.24914 252.21065 250.83015 249.00465 246.92715 244.77365
 242.57816 240.39566 238.22916 236.08166 233.95516 231.83567 229.87517 228.04567
 226.34217 224.82767 223.47117 222.25668 221.15218 220.12568 219.24318 218.39768
 217.65319 216.84669 215.95819 215.33569 214.79919 214.27982 213.05272 213.05785
 213.04353 212.84372 213.84853 216.00603 218.49049 221.99475 227.64890 232.10207
 235.72539 239.82915 244.44328 249.13565 253.19402 255.98433 258.12692 260.57678
 263.51526 266.14978 268.45880 270.78271 273.14621 275.35141 277.12769 278.77740
 280.43771 281.96295 283.41092 284.77176 285.95349 286.99982 287.95782 288.82550
 289.61386 290.32245 290.94675 291.77795
 366.78100 356.34858 345.79416 334.67374 323.09033 311.29791 299.18149 286.99807
 274.72365 262.63423 250.65682 239.97140 230.10698 221.22456 213.42014 206.43572
 200.28331 195.23489 191.83047 189.88605 188.93663 189.01421 189.86280 191.18438
 192.92296 195.03154 197.30812 199.68070 202.13928 204.63287 206.73445 208.59003
 210.22961 211.38819 211.63077 211.87236 211.82294 211.54152 211.18810 210.83168
 210.46226 210.18585 210.00743 209.88501 209.82659 210.17117 210.57075 210.97333
 211.77992 212.97150 214.23508 216.03166 217.97324 220.02982 222.13841 224.23499
 226.30857 228.40615 230.51673 232.63631 234.77890 236.96448 239.23406 241.61764
 244.25222 246.51680 248.53239 250.31097 251.74155 252.87813 253.71371 254.04329
 254.09387 253.88146 253.25504 252.21662 250.83620 249.01078 246.93336 244.77995
 242.58453 240.40211 238.23569 236.08827 233.96185 231.84244 229.88202 228.05260
 226.34918 224.83476 223.47834 222.26393 221.15951 220.13309 219.25067 218.40525
 217.66083 216.85441 215.96600 215.34358 214.80716 214.28616 213.05525 213.18994
 213.12732 212.89687 213.92731 216.03156 218.46252 221.94044 227.56445 232.00764
 235.65456 239.79030 244.41655 249.07837 253.06839 255.81279 257.97385 260.48929
 263.43973 266.08069 268.41708 270.77179 273.15973 275.38049 277.15158 278.78598
 280.43356 281.95114 283.41696 284.77878 285.96198 287.00735 287.96637 288.83817
 289.62592 290.33350 290.95737 291.79190
 366.78100 356.34934 345.79567 334.67601 323.09334 311.30168 299.18601 287.00335
 274.72968 262.64102 250.66435 239.97969 230.11602 221.23436 213.43070 206.44703
 200.29537 195.24770 191.84404 189.90037 188.95171 189.03004 189.87938 191.20171
 192.94105 195.05038 197.32772 199.70106 202.16039 204.65473 206.75706 208.61340
 210.25373 211.41307 211.65640 211.89874 211.85007 211.56941 211.21674 210.86108
 210.49242 210.21675 210.03909 209.91742 209.85976 210.20509 210.60543 211.00876
 211.81610 213.00843 214.27277 216.07010 218.01244 220.06978 222.17911 224.27645
 226.35078 228.44912 230.56045 232.68079 234.82412 237.01046 239.28079 241.66513
 244.30046 246.56580 248.58213 250.36147 251.79281 252.93014 253.76648 254.09681
 254.14815 253.93648 253.31082 252.27315 250.89349 249.06882 246.99216 244.83949
 242.64483 240.46317 238.29750 236.15084 234.02517 231.90651 229.94684 228.11818
 226.41551 224.90185 223.54618 222.33252 221.22885 220.20319 219.32153 218.47686
 217.73320 216.92753 216.03987 215.41820 214.88254 214.32796 213.01767 213.29440
 213.37955 212.95547 213.88422 215.98741 218.39333 221.91187 227.48126 231.91106
 235.58739 239.75677 244.39117 249.01622 252.93379 255.63701 257.82684 260.41083
 263.36661 266.01727 268.38736 270.77252 273.18454 275.42529 277.19077 278.80545
 280.43347 281.92120 283.43103 284.79260 285.97522 287.02121 287.97916 288.85001
 289.63989 290.34732 290.97098 291.80566
 366.78100 356.34888 345.79477 334.67465 323.09154 311.29942 299.18330 287.00019
 274.72607 262.63695 250.65984 239.97472 230.11061 221.22849 213.42437 206.44026
 200.28814 195.24003 191.83591 189.89179 188.94268 189.02056 189.86945 191.19133
 192.93021 195.03910 197.31598 199.68886 202.14775 204.64163 206.74352 208.59940
 210.23928 211.39817 211.64105 211.88294 211.83382 211.55270 211.19959 210.84347
 210.47435 210.19824 210.02012 209.89801 209.83989 210.18477 210.58466 210.98754
 211.79443 212.98631 214.25019 216.04708 217.98896 220.04585 222.15473 224.25161
 226.32550 228.42338 230.53426 232.65415 234.79703 236.98292 239.25280 241.63668
 244.27157 246.53645 248.55234 250.33122 251.76210 252.89899 253.73487 254.06475
 254.11564 253.90352 253.27741 252.23929 250.85917 249.03406 246.95694 244.80383
 242.60871 240.42659 238.26048 236.11336 233.98725 231.86813 229.90801 228.07890
 226.37578 224.86166 223.50555 222.29143 221.18732 220.16120 219.27908 218.43397
 217.68985 216.88374 215.99562 215.37350 214.83739 214.31110 213.06767 213.30643
 213.53821 213.11784 213.90727 215.96278 218.36568 221.81470 227.39441 231.81882
 235.52274 239.72792 244.36620 248.94867 252.79367 255.46188 257.68781 260.33963
 263.29440 265.95578 268.36560 270.77896 273.21548 275.47626 277.23727 278.83020
 280.43478 281.90363 283.43701 284.80264 285.98477 287.03326 287.99130 288.86365
 289.65247 290.36075 290.98514 291.81848
 366.78100 356.34818 345.79336 334.67254 323.08872 311.29589 299.17907 286.99525
 274.72043 262.63061 250.65279 239.96697 230.10215 221.21933 213.41450 206.42968
 200.27686 195.22804 191.82322 189.87840 188.92858 189.00576 189.85394 191.17512
 192.91329 195.02147 197.29765 199.66983 202.12801 204.62119 206.72237 208.57755
 210.21673 211.37490 211.61708 211.85826 211.80844 211.52662 211.17280 210.81598
 210.44616 210.16934 209.99051 209.86769 209.80887 210.15305 210.55223 210.95441
 211.76059 212.95177 214.21495 216.01112 217.95230 220.00848 222.11666 224.21284
 226.28602 228.38320 230.49338 232.61256 234.75473 236.93991 239.20909 241.59227
 244.22645 246.49063 248.50581 250.28399 251.71417 252.85035 253.68552 254.01470
 254.06488 253.85206 253.22524 252.18642 250.80560 248.97978 246.90196 244.74813
 242.55231 240.36949 238.20267 236.05485 233.92803 231.80821 229.84739 228.01757
 226.31374 224.79892 223.44210 222.22728 221.12246 220.09564 219.21282 218.36700
 217.62218 216.81535 215.92653 215.30371 214.76689 214.27946 213.12785 213.34711
 213.61162 213.25308 213.97046 215.97098 218.38341 221.71892 227.30391 231.73343
 235.46761 239.70569 244.34315 248.87883 252.65182 255.28897 257.55478 260.26984
 263.21698 265.88791 268.33963 270.78067 273.24225 275.52155 277.27676 278.85040
 280.43054 281.89835 283.43884 284.80585 285.99182 287.04041 288.00070 288.87402
 289.66437 290.37268 290.99573 291.83011
 366.78100 356.34782 345.79264 334.67146 323.08728 311.29411 299.17693 286.99275
 274.71757 262.62739 250.64921 239.96303 230.09785 221.21467 213.40950 206.42432
 200.27114 195.22196 191.81678 189.87160 188.92142 188.99824 189.84606 191.16689
 192.90471 195.01253 197.28835 199.66017 202.11799 204.61081 206.71163 208.56645
 210.20528 211.36310 211.60492 211.84574 211.79556 211.51338 211.15920 210.80202
 210.43184 210.15466 209.97549 209.85231 209.79313 210.13695 210.53577 210.93759
 211.74341 212.93423 214.19705 215.99288 217.93370 219.98952 222.09734 224.19316
 226.26598 228.36280 230.47262 232.59144 234.73327 236.91809 239.18691 241.56973
 244.20355 246.46737 248.48219 250.26001 251.68983 252.82566 253.66048 253.98930
 254.03912 253.82594 253.19876 252.15958 250.77840 248.95222 246.87405 244.71987
 242.52369 240.34051 238.17333 236.02515 233.89797 231.77779 229.81661 227.98644
 226.28226 224.76708 223.40990 222.19472 221.08954 220.06236 219.17918 218.33300
 217.58783 216.78065 215.89147 215.26829 214.73111 214.26405 213.16057 213.41422
 213.69046 213.34291 214.03001 215.99411 218.41039 221.64153 227.21642 231.65808
 235.42255 239.68958 244.32002 248.80495 252.50543 255.11398 257.42233 260.19705
 263.13049 265.81076 268.30670 270.77524 273.26233 275.55844 277.30838 278.86517
 280.42346 281.89676 283.43774 284.80829 285.99295 287.04401 288.00647 288.88022
 289.67203 290.37976 291.00235 291.83777
 366.78100 356.34760 345.79221 334.67081 323.08642 311.29302 299.17563 286.99123
 274.71584 262.62544 250.64704 239.96065 230.09525 221.21186 213.40646 206.42107
 200.26767 195.21828 191.81288 189.86748 188.91709 188.99369 189.84130 191.16190
 192.89951 195.00711 197.28271 199.65432 202.11192 204.60453 206.70513 208.55974
 210.19834 211.35595 211.59755 211.83815 211.78776 211.50536 211.15097 210.79357
 210.42318 210.14578 209.96639 209.84299 209.78359 210.12720 210.52580 210.92741
 211.73301 212.92362 214.18622 215.98183 217.92243 219.97803 222.08564 224.18124
 226.25385 228.35045 230.46006 232.57866 234.72027 236.90487 239.17347 241.55608
 244.18968 246.45329 248.46789 250.24550 251.67510 252.81071 253.64531 253.97391
 254.02352 253.81012 253.18273 252.14333 250.76194 248.93554 246.85714 244.70275
 242.50635 240.32296 238.15556 236.00717 233.87977 231.75938 229.79798 227.96758
 226.26319 224.74779 223.39040 222.17500 221.06961 220.04221 219.15882 218.31242
 217.56702 216.75963 215.87023 215.24684 214.70944 214.25595 213.18451 213.47693
 213.79317 213.41600 214.07925 216.02890 218.42021 221.58115 227.13586 231.59044
 235.38293 239.67621 244.29488 248.72490 252.35266 254.93506 257.28973 260.11972
 263.03619 265.72754 268.26859 270.76550 273.27866 275.58881 277.33481 278.87787
 280.41498 281.89285 283.43665 284.80753 285.99286 287.04697 288.00714 288.88211
 289.67282 290.38095 291.00375 291.83786
 366.78100 356.34751 345.79202 334.67054 323.08605 311.29256 299.17507 286.99058
 274.71510 262.62461 250.64612 239.95963 230.09414 221.21066 213.40517 206.41968
 200.26619 195.21670 191.81122 189.86573 188.91524 188.99175 189.83926 191.15977
 192.89729 195.00480 197.28031 199.65182 202.10933 204.60185 206.70236 208.55687
 210.19538 211.35289 211.59441 211.83492 211.78443 211.50194 211.14745 210.78997
 210.41948 210.14199 209.96250 209.83901 209.77953 210.12304 210.52155 210.92306
 211.72857 212.91909 214.18160 215.97711 217.91762 219.97313 222.08065 224.17616
 226.24867 228.34518 230.45469 232.57321 234.71472 236.89923 239.16774 241.55025
 244.18376 246.44728 248.46179 250.23930 251.66881 252.80432 253.63884 253.96735
 254.01686 253.80337 253.17588 252.13640 250.75491 248.92842 246.84993 244.69544
 242.49896 240.31547 238.14798 235.99949 233.87200 231.75152 229.79003 227.95954
 226.25505 224.73956 223.38208 222.16659 221.06110 220.03361 219.15012 218.30364
 217.55815 216.75066 215.86117 215.23768 214.70020 214.25526 213.20406 213.53500
 213.89827 213.49783 214.12349 216.07219 218.41315 221.53026 227.06055 231.52649
 235.34657 239.66240 244.26450 248.63727 252.19281 254.75266 257.15723 260.03857
 262.93723 265.64069 268.22754 270.75244 273.29102 275.61331 277.35464 278.88651
 280.40512 281.88770 283.43039 284.80304 285.98944 287.04141 288.00195 288.87906
 289.66815 290.37622 290.99734 291.83505
 366.78100 356.34763 345.79226 334.67089 323.08651 311.29314 299.17577 286.99140
 274.71603 262.62566 250.64729 239.96091 230.09554 221.21217 213.40680 206.42143
 200.26806 195.21869 191.81331 189.86794 188.91757 188.99420 189.84183 191.16246
 192.90008 195.00771 197.28334 199.65497 202.11260 204.60523 206.70586 208.56048
 210.19911 211.35674 211.59837 211.83900 211.78863 211.50626 211.15188 210.79451
 210.42414 210.14677 209.96740 209.84403 209.78466 210.12828 210.52691 210.92854
 211.73417 212.92480 214.18743 215.98306 217.92368 219.97931 222.08694 224.18257
 226.25520 228.35183 230.46145 232.58008 234.72171 236.90634 239.17497 241.55760
 244.19123 246.45485 248.46948 250.24711 251.67674 252.81237 253.64700 253.97563
 254.02525 253.81188 253.18451 252.14514 250.76377 248.93740 246.85903 244.70465
 242.50828 240.32491 238.15754 236.00917 233.88180 231.76143 229.80005 227.96968
 226.26531 224.74994 223.39257 222.17720 221.07182 220.04445 219.16108 218.31471
 217.56934 216.76197 215.87260 215.24922 214.71185 214.26683 213.21542 213.59302
 213.99579 213.59409 214.17093 216.11880 218.40138 221.48291 226.98808 231.46709
 235.31366 239.64790 244.22849 248.54234 252.02766 254.57091 257.02789 259.95560
 262.83600 265.55362 268.18503 270.73569 273.29712 275.62799 277.36655 278.89050
 280.39459 281.87711 283.42029 284.79184 285.97849 287.02844 287.99097 288.86526
 289.65729 290.36337 290.98456 291.81415
 366.78100 356.34788 345.79275 334.67163 323.08750 311.29438 299.17725 286.99313
 274.71800 262.62788 250.64975 239.96363 230.09851 221.21538 213.41026 206.42513
 200.27201 195.22288 191.81776 189.87263 188.92251 188.99938 189.84726 191.16813
 192.90601 195.01389 197.28976 199.66164 202.11951 204.61239 206.71326 208.56814
 210.20701 211.36489 211.60676 211.84764 211.79752 211.51539 211.16127 210.80414
 210.43402 210.15689 209.97777 209.85464 209.79552 210.13939 210.53827 210.94014
 211.74602 212.93690 214.19977 215.99565 217.93652 219.99240 222.10027 224.19615
 226.26902 228.36590 230.47577 232.59465 234.73653 236.92140 239.19028 241.57315
 244.20703 246.47090 248.48578 250.26365 251.69353 252.82940 253.66428 253.99315
 254.04303 253.82991 253.20278 252.16366 250.78253 248.95641 246.87828 244.72416
 242.52803 240.34491 238.17778 236.02966 233.90254 231.78241 229.82129 227.99116
 226.28704 224.77191 223.41479 222.19966 221.09454 220.06741 219.18429 218.33816
 217.59304 216.78592 215.89679 215.27367 214.73654 214.28624 213.22235 213.64497
 214.08739 213.69768 214.22469 216.16776 218.39246 221.43907 226.91895 231.41516
 235.28503 239.63277 244.18692 248.44070 251.86067 254.39220 256.90329 259.87027
 262.73343 265.46692 268.13907 270.71381 273.29593 275.62994 277.36417 278.88293
 280.37466 281.86224 283.40555 284.77606 285.96255 287.01108 287.97125 288.84689
 289.63547 290.34296 290.96213 291.79114
 366.78100 356.34820 345.79339 334.67259 323.08879 311.29598 299.17918 286.99537
 274.72057 262.63077 250.65296 239.96716 230.10236 221.21955 213.41475 206.42994
 200.27714 195.22834 191.82353 189.87873 188.92893 189.00612 189.85432 191.17552
 192.91371 195.02191 197.29810 199.67030 202.12850 204.62169 206.72289 208.57809
 210.21728 211.37548 211.61767 211.85887 211.80907 211.52726 211.17346 210.81666
 210.44685 210.17005 209.99125 209.86844 209.80964 210.15383 210.55303 210.95523
 211.76142 212.95262 214.21582 216.01201 217.95321 220.00940 222.11760 224.21380
 226.28699 228.38419 230.49439 232.61358 234.75578 236.94097 239.21017 241.59337
 244.22756 246.49176 248.50696 250.28515 251.71535 252.85155 253.68674 254.01594
 254.06613 253.85333 253.22653 252.18772 250.80692 248.98112 246.90331 244.74951
 242.55370 240.37090 238.20410 236.05629 233.92949 231.80969 229.84888 228.01908
 226.31528 224.80047 223.44367 222.22886 221.12406 220.09726 219.21445 218.36865
 217.62385 216.81704 215.92824 215.30543 214.76863 214.31024 213.22723 213.68304
 214.17967 213.80360 214.28799 216.21819 218.38582 221.40132 226.85492 231.37068
 235.25974 239.61465 244.13910 248.33322 251.69312 254.22174 256.78629 259.78561
 262.63431 265.38477 268.09238 270.68668 273.28491 275.61642 277.34918 278.86929
 280.35403 281.83649 283.37769 284.74628 285.92905 286.97830 287.93567 288.80594
 289.59494 290.30060 290.92047 291.74789
 366.78100 356.34851 345.79402 334.67352 323.09003 311.29754 299.18105 286.99755
 274.72306 262.63357 250.65608 239.97059 230.10609 221.22360 213.41911 206.43462
 200.28212 195.23363 191.82914 189.88465 188.93515 189.01266 189.86117 191.18268
 192.92119 195.02969 197.30620 199.67871 202.13722 204.63072 206.73223 208.58774
 210.22725 211.38576 211.62826 211.86977 211.82028 211.53879 211.18529 210.82880
 210.45931 210.18282 210.00433 209.88183 209.82334 210.16785 210.56736 210.96986
 211.77637 212.96788 214.23139 216.02789 217.96940 220.02591 222.13442 224.23093
 226.30443 228.40194 230.51245 232.63196 234.77446 236.95997 239.22948 241.61299
 244.24750 246.51200 248.52751 250.30602 251.73653 252.87303 253.70854 254.03805
 254.08856 253.87607 253.24957 252.21108 250.83059 249.00510 246.92760 244.77411
 242.57862 240.39613 238.22963 236.08214 233.95565 231.83616 229.87567 228.04617
 226.34268 224.82819 223.47170 222.25720 221.15271 220.12622 219.24373 218.39824
 217.65374 216.84725 215.95876 215.33627 214.79977 214.33492 213.23665 213.70346
 214.26775 213.90993 214.36665 216.27574 218.38051 221.37332 226.79645 231.32811
 235.23256 239.59039 244.08090 248.21664 251.52716 254.06020 256.68011 259.70627
 262.54355 265.31195 268.04880 270.65775 273.26526 275.58871 277.31754 278.84048
 280.32071 281.80722 283.34790 284.71506 285.89542 286.94217 287.90125 288.77466
 289.56830 290.28146 290.90732 291.73547
 366.78100 356.34884 345.79467 334.67451 323.09134 311.29918 299.18301 286.99985
 274.72568 262.63652 250.65936 239.97419 230.11003 221.22786 213.42370 206.43953
 200.28737 195.23920 191.83504 189.89087 188.94171 189.01955 189.86838 191.19022
 192.92905 195.03789 197.31472 199.68756 202.14639 204.64023 206.74207 208.59790
 210.23774 211.39657 211.63941 211.88124 211.83208 211.55091 211.19775 210.84158
 210.47242 210.19626 210.01809 209.89593 209.83776 210.18260 210.58243 210.98527
 211.79210 212.98394 214.24778 216.04461 217.98645 220.04328 222.15212 224.24895
 226.32279 228.42062 230.53146 232.65129 234.79413 236.97997 239.24980 241.63364
 244.26847 246.53331 248.54914 250.32798 251.75881 252.89565 253.73149 254.06132
 254.11216 253.89999 253.27383 252.23566 250.85550 249.03033 246.95317 244.80000
 242.60484 240.42268 238.25651 236.10935 233.98318 231.86402 229.90385 228.07469
 226.37152 224.85736 223.50120 222.28703 221.18287 220.15670 219.27454 218.42937
 217.68521 216.87904 215.99088 215.36871 214.83255 214.36015 213.24406 213.71738
 214.35341 214.01009 214.45518 216.33002 218.37906 221.35437 226.73984 231.28734
 235.20746 239.56418 244.01886 248.10141 251.36589 253.91565 256.58194 259.62582
 262.45544 265.23926 267.99719 270.62006 273.23346 275.54666 277.28085 278.81744
 280.29956 281.77380 283.30603 284.67014 285.84808 286.89389 287.85184 288.72531
 289.52280 290.24075 290.87006 291.69748
 366.78100 356.34897 345.79493 334.67490 323.09186 311.29983 299.18379 287.00076
 274.72672 262.63769 250.66066 239.97562 230.11159 221.22955 213.42552 206.44148
 200.28945 195.24141 191.83738 189.89334 188.94431 189.02228 189.87124 191.19321
 192.93217 195.04114 197.31810 199.69107 202.15003 204.64400 206.74597 208.60193
 210.24190 211.40086 211.64383 211.88579 211.83676 211.55572 211.20269 210.84665
 210.47762 210.20159 210.02355 209.90152 209.84348 210.18845 210.58841 210.99138
 211.79834 212.99031 214.25428 216.05124 217.99321 220.05017 222.15914 224.25610
 226.33007 228.42803 230.53900 232.65896 234.80193 236.98790 239.25786 241.64183
 244.27679 246.54176 248.55772 250.33669 251.76765 252.90462 253.74059 254.07055
 254.12152 253.90948 253.28345 252.24541 250.86538 249.04034 246.96331 244.81027
 242.61524 240.43321 238.26717 236.12014 233.99410 231.87507 229.91503 228.08600
 226.38296 224.86893 223.51290 222.29886 221.19483 220.16879 219.28676 218.44172
 217.69769 216.89165 216.00362 215.38159 214.84555 214.37599 213.26665 213.71053
 214.43521 214.11591 214.55640 216.38713 218.37737 221.34488 226.68965 231.24760
 235.18004 239.52847 243.94321 247.97351 251.21214 253.77724 256.49698 259.55640
 262.38080 265.18021 267.95441 270.58127 273.18869 275.47546 277.20547 278.75073
 280.24121 281.73209 283.26849 284.63116 285.80942 286.85361 287.80710 288.68066
 289.47485 290.19009 290.81055 291.61328
 366.78100 356.34900 345.79501 334.67501 323.09202 311.30002 299.18402 287.00103
 274.72703 262.63804 250.66104 239.97605 230.11205 221.23005 213.42606 206.44206
 200.29007 195.24207 191.83807 189.89408 188.94508 189.02309 189.87209 191.19409
 192.93310 195.04210 197.31911 199.69211 202.15112 204.64512 206.74712 208.60313
 210.24313 211.40214 211.64514 211.88714 211.83815 211.55715 211.20416 210.84816
 210.47916 210.20317 210.02517 209.90318 209.84518 210.19018 210.59019 210.99319
 211.80020 212.99220 214.25621 216.05321 217.99521 220.05222 222.16122 224.25823
 226.33223 228.43023 230.54124 232.66124 234.80425 236.99025 239.26025 241.64426
 244.27926 246.54427 248.56027 250.33928 251.77028 252.90728 253.74329 254.07329
 254.12430 253.91230 253.28630 252.24831 250.86831 249.04332 246.96632 244.81332
 242.61833 240.43633 238.27034 236.12334 233.99735 231.87835 229.91835 228.08936
 226.38636 224.87237 223.51637 222.30237 221.19838 220.17238 219.29039 218.44539
 217.70139 216.89540 216.00740 215.38541 214.84941 214.38693 213.29428 213.71320
 214.50127 214.21068 214.63766 216.44333 218.40192 221.34898 226.64101 231.21213
 235.15736 239.49454 243.86784 247.84929 251.05099 253.65820 256.41705 259.48434
 262.30865 265.12076 267.90167 270.53418 273.13699 275.40897 277.15002 278.71512
 280.21674 281.70001 283.20532 284.55212 285.69513 286.72748 287.67477 288.54205
 289.33954 290.05505 290.66406 291.46979
 366.78100 356.34886 345.79473 334.67459 323.09146 311.29932 299.18319 287.00005
 274.72591 262.63678 250.65964 239.97451 230.11037 221.22824 213.42410 206.43997
 200.28783 195.23969 191.83556 189.89142 188.94229 189.02015 189.86902 191.19088
 192.92974 195.03861 197.31547 199.68834 202.14720 204.64107 206.74293 208.59879
 210.23866 211.39752 211.64039 211.88225 211.83312 211.55198 211.19884 210.84271
 210.47357 210.19744 210.01930 209.89717 209.83903 210.18390 210.58376 210.98662
 211.79349 212.98535 214.24922 216.04608 217.98795 220.04481 222.15367 224.25054
 226.32440 228.42227 230.53313 232.65300 234.79586 236.98172 239.25159 241.63545
 244.27032 246.53518 248.55105 250.32991 251.76078 252.89764 253.73350 254.06337
 254.11423 253.90210 253.27596 252.23783 250.85769 249.03255 246.95542 244.80228
 242.60715 240.42501 238.25888 236.11174 233.98560 231.86647 229.90633 228.07720
 226.37406 224.85993 223.50379 222.28965 221.18552 220.15938 219.27725 218.43211
 217.68798 216.88184 215.99371 215.37157 214.83543 214.39005 213.33777 213.72847
 214.55898 214.27914 214.68317 216.45750 218.37338 221.32111 226.59705 231.18930
 235.14139 239.46643 243.80313 247.75441 250.96603 253.57581 256.36487 259.43671
 262.24667 265.06467 267.85031 270.47742 273.06866 275.31567 277.06439 278.66022
 280.16473 281.66635 283.15561 284.48492 285.62143 286.65894 287.60995 288.48059
 289.28024 289.99530 290.61761 291.43567
 366.78100 356.34809 345.79319 334.67228 323.08838 311.29547 299.17856 286.99466
 274.71975 262.62984 250.65194 239.96603 230.10113 221.21822 213.41331 206.42841
 200.27550 195.22659 191.82169 189.87678 188.92688 189.00397 189.85206 191.17316
 192.91125 195.01934 197.29544 199.66753 202.12563 204.61872 206.71981 208.57491
 210.21400 211.37209 211.61419 211.85528 211.80538 211.52347 211.16956 210.81266
 210.44275 210.16584 209.98694 209.86403 209.80513 210.14922 210.54831 210.95041
 211.75650 212.94759 214.21069 216.00678 217.94788 220.00397 222.11206 224.20816
 226.28125 228.37834 230.48844 232.60753 234.74963 236.93472 239.20381 241.58691
 244.22100 246.48510 248.50019 250.27828 251.70838 252.84447 253.67956 254.00866
 254.05875 253.84585 253.21894 252.18003 250.79913 248.97322 246.89531 244.74141
 242.54550 240.36260 238.19569 236.04778 233.92088 231.80097 229.84006 228.01016
 226.30625 224.79135 223.43444 222.21953 221.11463 220.08772 219.20481 218.35891
 217.61400 216.80710 215.91819 215.29528 214.75838 214.35632 213.40643 213.74057
 214.60628 214.34409 214.72720 216.47005 218.36992 221.32605 226.53978 231.15009
 235.10878 239.41751 243.71173 247.63475 250.85143 253.52226 256.35751 259.44595
 262.26859 265.09265 267.87115 270.47028 273.01587 275.21521 276.94394 278.51221
 280.07727 281.61774 283.07034 284.37732 285.50153 286.50272 287.42667 288.29807
 289.09399 289.80191 290.42566 291.23392
 366.78100 356.34666 345.79032 334.66798 323.08264 311.28830 299.16996 286.98462
 274.70827 262.61693 250.63759 239.95025 230.08391 221.19957 213.39323 206.40689
 200.25255 195.20221 191.79587 189.84953 188.89819 188.97385 189.82050 191.14016
 192.87682 194.98348 197.25814 199.62880 202.08546 204.57712 206.67678 208.53044
 210.16810 211.32476 211.56542 211.80508 211.75373 211.47039 211.11505 210.75671
 210.38537 210.10703 209.92669 209.80235 209.74201 210.08467 210.48233 210.88299
 211.68765 212.87731 214.13896 215.93362 217.87328 219.92794 222.03460 224.12926
 226.20092 228.29658 230.40524 232.52290 234.66356 236.84722 239.11488 241.49654
 244.12919 246.39185 248.40551 250.18217 251.61083 252.74549 253.57915 253.90681
 253.95547 253.74113 253.11279 252.07245 250.69011 248.86277 246.78342 244.62808
 242.43074 240.24640 238.07806 235.92872 233.80038 231.67904 229.71670 227.88536
 226.18002 224.66368 223.30534 222.08900 220.98265 219.95431 219.06997 218.22263
 217.47629 216.66795 215.77761 215.15327 214.61493 214.27834 213.48309 213.81802
 214.62785 214.39455 214.77458 216.52930 218.41376 221.30707 226.49118 231.11296
 235.08177 239.36609 243.60416 247.46321 250.67601 253.45895 256.32880 259.42154
 262.26276 265.10477 267.86667 270.46094 272.99750 275.20862 276.97992 278.64215
 280.11688 281.54788 282.96350 284.22968 285.29477 286.24628 287.17691 288.03387
 288.80167 289.48428 290.09714 290.91302
 366.78100 356.34439 345.78578 334.66116 323.07355 311.27694 299.15633 286.96872
 274.69010 262.59649 250.61488 239.92527 230.05666 221.17004 213.36143 206.37282
 200.21621 195.16360 191.75498 189.80637 188.85276 188.92615 189.77054 191.08792
 192.82231 194.92670 197.19909 199.56748 202.02186 204.51125 206.60864 208.46003
 210.09542 211.24980 211.48819 211.72558 211.67197 211.38636 211.02874 210.66813
 210.29452 210.01391 209.83130 209.70468 209.64207 209.98246 210.37785 210.77624
 211.57863 212.76601 214.02540 215.81779 217.75518 219.80757 221.91195 224.00434
 226.07373 228.16712 230.27351 232.38889 234.52728 236.70867 238.97406 241.35345
 243.98383 246.24422 248.25561 250.03000 251.45639 252.58877 253.42016 253.74555
 253.79194 253.57533 252.94471 251.90210 250.51749 248.68788 246.60627 244.44865
 242.24904 240.06243 237.89182 235.74021 233.60959 231.48598 229.52137 227.68776
 225.98015 224.46153 223.10092 221.88231 220.77370 219.74309 218.85647 218.00686
 217.25825 216.44764 215.55503 214.92841 214.38780 214.14725 213.57892 213.96306
 214.70561 214.44237 214.75911 216.47643 218.34424 221.22252 226.42735 231.07867
 235.06168 239.33542 243.55095 247.40822 250.65097 253.48326 256.39090 259.47427
 262.32971 265.14667 267.90454 270.47159 272.95493 275.13223 276.92935 278.43558
 280.03824 281.54361 282.91278 284.15591 285.19662 286.15186 287.07745 287.90302
 288.63440 289.31259 289.92294 290.73752
 366.78100 356.34413 345.78526 334.66039 323.07252 311.27565 299.15478 286.96691
 274.68804 262.59416 250.61229 239.92242 230.05355 221.16668 213.35781 206.36894
 200.21207 195.15920 191.75033 189.80146 188.84759 188.92072 189.76485 191.08198
 192.81611 194.92023 197.19236 199.56049 202.01462 204.50375 206.60088 208.45201
 210.08714 211.24127 211.47940 211.71653 211.66266 211.37679 211.01892 210.65805
 210.28418 210.00330 209.82043 209.69356 209.63069 209.97082 210.36595 210.76408
 211.56621 212.75334 214.01247 215.80460 217.74173 219.79386 221.89799 223.99012
 226.05925 228.15237 230.25850 232.37363 234.51176 236.69289 238.95802 241.33715
 243.96728 246.22741 248.23854 250.01267 251.43880 252.57093 253.40206 253.72719
 253.77332 253.55645 252.92557 251.88270 250.49783 248.66796 246.58609 244.42822
 242.22835 240.04148 237.87061 235.71874 233.58787 231.46400 229.49913 227.66526
 225.95739 224.43852 223.07764 221.85877 220.74990 219.71903 218.83216 217.98229
 217.23342 216.42255 215.52968 214.90281 214.36194 214.11942 213.54645 214.14294
 214.91238 214.56923 214.74429 216.38310 218.14711 221.01869 226.28311 230.94632
 234.95265 239.17964 243.32980 247.15184 250.64424 253.76231 256.66623 259.70691
 262.57053 265.38321 267.99496 270.45355 272.85410 274.91138 276.59921 278.53232
 279.90268 281.09735 282.43680 283.54337 284.49997 285.39600 286.24295 287.01620
 287.75085 288.44574 289.06079 289.84958
 366.78100 356.34552 345.78804 334.66456 323.07809 311.28261 299.16313 286.97665
 274.69917 262.60669 250.62622 239.93774 230.07026 221.18478 213.37730 206.38982
 200.23435 195.18287 191.77539 189.82791 188.87543 188.94995 189.79548 191.11400
 192.84952 194.95504 197.22856 199.59808 202.05360 204.54413 206.64265 208.49517
 210.13169 211.28721 211.52673 211.76526 211.71278 211.42830 211.07182 210.71234
 210.33986 210.06039 209.87891 209.75343 209.69195 210.03347 210.42999 210.82952
 211.63304 212.82156 214.08208 215.87560 217.81412 219.86764 221.97317 224.06669
 226.13721 228.23173 230.33925 232.45577 234.59530 236.77782 239.04434 241.42486
 244.05638 246.31790 248.33043 250.10595 251.53347 252.66699 253.49951 253.82603
 253.87355 253.65808 253.02860 251.98712 250.60364 248.77516 246.69468 244.53821
 242.33973 240.15425 237.98477 235.83429 233.70481 231.58234 229.61886 227.78638
 226.07990 224.56242 223.20294 221.98547 220.87799 219.84851 218.96303 218.11455
 217.36707 216.55759 215.66612 215.04064 214.50116 214.18246 213.42950 214.25691
 215.08711 214.81827 214.97238 216.43570 218.04710 220.87584 226.14911 230.83836
 234.83453 239.00255 243.05006 246.81400 250.44731 253.67052 256.68713 259.70117
 262.59372 265.39771 267.94263 270.39481 272.64233 274.59198 276.83502 278.56342
 279.85727 280.86533 282.08157 283.13281 284.03055 284.84625 285.62866 286.40936
 287.17236 287.87674 288.50931 289.32040
 366.78100 356.34466 345.78631 334.66197 323.07462 311.27828 299.15794 286.97059
 274.69225 262.59891 250.61756 239.92822 230.05987 221.17353 213.36519 206.37684
 200.22050 195.16815 191.75981 189.81147 188.85812 188.93178 189.77643 191.09409
 192.82875 194.93340 197.20606 199.57472 202.02937 204.51903 206.61668 208.46834
 210.10400 211.25865 211.49731 211.73496 211.68162 211.39628 211.03893 210.67859
 210.30524 210.02490 209.84256 209.71621 209.65387 209.99453 210.39018 210.78884
 211.59149 212.77915 214.03881 215.83146 217.76912 219.82177 221.92643 224.01909
 226.08874 228.18240 230.28905 232.40471 234.54337 236.72502 238.99068 241.37034
 244.00099 246.26165 248.27330 250.04796 251.47462 252.60727 253.43893 253.76458
 253.81124 253.59490 252.96455 251.92221 250.53786 248.70852 246.62718 244.46983
 242.27049 240.08415 237.91380 235.76246 233.63211 231.50877 229.54443 227.71108
 226.00374 224.48539 223.12505 221.90671 220.79836 219.76802 218.88168 218.03233
 217.28399 216.47364 215.58130 214.95496 214.41461 214.12650 213.44580 214.32469
 215.12408 215.04488 215.34206 216.61261 218.14386 220.91422 226.12697 230.77914
 234.76103 238.84540 242.80699 246.51372 250.11371 253.59601 256.59839 259.63803
 262.56198 265.36078 267.91425 270.21951 272.42648 274.73987 276.85901 278.51837
 279.77783 280.65558 281.89240 282.91571 283.72736 284.47760 285.22391 285.96765
 286.66357 287.22583 287.54999 287.70844
 366.78100 356.34625 345.78949 334.66674 323.08098 311.28623 299.16747 286.98172
 274.70497 262.61321 250.63346 239.94570 230.07895 221.19419 213.38744 206.40068
 200.24593 195.19518 191.78842 189.84167 188.88991 188.96516 189.81140 191.13065
 192.86690 194.97314 197.24739 199.61763 202.07388 204.56512 206.66437 208.51761
 210.15486 211.31111 211.55135 211.79060 211.73884 211.45509 211.09933 210.74058
 210.36883 210.09007 209.90932 209.78456 209.72381 210.06605 210.46330 210.86354
 211.66779 212.85704 214.11828 215.91253 217.85177 219.90602 222.01226 224.10651
 226.17776 228.27300 230.38125 232.49849 234.63874 236.82198 239.08923 241.47047
 244.10272 246.36497 248.37821 250.15446 251.58270 252.71695 253.55019 253.87744
 253.92569 253.71093 253.08218 252.04142 250.65867 248.83091 246.75116 244.59540
 242.39765 240.21290 238.04414 235.89439 233.76563 231.64388 229.68112 227.84937
 226.14362 224.62686 223.26811 222.05135 220.94460 219.91584 219.03109 218.18333
 217.43658 216.62783 215.73707 215.11232 214.57356 214.21217 213.38107 214.30640
 215.38245 215.27646 215.46098 216.56740 218.08466 220.84740 226.01096 230.78346
 234.66087 238.70883 242.59491 246.25378 249.81116 253.30344 256.65842 259.61328
 262.48669 265.27469 267.86789 270.18036 272.40976 274.78439 276.79858 278.46954
 279.70285 280.66104 281.65204 282.60992 283.42645 284.12320 284.78116 285.42206
 285.85657 286.01010 286.14423 286.31519
 366.78100 356.35463 345.80625 334.69188 323.11450 311.32813 299.21776 287.04038
 274.77201 262.68864 250.71726 240.03789 230.17951 221.30314 213.50477 206.52639
 200.38002 195.33765 191.93927 190.00090 189.05752 189.14115 189.99578 191.32340
 193.06803 195.18266 197.46528 199.84391 202.30853 204.80816 206.91579 208.77741
 210.42304 211.58766 211.83629 212.08392 212.04054 211.76517 211.41780 211.06742
 210.70405 210.43367 210.26130 210.14493 210.09255 210.44318 210.84881 211.25743
 212.07006 213.26768 214.53731 216.33994 218.28756 220.35019 222.46482 224.56744
 226.64707 228.75069 230.86732 232.99295 235.14157 237.33320 239.60883 241.99845
 244.63908 246.90970 248.93133 250.71596 252.15258 253.29521 254.13683 254.47246
 254.52909 254.32271 253.70234 252.66997 251.29559 249.47622 247.40484 245.25747
 243.06810 240.89172 238.73135 236.58998 234.46960 232.35623 230.40185 228.57848
 226.88111 225.37273 224.02236 222.81399 221.71561 220.69524 219.81886 218.97949
 218.24112 217.44074 216.55837 215.94199 215.41162 214.68646 213.18349 214.16505
 215.63312 215.52577 215.68216 216.60620 218.14105 221.08530 225.99353 230.75027
 234.57031 238.55151 242.38539 246.06776 249.62076 253.12852 256.60690 259.65634
 262.53662 265.25540 267.80615 270.04535 272.52893 274.88315 276.80652 278.33652
 279.53207 280.51263 281.44943 282.25278 283.08286 283.81006 284.47351 285.07455
 285.61514 286.09653 286.51706 287.05298
 366.78100 356.35417 345.80534 334.69051 323.11268 311.32585 299.21502 287.03719
 274.76835 262.68452 250.71269 240.03286 230.17403 221.29720 213.49837 206.51954
 200.37271 195.32988 191.93105 189.99222 189.04839 189.13156 189.98573 191.31290
 193.05706 195.17123 197.45340 199.83157 202.29574 204.79491 206.90208 208.76325
 210.40842 211.57259 211.82076 212.06793 212.02410 211.74827 211.40044 211.04961
 210.68577 210.41494 210.24211 210.12528 210.07245 210.42262 210.82779 211.23596
 212.04813 213.24530 214.51447 216.31664 218.26381 220.32598 222.44015 224.54231
 226.62148 228.72465 230.84082 232.96599 235.11416 237.30533 239.58050 241.96967
 244.60984 246.88001 248.90118 250.68535 252.12152 253.26369 254.10486 254.44002
 254.49619 254.28936 253.66853 252.63570 251.26087 249.44104 247.36921 245.22138
 243.03155 240.85472 238.69389 236.55206 234.43123 232.31740 230.36257 228.53873
 226.84090 225.33207 223.98124 222.77241 221.67358 220.65275 219.77592 218.93609
 218.19726 217.39643 216.51360 215.89677 215.36594 214.71416 213.34180 213.85106
 215.47679 215.85692 216.16151 216.98822 218.29489 221.15530 226.07483 230.79294
 234.64095 238.61253 242.43274 246.13303 249.65512 253.20685 256.72977 259.72446
 262.54007 265.34451 267.76990 270.08481 272.72928 274.86490 276.72354 278.23611
 279.46069 280.53745 281.47449 282.23303 282.88950 283.47031 284.00021 284.48026
 284.91202 285.29651 285.63239 286.06039
 366.78100 356.34514 345.78728 334.66343 323.07657 311.28071 299.16085 286.97399
 274.69613 262.60328 250.62242 239.93356 230.06570 221.17984 213.37199 206.38413
 200.22827 195.17641 191.76855 189.82069 188.86784 188.94198 189.78712 191.10526
 192.84040 194.94555 197.21869 199.58783 202.04297 204.53311 206.63125 208.48340
 210.11954 211.27468 211.51382 211.75196 211.69910 211.41425 211.05739 210.69753
 210.32467 210.04481 209.86296 209.73710 209.67524 210.01638 210.41252 210.81166
 211.61481 212.80295 214.06309 215.85623 217.79437 219.84752 221.95266 224.04580
 226.11594 228.21008 230.31722 232.43337 234.57251 236.75465 239.02079 241.40093
 244.03208 246.29322 248.30536 250.08050 251.50764 252.64078 253.47293 253.79907
 253.84621 253.63035 253.00049 251.95864 250.57478 248.74592 246.66506 244.50820
 242.30934 240.12349 237.95363 235.80277 233.67291 231.55005 229.58620 227.75334
 226.04648 224.52862 223.16876 221.95090 220.84305 219.81319 218.92733 218.07847
 217.33061 216.52076 215.62890 215.00304 214.46318 214.25851 213.78210 213.77209
 214.95123 215.81773 216.34248 217.16528 218.53337 221.33162 226.08046 230.82529
 234.64748 238.60634 242.43617 246.12424 249.62920 253.18948 256.75647 259.78445
 262.65533 265.40244 267.81577 270.09604 272.57455 274.65305 276.54828 278.14075
 279.48093 280.63715 281.58243 282.52737 283.38098 284.13620 284.82520 285.44940
 286.01080 286.51074 286.94748 287.50403
 366.78100 356.34224 345.78148 334.65472 323.06496 311.26620 299.14344 286.95368
 274.67292 262.57715 250.59339 239.90163 230.03087 221.14211 213.33135 206.34059
 200.18183 195.12707 191.71631 189.76555 188.80979 188.88103 189.72327 191.03851
 192.77075 194.87299 197.14323 199.50946 201.96170 204.44894 206.54418 208.39342
 210.02666 211.17890 211.41514 211.65038 211.59462 211.30686 210.94710 210.58434
 210.20858 209.92582 209.74106 209.61230 209.54753 209.88577 210.27901 210.67525
 211.47549 212.66073 213.91797 215.70821 217.64345 219.69369 221.79593 223.88617
 225.95341 228.04465 230.14889 232.26213 234.39837 236.57761 238.84084 241.21808
 243.84632 246.10456 248.11380 249.88604 251.31028 252.44052 253.26976 253.59300
 253.63724 253.41848 252.78572 251.74096 250.35420 248.52244 246.43868 244.27892
 242.07715 239.88839 237.71563 235.56187 233.42911 231.30335 229.33659 227.50083
 225.79107 224.27031 222.90755 221.68679 220.57603 219.54327 218.65451 217.80275
 217.05199 216.23922 215.34446 214.71570 214.17294 214.09677 213.91914 213.98743
 214.91409 215.77292 216.35350 217.16205 218.51938 221.28403 225.96602 230.70038
 234.47179 238.36293 242.14423 245.79971 249.34842 253.17653 256.68698 259.71365
 262.62506 265.32324 267.69388 270.17642 272.46692 274.60297 276.46051 278.04346
 279.36530 280.43848 281.33878 282.18805 283.01578 283.74808 284.41623 285.02148
 285.56589 286.05066 286.47415 287.01382
 366.78100 356.34468 345.78636 334.66204 323.07472 311.27840 299.15809 286.97077
 274.69245 262.59913 250.61781 239.92849 230.06017 221.17385 213.36553 206.37721
 200.22089 195.16857 191.76026 189.81194 188.85862 188.93230 189.77698 191.09466
 192.82934 194.93402 197.20670 199.57538 202.03006 204.51974 206.61743 208.46911
 210.10479 211.25947 211.49815 211.73583 211.68251 211.39719 211.03987 210.67955
 210.30623 210.02591 209.84360 209.71728 209.65496 209.99564 210.39132 210.79000
 211.59268 212.78036 214.04004 215.83272 217.77040 219.82308 221.92777 224.02045
 226.09013 228.18381 230.29049 232.40617 234.54485 236.72653 238.99221 241.37189
 244.00257 246.26325 248.27494 250.04962 251.47630 252.60898 253.44066 253.76634
 253.81302 253.59670 252.96638 251.92406 250.53974 248.71042 246.62911 244.47179
 242.27247 240.08615 237.91583 235.76451 233.63419 231.51087 229.54655 227.71323
 226.00591 224.48759 223.12728 221.90896 220.80064 219.77032 218.88400 218.03468
 217.28636 216.47604 215.58372 214.95740 214.41708 214.21945 213.80302 214.07771
 215.13556 215.94266 216.46898 217.18542 218.48523 221.24503 225.90079 230.62541
 234.35509 238.17212 241.90170 245.54993 249.17860 253.19888 256.66495 259.68668
 262.59305 265.28137 267.65018 270.21729 272.57040 274.69528 276.50320 278.01837
 279.24268 280.23956 281.07147 282.01486 282.95157 283.78033 284.53644 285.22141
 285.83746 286.38608 286.86533 287.47610
 366.78100 356.34952 345.79604 334.67657 323.09409 311.30261 299.18713 287.00465
 274.73118 262.64270 250.66622 239.98174 230.11826 221.23679 213.43331 206.44983
 200.29835 195.25087 191.84740 189.90392 188.95544 189.03396 189.88348 191.20601
 192.94553 195.05505 197.33257 199.70609 202.16562 204.66014 206.76266 208.61918
 210.25970 211.41923 211.66275 211.90527 211.85679 211.57631 211.22384 210.86836
 210.49988 210.22440 210.04692 209.92545 209.86797 210.21349 210.61401 211.01753
 211.82506 213.01758 214.28210 216.07962 218.02214 220.07967 222.18919 224.28671
 226.36123 228.45975 230.57128 232.69180 234.83532 237.02184 239.29236 241.67689
 244.31241 246.57793 248.59445 250.37397 251.80550 252.94302 253.77954 254.11006
 254.16158 253.95011 253.32463 252.28715 250.90767 249.08319 247.00672 244.85424
 242.65976 240.47828 238.31280 236.16633 234.04085 231.92237 229.96289 228.13441
 226.43194 224.91846 223.56298 222.34950 221.24602 220.22055 219.33907 218.49459
 217.75111 216.94563 216.05816 215.43668 214.90120 214.46951 213.57996 214.11026
 215.45900 216.22580 216.57011 217.10101 218.37856 221.17639 225.83107 230.55916
 234.24464 238.01463 241.74155 245.43246 249.16992 253.17358 256.63217 259.66406
 262.52737 265.28009 267.70633 270.16052 272.58411 274.69022 276.47397 277.95380
 279.36722 280.37488 281.12503 282.14899 283.11594 283.97144 284.75192 285.45901
 286.09497 286.66125 287.15598 287.78644
 366.78100 356.35030 345.79761 334.67891 323.09721 311.30651 299.19182 287.01012
 274.73742 262.64973 250.67403 239.99033 230.12764 221.24694 213.44424 206.46154
 200.31085 195.26415 191.86145 189.91876 188.97106 189.05036 189.90066 191.22397
 192.96427 195.07457 197.35288 199.72718 202.18748 204.68279 206.78609 208.64339
 210.28469 211.44500 211.68930 211.93260 211.88491 211.60521 211.25351 210.89881
 210.53112 210.25642 210.07972 209.95903 209.90233 210.24863 210.64994 211.05424
 211.86254 213.05584 214.32115 216.11945 218.06275 220.12106 222.23136 224.32966
 226.40496 228.50427 230.61657 232.73787 234.88218 237.06948 239.34078 241.72609
 244.36239 246.62869 248.64599 250.42630 251.85860 252.99690 253.83421 254.16551
 254.21781 254.00711 253.38242 252.34572 250.96702 249.14333 247.06763 244.91593
 242.72224 240.54154 238.37684 236.23114 234.10645 231.98875 230.03005 228.20236
 226.50066 224.98796 223.63326 222.42057 221.31787 220.29317 219.41248 218.56878
 217.82608 217.02139 216.13469 215.51399 214.97929 214.51648 213.53380 214.00017
 215.51933 216.44765 216.80869 217.21448 218.41885 221.17654 225.81915 230.49921
 234.14081 237.87323 241.59880 245.32458 249.11041 253.12355 256.61264 259.66797
 262.47693 265.25061 267.79636 270.07990 272.49399 274.62918 276.42688 278.04398
 279.50574 280.56760 281.35623 282.13440 283.02786 283.81833 284.53955 285.19290
 285.78052 286.30377 286.76089 287.34348
 366.78100 356.34351 345.78402 334.65853 323.07005 311.27256 299.15107 286.96258
 274.68309 262.58860 250.60611 239.91562 230.04614 221.15865 213.34916 206.35967
 200.20218 195.14869 191.73920 189.78971 188.83523 188.90774 189.75125 191.06776
 192.80127 194.90478 197.17629 199.54380 201.99732 204.48583 206.58234 208.43285
 210.06736 211.22087 211.45838 211.69489 211.64041 211.35392 210.99543 210.63394
 210.25945 209.97796 209.79447 209.66698 209.60350 209.94301 210.33752 210.73503
 211.53654 212.72305 213.98156 215.77307 217.70959 219.76110 221.86461 223.95612
 226.02463 228.11714 230.22265 232.33716 234.47468 236.65519 238.91970 241.29821
 243.92772 246.18723 248.19774 249.97125 251.39677 252.52828 253.35879 253.68330
 253.72881 253.51132 252.87983 251.83634 250.45086 248.62037 246.53788 244.37939
 242.17890 239.99141 237.81992 235.66743 233.53595 231.41146 229.44597 227.61148
 225.90299 224.38350 223.02201 221.80252 220.69304 219.66155 218.77406 217.92357
 217.17408 216.36259 215.46910 214.84161 214.30013 214.17406 213.88185 213.91905
 215.15552 216.37885 217.02470 217.52257 218.64999 221.26111 225.85777 230.46654
 234.05966 237.73373 241.42087 245.15218 249.04999 253.02286 256.59872 259.67465
 262.41333 265.17480 267.75296 270.06949 272.38171 274.54004 276.30676 277.86914
 279.30392 280.38135 281.26260 281.96463 282.59650 283.28482 283.91278 284.48169
 284.99335 285.44897 285.84702 286.35428
 366.78100 356.33950 345.77601 334.64651 323.05401 311.25251 299.12702 286.93452
 274.65102 262.55252 250.56603 239.87153 229.99803 221.10653 213.29304 206.29954
 200.13804 195.08054 191.66705 189.71355 188.75505 188.82355 189.66306 190.97556
 192.70506 194.80457 197.07207 199.43557 201.88507 204.36958 206.46208 208.30858
 209.93908 211.08859 211.32209 211.55459 211.49609 211.20560 210.84310 210.47760
 210.09910 209.81361 209.62611 209.49461 209.42712 209.76262 210.15312 210.54662
 211.34413 212.52663 213.78113 215.56863 217.50114 219.54864 221.64814 223.73564
 225.80015 227.88865 229.99015 232.10065 234.23416 236.41066 238.67116 241.04566
 243.67117 245.92667 247.93317 249.70268 251.12418 252.25168 253.07818 253.39869
 253.44019 253.21869 252.58319 251.53570 250.14620 248.31170 246.22520 244.06271
 241.85821 239.66671 237.49121 235.33472 233.19922 231.07072 229.10122 227.26273
 225.55023 224.02673 222.66124 221.43774 220.32424 219.28874 218.39725 217.54275
 216.78925 215.97375 215.07626 214.44476 213.89926 213.97017 214.10246 214.03334
 215.04457 216.25476 217.06799 217.68161 218.78526 221.31776 225.86514 230.44432
 234.00177 237.62074 241.24950 244.95709 248.98654 253.01324 256.63367 259.57672
 262.38116 265.09390 267.61081 269.98566 272.37814 274.49100 276.22382 277.70203
 279.06058 280.17239 281.10477 281.80304 282.58206 283.35477 284.05978 284.69846
 285.27286 285.78439 286.23123 286.80069
 366.78100 356.34363 345.78427 334.65890 323.07053 311.27316 299.15180 286.96343
 274.68406 262.58969 250.60733 239.91696 230.04759 221.16023 213.35086 206.36149
 200.20412 195.15076 191.74139 189.79202 188.83765 188.91029 189.75392 191.07055
 192.80419 194.90782 197.17945 199.54708 202.00072 204.48935 206.58598 208.43661
 210.07125 211.22488 211.46251 211.69914 211.64478 211.35841 211.00004 210.63868
 210.26431 209.98294 209.79957 209.67221 209.60884 209.94847 210.34310 210.74074
 211.54237 212.72900 213.98764 215.77927 217.71590 219.76753 221.87117 223.96280
 226.03143 228.12406 230.22970 232.34433 234.48196 236.66260 238.92723 241.30586
 243.93549 246.19513 248.20576 249.97939 251.40502 252.53666 253.36729 253.69192
 253.73756 253.52019 252.88882 251.84545 250.46009 248.62972 246.54735 244.38898
 242.18862 240.00125 237.82988 235.67752 233.54615 231.42178 229.45641 227.62205
 225.91368 224.39431 223.03294 221.81358 220.70421 219.67284 218.78547 217.93511
 217.18574 216.37437 215.48101 214.85364 214.31227 214.18852 213.91707 214.11041
 215.24788 216.29837 217.10260 217.75169 218.83218 221.37564 225.88203 230.39563
 233.93269 237.52623 241.15446 244.86024 249.01118 253.05138 256.61044 259.63184
 262.38446 265.01361 267.52557 270.04538 272.38879 274.40216 276.09363 277.64468
 279.08682 280.29379 281.16043 282.15723 283.11737 283.96683 284.74182 285.44394
 286.07541 286.63773 287.12897 287.75500
 366.78100 356.34644 345.78989 334.66733 323.08178 311.28722 299.16867 286.98311
 274.70656 262.61500 250.63544 239.94789 230.08133 221.19678 213.39022 206.40367
 200.24911 195.19856 191.79200 189.84544 188.89389 188.96933 189.81578 191.13522
 192.87167 194.97811 197.25256 199.62300 202.07944 204.57089 206.67033 208.52378
 210.16122 211.31767 211.55811 211.79756 211.74600 211.46244 211.10689 210.74833
 210.37678 210.09822 209.91767 209.79311 209.73256 210.07500 210.47244 210.87289
 211.67733 212.86678 214.12822 215.92267 217.86211 219.91656 222.02300 224.11744
 226.18889 228.28433 230.39278 232.51022 234.65067 236.83411 239.10156 241.48300
 244.11544 246.37789 248.39133 250.16778 251.59622 252.73067 253.56411 253.89156
 253.94000 253.72544 253.09689 252.05633 250.67378 248.84622 246.76667 244.61111
 242.41356 240.22900 238.06044 235.91089 233.78233 231.66078 229.69822 227.86667
 226.16111 224.64456 223.28600 222.06944 220.96289 219.93433 219.04978 218.20222
 217.45567 216.64711 215.75656 215.13200 214.59344 214.34926 213.81943 214.05940
 215.31342 216.31500 217.14334 217.81412 218.89137 221.40712 225.90596 230.38707
 233.87950 237.45312 241.10242 244.87537 249.04926 253.08717 256.62808 259.66718
 262.42105 265.04422 267.61591 270.11102 272.37772 274.33249 276.08032 277.82202
 279.33597 280.59647 281.52835 282.49902 283.42841 284.25070 285.00089 285.68051
 286.29178 286.83609 287.31158 287.91757
 366.78100 356.34296 345.78292 334.65688 323.06784 311.26980 299.14776 286.95872
 274.67868 262.58364 250.60060 239.90956 230.03952 221.15149 213.34145 206.35141
 200.19337 195.13933 191.72929 189.77925 188.82421 188.89617 189.73913 191.05509
 192.78805 194.89101 197.16197 199.52893 201.98189 204.46985 206.56581 208.41577
 210.04973 211.20269 211.43965 211.67561 211.62057 211.33354 210.97450 210.61246
 210.23742 209.95538 209.77134 209.64330 209.57926 209.91822 210.31218 210.70914
 211.51010 212.69606 213.95402 215.74498 217.68094 219.73190 221.83486 223.92582
 225.99378 228.08574 230.19070 232.30466 234.44162 236.62158 238.88555 241.26351
 243.89247 246.15143 248.16139 249.93435 251.35931 252.49027 253.32023 253.64419
 253.68915 253.47111 252.83907 251.79503 250.40899 248.57795 246.49491 244.33587
 242.13483 239.94679 237.77475 235.62171 233.48967 231.36463 229.39860 227.56356
 225.85452 224.33448 222.97244 221.75240 220.64236 219.61032 218.72228 217.87124
 217.12120 216.30916 215.41512 214.78708 214.24504 214.18051 214.02032 214.00005
 215.15695 216.26984 217.18488 217.85776 218.93065 221.39967 225.90877 230.35757
 233.80176 237.35692 241.00795 244.86562 249.01006 253.02087 256.54156 259.56235
 262.34402 265.01212 267.64905 270.17819 272.37891 274.24576 275.91281 277.64404
 279.17874 280.45389 281.48099 282.30795 283.09140 283.85040 284.54288 285.17020
 285.73444 286.23685 286.67578 287.23514
 366.78100 356.33857 345.77414 334.64371 323.05029 311.24786 299.12143 286.92800
 274.64357 262.54414 250.55672 239.86129 229.98686 221.09443 213.28000 206.28557
 200.12314 195.06472 191.65029 189.69586 188.73643 188.80400 189.64257 190.95415
 192.68272 194.78129 197.04786 199.41043 201.85900 204.34257 206.43415 208.27972
 209.90929 211.05786 211.29043 211.52200 211.46257 211.17115 210.80772 210.44129
 210.06186 209.77543 209.58700 209.45458 209.38615 209.72072 210.11029 210.50286
 211.29943 212.48100 213.73458 215.52115 217.45272 219.49929 221.59786 223.68443
 225.74801 227.83558 229.93615 232.04572 234.17829 236.35386 238.61343 240.98701
 243.61158 245.86615 247.87172 249.64029 251.06086 252.18744 253.01301 253.33258
 253.37315 253.15072 252.51429 251.46586 250.07544 248.24001 246.15258 243.98915
 241.78372 239.59129 237.41486 235.25744 233.12101 230.99158 229.02115 227.18172
 225.46829 223.94387 222.57744 221.35301 220.23858 219.20215 218.30972 217.45429
 216.69987 215.88344 214.98501 214.35258 213.80615 213.95297 214.26855 214.05118
 214.96687 216.18712 217.17055 217.86873 218.91899 221.34532 225.89278 230.31116
 233.73259 237.24664 240.88020 244.79678 248.95389 252.95856 256.46008 259.50381
 262.31882 265.01575 267.64563 270.18307 272.35129 274.14108 275.74216 277.36499
 278.90515 280.16644 281.20374 282.03577 282.69235 283.27145 284.00369 284.71246
 285.34991 285.91757 286.41348 287.04544
 366.78100 356.33858 345.77417 334.64375 323.05033 311.24791 299.12150 286.92808
 274.64366 262.54425 250.55683 239.86141 229.98699 221.09458 213.28016 206.28574
 200.12333 195.06491 191.65049 189.69607 188.73666 188.80424 189.64282 190.95440
 192.68299 194.78157 197.04815 199.41074 201.85932 204.34290 206.43448 208.28007
 209.90965 211.05823 211.29082 211.52240 211.46298 211.17156 210.80815 210.44173
 210.06231 209.77590 209.58748 209.45506 209.38664 209.72123 210.11081 210.50339
 211.29998 212.48156 213.73514 215.52172 217.45331 219.49989 221.59847 223.68505
 225.74864 227.83622 229.93680 232.04639 234.17897 236.35455 238.61413 240.98772
 243.61230 245.86688 247.87247 249.64105 251.06163 252.18821 253.01380 253.33338
 253.37396 253.15155 252.51513 251.46671 250.07629 248.24088 246.15346 243.99004
 241.78463 239.59221 237.41579 235.25837 233.12196 230.99254 229.02212 227.18270
 225.46929 223.94487 222.57845 221.35404 220.23962 219.20320 218.31078 217.45537
 216.70095 215.88453 214.98612 214.35370 213.80728 213.95360 214.27878 214.21767
 215.01855 216.13231 217.11298 217.85312 218.91428 221.34584 225.88351 230.27693
 233.64700 237.12019 240.74638 244.72327 248.94176 252.93596 256.42065 259.48505
 262.32538 265.04300 267.64767 270.13177 272.33926 273.99133 275.59985 277.20764
 278.75739 280.09052 281.18970 282.04550 282.71069 283.22568 283.95862 284.70117
 285.36902 285.96371 286.48325 287.14532
 366.78100 356.34003 345.77706 334.64809 323.05611 311.25514 299.13017 286.93820
 274.65523 262.55726 250.57128 239.87731 230.00434 221.11337 213.30040 206.30743
 200.14645 195.08948 191.67651 189.72354 188.76557 188.83460 189.67463 190.98765
 192.71768 194.81771 197.08574 199.44977 201.89980 204.38482 206.47785 208.32488
 209.95591 211.10594 211.33997 211.57300 211.51502 211.22505 210.86308 210.49811
 210.12014 209.83517 209.64819 209.51722 209.45025 209.78628 210.17731 210.57134
 211.36936 212.55239 213.80742 215.59545 217.52848 219.57651 221.67654 223.76456
 225.82959 227.91862 230.02065 232.13168 234.26571 236.44273 238.70376 241.07879
 243.70482 245.96085 247.96788 249.73790 251.15993 252.28796 253.11499 253.43602
 253.47805 253.25708 252.62210 251.57513 250.18616 248.35219 246.26622 244.10425
 241.90027 239.70930 237.53433 235.37836 233.24339 231.11542 229.14645 227.30847
 225.59650 224.07353 222.70856 221.48559 220.37262 219.33764 218.44667 217.59270
 216.83973 216.02476 215.12779 214.49681 213.95184 214.04247 214.23918 214.25703
 215.21117 216.20894 217.09438 217.81821 218.91682 221.38100 225.87247 230.24768
 233.56670 237.01494 240.64525 244.68680 248.94963 252.91699 256.37744 259.44388
 262.30460 265.04300 267.66473 270.10043 272.21707 273.88742 275.47552 277.22354
 278.77979 280.14597 281.24579 282.10895 282.75302 283.49255 284.24521 284.92703
 285.54028 286.08636 286.56342 287.17136
 366.78100 356.34067 345.77835 334.65002 323.05869 311.25837 299.13404 286.94272
 274.66039 262.56306 250.57774 239.88441 230.01208 221.12176 213.30943 206.31711
 200.15678 195.10045 191.68813 189.73580 188.77847 188.84815 189.68882 191.00250
 192.73317 194.83384 197.10252 199.46719 201.91786 204.40354 206.49721 208.34489
 209.97656 211.12723 211.36191 211.59558 211.53825 211.24893 210.88760 210.52328
 210.14595 209.86162 209.67530 209.54497 209.47864 209.81532 210.20699 210.60167
 211.40034 212.58401 213.83969 215.62836 217.56203 219.61071 221.71138 223.80005
 225.86573 227.95540 230.05808 232.16975 234.30442 236.48210 238.74377 241.11944
 243.74612 246.00279 248.01047 249.78114 251.20381 252.33249 253.16016 253.48183
 253.52451 253.30418 252.66986 251.62353 250.23520 248.40188 246.31655 244.15522
 241.95190 239.76157 237.58725 235.43192 233.29759 231.17027 229.20194 227.36461
 225.65329 224.13096 222.76664 221.54431 220.43198 219.39766 218.50733 217.65400
 216.90168 216.08735 215.19103 214.56070 214.01637 214.08797 214.23878 214.23466
 215.25844 216.18828 217.04286 217.82291 218.97630 221.46339 225.92603 230.27943
 233.56668 236.99074 240.61568 244.68457 248.95076 252.89343 256.33578 259.39087
 262.27466 265.04138 267.66763 270.06442 272.14066 273.73718 275.29266 276.98520
 278.58157 279.87659 280.88324 281.68683 282.42001 283.23505 284.03415 284.75809
 285.40918 285.98898 286.49548 287.14099
 366.78100 356.34135 345.77971 334.65206 323.06141 311.26177 299.13812 286.94747
 274.66583 262.56918 250.58453 239.89189 230.02024 221.13059 213.31895 206.32730
 200.16765 195.11201 191.70036 189.74871 188.79207 188.86242 189.70377 191.01813
 192.74948 194.85083 197.12019 199.48554 201.93689 204.42325 206.51760 208.36595
 209.99831 211.14966 211.38501 211.61937 211.56272 211.27407 210.91343 210.54978
 210.17313 209.88949 209.70384 209.57419 209.50855 209.84590 210.23825 210.63361
 211.43296 212.61731 213.87367 215.66302 217.59737 219.64673 221.74808 223.83743
 225.90379 227.99414 230.09749 232.20985 234.34520 236.52355 238.78591 241.16226
 243.78961 246.04697 248.05532 249.82667 251.25003 252.37938 253.20773 253.53009
 253.57344 253.35379 252.72015 251.67450 250.28685 248.45421 246.36956 244.20891
 242.00627 239.81662 237.64297 235.48833 233.35468 231.22804 229.26039 227.42374
 225.71310 224.19145 222.82780 221.60616 220.49451 219.46086 218.57122 217.71857
 216.96692 216.15328 215.25763 214.62798 214.08434 214.13951 214.25294 214.32559
 215.26883 216.21695 217.11774 217.93570 219.10153 221.58505 226.00089 230.29474
 233.52698 236.89438 240.51109 244.63274 248.91920 252.83315 256.25186 259.30106
 262.22815 265.03003 267.65164 270.02347 272.01370 273.45963 275.12024 276.67188
 278.20163 279.42682 280.36539 281.16000 282.02484 282.89481 283.68851 284.40756
 285.05426 285.63013 286.13321 286.77432
 366.78100 356.34174 345.78047 334.65321 323.06294 311.26368 299.14041 286.95015
 274.66888 262.57262 250.58835 239.89609 230.02482 221.13556 213.32429 206.33303
 200.17376 195.11850 191.70724 189.75597 188.79971 188.87044 189.71218 191.02691
 192.75865 194.86038 197.13012 199.49585 201.94759 204.43432 206.52906 208.37779
 210.01053 211.16226 211.39800 211.63273 211.57647 211.28821 210.92794 210.56468
 210.18841 209.90515 209.71988 209.59062 209.52535 209.86309 210.25582 210.65156
 211.45129 212.63603 213.89276 215.68250 217.61723 219.66697 221.76871 223.85844
 225.92518 228.01591 230.11965 232.23238 234.36812 236.54685 238.80959 241.18632
 243.81406 246.07179 248.08053 249.85226 251.27600 252.40573 253.23447 253.55720
 253.60094 253.38168 252.74841 251.70315 250.31588 248.48362 246.39935 244.23909
 242.03682 239.84756 237.67429 235.52003 233.38676 231.26050 229.29323 227.45697
 225.74670 224.22544 222.86218 221.64091 220.52965 219.49638 218.60712 217.75485
 217.00359 216.19032 215.29506 214.66579 214.12253 214.19176 214.32248 214.43153
 215.28676 216.40837 217.36864 218.05249 219.08490 221.57178 226.05527 230.23759
 233.45555 236.75403 240.35565 244.51685 248.81532 252.72763 256.13690 259.22781
 262.17603 264.99609 267.64041 270.03098 271.87073 273.45490 274.97653 276.37866
 277.64578 278.73587 280.13300 281.50003 282.68307 283.72977 284.68472 285.54987
 286.32794 287.02081 287.62610 288.39746
 366.78100 356.34026 345.77753 334.64879 323.05706 311.25632 299.13159 286.93985
 274.65712 262.55938 250.57365 239.87991 230.00718 221.11644 213.30371 206.31097
 200.15024 195.09350 191.68077 189.72803 188.77030 188.83956 189.67983 190.99309
 192.72335 194.82362 197.09188 199.45615 201.90641 204.39168 206.48494 208.33221
 209.96347 211.11374 211.34800 211.58127 211.52353 211.23380 210.87206 210.50733
 210.12959 209.84486 209.65812 209.52739 209.46065 209.79692 210.18818 210.58245
 211.38071 212.56397 213.81924 215.60750 217.54077 219.58903 221.68930 223.77756
 225.84283 227.93209 230.03436 232.14562 234.27989 236.45715 238.71842 241.09368
 243.71995 245.97621 247.98348 249.75374 251.17601 252.30427 253.13154 253.45280
 253.49506 253.27433 252.63959 251.59286 250.20412 248.37039 246.28465 244.12292
 241.91918 239.72845 237.55371 235.39798 233.26324 231.13551 229.16677 227.32904
 225.61730 224.09457 222.72983 221.50710 220.39436 219.35963 218.46889 217.61516
 216.86242 216.04768 215.15095 214.52021 213.97548 214.16222 214.47774 214.42551
 215.17487 216.49696 217.49339 218.09897 219.03964 221.37357 226.08542 230.21355
 233.37753 236.70012 240.36783 244.55302 248.82681 252.72757 256.12231 259.23788
 262.18777 265.00183 267.63580 269.85410 271.74564 273.39603 274.84714 276.23056
 277.72244 279.51459 281.06540 282.42712 283.60559 284.64822 285.59946 286.46124
 287.23630 287.92648 288.52942 289.29779
 366.78100 356.33776 345.77251 334.64127 323.04702 311.24378 299.11653 286.92229
 274.63705 262.53680 250.54856 239.85231 229.97707 221.08383 213.26858 206.27334
 200.11009 195.05085 191.63560 189.68036 188.72012 188.78687 189.62463 190.93538
 192.66314 194.76089 197.02665 199.38841 201.83616 204.31892 206.40967 208.25443
 209.88319 211.03094 211.26270 211.49345 211.43321 211.14096 210.77672 210.40948
 210.02923 209.74199 209.55274 209.41950 209.35025 209.68401 210.07277 210.46452
 211.26028 212.44103 213.69379 215.47955 217.41030 219.45606 221.55381 223.63957
 225.70232 227.78908 229.88884 231.99759 234.12935 236.30410 238.56286 240.93561
 243.55937 245.81313 247.81788 249.58564 251.00539 252.13115 252.95591 253.27466
 253.31442 253.09117 252.45393 251.40468 250.01344 248.17720 246.08895 243.92471
 241.71846 239.52522 237.34797 235.18973 233.05249 230.92224 228.95100 227.11075
 225.39651 223.87127 222.50402 221.27878 220.16353 219.12629 218.23304 217.37680
 216.62156 215.80431 214.90507 214.27182 213.72458 214.06038 214.65933 214.45953
 214.99083 216.36005 217.47920 218.05766 219.00528 221.43306 226.11369 230.24934
 233.39735 236.70435 240.38531 244.60019 248.89655 252.77910 256.18094 259.30746
 262.27173 265.11868 267.77945 270.06119 271.94928 273.43356 274.72565 276.34631
 278.30377 280.31104 282.04800 283.57321 284.89313 286.06091 287.12634 288.09155
 288.95966 289.73270 290.40802 291.26862
 366.78100 356.33726 345.77152 334.63978 323.04504 311.24130 299.11356 286.91882
 274.63308 262.53234 250.54360 239.84686 229.97112 221.07738 213.26164 206.26590
 200.10216 195.04242 191.62668 189.67094 188.71020 188.77646 189.61372 190.92398
 192.65124 194.74850 197.01376 199.37502 201.82228 204.30454 206.39480 208.23906
 209.86732 211.01458 211.24584 211.47610 211.41536 211.12262 210.75788 210.39014
 210.00940 209.72165 209.53191 209.39817 209.32843 209.66169 210.04995 210.44121
 211.23647 212.41673 213.66899 215.45425 217.38451 219.42977 221.52703 223.61229
 225.67455 227.76081 229.86007 231.96833 234.09959 236.27385 238.53211 240.90437
 243.52763 245.78089 247.78515 249.55241 250.97167 252.09693 252.92119 253.23945
 253.27871 253.05497 252.41723 251.36749 249.97575 248.13901 246.05027 243.88553
 241.67879 239.48505 237.30731 235.14857 233.01083 230.88009 228.90835 227.06761
 225.35287 223.82713 222.45939 221.23365 220.11791 219.08017 218.18643 217.32969
 216.57395 215.75621 214.85647 214.22273 213.67499 214.03183 214.72797 214.63164
 215.07402 216.24916 217.30463 217.84572 218.83783 221.53381 226.01877 230.15565
 233.29381 236.62514 240.35817 244.57832 248.82127 252.65939 256.06943 259.19571
 262.15262 264.96973 267.60886 269.95944 271.96033 273.67133 274.92749 276.62863
 278.35529 280.30237 282.07343 283.62857 284.97440 286.16510 287.25143 288.23560
 289.12073 289.90894 290.59750 291.47501
 366.78100 356.34040 345.77780 334.64920 323.05760 311.25700 299.13240 286.94080
 274.65820 262.56060 250.57500 239.88140 230.00880 221.11820 213.30560 206.31300
 200.15239 195.09579 191.68319 189.73059 188.77299 188.84239 189.68279 190.99619
 192.72659 194.82699 197.09539 199.45979 201.91019 204.39559 206.48899 208.33639
 209.96779 211.11819 211.35259 211.58599 211.52839 211.23879 210.87719 210.51259
 210.13499 209.85039 209.66379 209.53319 209.46659 209.80299 210.19439 210.58878
 211.38718 212.57058 213.82598 215.61438 217.54778 219.59618 221.69658 223.78498
 225.85038 227.93978 230.04218 232.15358 234.28798 236.46538 238.72678 241.10218
 243.72858 245.98498 247.99238 249.76278 251.18518 252.31358 253.14098 253.46238
 253.50478 253.28418 252.64958 251.60298 250.21438 248.38078 246.29517 244.13357
 241.92997 239.73937 237.56477 235.40917 233.27457 231.14697 229.17837 227.34077
 225.62917 224.10657 222.74197 221.51937 220.40677 219.37217 218.48157 217.62797
 216.87537 216.06077 215.16417 214.53357 213.98897 214.19530 214.60620 214.71909
 215.34999 216.40298 217.28474 217.69049 218.69992 221.45914 225.91168 229.97392
 233.10820 236.47849 240.28137 244.55106 248.76266 252.55312 255.95030 259.08102
 262.03699 264.83252 267.41699 269.72861 271.75018 273.41574 275.00259 276.75211
 278.55133 280.38235 281.98727 283.39651 284.61609 285.69507 286.67950 287.57132
 288.37344 289.08771 289.71167 290.50687
 366.78100 356.34307 345.78313 334.65720 323.06826 311.27033 299.14839 286.95946
 274.67952 262.58459 250.60165 239.91072 230.04078 221.15285 213.34292 206.35298
 200.19505 195.14111 191.73118 189.78124 188.82631 188.89837 189.74144 191.05750
 192.79057 194.89363 197.16470 199.53177 201.98483 204.47290 206.56896 208.41903
 210.05309 211.20616 211.44322 211.67929 211.62435 211.33742 210.97848 210.61655
 210.24162 209.95968 209.77575 209.64781 209.58388 209.92294 210.31701 210.71407
 211.51514 212.70120 213.95927 215.75033 217.68640 219.73747 221.84053 223.93160
 225.99966 228.09173 230.19679 232.31086 234.44792 236.62799 238.89205 241.27012
 243.89918 246.15825 248.16832 249.94138 251.36645 252.49751 253.32758 253.65164
 253.69671 253.47877 252.84684 251.80290 250.41697 248.58603 246.50310 244.34417
 242.14323 239.95530 237.78336 235.63043 233.49849 231.37356 229.40762 227.57269
 225.86375 224.34382 222.98189 221.76195 220.65202 219.62008 218.73215 217.88121
 217.13128 216.31934 215.42541 214.79747 214.25554 214.35355 214.52887 214.67767
 215.43420 216.52483 217.39365 217.74423 218.74309 221.41580 225.94597 229.92148
 233.04918 236.44865 240.29181 244.57603 248.76256 252.53252 255.92232 259.06458
 262.01910 264.79855 267.34790 269.64871 271.68008 273.24078 274.73657 276.78152
 278.86267 280.84592 282.56210 284.06900 285.37311 286.52692 287.57959 288.53323
 289.39093 290.15472 290.82196 291.67227
 366.78100 356.34163 345.78026 334.65289 323.06252 311.26315 299.13978 286.94940
 274.66803 262.57166 250.58729 239.89492 230.02355 221.13418 213.32281 206.33144
 200.17207 195.11670 191.70533 189.75396 188.79758 188.86821 189.70984 191.02447
 192.75610 194.85773 197.12736 199.49299 201.94462 204.43125 206.52588 208.37451
 210.00714 211.15876 211.39439 211.62902 211.57265 211.28428 210.92391 210.56054
 210.18417 209.90080 209.71543 209.58606 209.52069 209.85832 210.25094 210.64657
 211.44620 212.63083 213.88746 215.67709 217.61172 219.66135 221.76298 223.85261
 225.91924 228.00987 230.11350 232.22612 234.36175 236.54038 238.80301 241.17964
 243.80727 246.06490 248.07353 249.84516 251.26879 252.39842 253.22705 253.54968
 253.59330 253.37393 252.74056 251.69519 250.30782 248.47545 246.39108 244.23071
 242.02834 239.83897 237.66560 235.51123 233.37786 231.25148 229.28411 227.44774
 225.73737 224.21600 222.85263 221.63126 220.51989 219.48652 218.59715 217.74478
 216.99341 216.18004 215.28466 214.65529 214.11192 214.31685 214.66411 214.62874
 215.25995 216.49484 217.49518 217.89574 218.88748 221.45102 225.99084 229.91548
 233.00536 236.38390 240.25812 244.58728 248.76552 252.50615 255.91499 259.07401
 262.03183 264.79987 267.33359 269.62146 271.66132 273.12875 274.75089 276.71930
 278.96503 280.91003 282.59314 284.07101 285.34998 286.48154 287.51392 288.44919
 289.29034 290.03940 290.69379 291.52768
 366.78100 356.33932 345.77565 334.64597 323.05329 311.25161 299.12594 286.93326
 274.64958 262.55090 250.56423 239.86955 229.99587 221.10419 213.29052 206.29684
 200.13516 195.07748 191.66381 189.71013 188.75145 188.81977 189.65910 190.97142
 192.70074 194.80006 197.06739 199.43071 201.88003 204.36435 206.45668 208.30300
 209.93332 211.08264 211.31597 211.54829 211.48961 211.19893 210.83626 210.47058
 210.09190 209.80623 209.61855 209.48687 209.41919 209.75452 210.14484 210.53816
 211.33548 212.51781 213.77213 215.55945 217.49177 219.53910 221.63842 223.72574
 225.79006 227.87839 229.97971 232.09003 234.22335 236.39968 238.66000 241.03432
 243.65964 245.91497 247.92129 249.69061 251.11193 252.23926 253.06558 253.38590
 253.42722 253.20555 252.56987 251.52219 250.13251 248.29784 246.21116 244.04848
 241.84380 239.65213 237.47645 235.31977 233.18410 231.05542 229.08574 227.24706
 225.53439 224.01071 222.64503 221.42135 220.30768 219.27200 218.38032 217.52564
 216.77197 215.95629 215.05861 214.42693 213.88126 214.22087 214.84146 214.66615
 215.05429 216.35280 217.47115 217.91046 218.91687 221.52525 226.06961 229.96385
 233.00964 236.36023 240.24879 244.59401 248.77191 252.49657 255.90497 259.07480
 262.04242 264.81378 267.35464 269.65082 271.62469 273.18951 274.63132 276.50626
 278.71014 280.65677 282.34122 283.82031 285.10034 286.23282 287.26605 288.20209
 289.04395 289.79364 290.44855 291.28314
 366.78100 356.33909 345.77519 334.64528 323.05238 311.25047 299.12457 286.93166
 274.64775 262.54885 250.56194 239.86704 229.99313 221.10123 213.28732 206.29341
 200.13151 195.07360 191.65970 189.70579 188.74689 188.81498 189.65407 190.96617
 192.69526 194.79436 197.06145 199.42455 201.87364 204.35773 206.44983 208.29592
 209.92602 211.07511 211.30821 211.54030 211.48139 211.19049 210.82758 210.46168
 210.08277 209.79687 209.60896 209.47705 209.40915 209.74424 210.13434 210.52743
 211.32453 212.50662 213.76071 215.54781 217.47990 219.52700 221.62609 223.71319
 225.77728 227.86537 229.96647 232.07656 234.20966 236.38575 238.64585 241.01994
 243.64503 245.90013 247.90622 249.67532 251.09641 252.22351 253.04960 253.36969
 253.41079 253.18888 252.55298 251.50507 250.11517 248.28026 246.19335 244.03045
 241.82554 239.63364 237.45773 235.30083 233.16492 231.03601 229.06611 227.22720
 225.51430 223.99039 222.62449 221.40058 220.28667 219.25077 218.35886 217.50396
 216.75005 215.93415 215.03624 214.40433 213.85843 214.21892 214.91667 214.77715
 215.03128 216.23174 217.31136 217.75691 218.81065 221.60094 226.08788 229.95711
 232.97884 236.32701 240.23007 244.56273 248.70668 252.43535 255.84662 259.02240
 261.98669 264.74954 267.30429 269.63367 271.63544 273.20663 274.48044 276.36084
 278.28134 280.27652 282.00305 283.51907 284.83105 285.99182 287.05084 288.01022
 288.87311 289.64151 290.31274 291.16818
 366.78100 356.33966 345.77631 334.64697 323.05463 311.25329 299.12794 286.93560
 274.65226 262.55391 250.56757 239.87323 229.99989 221.10854 213.29520 206.30186
 200.14051 195.08317 191.66983 189.71649 188.75814 188.82680 189.66646 190.97912
 192.70877 194.80843 197.07609 199.43974 201.88940 204.37406 206.46672 208.31337
 209.94403 211.09369 211.32734 211.56000 211.50166 211.21132 210.84897 210.48363
 210.10529 209.81994 209.63260 209.50126 209.43392 209.76957 210.16023 210.55389
 211.35154 212.53420 213.78886 215.57652 217.50917 219.55683 221.65649 223.74415
 225.80880 227.89746 229.99912 232.10977 234.24343 236.42009 238.68075 241.05540
 243.68106 245.93672 247.94337 249.71303 251.13469 252.26235 253.08900 253.40966
 253.45132 253.22997 252.59463 251.54729 250.15795 248.32360 246.23726 244.07492
 241.87057 239.67923 237.50389 235.34755 233.21220 231.08386 229.11452 227.27618
 225.56383 224.04049 222.67515 221.45180 220.33846 219.30312 218.41178 217.55743
 216.80409 215.98875 215.09140 214.46006 213.91472 214.27107 214.95325 214.80193
 215.01978 216.16588 217.23618 217.69508 218.77943 221.55878 226.07524 229.90672
 232.90930 236.25575 240.19705 244.56154 248.69641 252.42349 255.84888 259.03436
 261.99622 264.74719 267.28665 269.61279 271.62183 273.28357 274.45938 276.35352
 278.30737 280.32523 282.07135 283.60458 284.93146 286.10541 287.17648 288.14676
 289.01944 289.79657 290.47543 291.34061
 366.78100 356.34084 345.77867 334.65051 323.05934 311.25918 299.13501 286.94385
 274.66168 262.56452 250.57935 239.88619 230.01403 221.12386 213.31170 206.31953
 200.15937 195.10320 191.69104 189.73887 188.78171 188.85154 189.69238 191.00622
 192.73705 194.83789 197.10672 199.47156 201.92239 204.40823 206.50206 208.34990
 209.98174 211.13257 211.36741 211.60124 211.54408 211.25491 210.89375 210.52958
 210.15242 209.86825 209.68209 209.55193 209.48576 209.82260 210.21443 210.60927
 211.40810 212.59194 213.84777 215.63661 217.57044 219.61928 221.72012 223.80895
 225.87479 227.96462 230.06746 232.17929 234.31413 236.49196 238.75380 241.12963
 243.75647 246.01331 248.02114 249.79198 251.21481 252.34365 253.17148 253.49332
 253.53615 253.31599 252.68182 251.63566 250.24750 248.41433 246.32917 244.16800
 241.96484 239.77467 237.60051 235.44534 233.31118 231.18401 229.21585 227.37869
 225.66752 224.14536 222.78119 221.55903 220.44686 219.41270 218.52253 217.66937
 216.91721 216.10304 215.20688 214.57671 214.03255 214.34807 214.96733 214.81560
 214.94580 216.00519 217.13490 217.68492 218.81197 221.66997 226.10170 229.92467
 232.91899 236.26881 240.21751 244.60353 248.73724 252.45470 255.88565 259.07394
 262.01935 264.73630 267.26212 269.62878 271.74994 273.39001 274.74973 276.64404
 278.22913 280.12396 281.81619 283.30209 284.58801 285.72571 286.76367 287.70401
 288.54974 289.30289 289.96078 290.79922
 366.78100 356.34098 345.77896 334.65094 323.05992 311.25990 299.13588 286.94486
 274.66284 262.56582 250.58080 239.88777 230.01575 221.12573 213.31371 206.32169
 200.16167 195.10565 191.69363 189.74161 188.78459 188.85457 189.69555 191.00953
 192.74051 194.84149 197.11047 199.47545 201.92643 204.41241 206.50639 208.35436
 209.98634 211.13732 211.37230 211.60628 211.54926 211.26024 210.89922 210.53520
 210.15818 209.87416 209.68814 209.55812 209.49210 209.82908 210.22106 210.61604
 211.41502 212.59900 213.85498 215.64396 217.57793 219.62691 221.72789 223.81687
 225.88285 227.97283 230.07581 232.18779 234.32277 236.50075 238.76273 241.13871
 243.76569 246.02267 248.03065 249.80163 251.22461 252.35359 253.18157 253.50355
 253.54652 253.32650 252.69248 251.64646 250.25844 248.42542 246.34040 244.17938
 241.97636 239.78634 237.61232 235.45730 233.32328 231.19626 229.22824 227.39122
 225.68020 224.15818 222.79416 221.57214 220.46012 219.42609 218.53607 217.68305
 216.93103 216.11701 215.22099 214.59097 214.04695 214.36465 215.02852 214.87227
 214.84534 215.81384 216.93893 217.60605 218.90030 221.78371 226.08740 229.94237
 232.90054 236.23297 240.19560 244.62680 248.74902 252.42836 255.84106 259.01468
 261.94287 264.64346 267.15619 269.49118 271.54688 273.28406 274.98996 276.80444
 278.33185 279.51358 280.85150 282.22714 283.41766 284.47095 285.43192 286.30246
 287.08545 287.78268 288.39178 289.16803
 366.78100 356.33915 345.77531 334.64546 323.05261 311.25077 299.12492 286.93207
 274.64823 262.54938 250.56253 239.86769 229.99384 221.10199 213.28814 206.29430
 200.13245 195.07460 191.66076 189.70691 188.74806 188.81622 189.65537 190.96752
 192.69668 194.79583 197.06298 199.42614 201.87529 204.35944 206.45160 208.29775
 209.92790 211.07706 211.31021 211.54236 211.48351 211.19267 210.82982 210.46397
 210.08513 209.79928 209.61143 209.47959 209.41174 209.74689 210.13705 210.53020
 211.32735 212.50951 213.76366 215.55081 217.48297 219.53012 221.62927 223.71643
 225.78058 227.86873 229.96988 232.08004 234.21319 236.38934 238.64950 241.02365
 243.64880 245.90396 247.91011 249.67926 251.10042 252.22757 253.05372 253.37388
 253.41503 253.19318 252.55734 251.50949 250.11964 248.28480 246.19795 244.03510
 241.83026 239.63841 237.46256 235.30571 233.16987 231.04102 229.07117 227.23233
 225.51948 223.99563 222.62979 221.40594 220.29209 219.25625 218.36440 217.50955
 216.75571 215.93986 215.04201 214.41017 213.86432 214.27594 215.18604 214.99466
 214.59570 215.51537 216.70569 217.48898 218.83919 221.73346 226.08849 229.90135
 232.90924 236.30826 240.28117 244.60550 248.71147 252.41000 255.82426 258.99759
 261.92075 264.61453 267.11032 269.41647 271.46451 273.17065 274.89304 276.70926
 278.23529 279.25375 280.05542 280.98471 281.96204 283.04318 284.03119 284.92627
 285.73126 286.44815 287.07437 287.87244
 366.78100 356.33854 345.77408 334.64363 323.05017 311.24771 299.12125 286.92780
 274.64334 262.54388 250.55642 239.86097 229.98651 221.09405 213.27959 206.28514
 200.12268 195.06422 191.64976 189.69531 188.73585 188.80339 189.64193 190.95347
 192.68202 194.78056 197.04710 199.40964 201.85819 204.34173 206.43327 208.27881
 209.90836 211.05690 211.28944 211.52098 211.46153 211.17007 210.80661 210.44015
 210.06070 209.77424 209.58578 209.45332 209.38486 209.71941 210.10895 210.50149
 211.29803 212.47958 213.73312 215.51966 217.45120 219.49775 221.59629 223.68283
 225.74637 227.83392 229.93446 232.04400 234.17654 236.35209 238.61163 240.98517
 243.60971 245.86425 247.86980 249.63834 251.05888 252.18542 253.01097 253.33051
 253.37105 253.14859 252.51214 251.46368 250.07322 248.23776 246.15031 243.98685
 241.78139 239.58893 237.41248 235.25502 233.11856 230.98910 229.01864 227.17919
 225.46573 223.94127 222.57481 221.35036 220.23590 219.19944 218.30698 217.45153
 216.69707 215.88061 214.98215 214.34970 213.80324 214.25711 215.27420 215.13179
 214.48761 215.31824 216.53392 217.36285 218.75436 221.70166 226.13104 229.92149
 232.88609 236.27275 240.26787 244.61517 248.71527 252.40851 255.82509 259.00098
 261.91702 264.59671 267.08740 269.39844 271.44119 273.08578 274.72748 276.63055
 278.08658 279.09293 279.85141 280.70279 281.60699 282.68341 283.68927 284.60052
 285.42010 286.14993 286.78751 287.60001
 366.78100 356.33972 345.77643 334.64715 323.05487 311.25358 299.12830 286.93601
 274.65273 262.55445 250.56816 239.87388 230.00060 221.10931 213.29603 206.30275
 200.14146 195.08418 191.67090 189.71761 188.75933 188.82804 189.66776 190.98048
 192.71019 194.80991 197.07763 199.44134 201.89106 204.37578 206.46849 208.31521
 209.94592 211.09564 211.32936 211.56207 211.50379 211.21351 210.85122 210.48594
 210.10766 209.82237 209.63509 209.50380 209.43652 209.77224 210.16295 210.55667
 211.35439 212.53710 213.79182 215.57954 217.51225 219.55997 221.65969 223.74740
 225.81212 227.90083 230.00255 232.11327 234.24698 236.42370 238.68442 241.05913
 243.68485 245.94057 247.94728 249.71700 251.13871 252.26643 253.09315 253.41386
 253.45558 253.23430 252.59901 251.55173 250.16245 248.32816 246.24188 244.07959
 241.87531 239.68403 237.50874 235.35246 233.21718 231.08889 229.11961 227.28133
 225.56904 224.04576 222.68048 221.45719 220.34391 219.30862 218.41734 217.56306
 216.80977 215.99449 215.09721 214.46592 213.92064 214.35027 215.28595 215.09442
 214.54825 215.35909 216.50215 217.29736 218.77382 221.76506 226.19690 229.98050
 232.89952 236.27397 240.30409 244.67914 248.76601 252.45946 255.87448 259.03488
 261.92319 264.58731 267.08121 269.39438 271.44516 273.09393 274.75085 276.57361
 277.86429 278.74881 279.58917 280.88876 282.16830 283.30072 284.33386 285.26984
 286.11160 286.86124 287.51608 288.35062
 366.78100 356.33963 345.77627 334.64690 323.05453 311.25316 299.12780 286.93543
 274.65206 262.55370 250.56733 239.87296 229.99960 221.10823 213.29486 206.30149
 200.14013 195.08276 191.66939 189.71603 188.75766 188.82629 189.66592 190.97856
 192.70819 194.80782 197.07546 199.43909 201.88872 204.37335 206.46599 208.31262
 209.94325 211.09289 211.32652 211.55915 211.50079 211.21042 210.84805 210.48268
 210.10432 209.81895 209.63158 209.50022 209.43285 209.76848 210.15911 210.55275
 211.35038 212.53301 213.78765 215.57528 217.50791 219.55555 221.65518 223.74281
 225.80744 227.89608 229.99771 232.10834 234.24198 236.41861 238.67924 241.05387
 243.67951 245.93514 247.94177 249.71141 251.13304 252.26067 253.08730 253.40794
 253.44957 253.22820 252.59284 251.54547 250.15610 248.32174 246.23537 244.07300
 241.86863 239.67727 237.50190 235.34553 233.21017 231.08180 229.11243 227.27406
 225.56170 224.03833 222.67296 221.44960 220.33623 219.30086 218.40949 217.55513
 216.80176 215.98639 215.08903 214.45766 213.91229 214.37903 215.37576 215.02625
 214.50479 215.23477 216.44281 217.30437 218.79944 221.80997 226.28796 230.07631
 232.98575 236.35255 240.37099 244.74457 248.82004 252.47397 255.86195 259.00739
 261.89395 264.56207 267.06342 269.38110 271.45712 273.12292 274.77237 276.59323
 277.82501 278.62091 279.66238 281.03632 282.29153 283.40207 284.41525 285.33316
 286.15869 286.89383 287.53604 288.35446
 366.78100 356.33914 345.77529 334.64543 323.05257 311.25071 299.12486 286.93200
 274.64814 262.54929 250.56243 239.86757 229.99372 221.10186 213.28800 206.29414
 200.13229 195.07443 191.66057 189.70672 188.74786 188.81600 189.65515 190.96729
 192.69643 194.79557 197.06272 199.42586 201.87500 204.35915 206.45129 208.29743
 209.92757 211.07672 211.30986 211.54200 211.48315 211.19229 210.82943 210.46358
 210.08472 209.79886 209.61100 209.47915 209.41129 209.74643 210.13658 210.52972
 211.32686 212.50901 213.76315 215.55029 217.48243 219.52958 221.62872 223.71586
 225.78001 227.86815 229.96929 232.07943 234.21258 236.38872 238.64886 241.02301
 243.64815 245.90329 247.90944 249.67858 251.09972 252.22686 253.05301 253.37315
 253.41429 253.19244 252.55658 251.50872 250.11887 248.28401 246.19715 244.03429
 241.82944 239.63758 237.46172 235.30487 233.16901 231.04015 229.07029 227.23144
 225.51858 223.99472 222.62887 221.40501 220.29115 219.25530 218.36344 217.50858
 216.75472 215.93887 215.04101 214.40915 213.86330 214.37848 215.48245 215.10970
 214.40121 215.02579 216.35254 217.34026 218.81631 221.79448 226.29054 230.07571
 232.97707 236.34492 240.37138 244.75661 248.80200 252.44432 255.82672 258.97308
 261.85956 264.53485 267.02945 269.34619 271.43973 273.14725 274.76575 276.68597
 277.80933 278.78015 279.95816 281.33118 282.62225 283.76453 284.80670 285.75082
 286.59995 287.35611 288.01666 288.85846
 366.78100 356.34117 345.77934 334.65151 323.06067 311.26084 299.13701 286.94618
 274.66435 262.56752 250.58269 239.88985 230.01802 221.12819 213.31636 206.32453
 200.16470 195.10887 191.69703 189.74520 188.78837 188.85854 189.69971 191.01388
 192.74505 194.84621 197.11538 199.48055 201.93172 204.41789 206.51206 208.36023
 209.99239 211.14356 211.37873 211.61290 211.55607 211.26724 210.90641 210.54257
 210.16574 209.88191 209.69608 209.56625 209.50042 209.83759 210.22975 210.62492
 211.42409 212.60826 213.86443 215.65360 217.58777 219.63693 221.73810 223.82727
 225.89344 227.98361 230.08678 232.19895 234.33411 236.51228 238.77445 241.15062
 243.77779 246.03496 248.04313 249.81429 251.23746 252.36663 253.19480 253.51697
 253.56014 253.34031 252.70647 251.66064 250.27281 248.43998 246.35515 244.19432
 241.99149 239.80165 237.62782 235.47299 233.33916 231.21233 229.24450 227.40767
 225.69683 224.17500 222.81117 221.58934 220.47751 219.44368 218.55385 217.70101
 216.94918 216.13535 215.23952 214.60969 214.06586 214.50240 215.45103 215.28456
 214.37730 214.87105 216.08751 217.16405 218.78751 221.84023 226.38094 230.10168
 232.98422 236.32576 240.37288 244.79312 248.85126 252.50330 255.90739 259.07248
 261.96121 264.61551 267.08243 269.35214 271.40469 273.10831 274.82837 276.58987
 277.65375 278.92175 280.45837 281.89270 283.13400 284.23221 285.23416 286.14188
 286.95825 287.68524 288.32034 289.12967
 366.78100 356.34273 345.78245 334.65618 323.06690 311.26863 299.14636 286.95708
 274.67681 262.58153 250.59826 239.90698 230.03671 221.14844 213.33816 206.34789
 200.18961 195.13534 191.72507 189.77479 188.81952 188.89124 189.73397 191.04970
 192.78242 194.88515 197.15587 199.52260 201.97532 204.46305 206.55878 208.40850
 210.04223 211.19495 211.43168 211.66741 211.61213 211.32486 210.96558 210.60331
 210.22804 209.94576 209.76149 209.63321 209.56894 209.90766 210.30139 210.69812
 211.49884 212.68457 213.94229 215.73302 217.66875 219.71947 221.82220 223.91292
 225.98065 228.07238 230.17710 232.29083 234.42755 236.60728 238.87100 241.24873
 243.87746 246.13618 248.14591 249.91863 251.34336 252.47409 253.30381 253.62754
 253.67226 253.45399 252.82172 251.77744 250.39117 248.55989 246.47662 244.31734
 242.11607 239.92780 237.75552 235.60225 233.46997 231.34470 229.37843 227.54315
 225.83388 224.31360 222.95133 221.73106 220.62078 219.58851 218.70023 217.84896
 217.09868 216.28641 215.39214 214.76386 214.22159 214.60149 215.44589 215.40829
 214.48021 214.62961 215.62303 216.81519 218.68626 221.93028 226.50328 230.24153
 233.12996 236.45979 240.48343 244.88091 248.97032 252.67184 256.07980 259.20801
 262.06592 264.68726 267.12637 269.35974 271.38156 273.13223 274.81921 276.46552
 277.52225 278.95908 280.55994 282.04620 283.33246 284.47046 285.50870 286.44928
 287.29526 288.04855 288.70667 289.54532
 366.78100 356.34186 345.78073 334.65359 323.06345 311.26431 299.14118 286.95104
 274.66990 262.57377 250.58963 239.89749 230.02636 221.13722 213.32608 206.33494
 200.17581 195.12067 191.70953 189.75840 188.80226 188.87312 189.71499 191.02985
 192.76171 194.86357 197.13344 199.49930 201.95116 204.43803 206.53289 208.38175
 210.01462 211.16648 211.40234 211.63720 211.58107 211.29293 210.93279 210.56966
 210.19352 209.91038 209.72525 209.59611 209.53097 209.86883 210.26170 210.65756
 211.45742 212.64229 213.89915 215.68901 217.62388 219.67374 221.77560 223.86546
 225.93233 228.02319 230.12705 232.23992 234.37578 236.55464 238.81751 241.19437
 243.82223 246.08009 248.08896 249.86082 251.28468 252.41455 253.24341 253.56627
 253.61014 253.39100 252.75786 251.71272 250.32559 248.49345 246.40931 244.24918
 242.04704 239.85790 237.68477 235.53063 233.39749 231.27135 229.30422 227.46808
 225.75794 224.23681 222.87367 221.65253 220.54140 219.50826 218.61912 217.76698
 217.01585 216.20271 215.30757 214.67844 214.13530 214.57812 215.55019 215.49809
 214.62347 214.51668 215.28856 216.47067 218.53671 221.95831 226.53412 230.34573
 233.22136 236.54662 240.53693 244.94975 249.03825 252.66534 256.03003 259.16135
 262.01361 264.63031 267.06808 269.28461 271.31628 273.22672 274.73801 276.32388
 277.35733 278.67529 280.23917 281.70520 282.97394 284.09647 285.12057 286.04837
 286.88281 287.62589 288.27499 289.10226
 366.78100 356.34220 345.78140 334.65459 323.06479 311.26599 299.14319 286.95339
 274.67259 262.57678 250.59298 239.90118 230.03038 221.14158 213.33078 206.33997
 200.18117 195.12637 191.71557 189.76477 188.80896 188.88016 189.72236 191.03756
 192.76976 194.87196 197.14215 199.50835 201.96055 204.44775 206.54295 208.39215
 210.02534 211.17754 211.41374 211.64894 211.59314 211.30533 210.94553 210.58273
 210.20693 209.92413 209.73933 209.61052 209.54572 209.88392 210.27712 210.67332
 211.47352 212.65871 213.91591 215.70611 217.64131 219.69151 221.79370 223.88390
 225.95110 228.04230 230.14650 232.25970 234.39589 236.57509 238.83829 241.21549
 243.84369 246.10189 248.11108 249.88328 251.30748 252.43768 253.26688 253.59007
 253.63427 253.41547 252.78267 251.73787 250.35107 248.51926 246.43546 244.27566
 242.07386 239.88506 237.71226 235.55845 233.42565 231.29985 229.33305 227.49725
 225.78744 224.26664 222.90384 221.68304 220.57224 219.53944 218.65063 217.79883
 217.04803 216.23523 215.34043 214.71163 214.16882 214.62517 215.62251 215.57825
 214.65567 214.55865 215.18686 216.17390 218.24869 221.83179 226.51289 230.25192
 233.18904 236.60739 240.61298 244.92979 249.03632 252.73889 256.11319 259.19440
 262.00116 264.59067 266.99493 269.18854 271.28958 273.15607 274.78067 276.26642
 277.61890 278.78162 279.79749 280.68945 281.46140 282.14438 282.76749 283.33197
 283.83966 284.29178 284.68674 285.19006
 366.78100 356.34328 345.78355 334.65783 323.06910 311.27138 299.14965 286.96093
 274.68120 262.58648 250.60376 239.91303 230.04331 221.15558 213.34586 206.35613
 200.19841 195.14468 191.73496 189.78523 188.83051 188.90279 189.74606 191.06234
 192.79561 194.89889 197.17016 199.53744 201.99071 204.47899 206.57527 208.42554
 210.05982 211.21309 211.45037 211.68664 211.63192 211.34519 210.98647 210.62474
 210.25002 209.96830 209.78457 209.65685 209.59312 209.93240 210.32667 210.72395
 211.52522 212.71150 213.96978 215.76105 217.69733 219.74860 221.85188 223.94315
 226.01143 228.10370 230.20898 232.32325 234.46053 236.64081 238.90508 241.28336
 243.91263 246.17191 248.18218 249.95546 251.38073 252.51201 253.34229 253.66656
 253.71184 253.49411 252.86239 251.81866 250.43294 248.60221 246.51949 244.36076
 242.16004 239.97232 237.80059 235.64787 233.51614 231.39142 229.42569 227.59097
 225.88224 224.36252 223.00080 221.78107 220.67135 219.63962 218.75190 217.90117
 217.15145 216.33972 215.44600 214.81827 214.27655 214.71269 215.66553 215.62047
 214.50345 214.27599 215.03993 216.09828 218.27231 221.77473 226.47145 230.25589
 233.19025 236.64981 240.70845 245.06097 249.21413 253.00101 256.44800 259.57629
 262.39307 264.98111 267.35767 269.49057 271.35480 273.20200 274.95786 276.25955
 277.23825 278.07715 278.80310 279.44052 279.99216 280.48019 280.92548 281.32886
 281.69168 282.01474 282.29700 282.65665
 366.78100 356.34304 345.78307 334.65711 323.06814 311.27018 299.14822 286.95925
 274.67929 262.58432 250.60136 239.91040 230.04043 221.15247 213.34251 206.35254
 200.19458 195.14061 191.73065 189.78069 188.82572 188.89776 189.74079 191.05683
 192.78987 194.89290 197.16394 199.53097 201.98401 204.47205 206.56808 208.41812
 210.05215 211.20519 211.44223 211.67826 211.62330 211.33634 210.97737 210.61541
 210.24044 209.95848 209.77452 209.64655 209.58259 209.92162 210.31566 210.71270
 211.51373 212.69977 213.95780 215.74884 217.68488 219.73591 221.83895 223.92999
 225.99802 228.09006 230.19509 232.30913 234.44617 236.62620 238.89024 241.26827
 243.89731 246.15635 248.16638 249.93942 251.36445 252.49549 253.32553 253.64956
 253.69460 253.47663 252.84467 251.80071 250.41474 248.58378 246.50082 244.34185
 242.14089 239.95292 237.78096 235.62800 233.49603 231.37107 229.40510 227.57014
 225.86118 224.34121 222.97925 221.75928 220.64932 219.61736 218.72939 217.87843
 217.12846 216.31650 215.42254 214.79457 214.25261 214.71637 215.69513 215.67332
 214.67673 214.20273 214.84232 215.79448 218.06599 221.71638 226.36346 230.20677
 233.21689 236.75806 240.82979 245.16768 249.32512 253.09273 256.52988 259.69876
 262.63132 265.36292 267.84341 270.00464 271.95758 273.69748 275.01224 276.94128
 279.45023 281.75024 283.74051 285.48813 287.00055 288.33862 289.55945 290.66541
 291.66010 292.54587 293.31967 294.30579
 366.78100 356.34347 345.78394 334.65841 323.06989 311.27236 299.15083 286.96230
 274.68277 262.58824 250.60572 239.91519 230.04566 221.15813 213.34860 206.35907
 200.20155 195.14802 191.73849 189.78896 188.83443 188.90690 189.75037 191.06685
 192.80032 194.90379 197.17526 199.54273 201.99620 204.48468 206.58115 208.43162
 210.06609 211.21956 211.45703 211.69351 211.63898 211.35245 210.99392 210.63239
 210.25786 209.97633 209.79281 209.66528 209.60175 209.94122 210.33569 210.73316
 211.53464 212.72111 213.97958 215.77105 217.70752 219.75899 221.86247 223.95394
 226.02241 228.11488 230.22035 232.33482 234.47229 236.65277 238.91724 241.29571
 243.92518 246.18465 248.19512 249.96860 251.39407 252.52554 253.35601 253.68048
 253.72595 253.50843 252.87690 251.83337 250.44784 248.61731 246.53478 244.37625
 242.17573 239.98820 237.81667 235.66414 233.53261 231.40808 229.44256 227.60803
 225.89950 224.37997 223.01844 221.79891 220.68939 219.65786 218.77033 217.91980
 217.17027 216.35874 215.46521 214.83769 214.29616 214.73930 215.70177 215.73669
 214.86810 214.29413 214.77432 215.68021 217.94080 221.70444 226.15884 230.08798
 233.10161 236.68958 240.77811 245.07314 249.14859 252.83691 256.19952 259.32953
 262.27911 265.05673 267.60587 269.86414 271.91974 273.88516 275.47650 276.97989
 278.94388 281.00339 282.96771 284.69254 286.18521 287.50583 288.71072 289.80228
 290.78400 291.65820 292.42191 293.39517
 366.78100 356.34435 345.78571 334.66106 323.07341 311.27677 299.15612 286.96847
 274.68983 262.59618 250.61453 239.92489 230.05624 221.16959 213.36095 206.37230
 200.21565 195.16300 191.75436 189.80571 188.85206 188.92542 189.76977 191.08712
 192.82148 194.92583 197.19818 199.56654 202.02089 204.51024 206.60760 208.45895
 210.09430 211.24866 211.48701 211.72436 211.67072 211.38507 211.02742 210.66678
 210.29313 210.01248 209.82984 209.70319 209.64054 209.98090 210.37625 210.77460
 211.57696 212.76431 214.02366 215.81601 217.75337 219.80572 221.91007 224.00243
 226.07178 228.16513 230.27149 232.38684 234.52519 236.70655 238.97190 241.35125
 243.98161 246.24196 248.25331 250.02767 251.45402 252.58637 253.41773 253.74308
 253.78943 253.57279 252.94214 251.89949 250.51485 248.68520 246.60355 244.44591
 242.24626 240.05961 237.88896 235.73732 233.60667 231.48302 229.51838 227.68473
 225.97708 224.45844 223.09779 221.87914 220.77050 219.73985 218.85320 218.00356
 217.25491 216.44426 215.55162 214.92497 214.38432 214.79413 215.69894 215.76668
 214.88753 214.31558 214.72542 215.62144 217.89725 221.67993 226.14090 230.05814
 233.05443 236.66644 240.79129 245.11322 249.20319 252.89087 256.22778 259.30969
 262.21362 264.95560 267.47513 269.66660 271.71152 273.73166 275.39374 276.99802
 279.02991 280.99384 282.84213 284.46506 285.86957 287.11218 288.24591 289.27298
 290.19672 291.01929 291.73788 292.65366
 366.78100 356.34439 345.78577 334.66116 323.07354 311.27693 299.15631 286.96870
 274.69008 262.59647 250.61485 239.92524 230.05663 221.17001 213.36140 206.37278
 200.21617 195.16355 191.75494 189.80632 188.85271 188.92609 189.77048 191.08786
 192.82225 194.92664 197.19902 199.56741 202.02179 204.51118 206.60856 208.45995
 210.09533 211.24972 211.48810 211.72549 211.67188 211.38626 211.02865 210.66803
 210.29442 210.01380 209.83119 209.70457 209.64196 209.98234 210.37773 210.77612
 211.57850 212.76589 214.02527 215.81766 217.75504 219.80743 221.91181 224.00420
 226.07358 228.16697 230.27335 232.38874 234.52713 236.70851 238.97390 241.35328
 243.98367 246.24405 248.25544 250.02982 251.45621 252.58859 253.41998 253.74537
 253.79175 253.57514 252.94452 251.90191 250.51729 248.68768 246.60606 244.44845
 242.24883 240.06222 237.89161 235.73999 233.60938 231.48576 229.52115 227.68753
 225.97992 224.46130 223.10069 221.88207 220.77346 219.74284 218.85623 218.00662
 217.25800 216.44739 215.55477 214.92816 214.38754 214.80574 215.72948 215.78825
 214.90549 214.27235 214.54761 215.49649 217.85101 221.65735 226.15329 230.08502
 233.07506 236.71587 240.86815 245.22018 249.34215 253.06081 256.41168 259.48056
 262.34882 265.04776 267.51837 269.65100 271.65131 273.66296 275.39551 277.00409
 278.93842 280.77872 282.60355 284.20587 285.59253 286.81940 287.93872 288.95273
 289.86475 290.67688 291.38635 292.29050
 366.78100 356.34500 345.78700 334.66300 323.07600 311.28000 299.16000 286.97300
 274.69500 262.60199 250.62099 239.93199 230.06399 221.17799 213.36999 206.38199
 200.22599 195.17399 191.76599 189.81799 188.86499 188.93899 189.78399 191.10199
 192.83699 194.94199 197.21499 199.58398 202.03898 204.52898 206.62698 208.47898
 210.11498 211.26998 211.50898 211.74698 211.69398 211.40898 211.05198 210.69198
 210.31898 210.03898 209.85698 209.73098 209.66898 210.00997 210.40597 210.80497
 211.60797 212.79597 214.05597 215.84897 217.78697 219.83997 221.94497 224.03797
 226.10797 228.20197 230.30897 232.42497 234.56397 236.74597 239.01197 241.39196
 244.02296 246.28396 248.29596 250.07096 251.49796 252.63096 253.46296 253.78896
 253.83596 253.61996 252.98996 251.94796 250.56396 248.73496 246.65396 244.49696
 242.29796 240.11195 237.94195 235.79095 233.66095 231.53795 229.57395 227.74095
 226.03395 224.51595 223.15595 221.93795 220.82995 219.79995 218.91395 218.06495
 217.31695 216.50695 215.61495 214.98894 214.44894 214.84270 215.73094 215.88344
 215.00607 214.25938 214.39426 215.31184 217.69075 221.55911 226.09767 230.01453
 233.01743 236.69667 240.89545 245.28047 249.42409 253.14702 256.48160 259.52792
 262.37607 265.06870 267.50278 269.54413 271.52365 273.56134 275.28024 276.83356
 278.75848 280.65598 282.55878 284.22955 285.67551 286.95477 288.12195 289.17929
 290.13028 290.97711 291.71692 292.65970
 366.78100 356.34734 345.79167 334.67001 323.08535 311.29168 299.17402 286.98935
 274.71369 262.62303 250.64436 239.95770 230.09204 221.20837 213.40271 206.41704
 200.26338 195.21372 191.80805 189.86239 188.91173 188.98806 189.83540 191.15574
 192.89307 195.00041 197.27574 199.64708 202.10442 204.59675 206.69709 208.55143
 210.18976 211.34710 211.58844 211.82877 211.77811 211.49544 211.14078 210.78312
 210.41245 210.13479 209.95513 209.83146 209.77180 210.11513 210.51347 210.91481
 211.72014 212.91048 214.17282 215.96815 217.90849 219.96383 222.07116 224.16650
 226.23883 228.33517 230.44451 232.56284 234.70418 236.88852 239.15685 241.53919
 244.17252 246.43586 248.45020 250.22753 251.65687 252.79221 253.62654 253.95488
 254.00422 253.79055 253.16289 252.12322 250.74156 248.91490 246.83623 244.68157
 242.48491 240.30124 238.13358 235.98491 233.85725 231.73659 229.77492 227.94426
 226.23960 224.72393 223.36627 222.15061 221.04494 220.01728 219.13361 218.28695
 217.54129 216.73362 215.84396 215.22030 214.68263 214.97021 215.67143 215.96445
 215.10297 214.25731 214.21387 215.07449 217.49980 221.39464 226.05223 229.87195
 232.97583 236.71222 240.95355 245.36398 249.54662 253.31879 256.66379 259.69125
 262.49481 265.15634 267.54727 269.55569 271.48178 273.45779 275.28580 276.89127
 278.92139 281.04349 282.87985 284.49231 285.88776 287.12234 288.24875 289.26917
 290.18695 291.00421 291.71817 292.62802
 366.78100 356.34767 345.79234 334.67101 323.08668 311.29335 299.17602 286.99169
 274.71636 262.62603 250.64770 239.96137 230.09604 221.21271 213.40738 206.42205
 200.26872 195.21939 191.81406 189.86873 188.91840 188.99507 189.84274 191.16341
 192.90108 195.00875 197.28442 199.65609 202.11376 204.60643 206.70710 208.56177
 210.20044 211.35811 211.59978 211.84045 211.79012 211.50779 211.15346 210.79613
 210.42580 210.14847 209.96914 209.84580 209.78647 210.13014 210.52881 210.93048
 211.73615 212.92682 214.18949 215.98516 217.92583 219.98150 222.08917 224.18484
 226.25751 228.35418 230.46385 232.58252 234.72419 236.90886 239.17753 241.56020
 244.19387 246.45754 248.47221 250.24988 251.67955 252.81522 253.64989 253.97856
 254.02823 253.81490 253.18757 252.14824 250.76691 248.94058 246.86225 244.70792
 242.51159 240.32826 238.16093 236.01260 233.88527 231.76494 229.80361 227.97328
 226.26895 224.75362 223.39629 222.18096 221.07563 220.04830 219.16497 218.31864
 217.57331 216.76598 215.87665 215.25332 214.71599 215.00659 215.67847 215.95796
 215.22850 214.22269 214.00336 215.00262 217.42680 221.23616 225.94044 229.74858
 232.88918 236.69081 241.00941 245.50078 249.74304 253.57526 256.99640 260.06714
 262.86526 265.50061 267.88583 269.88046 271.70215 273.48636 275.37390 276.97626
 279.46194 281.61914 283.48581 285.12488 286.54337 287.79837 288.94336 289.98065
 290.91357 291.74432 292.47009 293.39496
 366.78100 356.34649 345.78999 334.66748 323.08197 311.28747 299.16896 286.98346
 274.70695 262.61544 250.63594 239.94843 230.08192 221.19742 213.39091 206.40441
 200.24990 195.19939 191.79289 189.84638 188.89487 188.97037 189.81686 191.13636
 192.87285 194.97934 197.25384 199.62433 202.08082 204.57232 206.67181 208.52531
 210.16280 211.31929 211.55979 211.79928 211.74777 211.46427 211.10876 210.75026
 210.37875 210.10024 209.91974 209.79523 209.73472 210.07722 210.47471 210.87521
 211.67970 212.86919 214.13069 215.92518 217.86467 219.91917 222.02566 224.12016
 226.19165 228.28714 230.39564 232.51313 234.65362 236.83712 239.10461 241.48611
 244.11860 246.38109 248.39459 250.17108 251.59957 252.73407 253.56756 253.89506
 253.94355 253.72904 253.10054 252.06003 250.67752 248.85002 246.77051 244.61500
 242.41750 240.23299 238.06449 235.91498 233.78647 231.66497 229.70246 227.87095
 226.16545 224.64894 223.29044 222.07393 220.96742 219.93892 219.05441 218.20690
 217.46040 216.65189 215.76139 215.13688 214.59837 214.95456 215.71011 215.92813
 215.51430 214.38116 213.92947 214.70367 217.17627 221.10030 225.71284 229.58714
 232.77129 236.64275 241.01602 245.52487 249.78142 253.63109 257.05173 260.17142
 263.05038 265.77347 268.28513 270.38342 272.22430 273.99286 275.31400 277.02100
 279.32944 281.59116 283.54831 285.26685 286.75409 288.06992 289.27039 290.35797
 291.33609 292.20715 292.96805 293.93777
 366.78100 356.34690 345.79080 334.66870 323.08360 311.28950 299.17140 286.98630
 274.71020 262.61910 250.64001 239.95291 230.08681 221.20271 213.39661 206.41051
 200.25641 195.20631 191.80021 189.85411 188.90301 188.97891 189.82581 191.14571
 192.88261 194.98951 197.26441 199.63531 202.09221 204.58412 206.68402 208.53792
 210.17582 211.33272 211.57362 211.81352 211.76242 211.47932 211.12422 210.76612
 210.39502 210.11692 209.93682 209.81272 209.75262 210.09552 210.49342 210.89433
 211.69923 212.88913 214.15103 215.94593 217.88583 219.94073 222.04763 224.14253
 226.21443 228.31033 230.41923 232.53713 234.67803 236.86193 239.12983 241.51173
 244.14463 246.40753 248.42144 250.19834 251.62724 252.76214 253.59604 253.92394
 253.97284 253.75874 253.13064 252.09054 250.70844 248.88134 246.80224 244.64714
 242.45004 240.26594 238.09784 235.94874 233.82064 231.69955 229.73745 227.90635
 226.20125 224.68515 223.32705 222.11095 221.00485 219.97675 219.09265 218.24555
 217.49945 216.69135 215.80125 215.17715 214.63905 214.97063 215.67969 215.92273
 215.78726 214.64893 213.96967 214.65594 217.01692 220.94539 225.41360 229.35777
 232.57678 236.52640 240.95708 245.47792 249.70508 253.49776 256.90250 260.01730
 262.93509 265.73254 268.35007 270.55573 272.45084 274.26453 275.81400 276.86682
 278.93912 281.09720 283.07324 284.80838 286.30997 287.63852 288.85059 289.94867
 290.93625 291.81570 292.58398 293.56305
 366.78100 356.34710 345.79119 334.66929 323.08438 311.29048 299.17257 286.98767
 274.71176 262.62086 250.64195 239.95505 230.08914 221.20524 213.39934 206.41343
 200.25953 195.20962 191.80372 189.85781 188.90691 188.98300 189.83010 191.15019
 192.88729 194.99438 197.26948 199.64058 202.09767 204.58977 206.68986 208.54396
 210.18205 211.33915 211.58024 211.82034 211.76943 211.48653 211.13162 210.77372
 210.40282 210.12491 209.94501 209.82110 209.76120 210.10429 210.50239 210.90348
 211.70858 212.89867 214.16077 215.95586 217.89596 219.95106 222.05815 224.15325
 226.22534 228.32144 230.43053 232.54863 234.68972 236.87382 239.14191 241.52401
 244.15710 246.42020 248.43430 250.21139 251.64049 252.77558 253.60968 253.93777
 253.98687 253.77296 253.14506 252.10515 250.72325 248.89634 246.81744 244.66254
 242.46563 240.28173 238.11382 235.96492 233.83701 231.71611 229.75420 227.92330
 226.21839 224.70249 223.34458 222.12868 221.02278 219.99487 219.11097 218.26406
 217.51816 216.71025 215.82035 215.19644 214.65854 214.98720 215.66594 215.82884
 215.89162 214.96097 214.14311 214.56380 216.86281 220.76247 225.20418 229.15440
 232.40077 236.42538 240.93454 245.49493 249.73686 253.53365 256.93365 260.05350
 262.96069 265.76413 268.45224 270.75305 272.69925 274.50943 276.10855 277.08594
 278.93341 281.09222 283.08243 284.82999 286.34232 287.68036 288.90112 290.00705
 291.00171 291.88745 292.66122 293.64731
 366.78100 356.34671 345.79043 334.66814 323.08285 311.28857 299.17028 286.98499
 274.70871 262.61742 250.63813 239.95085 230.08456 221.20027 213.39399 206.40770
 200.25342 195.20313 191.79684 189.85056 188.89927 188.97498 189.82170 191.14141
 192.87812 194.98484 197.25955 199.63026 202.08698 204.57869 206.67840 208.53212
 210.16983 211.32654 211.56726 211.80697 211.75568 211.47240 211.11711 210.75882
 210.38754 210.10925 209.92897 209.80468 209.74439 210.08711 210.48482 210.88553
 211.69025 212.87996 214.14167 215.93639 217.87610 219.93081 222.03753 224.13224
 226.20395 228.29967 230.40838 232.52609 234.66681 236.85052 239.11823 241.49995
 244.13266 246.39537 248.40909 250.18580 251.61452 252.74923 253.58294 253.91066
 253.95937 253.74508 253.11680 252.07651 250.69422 248.86694 246.78765 244.63236
 242.43508 240.25079 238.08250 235.93322 233.80493 231.68364 229.72136 227.89007
 226.18478 224.66850 223.31021 222.09392 220.98764 219.95935 219.07507 218.22778
 217.48149 216.67321 215.78292 215.15863 214.62035 214.96263 215.67690 215.70108
 215.81245 215.22699 214.40659 214.64890 216.88802 220.68433 225.08000 229.03407
 232.25148 236.36499 240.95000 245.50659 249.70486 253.43481 256.79639 259.90811
 262.84134 265.70016 268.48807 270.96466 273.10599 275.02573 276.68719 277.90598
 278.98117 280.72540 282.51239 284.15042 285.56802 286.82220 287.96646 289.00311
 289.93542 290.76569 291.49097 292.41525
 366.78100 356.34641 345.78982 334.66722 323.08163 311.28704 299.16845 286.98286
 274.70627 262.61467 250.63508 239.94749 230.08090 221.19631 213.38972 206.40312
 200.24853 195.19794 191.79135 189.84476 188.89317 188.96857 189.81498 191.13439
 192.87080 194.97721 197.25162 199.62202 202.07843 204.56984 206.66925 208.52266
 210.16007 211.31647 211.55688 211.79629 211.74470 211.46111 211.10551 210.74692
 210.37533 210.09674 209.91615 209.79156 209.73096 210.07337 210.47078 210.87119
 211.67560 212.86501 214.12641 215.92082 217.86023 219.91464 222.02105 224.11546
 226.18686 228.28227 230.39068 232.50809 234.64850 236.83191 239.09931 241.48072
 244.11313 246.37554 248.38895 250.16536 251.59376 252.72817 253.56158 253.88899
 253.93740 253.72280 253.09421 252.05362 250.67103 248.84344 246.76385 244.60825
 242.41066 240.22607 238.05748 235.90789 233.77930 231.65770 229.69511 227.86352
 226.15793 224.64134 223.28275 222.06615 220.95956 219.93097 219.04638 218.19879
 217.45220 216.64360 215.75301 215.12842 214.58983 214.92741 215.67422 215.69698
 215.69371 215.26050 214.49840 214.66750 216.82162 220.57721 225.05919 228.94057
 232.26651 236.39668 240.99510 245.52921 249.67764 253.34174 256.61426 259.67291
 262.59088 265.44531 268.21973 270.75531 272.99124 274.96530 276.67383 278.11066
 279.30371 280.53537 281.93488 283.23630 284.43973 285.52548 286.51605 287.41345
 288.22055 288.93927 289.56714 290.36728
 366.78100 356.34627 345.78954 334.66680 323.08107 311.28634 299.16761 286.98188
 274.70514 262.61341 250.63368 239.94595 230.07921 221.19448 213.38775 206.40102
 200.24629 195.19555 191.78882 189.84209 188.89036 188.96563 189.81189 191.13116
 192.86743 194.97370 197.24797 199.61823 202.07450 204.56577 206.66504 208.51831
 210.15557 211.31184 211.55211 211.79138 211.73964 211.45591 211.10018 210.74145
 210.36972 210.09098 209.91025 209.78552 209.72479 210.06706 210.46432 210.86459
 211.66886 212.85813 214.11940 215.91366 217.85293 219.90720 222.01347 224.10773
 226.17900 228.27427 230.38254 232.49981 234.64007 236.82334 239.09061 241.47188
 244.10415 246.36641 248.37968 250.15595 251.58422 252.71849 253.55175 253.87902
 253.92729 253.71256 253.08382 252.04309 250.66036 248.83263 246.75290 244.59716
 242.39943 240.21470 238.04597 235.89624 233.76750 231.64577 229.68304 227.85131
 226.14558 224.62884 223.27011 222.05338 220.94665 219.91792 219.03318 218.18545
 217.43872 216.62999 215.73925 215.11452 214.57579 214.89824 215.64124 215.79872
 215.62303 215.12378 214.40691 214.47914 216.61874 220.44789 225.05779 228.80869
 232.25870 236.39680 241.04797 245.60706 249.75726 253.42809 256.70749 259.74374
 262.62128 265.41864 268.15210 270.67111 272.88824 274.83707 276.50754 277.93076
 279.19901 280.33328 281.46509 282.51199 283.42700 284.37793 285.33237 286.19699
 286.97464 287.66714 288.27213 289.04306
 366.78100 356.34781 345.79262 334.67143 323.08724 311.29405 299.17685 286.99266
 274.71747 262.62728 250.64909 239.96290 230.09771 221.21452 213.40933 206.42414
 200.27094 195.22175 191.81656 189.87137 188.92118 188.99799 189.84580 191.16661
 192.90442 195.01223 197.28804 199.65984 202.11765 204.61046 206.71127 208.56608
 210.20489 211.36270 211.60451 211.84532 211.79513 211.51293 211.15874 210.80155
 210.43136 210.15417 209.97498 209.85179 209.79260 210.13641 210.53522 210.93702
 211.74283 212.93364 214.19645 215.99226 217.93307 219.98888 222.09669 224.19250
 226.26531 228.36212 230.47192 232.59073 234.73254 236.91735 239.18616 241.56897
 244.20278 246.46659 248.48140 250.25921 251.68901 252.82482 253.65963 253.98844
 254.03825 253.82506 253.19787 252.15868 250.77749 248.95130 246.87311 244.71891
 242.52272 240.33953 238.17234 236.02415 233.89696 231.77677 229.81558 227.98539
 226.28120 224.76600 223.40881 222.19362 221.08843 220.06124 219.17805 218.33186
 217.58667 216.77948 215.89029 215.26710 214.72990 214.95856 215.49988 215.91856
 215.82915 215.10625 214.33247 214.29491 216.43912 220.33034 225.02275 228.64597
 232.20012 236.36967 241.08969 245.67950 249.83620 253.50691 256.79556 259.84280
 262.72595 265.50980 268.21573 270.72607 272.95074 274.89130 276.50928 277.87997
 279.13974 280.31274 281.36243 282.35199 283.25665 283.91528 284.66803 285.51697
 286.28952 286.97745 287.57843 288.34430
 366.78100 356.34959 345.79618 334.67677 323.09436 311.30295 299.18754 287.00513
 274.73172 262.64331 250.66690 239.98249 230.11908 221.23767 213.43426 206.45085
 200.29944 195.25203 191.84862 189.90521 188.95680 189.03539 189.88498 191.20757
 192.94716 195.05675 197.33434 199.70793 202.16752 204.66211 206.76470 208.62129
 210.26188 211.42147 211.66506 211.90765 211.85924 211.57883 211.22642 210.87101
 210.50260 210.22719 210.04978 209.92837 209.87096 210.21655 210.61714 211.02073
 211.82831 213.02090 214.28549 216.08308 218.02567 220.08326 222.19285 224.29044
 226.36503 228.46362 230.57521 232.69580 234.83939 237.02598 239.29657 241.68116
 244.31675 246.58234 248.59893 250.37852 251.81011 252.94770 253.78429 254.11488
 254.16647 253.95506 253.32965 252.29224 250.91283 249.08842 247.01201 244.85960
 242.66519 240.48378 238.31837 236.17196 234.04655 231.92814 229.96873 228.14032
 226.43791 224.92450 223.56909 222.35568 221.25227 220.22686 219.34545 218.50104
 217.75763 216.95222 216.06481 215.44340 214.90799 215.04814 215.38824 215.89824
 216.01752 215.13759 214.25157 214.21431 216.35823 220.24634 224.91016 228.57112
 232.09995 236.35924 241.11566 245.73018 249.88393 253.53706 256.81418 259.85477
 262.72830 265.51038 268.22137 270.74539 272.98505 274.91846 276.47818 277.81207
 279.07773 280.29666 281.39499 282.33234 283.16437 284.00607 284.87567 285.70050
 286.44232 287.10294 287.68005 288.41550
 366.78100 356.34962 345.79624 334.67686 323.09448 311.30311 299.18773 287.00535
 274.73197 262.64359 250.66721 239.98283 230.11945 221.23807 213.43469 206.45132
 200.29994 195.25256 191.84918 189.90580 188.95742 189.03604 189.88566 191.20828
 192.94790 195.05753 197.33515 199.70877 202.16839 204.66301 206.76563 208.62225
 210.26287 211.42249 211.66611 211.90874 211.86036 211.57998 211.22760 210.87222
 210.50384 210.22846 210.05108 209.92970 209.87233 210.21795 210.61857 211.02219
 211.82981 213.02243 214.28705 216.08467 218.02729 220.08491 222.19454 224.29216
 226.36678 228.46540 230.57702 232.69764 234.84126 237.02788 239.29850 241.68312
 244.31875 246.58437 248.60099 250.38061 251.81223 252.94985 253.78647 254.11709
 254.16871 253.95733 253.33196 252.29458 250.91520 249.09082 247.01444 244.86206
 242.66768 240.48630 238.32092 236.17454 234.04917 231.93079 229.97141 228.14303
 226.44065 224.92727 223.57189 222.35851 221.25513 220.22976 219.34838 218.50400
 217.76062 216.95524 216.06786 215.44648 214.91110 215.05553 215.40523 215.80679
 215.99686 215.12442 214.25282 214.32207 216.44460 220.24815 224.84865 228.60605
 232.06851 236.38472 241.15506 245.79587 249.96028 253.60808 256.87589 259.90054
 262.74783 265.51605 268.23044 270.76843 273.00787 274.90353 276.44440 277.76645
 279.07693 280.33038 281.35617 282.18286 283.16739 284.16083 285.09808 285.94717
 286.71085 287.39090 287.98499 288.74207
 366.78100 356.34826 345.79352 334.67278 323.08905 311.29631 299.17957 286.99583
 274.72109 262.63135 250.65361 239.96788 230.10314 221.22040 213.41566 206.43092
 200.27818 195.22944 191.82471 189.87997 188.93023 189.00749 189.85575 191.17701
 192.91528 195.02354 197.29980 199.67206 202.13032 204.62358 206.72484 208.58011
 210.21937 211.37763 211.61989 211.86115 211.81141 211.52967 211.17594 210.81920
 210.44946 210.17272 209.99398 209.87124 209.81250 210.15677 210.55603 210.95829
 211.76455 212.95581 214.21907 216.01533 217.95660 220.01286 222.12112 224.21738
 226.29064 228.38790 230.49816 232.61743 234.75969 236.94495 239.21421 241.59747
 244.23173 246.49600 248.51126 250.28952 251.71978 252.85604 253.69130 254.02056
 254.07083 253.85809 253.23135 252.19261 250.81187 248.98613 246.90839 244.75466
 242.55892 240.37618 238.20944 236.06170 233.93496 231.81522 229.85449 228.02475
 226.32101 224.80627 223.44953 222.23479 221.13005 220.10332 219.22058 218.37484
 217.63010 216.82336 215.93462 215.31189 214.77515 214.98924 215.48395 215.70445
 216.01645 215.17442 214.24751 214.33418 216.45352 220.24207 224.81923 228.57520
 232.03308 236.38177 241.18163 245.84799 250.01996 253.66249 256.92557 259.94888
 262.79175 265.56125 268.29547 270.85565 273.12094 275.03818 276.58038 277.89871
 279.20477 280.42294 281.33615 282.19299 283.24323 284.26083 285.19690 286.04489
 286.80759 287.48676 288.08008 288.83618
 366.78100 356.34856 345.79413 334.67369 323.09026 311.29782 299.18139 286.99795
 274.72352 262.63408 250.65665 239.97121 230.10678 221.22434 213.41991 206.43547
 200.28303 195.23460 191.83016 189.88573 188.93629 189.01386 189.86242 191.18399
 192.92255 195.03112 197.30768 199.68025 202.13881 204.63238 206.73394 208.58950
 210.22907 211.38763 211.63020 211.87176 211.82233 211.54089 211.18746 210.83102
 210.46159 210.18515 210.00672 209.88428 209.82584 210.17041 210.56997 210.97254
 211.77910 212.97067 214.23423 216.03080 217.97236 220.02893 222.13749 224.23406
 226.30762 228.40519 230.51575 232.63531 234.77788 236.96344 239.23301 241.61657
 244.25114 246.51570 248.53127 250.30983 251.74040 252.87696 253.71253 254.04209
 254.09266 253.88022 253.25378 252.21535 250.83491 249.00948 246.93204 244.77861
 242.58317 240.40074 238.23430 236.08687 233.96043 231.84100 229.88056 228.05113
 226.34769 224.83325 223.47682 222.26238 221.15795 220.13151 219.24908 218.40364
 217.65921 216.85277 215.96434 215.34190 214.80547 215.00461 215.46231 215.65033
 216.10683 215.32730 214.29776 214.28233 216.35774 220.13933 224.67636 228.41867
 231.93097 236.33914 241.17320 245.84106 249.99382 253.62184 256.88870 259.92813
 262.78595 265.57953 268.34781 270.95148 273.26593 275.24194 276.83090 278.15982
 279.43604 280.61572 281.50116 282.31818 283.34991 284.33517 285.23523 286.05063
 286.78400 287.43707 288.00757 288.73462
 366.78100 356.34909 345.79517 334.67526 323.09234 311.30043 299.18451 287.00160
 274.72769 262.63877 250.66186 239.97694 230.11303 221.23111 213.42720 206.44329
 200.29137 195.24346 191.83954 189.89563 188.94671 189.02480 189.87389 191.19597
 192.93506 195.04414 197.32123 199.69432 202.15340 204.64749 206.74957 208.60566
 210.24574 211.40483 211.64792 211.89000 211.84109 211.56017 211.20726 210.85134
 210.48243 210.20652 210.02860 209.90669 209.84877 210.19386 210.59394 210.99703
 211.80412 212.99620 214.26029 216.05737 217.99946 220.05654 222.16563 224.26272
 226.33680 228.43489 230.54597 232.66606 234.80914 236.99523 239.26532 241.64940
 244.28449 246.54957 248.56566 250.34474 251.77583 252.91292 253.74900 254.07909
 254.13017 253.91826 253.29235 252.25443 250.87452 249.04960 246.97269 244.81977
 242.62486 240.44295 238.27703 236.13012 234.00420 231.88529 229.92537 228.09646
 226.39355 224.87963 223.52372 222.30980 221.20589 220.17997 219.29806 218.45315
 217.70923 216.90332 216.01540 215.39349 214.85757 215.02678 215.42064 215.62881
 216.03531 215.47441 214.49150 214.31880 216.27457 220.02917 224.53488 228.24231
 231.82765 236.29726 241.15872 245.80779 249.92377 253.53133 256.79996 259.84686
 262.71945 265.54172 268.33707 270.98163 273.34641 275.37912 277.01465 278.35098
 279.62515 280.79520 281.65979 282.31256 283.22549 284.15887 284.99597 285.75433
 286.43640 287.04379 287.57440 288.25058
 366.78100 356.34811 345.79321 334.67232 323.08843 311.29553 299.17864 286.99475
 274.71985 262.62996 250.65207 239.96617 230.10128 221.21839 213.41349 206.42860
 200.27571 195.22681 191.82192 189.87703 188.92713 189.00424 189.85235 191.17346
 192.91156 195.01967 197.29578 199.66788 202.12599 204.61910 206.72020 208.57531
 210.21442 211.37252 211.61463 211.85574 211.80584 211.52395 211.17006 210.81316
 210.44327 210.16638 209.98748 209.86459 209.80570 210.14980 210.54891 210.95102
 211.75712 212.94823 214.21134 216.00744 217.94855 220.00466 222.11276 224.20887
 226.28198 228.37908 230.48919 232.60830 234.75040 236.93551 239.20462 241.58772
 244.22183 246.48594 248.50104 250.27915 251.70926 252.84537 253.68047 254.00958
 254.05969 253.84679 253.21990 252.18101 250.80011 248.97422 246.89633 244.74243
 242.54654 240.36365 238.19675 236.04886 233.92197 231.80207 229.84118 228.01129
 226.30739 224.79250 223.43561 222.22071 221.11582 220.08893 219.20603 218.36014
 217.61525 216.80835 215.91946 215.29657 214.75967 214.96722 215.45230 215.66307
 215.84634 215.46452 214.68481 214.40494 216.22844 219.96666 224.45886 228.10040
 231.75931 236.27180 241.16075 245.79861 249.89240 253.49174 256.75958 259.79556
 262.65970 265.48135 268.28839 270.95416 273.36658 275.44989 277.11624 278.47519
 279.74036 280.88846 281.73685 282.30029 283.00964 283.88821 284.76102 285.53836
 286.23749 286.86005 287.40393 288.09702
 366.78100 356.34744 345.79188 334.67033 323.08577 311.29221 299.17465 286.99010
 274.71454 262.62398 250.64542 239.95886 230.09331 221.20975 213.40419 206.41863
 200.26508 195.21552 191.80996 189.86440 188.91384 188.99029 189.83773 191.15817
 192.89561 195.00306 197.27850 199.64994 202.10738 204.59982 206.70027 208.55471
 210.19315 211.35059 211.59204 211.83248 211.78192 211.49936 211.14480 210.78725
 210.41669 210.13913 209.95957 209.83602 209.77646 210.11990 210.51834 210.91978
 211.72523 212.91567 214.17811 215.97355 217.91400 219.96944 222.07688 224.17232
 226.24476 228.34121 230.45065 232.56909 234.71053 236.89498 239.16342 241.54586
 244.17930 246.44274 248.45719 250.23463 251.66407 252.79951 253.63396 253.96240
 254.01184 253.79828 253.17072 252.13117 250.74961 248.92305 246.84449 244.68994
 242.49338 240.30982 238.14226 235.99370 233.86615 231.74559 229.78403 227.95347
 226.24892 224.73336 223.37580 222.16024 221.05468 220.02713 219.14357 218.29701
 217.55145 216.74390 215.85434 215.23078 214.69322 214.92345 215.46420 215.70280
 215.85054 215.43620 214.76224 214.44214 216.18266 219.91684 224.42116 227.98694
 231.71364 236.25768 241.17754 245.81703 249.90660 253.51169 256.78354 259.80463
 262.63901 265.42755 268.22147 270.89999 273.35101 275.49115 277.20575 278.58151
 279.85300 281.00131 281.87091 282.40674 282.91125 283.63287 284.47055 285.20477
 285.83075 286.38818 286.87512 287.49570
 366.78100 356.34727 345.79155 334.66982 323.08510 311.29137 299.17364 286.98892
 274.71319 262.62247 250.64374 239.95701 230.09129 221.20756 213.40184 206.41611
 200.26239 195.21266 191.80693 189.86121 188.91048 188.98676 189.83403 191.15430
 192.89158 194.99885 197.27413 199.64540 202.10267 204.59495 206.69522 208.54950
 210.18777 211.34504 211.58632 211.82659 211.77587 211.49314 211.13841 210.78069
 210.40996 210.13224 209.95251 209.82878 209.76906 210.11233 210.51061 210.91188
 211.71716 212.90743 214.16970 215.96498 217.90525 219.96053 222.06780 224.16307
 226.23535 228.33162 230.44090 232.55917 234.70044 236.88472 239.15299 241.53527
 244.16854 246.43181 248.44609 250.22336 251.65264 252.78791 253.62218 253.95046
 253.99973 253.78601 253.15828 252.11856 250.73683 248.91010 246.83138 244.67665
 242.47993 240.29620 238.12847 235.97975 233.85202 231.73130 229.76957 227.93884
 226.23412 224.71839 223.36067 222.14494 221.03921 220.01149 219.12776 218.28104
 217.53531 216.72758 215.83786 215.21413 214.67641 214.91141 215.46426 215.67442
 215.97659 215.44969 214.71158 214.36176 216.11028 219.89545 224.36981 227.89487
 231.67313 236.25031 241.19127 245.82942 249.92070 253.54022 256.82672 259.84265
 262.64148 265.37024 268.12567 270.81381 273.31085 275.51154 277.26953 278.66888
 279.96359 281.12735 281.98880 282.49771 282.90723 283.53598 284.31940 285.05429
 285.60617 286.09760 286.52692 287.07404
 366.78100 356.34618 345.78935 334.66653 323.08071 311.28588 299.16706 286.98123
 274.70441 262.61259 250.63276 239.94494 230.07812 221.19329 213.38647 206.39965
 200.24482 195.19400 191.78717 189.84035 188.88853 188.96370 189.80988 191.12906
 192.86523 194.97141 197.24559 199.61576 202.07194 204.56311 206.66229 208.51547
 210.15264 211.30882 211.54900 211.78817 211.73635 211.45252 211.09670 210.73788
 210.36605 210.08723 209.90641 209.78158 209.72076 210.06294 210.46011 210.86029
 211.66446 212.85364 214.11482 215.90899 217.84817 219.90235 222.00852 224.10270
 226.17388 228.26905 230.37723 232.49440 234.63458 236.81776 239.08493 241.46611
 244.09829 246.36046 248.37364 250.14982 251.57799 252.71217 253.54534 253.87252
 253.92070 253.70587 253.07705 252.03623 250.65340 248.82558 246.74576 244.58993
 242.39211 240.20728 238.03846 235.88864 233.75981 231.63799 229.67517 227.84334
 226.13752 224.62070 223.26187 222.04505 220.93822 219.90940 219.02458 218.17675
 217.42993 216.62111 215.73028 215.10546 214.56664 214.85751 215.53841 215.58765
 216.01231 215.49501 214.64865 214.33359 216.08398 219.81525 224.28333 227.86090
 231.64928 236.25143 241.19922 245.83217 249.92946 253.56924 256.87631 259.89413
 262.66528 265.33447 268.02502 270.69608 273.24197 275.51797 277.32071 278.73529
 280.06302 281.23157 282.07120 282.52609 282.90613 283.49323 284.24396 284.94736
 285.47272 285.94055 286.34924 286.87006
 366.78100 356.34460 345.78620 334.66180 323.07441 311.27801 299.15761 286.97021
 274.69181 262.59841 250.61702 239.92762 230.05922 221.17282 213.36442 206.37602
 200.21963 195.16723 191.75883 189.81043 188.85703 188.93063 189.77524 191.09284
 192.82744 194.93204 197.20464 199.57324 202.02785 204.51745 206.61505 208.46665
 210.10225 211.25685 211.49546 211.73306 211.67966 211.39426 211.03686 210.67646
 210.30307 210.02267 209.84027 209.71387 209.65147 209.99207 210.38768 210.78628
 211.58888 212.77648 214.03608 215.82868 217.76629 219.81889 221.92349 224.01609
 226.08569 228.17929 230.28590 232.40150 234.54010 236.72170 238.98730 241.36690
 243.99751 246.25811 248.26971 250.04431 251.47091 252.60351 253.43512 253.76072
 253.80732 253.59092 252.96052 251.91812 250.53372 248.70433 246.62293 244.46553
 242.26613 240.07973 237.90933 235.75794 233.62754 231.50414 229.53974 227.70634
 225.99894 224.48055 223.12015 221.90175 220.79335 219.76295 218.87655 218.02716
 217.27876 216.46836 215.57596 214.94956 214.40916 214.77861 215.63936 215.54970
 215.87833 215.56038 214.64748 214.23512 216.05083 219.78860 224.24431 227.87784
 231.64948 236.26025 241.20399 245.83060 249.93474 253.59547 256.92545 259.95309
 262.71158 265.33014 267.94180 270.57510 273.16153 275.51917 277.36990 278.81314
 280.16870 281.33246 282.12573 282.51483 282.87057 283.43735 284.16693 284.82294
 285.31262 285.74869 286.12964 286.61511
 366.78100 356.34407 345.78514 334.66021 323.07227 311.27534 299.15441 286.96648
 274.68755 262.59362 250.61169 239.92176 230.05282 221.16589 213.35696 206.36803
 200.21110 195.15817 191.74924 189.80030 188.84637 188.91944 189.76351 191.08058
 192.81465 194.91872 197.19079 199.55885 202.01292 204.50199 206.59906 208.45013
 210.08520 211.23927 211.47733 211.71440 211.66047 211.37454 211.01661 210.65568
 210.28175 210.00081 209.81788 209.69095 209.62802 209.96809 210.36316 210.76123
 211.56330 212.75036 214.00943 215.80150 217.73857 219.79064 221.89471 223.98678
 226.05584 228.14891 230.25498 232.37005 234.50812 236.68919 238.95426 241.33333
 243.96339 246.22346 248.23453 250.00860 251.43467 252.56674 253.39781 253.72287
 253.76894 253.55201 252.92108 251.87815 250.49322 248.66329 246.58136 244.42342
 242.22349 240.03656 237.86563 235.71370 233.58277 231.45884 229.49390 227.65997
 225.95204 224.43311 223.07218 221.85325 220.74432 219.71338 218.82645 217.97652
 217.22759 216.41666 215.52373 214.89680 214.35587 214.74788 215.66510 215.62086
 215.72705 215.55508 214.68372 214.15651 216.01062 219.77243 224.23265 227.87164
 231.64192 236.25874 241.20215 245.81738 249.91953 253.59323 256.94272 259.98444
 262.74844 265.34528 267.88858 270.46417 273.07666 275.52689 277.45734 278.93488
 280.31821 281.49176 282.26871 282.59988 282.89505 283.39240 284.06979 284.74149
 285.21069 285.62854 285.99353 286.45871
 366.78100 356.34378 345.78457 334.65935 323.07114 311.27392 299.15271 286.96449
 274.68527 262.59106 250.60884 239.91863 230.04941 221.16220 213.35298 206.36376
 200.20655 195.15333 191.74412 189.79490 188.84068 188.91347 189.75725 191.07404
 192.80782 194.91161 197.18339 199.55117 202.00496 204.49374 206.59053 208.44131
 210.07610 211.22988 211.46766 211.70445 211.65023 211.36402 211.00580 210.64459
 210.27037 209.98915 209.80594 209.67872 209.61551 209.95529 210.35007 210.74786
 211.54964 212.73643 213.99521 215.78700 217.72378 219.77556 221.87935 223.97113
 226.03992 228.13270 230.23849 232.35327 234.49105 236.67184 238.93662 241.31541
 243.94519 246.20498 248.21576 249.98954 251.41533 252.54711 253.37790 253.70268
 253.74846 253.53125 252.90003 251.85682 250.47160 248.64139 246.55917 244.40095
 242.20074 240.01352 237.84231 235.69009 233.55888 231.43466 229.46944 227.63523
 225.92701 224.40780 223.04658 221.82737 220.71815 219.68693 218.79972 217.94950
 217.20029 216.38907 215.49585 214.86864 214.32742 214.72694 215.66977 215.70262
 215.67059 215.51030 214.73595 214.07153 215.95473 219.73456 224.19852 227.81694
 231.61967 236.25195 241.19077 245.78264 249.87599 253.56415 256.93820 259.99963
 262.77499 265.35544 267.84116 270.35565 272.97766 275.50824 277.55026 279.10678
 280.50540 281.68735 282.45282 282.76685 283.04446 283.46667 284.05972 284.71445
 285.24878 285.65445 286.00885 286.46051
 366.78100 356.34360 345.78419 334.65879 323.07038 311.27298 299.15158 286.96317
 274.68377 262.58937 250.60696 239.91656 230.04715 221.15975 213.35035 206.36094
 200.20354 195.15014 191.74073 189.79133 188.83692 188.90952 189.75312 191.06971
 192.80331 194.90691 197.17850 199.54610 201.99969 204.48829 206.58489 208.43548
 210.07008 211.22368 211.46127 211.69787 211.64346 211.35706 210.99866 210.63725
 210.26285 209.98145 209.79804 209.67064 209.60723 209.94683 210.34143 210.73902
 211.54062 212.72722 213.98581 215.77741 217.71400 219.76560 221.86920 223.96079
 226.02939 228.12199 230.22758 232.34218 234.47977 236.66037 238.92497 241.30356
 243.93316 246.19276 248.20335 249.97695 251.40254 252.53414 253.36474 253.68933
 253.73493 253.51753 252.88612 251.84272 250.45731 248.62691 246.54451 244.38610
 242.18570 239.99830 237.82689 235.67449 233.54308 231.41868 229.45328 227.61887
 225.91047 224.39107 223.02966 221.81026 220.70085 219.66945 218.78205 217.93164
 217.18224 216.37084 215.47743 214.85003 214.30862 214.71013 215.65872 215.76779
 215.71603 215.38454 214.68277 214.10022 215.92987 219.67761 224.16708 227.73820
 231.59300 236.24731 241.19466 245.77063 249.85902 253.55945 256.95053 260.02069
 262.80164 265.37610 267.81769 270.25433 272.84943 275.46860 277.63080 279.23453
 280.62299 281.81732 282.58603 282.89642 283.12747 283.47351 283.99350 284.62820
 285.25696 285.78854 286.23892 286.81290
 366.78100 356.34413 345.78527 334.66040 323.07253 311.27567 299.15480 286.96694
 274.68807 262.59420 250.61234 239.92247 230.05360 221.16674 213.35787 206.36900
 200.21214 195.15927 191.75041 189.80154 188.84767 188.92081 189.76494 191.08207
 192.81621 194.92034 197.19248 199.56061 202.01474 204.50388 206.60101 208.45214
 210.08728 211.24141 211.47954 211.71668 211.66281 211.37695 211.01908 210.65821
 210.28435 210.00348 209.82061 209.69375 209.63088 209.97101 210.36615 210.76428
 211.56642 212.75355 214.01268 215.80482 217.74195 219.79408 221.89822 223.99035
 226.05948 228.15262 230.25875 232.37389 234.51202 236.69315 238.95829 241.33742
 243.96755 246.22769 248.23882 250.01296 251.43909 252.57122 253.40236 253.72749
 253.77362 253.55676 252.92589 251.88302 250.49816 248.66829 246.58643 244.42856
 242.22869 240.04183 237.87096 235.71909 233.58823 231.46436 229.49949 227.66563
 225.95776 224.43890 223.07803 221.85916 220.75030 219.71943 218.83256 217.98270
 217.23383 216.42296 215.53010 214.90323 214.36237 214.73520 215.61607 215.82535
 215.79945 215.33446 214.51178 213.92183 215.93340 219.69211 224.13152 227.78474
 231.62862 236.28143 241.21283 245.78264 249.87740 253.59970 257.00485 260.07559
 262.84857 265.38010 267.74847 270.11765 272.71570 275.43005 277.66278 279.33533
 280.77612 281.91956 282.56198 282.78259 283.07495 283.52344 284.06631 284.71835
 285.37549 285.93179 286.30096 286.77145
 354.97500 345.04800 334.58700 324.11500 313.32600 302.53700 291.65000 280.76700
 269.93100 259.19300 248.62200 238.61700 229.08700 220.35500 212.54000 205.53500
 199.46400 194.49300 191.14300 189.19000 188.08900 188.01400 188.72400 189.90600
 191.46900 193.38200 195.40300 197.55600 199.80700 202.06000 204.28800 206.47900
 208.55200 210.37800 212.02500 213.65900 214.99800 216.11800 217.17200 218.25900
 219.49400 220.64500 221.67900 222.61400 223.54500 224.98200 226.57100 228.19000
 229.79700 231.81100 233.86500 235.97200 238.24200 240.55300 242.89900 245.25300
 247.48800 249.53500 251.36600 252.84800 254.09800 255.16700 256.02700 256.25300
 256.09500 255.54300 253.93500 252.56600 251.38400 250.24500 249.05200 247.70100
 246.01600 243.99600 241.78400 239.39300 236.81300 234.22300 231.65800 229.14400
 226.74000 224.47300 222.33500 220.32500 218.44000 216.67700 214.96200 213.47200
 212.20000 211.10800 210.26000 209.63900 209.24400 209.03100 209.05800 209.33300
 209.78400 210.62600 211.33100 212.39100 213.62500 214.84668 217.72949 219.47640
 220.32566 220.86828 220.88710 220.27371 219.43733 218.84250 219.04934 220.86203
 222.60583 225.72206 229.03064 232.61777 236.12270 239.51333 242.70767 245.68587
 248.41061 250.90679 253.19353 254.91714 256.48655 257.94920 259.39966 260.69384
 261.81714 262.77997 263.71679 264.54570 265.26305 265.89772 266.47676 267.00133
 267.47312 267.89325 268.26027 268.72800
