|-------------------------------------------------------------------------|
|   File Name : in_temp.dat
|   Subject   : temperature profiles used for initial guess atmosphere
|   File Type : input of gmtr
|   Data Type : atmospherical data
|   Author/s  : WRF-Chem
|   Date      : Fri Jul 26 15:39:24 2024
|-------------------------------------------------------------------------|

 WRF-Chem temperature
#
 values of T (K)    (8f10.5)
#
 354.97500 345.04800 334.58700 324.11500 313.32600 302.53700 291.65000 280.76700
 269.93100 259.19300 248.62200 238.61700 229.08700 220.35500 212.54000 205.53500
 199.46400 194.49300 191.14300 189.19000 188.08900 188.01400 188.72400 189.90600
 191.46900 193.38200 195.40300 197.55600 199.80700 202.06000 204.28800 206.47900
 208.55200 210.37800 212.02500 213.65900 214.99800 216.11800 217.17200 218.25900
 219.49400 220.64500 221.67900 222.61400 223.54500 224.98200 226.57100 228.19000
 229.79700 231.81100 233.86500 235.97200 238.24200 240.55300 242.89900 245.25300
 247.48800 249.53500 251.36600 252.84800 254.09800 255.16700 256.02700 256.25300
 256.09500 255.54300 253.93500 252.56600 251.38400 250.24500 249.05200 247.70100
 246.01600 243.99600 241.78400 239.39300 236.81300 234.22300 231.65800 229.14400
 226.74000 224.47300 222.33500 220.32500 218.44000 216.67700 214.96200 213.47200
 212.20000 211.10800 210.26000 209.63900 209.24400 209.03100 209.05800 209.33300
 209.78400 210.62600 211.33100 212.39100 213.62500 214.84668 217.72949 219.47640
 220.32566 220.86828 220.88710 220.27371 219.43733 218.84250 219.04934 220.86203
 222.60583 225.72206 229.03064 232.61777 236.12270 239.51333 242.70767 245.68587
 248.41061 250.90679 253.19353 254.91714 256.48655 257.94920 259.39966 260.69384
 261.81714 262.77997 263.71679 264.54570 265.26305 265.89772 266.47676 267.00133
 267.47312 267.89325 268.26027 268.72800
 366.78100 356.33500 345.76700 334.63300 323.03600 311.23000 299.10000 286.90300
 274.61500 262.51200 250.52100 239.82200 229.94400 221.04800 213.23000 206.23200
 200.06600 195.00400 191.58600 189.62800 188.66500 188.72900 189.56400 190.87200
 192.59700 194.69200 196.95500 199.31400 201.75900 204.23900 206.32700 208.16900
 209.79500 210.94000 211.16900 211.39700 211.33400 211.03900 210.67200 210.30200
 209.91900 209.62900 209.43700 209.30100 209.22900 209.56000 209.94600 210.33500
 211.12800 212.30600 213.55600 215.33900 217.26700 219.31000 221.40500 223.48800
 225.54800 227.63200 229.72900 231.83500 233.96400 236.13600 238.39200 240.76200
 243.38300 245.63400 247.63600 249.40100 250.81800 251.94100 252.76300 253.07900
 253.11600 252.89000 252.25000 251.19800 249.80400 247.96500 245.87400 243.70700
 241.49800 239.30200 237.12200 234.96100 232.82100 230.68800 228.71400 226.87100
 225.15400 223.62600 222.25600 221.02800 219.91000 218.87000 217.97400 217.11500
 216.35700 215.53700 214.63500 213.99900 213.44900 212.85855 212.01316 212.61654
 214.26826 216.08686 218.14273 220.53346 223.40855 226.78828 231.49734 235.90155
 239.42278 243.28576 247.23140 251.11907 254.80144 258.23331 261.38913 264.27520
 266.89312 269.26852 271.44504 273.08845 274.58484 275.98591 277.39845 278.65879
 279.75272 280.69038 281.56708 282.34086 283.01050 283.60295 284.14348 284.63317
 285.07358 285.46577 285.80838 286.24500
 381.81900 372.39900 361.20600 349.77600 337.62200 324.85300 311.81000 298.35300
 284.86000 271.32400 258.56100 246.30400 236.08700 226.79600 218.44800 211.29000
 205.52200 200.89400 197.38100 194.84800 193.01500 192.31500 192.25000 192.43100
 192.91200 193.53700 194.13600 194.71200 195.26200 195.83100 196.39300 196.97600
 197.60400 198.14900 198.58400 199.05700 199.69500 200.37800 201.05400 201.70800
 202.31300 202.85700 203.35500 203.86200 204.56900 205.29700 206.02600 206.98700
 208.19300 209.44100 210.96900 212.57600 214.46200 216.51300 218.63000 220.85300
 223.34100 225.96200 228.73900 231.69700 234.70600 237.70600 240.69200 243.65700
 246.73700 249.69900 252.52100 255.06300 257.29000 259.23300 260.63300 261.68000
 262.46100 262.79800 262.69100 262.22400 261.06900 259.52500 257.70700 255.50700
 253.00100 250.30200 247.39800 244.45200 241.65400 239.05400 236.73300 234.59000
 232.59500 230.72500 228.83400 226.82600 224.66600 222.38700 220.10400 217.71500
 215.45900 213.06600 210.54600 208.09300 205.35400 202.08130 196.05959 200.71215
 209.01611 216.90438 223.84126 229.78593 235.00632 240.20838 245.98943 250.68668
 254.32982 257.93487 261.55666 264.96801 268.15192 271.06452 273.76717 276.25691
 278.57680 280.74479 282.77456 284.60533 286.27232 287.81705 289.31715 290.65561
 291.81734 292.81312 293.70701 294.49387 295.17482 295.77730 296.32696 296.82492
 297.27278 297.67160 298.02000 298.46400
 399.33000 389.90700 379.81300 368.66800 357.52200 345.30100 333.07400 320.22700
 307.21600 293.84800 280.37600 267.29600 254.61000 242.98700 232.15100 221.97700
 212.67200 204.28600 197.66900 192.82100 189.48600 187.45200 186.81400 187.08900
 187.78100 189.05400 190.64800 192.54200 194.63000 196.75200 198.67100 200.15800
 201.53500 202.48700 202.97500 203.34000 203.53900 203.49700 203.38500 203.24700
 203.00500 202.78600 202.60300 202.43700 202.42600 202.88800 203.42000 203.95100
 204.89500 205.99200 207.30100 208.95800 210.73800 213.10000 215.56400 218.18000
 220.96600 223.91800 226.96100 230.09200 233.29300 236.55700 239.95500 243.53700
 246.84500 249.39000 251.54200 253.47400 255.19500 256.48400 257.43100 258.05900
 258.21200 258.04000 257.58200 256.64300 255.23900 253.50700 251.40800 249.05600
 246.57600 243.99400 241.38900 238.83000 236.34400 233.98600 231.96900 230.11800
 228.42300 226.89900 225.54800 224.29700 223.10500 221.96500 220.95800 220.11300
 219.49000 218.92000 218.32500 217.88100 217.42300 216.96366 216.35568 216.80261
 217.73415 218.28582 218.64258 219.10077 220.44626 222.53987 226.38451 230.35736
 233.59734 237.39164 241.29814 245.22796 248.98002 252.51130 255.78595 258.80109
 261.54781 264.05210 266.34239 268.04198 269.58951 271.01303 272.35754 273.55718
 274.59842 275.49092 276.28989 276.99307 277.60161 278.14001 278.63122 279.07623
 279.47646 279.83287 280.14422 280.54100
 399.73800 389.78500 379.66200 368.15100 356.64100 344.35000 331.79200 318.88800
 305.72600 292.49300 279.20900 266.73800 254.69600 244.21100 234.45700 225.43300
 217.56900 210.45100 204.30000 199.30600 195.45800 192.57600 191.02700 190.38600
 190.23900 190.53400 191.16600 191.92500 192.79500 193.76600 194.73200 195.31200
 195.80000 196.05200 196.11500 196.11500 196.03900 195.72300 195.34000 194.98900
 194.75100 194.79200 195.13300 195.59800 196.50600 198.13600 199.85800 201.56600
 204.17900 206.82300 209.89300 213.28400 216.82800 220.60500 224.38700 228.20900
 232.03200 235.82500 239.56000 243.25800 246.84500 250.20100 253.70900 257.46800
 261.53000 264.22100 266.60100 268.68100 270.32900 271.74100 272.83600 273.47400
 273.89800 274.00200 273.75700 273.28800 272.37100 271.10000 269.58900 267.77900
 265.81600 263.72100 261.39300 258.91600 256.29800 253.42300 250.33100 247.11400
 243.83700 240.52900 237.24900 233.99900 230.72800 227.51500 224.25400 220.95200
 217.62700 213.65600 210.12100 206.78900 204.01000 201.99491 199.07309 198.76551
 199.40006 200.48994 201.46112 202.31912 203.45100 204.96110 207.47502 210.85391
 213.70530 217.29629 220.99574 224.72316 228.28753 231.64854 234.68024 237.40893
 239.70644 241.60899 243.46854 245.67368 247.68154 249.52395 251.24767 252.78566
 254.12057 255.26479 256.23740 257.09036 257.82852 258.48160 259.07744 259.61723
 260.10271 260.53504 260.91270 261.39400
 399.73800 389.78500 379.66200 368.15100 356.64100 344.35000 331.79200 318.88800
 305.72600 292.49300 279.20900 266.73800 254.69600 244.21100 234.45700 225.43300
 217.56900 210.45100 204.30000 199.30600 195.45800 192.57600 191.02700 190.38600
 190.23900 190.53400 191.16600 191.92500 192.79500 193.76600 194.73200 195.31200
 195.80000 196.05200 196.11500 196.11500 196.03900 195.72300 195.34000 194.98900
 194.75100 194.79200 195.13300 195.59800 196.50600 198.13600 199.85800 201.56600
 204.17900 206.82300 209.89300 213.28400 216.82800 220.60500 224.38700 228.20900
 232.03200 235.82500 239.56000 243.25800 246.84500 250.20100 253.70900 257.46800
 261.53000 264.22100 266.60100 268.68100 270.32900 271.74100 272.83600 273.47400
 273.89800 274.00200 273.75700 273.28800 272.37100 271.10000 269.58900 267.77900
 265.81600 263.72100 261.39300 258.91600 256.29800 253.42300 250.33100 247.11400
 243.83700 240.52900 237.24900 233.99900 230.72800 227.51500 224.25400 220.95200
 217.62700 213.65600 210.12100 206.78900 204.01000 201.99491 199.07309 198.76551
 199.40006 200.48994 201.46112 202.31912 203.45100 204.96110 207.47502 210.85391
 213.70530 217.29629 220.99574 224.72316 228.28753 231.64854 234.68024 237.40893
 239.70644 241.60899 243.46854 245.67368 247.68154 249.52395 251.24767 252.78566
 254.12057 255.26479 256.23740 257.09036 257.82852 258.48160 259.07744 259.61723
 260.10271 260.53504 260.91270 261.39400
 399.33000 389.90700 379.81300 368.66800 357.52200 345.30100 333.07400 320.22700
 307.21600 293.84800 280.37600 267.29600 254.61000 242.98700 232.15100 221.97700
 212.67200 204.28600 197.66900 192.82100 189.48600 187.45200 186.81400 187.08900
 187.78100 189.05400 190.64800 192.54200 194.63000 196.75200 198.67100 200.15800
 201.53500 202.48700 202.97500 203.34000 203.53900 203.49700 203.38500 203.24700
 203.00500 202.78600 202.60300 202.43700 202.42600 202.88800 203.42000 203.95100
 204.89500 205.99200 207.30100 208.95800 210.73800 213.10000 215.56400 218.18000
 220.96600 223.91800 226.96100 230.09200 233.29300 236.55700 239.95500 243.53700
 246.84500 249.39000 251.54200 253.47400 255.19500 256.48400 257.43100 258.05900
 258.21200 258.04000 257.58200 256.64300 255.23900 253.50700 251.40800 249.05600
 246.57600 243.99400 241.38900 238.83000 236.34400 233.98600 231.96900 230.11800
 228.42300 226.89900 225.54800 224.29700 223.10500 221.96500 220.95800 220.11300
 219.49000 218.92000 218.32500 217.88100 217.42300 216.96366 216.35568 216.80261
 217.73415 218.28582 218.64258 219.10077 220.44626 222.53987 226.38451 230.35736
 233.59734 237.39164 241.29814 245.22796 248.98002 252.51130 255.78595 258.80109
 261.54781 264.05210 266.34239 268.04198 269.58951 271.01303 272.35754 273.55718
 274.59842 275.49092 276.28989 276.99307 277.60161 278.14001 278.63122 279.07623
 279.47646 279.83287 280.14422 280.54100
 381.81900 372.39900 361.20600 349.77600 337.62200 324.85300 311.81000 298.35300
 284.86000 271.32400 258.56100 246.30400 236.08700 226.79600 218.44800 211.29000
 205.52200 200.89400 197.38100 194.84800 193.01500 192.31500 192.25000 192.43100
 192.91200 193.53700 194.13600 194.71200 195.26200 195.83100 196.39300 196.97600
 197.60400 198.14900 198.58400 199.05700 199.69500 200.37800 201.05400 201.70800
 202.31300 202.85700 203.35500 203.86200 204.56900 205.29700 206.02600 206.98700
 208.19300 209.44100 210.96900 212.57600 214.46200 216.51300 218.63000 220.85300
 223.34100 225.96200 228.73900 231.69700 234.70600 237.70600 240.69200 243.65700
 246.73700 249.69900 252.52100 255.06300 257.29000 259.23300 260.63300 261.68000
 262.46100 262.79800 262.69100 262.22400 261.06900 259.52500 257.70700 255.50700
 253.00100 250.30200 247.39800 244.45200 241.65400 239.05400 236.73300 234.59000
 232.59500 230.72500 228.83400 226.82600 224.66600 222.38700 220.10400 217.71500
 215.45900 213.06600 210.54600 208.09300 205.35400 202.08130 196.05959 200.71215
 209.01611 216.90438 223.84126 229.78593 235.00632 240.20838 245.98943 250.68668
 254.32982 257.93487 261.55666 264.96801 268.15192 271.06452 273.76717 276.25691
 278.57680 280.74479 282.77456 284.60533 286.27232 287.81705 289.31715 290.65561
 291.81734 292.81312 293.70701 294.49387 295.17482 295.77730 296.32696 296.82492
 297.27278 297.67160 298.02000 298.46400
 366.78100 356.33589 345.76878 334.63567 323.03955 311.23444 299.10533 286.90922
 274.62211 262.52000 250.52989 239.83178 229.95466 221.05955 213.24244 206.24533
 200.08022 195.01911 191.60200 189.64489 188.68277 188.74766 189.58355 190.89244
 192.61833 194.71422 196.97811 199.33800 201.78388 204.26477 206.35366 208.19655
 209.82344 210.96933 211.19922 211.42811 211.36599 211.07188 210.70577 210.33666
 209.95455 209.66544 209.47433 209.33922 209.26810 209.59999 209.98688 210.37677
 211.17066 212.34955 213.60044 215.38432 217.31321 219.35710 221.45299 223.53688
 225.59777 227.68266 229.78055 231.88743 234.01732 236.19021 238.44710 240.81799
 243.43988 245.69177 247.69466 249.46054 250.87843 252.00232 252.82521 253.14210
 253.17999 252.95488 252.31577 251.26465 249.87154 248.03343 245.94332 243.77721
 241.56910 239.37399 237.19488 235.03476 232.89565 230.76354 228.79043 226.94832
 225.23221 223.70510 222.33599 221.10887 219.99176 218.95265 218.05754 217.19943
 216.44232 215.62321 214.72209 214.08698 213.53787 213.00888 211.76624 212.27603
 213.73029 215.64481 217.03348 217.45909 218.61719 222.66011 228.58516 233.45012
 237.23300 240.99605 244.76430 248.48192 252.04831 255.13646 257.73904 260.19186
 262.80212 265.38324 267.79883 269.93243 271.96970 273.92667 275.57129 277.16406
 278.82880 280.47989 281.99915 283.35843 284.53992 285.58893 286.55078 287.42548
 288.21613 288.92865 289.55392 290.38940
 366.78100 356.33522 345.76743 334.63365 323.03686 311.23108 299.10129 286.90451
 274.61672 262.51394 250.52316 239.82437 229.94659 221.05080 213.23302 206.23523
 200.06945 195.00766 191.58988 189.63209 188.66931 188.73353 189.56874 190.87696
 192.60217 194.69739 196.96060 199.31982 201.76503 204.24525 206.33347 208.17568
 209.80190 210.94711 211.17633 211.40454 211.34176 211.04697 210.68019 210.31040
 209.92762 209.63784 209.44605 209.31027 209.23848 209.56970 209.95591 210.34513
 211.13834 212.31656 213.56678 215.34999 217.27821 219.32142 221.41664 223.49985
 225.56007 227.64428 229.74150 231.84771 233.97693 236.14915 238.40536 240.77558
 243.39679 245.64801 247.65022 249.41544 250.83265 251.95587 252.77809 253.09430
 253.13152 252.90573 252.26595 251.21416 249.82038 247.98159 245.89081 243.72402
 241.51524 239.31946 237.13967 234.97889 232.83910 230.70632 228.73253 226.88975
 225.17296 223.64518 222.27540 221.04761 219.92983 218.89004 217.99426 217.13547
 216.37769 215.55790 214.65612 214.02034 213.47055 212.98256 211.83556 212.38170
 213.84944 215.76491 217.06741 217.57579 218.61716 222.69643 228.51997 233.36046
 237.13892 240.91148 244.69478 248.39476 251.87973 254.94135 257.59009 260.09067
 262.64145 265.19315 267.65286 269.81543 271.85455 273.80225 275.44022 277.03452
 278.70117 280.35889 281.88251 283.24103 284.42435 285.47382 286.43564 287.31247
 288.10370 288.81418 289.44125 290.27701
 366.78100 356.33441 345.76581 334.63122 323.03363 311.22704 299.09644 286.89885
 274.61026 262.50667 250.51507 239.81548 229.93689 221.04030 213.22170 206.22311
 200.05652 194.99393 191.57533 189.61674 188.65315 188.71656 189.55096 190.85837
 192.58278 194.67718 196.93959 199.29800 201.74241 204.22181 206.30922 208.15063
 209.77604 210.92044 211.14885 211.37626 211.31267 211.01707 210.64948 210.27889
 209.89530 209.60470 209.41211 209.27552 209.20293 209.53333 209.91874 210.30715
 211.09956 212.27696 213.52637 215.30878 217.23618 219.27859 221.37300 223.45541
 225.51481 227.59822 229.69463 231.80004 233.92844 236.09985 238.35526 240.72467
 243.34507 245.59548 247.59689 249.36130 250.77770 251.90011 252.72152 253.03693
 253.07333 252.84674 252.20615 251.15355 249.75896 247.91937 245.82778 243.66018
 241.45059 239.25400 237.07341 234.91181 232.77122 230.63763 228.66304 226.81944
 225.10185 223.57326 222.20267 220.97407 219.85548 218.81489 217.91830 217.05870
 216.30011 215.47952 214.57693 213.94033 213.38974 212.94841 211.91049 212.49532
 213.96182 215.86140 217.11217 217.66138 218.66350 222.73827 228.46480 233.27400
 237.04388 240.82065 244.61545 248.29793 251.70265 254.74135 257.44312 259.99710
 262.48593 265.00452 267.49939 269.69092 271.73532 273.67407 275.30600 276.90448
 278.58139 280.24594 281.77374 283.13458 284.31610 285.36807 286.32959 287.20551
 287.99829 288.70926 289.33560 290.17419
 366.78100 356.33367 345.76434 334.62901 323.03068 311.22335 299.09201 286.89368
 274.60435 262.50002 250.50769 239.80736 229.92803 221.03070 213.21137 206.21204
 200.04470 194.98137 191.56204 189.60271 188.63838 188.70105 189.53472 190.84139
 192.56506 194.65873 196.92039 199.27806 201.72173 204.20040 206.28707 208.12774
 209.75241 210.89608 211.12375 211.35042 211.28608 210.98975 210.62142 210.25009
 209.86576 209.57443 209.38110 209.24377 209.17044 209.50011 209.88478 210.27244
 211.06411 212.24078 213.48945 215.27112 217.19779 219.23946 221.33313 223.41480
 225.47347 227.55613 229.65180 231.75647 233.88414 236.05481 238.30948 240.67815
 243.29782 245.54749 247.54816 249.31182 250.72749 251.84916 252.66983 252.98450
 253.02017 252.79284 252.15151 251.09818 249.70285 247.86252 245.77018 243.60185
 241.39152 239.19419 237.01286 234.85053 232.70920 230.57487 228.59954 226.75521
 225.03687 223.50754 222.13621 220.90688 219.78755 218.74622 217.84889 216.98856
 216.22923 215.40790 214.50456 213.86723 213.31590 212.91684 211.97777 212.62531
 214.07512 215.93108 217.16954 217.71878 218.74438 222.76538 228.41911 233.19238
 236.94801 240.72742 244.53084 248.19812 251.52443 254.54077 257.29904 259.90619
 262.33090 264.81046 267.33743 269.56223 271.61935 273.55338 275.17987 276.77679
 278.46878 280.13718 281.66980 283.03201 284.21533 285.26593 286.22946 287.10474
 287.89621 288.60873 289.23358 290.07434
 366.78100 356.33302 345.76303 334.62705 323.02806 311.22008 299.08810 286.88911
 274.59913 262.49414 250.50116 239.80018 229.92019 221.02221 213.20223 206.20224
 200.03426 194.97027 191.55029 189.59031 188.62532 188.68734 189.52035 190.82637
 192.54939 194.64240 196.90342 199.26043 201.70345 204.18147 206.26748 208.10750
 209.73152 210.87453 211.10155 211.32756 211.26258 210.96560 210.59661 210.22463
 209.83964 209.54766 209.35368 209.21569 209.14171 209.47072 209.85474 210.24176
 211.03277 212.20879 213.45681 215.23782 217.16384 219.20485 221.29787 223.37889
 225.43690 227.51892 229.61393 231.71795 233.84497 236.01498 238.26900 240.63701
 243.25603 245.50505 247.50506 249.26808 250.68310 251.80411 252.62413 252.93814
 252.97316 252.74518 252.10319 251.04921 249.65322 247.81224 245.71926 243.55027
 241.33929 239.14130 236.95932 234.79634 232.65435 230.51937 228.54338 226.69840
 224.97942 223.44943 222.07745 220.84747 219.72748 218.68550 217.78751 216.92653
 216.16655 215.34456 214.44058 213.80259 213.25061 212.89017 212.04135 212.75388
 214.18767 215.99728 217.23238 217.77371 218.84944 222.77507 228.38002 233.11768
 236.85190 240.63310 244.44083 248.09225 251.34245 254.33794 257.15448 259.81619
 262.18872 264.61679 267.17175 269.42908 271.50244 273.43597 275.06870 276.66959
 278.36542 280.03680 281.57025 282.93350 284.11694 285.16776 286.13007 287.00702
 287.80023 288.51108 289.13593 289.97635
 366.78100 356.33231 345.76162 334.62493 323.02524 311.21655 299.08386 286.88417
 274.59348 262.48779 250.49410 239.79241 229.91172 221.01303 213.19234 206.19165
 200.02296 194.95827 191.53758 189.57689 188.61120 188.67251 189.50482 190.81012
 192.53243 194.62474 196.88505 199.24136 201.68367 204.16098 206.24629 208.08560
 209.70891 210.85122 211.07753 211.30284 211.23715 210.93946 210.56977 210.19708
 209.81139 209.51870 209.32401 209.18532 209.11063 209.43894 209.82225 210.20856
 210.99887 212.17418 213.42149 215.20180 217.12711 219.16742 221.25973 223.34004
 225.39735 227.47866 229.57297 231.67628 233.80259 235.97190 238.22521 240.59252
 243.21083 245.45914 247.45845 249.22075 250.63506 251.75537 252.57468 252.88799
 252.92230 252.69361 252.05092 250.99623 249.59954 247.75785 245.66416 243.49447
 241.28278 239.08409 236.90140 234.73771 232.59502 230.45933 228.48264 226.63695
 224.91726 223.38657 222.01388 220.78319 219.66250 218.61981 217.72112 216.85943
 216.09874 215.27605 214.37136 213.73267 213.17998 212.86185 212.11197 212.87238
 214.29272 216.06644 217.29457 217.84172 218.96542 222.78442 228.34845 233.04903
 236.75967 240.53979 244.34859 247.97969 251.15593 254.12857 257.00031 259.71729
 262.05298 264.43182 267.00394 269.28384 271.37473 273.31561 274.96893 276.58710
 278.28586 279.94571 281.47925 282.84229 284.02634 285.07657 286.03867 286.91647
 287.70901 288.42078 289.04846 289.88757
 366.78100 356.33157 345.76013 334.62270 323.02226 311.21283 299.07939 286.87896
 274.58752 262.48109 250.48666 239.78422 229.90279 221.00335 213.18192 206.18048
 200.01105 194.94562 191.52418 189.56275 188.59631 188.65688 189.48844 190.79301
 192.51457 194.60614 196.86571 199.22127 201.66284 204.13940 206.22397 208.06253
 209.68510 210.82666 211.05223 211.27680 211.21036 210.91193 210.54149 210.16806
 209.78162 209.48819 209.29276 209.15332 209.07789 209.40545 209.78802 210.17358
 210.96315 212.13771 213.38428 215.16385 217.08841 219.12798 221.21954 223.29911
 225.35567 227.43624 229.52980 231.63237 233.75794 235.92650 238.17907 240.54563
 243.16320 245.41076 247.40933 249.17090 250.58446 251.70403 252.52259 252.83516
 252.86872 252.63929 251.99585 250.94042 249.54299 247.70055 245.60612 243.43568
 241.22325 239.02381 236.84038 234.67595 232.53251 230.39608 228.41864 226.57221
 224.85177 223.32034 221.94690 220.71547 219.59404 218.55060 217.65117 216.78873
 216.02730 215.20386 214.29843 213.65899 213.10556 212.83211 212.18686 212.99422
 214.38936 216.13335 217.35506 217.90840 219.07445 222.80545 228.32230 232.98544
 236.67609 240.45161 244.26001 247.86603 250.97127 253.91719 256.83585 259.60727
 261.91049 264.25418 266.82806 269.12326 271.23212 273.18192 274.85251 276.49213
 278.19620 279.89368 281.43530 282.80185 283.98669 285.04037 286.00613 286.88910
 287.69058 288.40976 289.04492 289.88263
 366.78100 356.33089 345.75878 334.62067 323.01956 311.20945 299.07533 286.87422
 274.58211 262.47500 250.47989 239.77678 229.89467 220.99456 213.17245 206.17034
 200.00022 194.93411 191.51200 189.54989 188.58278 188.64267 189.47356 190.77745
 192.49834 194.58923 196.84811 199.20300 201.64389 204.11978 206.20367 208.04156
 209.66345 210.80434 211.02923 211.25312 211.18601 210.88689 210.51578 210.14167
 209.75456 209.46045 209.26434 209.12423 209.04812 209.37501 209.75690 210.14178
 210.93067 212.10456 213.35045 215.12934 217.05323 219.09212 221.18301 223.26190
 225.31779 227.39767 229.49056 231.59245 233.71734 235.88523 238.13712 240.50301
 243.11990 245.36679 247.36468 249.12556 250.53845 251.65734 252.47523 252.78712
 252.82001 252.58990 251.94579 250.88968 249.49157 247.64846 245.55334 243.38223
 241.16912 238.96901 236.78490 234.61979 232.47568 230.33857 228.36046 226.51335
 224.79223 223.26012 221.88601 220.65390 219.53179 218.48768 217.58757 216.72446
 215.96235 215.13824 214.23212 213.59201 213.03790 212.80608 212.25838 213.11978
 214.48340 216.20041 217.42053 217.96251 219.18169 222.82884 228.30249 232.92270
 236.59377 240.36789 244.17564 247.75410 250.79059 253.70558 256.66333 259.48602
 261.76477 264.08359 266.65057 268.96170 271.09277 273.05502 274.73868 276.39462
 278.11749 279.85178 281.39874 282.76520 283.95212 285.00650 285.97397 286.85742
 287.66315 288.38733 289.01877 289.86157
 366.78100 356.33038 345.75776 334.61914 323.01752 311.20690 299.07229 286.87067
 274.57805 262.47043 250.47481 239.77119 229.88857 220.98795 213.16533 206.16271
 199.99209 194.92548 191.50286 189.54024 188.57262 188.63200 189.46238 190.76576
 192.48614 194.57652 196.83490 199.18928 201.62967 204.10505 206.18843 208.02581
 209.64719 210.78757 211.01195 211.23533 211.16771 210.86809 210.49647 210.12186
 209.73424 209.43962 209.24300 209.10238 209.02576 209.35214 209.73352 210.11790
 210.90628 212.07966 213.32505 215.10343 217.02681 219.06519 221.15557 223.23395
 225.28933 227.36871 229.46109 231.56247 233.68685 235.85424 238.10562 240.47100
 243.08738 245.33376 247.33114 249.09152 250.50390 251.62228 252.43966 252.75104
 252.78343 252.55281 251.90819 250.85157 249.45295 247.60933 245.51371 243.34209
 241.12847 238.92785 236.74323 234.57762 232.43300 230.29538 228.31676 226.46914
 224.74752 223.21490 221.84028 220.60766 219.48504 218.44042 217.53981 216.67619
 215.91357 215.08895 214.18233 213.54171 212.98709 212.79012 212.32474 213.24216
 214.57614 216.27271 217.49202 218.02130 219.29189 222.85397 228.27991 232.85966
 236.51385 240.29118 244.09525 247.64008 250.60730 253.48735 256.47876 259.35098
 261.62027 263.91891 266.47562 268.80466 270.96295 272.94287 274.63879 276.30530
 278.05981 279.80759 281.35651 282.72440 283.91144 284.96780 285.93735 286.82184
 287.62991 288.35468 288.98987 289.83527
 366.78100 356.32999 345.75698 334.61798 323.01597 311.20496 299.06995 286.86795
 274.57494 262.46693 250.47092 239.76692 229.88391 220.98290 213.15989 206.15689
 199.98588 194.91887 191.49586 189.53286 188.56485 188.62384 189.45383 190.75683
 192.47682 194.56681 196.82480 199.17880 201.61879 204.09378 206.17677 208.01377
 209.63476 210.77475 210.99874 211.22173 211.15373 210.85372 210.48171 210.10670
 209.71870 209.42369 209.22668 209.08567 209.00867 209.33466 209.71565 210.09964
 210.88764 212.06063 213.30562 215.08361 217.00661 219.04460 221.13459 223.21258
 225.26758 227.34657 229.43856 231.53955 233.66355 235.83054 238.08153 240.44652
 243.06251 245.30851 247.30550 249.06549 250.47748 251.59548 252.41247 252.72346
 252.75545 252.52445 251.87944 250.82243 249.42342 247.57942 245.48341 243.31140
 241.09739 238.89639 236.71138 234.54537 232.40036 230.26236 228.28335 226.43534
 224.71333 223.18033 221.80532 220.57231 219.44930 218.40430 217.50329 216.63928
 215.87627 215.05126 214.14426 213.50325 212.94824 212.78287 212.39218 213.35280
 214.66914 216.34480 217.57401 218.07974 219.42778 222.87488 228.25970 232.79771
 236.43327 240.21503 244.01338 247.52205 250.42256 253.26646 256.28546 259.20218
 261.47473 263.75723 266.30228 268.64902 270.83975 272.84390 274.55798 276.23706
 278.00873 279.76376 281.31503 282.68286 283.87280 284.92755 285.89792 286.78537
 287.59485 288.32452 288.95883 289.80640
 366.78100 356.32980 345.75660 334.61740 323.01521 311.20401 299.06881 286.86661
 274.57341 262.46521 250.46902 239.76482 229.88162 220.98042 213.15722 206.15402
 199.98282 194.91563 191.49243 189.52923 188.56103 188.61983 189.44963 190.75244
 192.47224 194.56204 196.81984 199.17364 201.61344 204.08824 206.17105 208.00785
 209.62865 210.76845 210.99225 211.21505 211.14686 210.84666 210.47446 210.09926
 209.71106 209.41586 209.21866 209.07747 209.00027 209.32607 209.70687 210.09067
 210.87847 212.05128 213.29608 215.07388 216.99668 219.03448 221.12428 223.20208
 225.25689 227.33569 229.42749 231.52829 233.65209 235.81889 238.06970 240.43450
 243.05030 245.29610 247.29290 249.05270 250.46450 251.58231 252.39911 252.70991
 252.74171 252.51051 251.86531 250.80812 249.40892 247.56472 245.46852 243.29632
 241.08212 238.88092 236.69573 234.52953 232.38433 230.24613 228.26693 226.41873
 224.69654 223.16334 221.78814 220.55494 219.43174 218.38654 217.48534 216.62115
 215.85795 215.03275 214.12555 213.48435 212.92915 212.78825 212.45537 213.46272
 214.75740 216.41663 217.65096 218.15163 219.56819 222.89563 228.24156 232.73836
 236.35519 240.14333 243.93346 247.40340 250.23775 253.04366 256.08383 259.03925
 261.33029 263.60855 266.14172 268.50687 270.72952 272.76099 274.49252 276.18555
 277.95642 279.71085 281.26212 282.62961 283.81726 284.87201 285.83917 286.72311
 287.53329 288.25528 288.87579 289.70984
 366.78100 356.32960 345.75620 334.61680 323.01440 311.20300 299.06760 286.86520
 274.57180 262.46340 250.46700 239.76260 229.87920 220.97780 213.15440 206.15100
 199.97960 194.91220 191.48880 189.52541 188.55701 188.61561 189.44521 190.74781
 192.46741 194.55701 196.81461 199.16821 201.60781 204.08241 206.16501 208.00161
 209.62221 210.76181 210.98541 211.20801 211.13961 210.83921 210.46681 210.09141
 209.70301 209.40761 209.21021 209.06881 208.99141 209.31701 209.69761 210.08121
 210.86881 212.04141 213.28601 215.06361 216.98621 219.02381 221.11341 223.19101
 225.24562 227.32422 229.41582 231.51642 233.64002 235.80662 238.05722 240.42182
 243.03742 245.28302 247.27962 249.03922 250.45082 251.56842 252.38502 252.69562
 252.72722 252.49582 251.85042 250.79302 249.39362 247.54922 245.45282 243.28042
 241.06602 238.86462 236.67922 234.51282 232.36742 230.22902 228.24962 226.40122
 224.67882 223.14542 221.77002 220.53662 219.41322 218.36783 217.46643 216.60203
 215.83863 215.01323 214.10583 213.46443 212.90903 212.79489 212.52521 213.58298
 214.82716 216.46129 217.76183 218.22498 219.73744 222.93304 228.20862 232.66795
 236.27238 240.06830 243.84596 247.26981 250.03728 252.81013 255.87083 258.86215
 261.19235 263.48230 266.00287 268.38644 270.64172 272.70578 274.45901 276.15689
 277.91028 279.65463 281.20404 282.57108 283.75854 284.81238 285.77936 286.66547
 287.47830 288.20102 288.82111 289.65622
 366.78100 356.32910 345.75519 334.61529 323.01238 311.20048 299.06457 286.86167
 274.56777 262.45886 250.46196 239.75705 229.87315 220.97124 213.14734 206.14343
 199.97153 194.90363 191.47972 189.51582 188.54691 188.60501 189.43410 190.73620
 192.45530 194.54439 196.80149 199.15458 201.59368 204.06777 206.14987 207.98597
 209.60606 210.74516 210.96825 211.19035 211.12144 210.82054 210.44764 210.07173
 209.68283 209.38692 209.18902 209.04711 208.96921 209.29430 209.67440 210.05750
 210.84459 212.01669 213.26078 215.03788 216.95997 218.99707 221.08617 223.16326
 225.21736 227.29545 229.38655 231.48664 233.60974 235.77584 238.02593 240.39003
 243.00512 245.25022 247.24631 249.00541 250.41651 251.53360 252.34970 252.65979
 252.69089 252.45898 251.81308 250.75517 249.35527 247.51037 245.41346 243.24056
 241.02565 238.82375 236.63784 234.47094 232.32504 230.18613 228.20623 226.35732
 224.63442 223.10051 221.72461 220.49071 219.36680 218.32090 217.41899 216.55409
 215.79018 214.96428 214.05637 213.41447 212.85857 212.78674 212.61703 213.72150
 214.88623 216.43047 217.87331 218.42383 219.90750 222.89648 228.17145 232.59898
 236.18375 239.98630 243.74855 247.12297 249.83249 252.58144 255.66109 258.68826
 261.07733 263.38370 265.88480 268.28339 270.56937 272.66696 274.44095 276.14108
 277.87491 279.60339 281.15094 282.51828 283.70535 284.75830 285.72659 286.61209
 287.42480 288.14511 288.76230 289.60272
 366.78100 356.32821 345.75341 334.61262 323.00883 311.19603 299.05924 286.85545
 274.56065 262.45086 250.45307 239.74728 229.86248 220.95969 213.13490 206.13010
 199.95731 194.88852 191.46372 189.49893 188.52914 188.58634 189.41455 190.71576
 192.43396 194.52217 196.77838 199.13058 201.56879 204.04200 206.12321 207.95841
 209.57762 210.71583 210.93803 211.15924 211.08945 210.78765 210.41386 210.03707
 209.64727 209.35048 209.15169 209.00889 208.93010 209.25431 209.63351 210.01572
 210.80193 211.97314 213.21634 214.99255 216.91376 218.94996 221.03817 223.11438
 225.16758 227.24479 229.33500 231.43420 233.55641 235.72162 237.97082 240.33403
 242.94824 245.19244 247.18765 248.94586 250.35607 251.47227 252.28748 252.59669
 252.62689 252.39410 251.74731 250.68851 249.28772 247.44193 245.34413 243.17034
 240.95455 238.75175 236.56496 234.39717 232.25037 230.11058 228.12979 226.27999
 224.55620 223.02141 221.64462 220.40982 219.28503 218.23824 217.33544 216.46965
 215.70486 214.87806 213.96927 213.32648 212.76968 212.75890 212.73340 213.86125
 215.00870 216.44635 217.82784 218.54510 220.07254 222.87404 228.14302 232.53291
 236.09134 239.90173 243.65027 246.98109 249.64426 252.37056 255.46040 258.51917
 260.97687 263.30820 265.78906 268.20139 270.51529 272.64725 274.44415 276.14111
 277.85770 279.55426 281.09882 282.46667 283.65317 284.70514 285.67004 286.55884
 287.37344 288.08752 288.70615 289.54907
 366.78100 356.32743 345.75186 334.61029 323.00571 311.19214 299.05457 286.85000
 274.55443 262.44386 250.44528 239.73871 229.85314 220.94957 213.12400 206.11843
 199.94485 194.87528 191.44971 189.48414 188.51357 188.57000 189.39742 190.69785
 192.41528 194.50271 196.75814 199.10957 201.54699 204.01942 206.09985 207.93428
 209.55271 210.69014 210.91156 211.13199 211.06142 210.75885 210.38428 210.00671
 209.61613 209.31856 209.11899 208.97542 208.89585 209.21928 209.59770 209.97913
 210.76456 211.93499 213.17742 214.95285 216.87327 218.90870 220.99613 223.07156
 225.12399 227.20042 229.28984 231.38827 233.50970 235.67413 237.92256 240.28499
 242.89841 245.14184 247.13627 248.89370 250.30313 251.41856 252.23298 252.54141
 252.57084 252.33727 251.68970 250.63013 249.22855 247.38198 245.28341 243.10884
 240.89227 238.68870 236.50112 234.33255 232.18498 230.04441 228.06284 226.21227
 224.48769 222.95212 221.57455 220.33898 219.21341 218.16584 217.26226 216.39569
 215.63012 214.80255 213.89298 213.24941 212.69183 212.73753 212.84555 213.99156
 215.16943 216.52690 217.76202 218.58882 220.17390 222.89615 228.09052 232.43044
 235.97604 239.79645 243.53067 246.81563 249.43623 252.15149 255.25572 258.34726
 260.88501 263.25705 265.73013 268.15726 270.49762 272.66867 274.49646 276.17325
 277.85507 279.49652 281.04080 282.40805 283.59573 284.64856 285.61331 286.50378
 287.32571 288.03464 288.65442 289.50262
 366.78100 356.32648 345.74995 334.60743 323.00191 311.18738 299.04886 286.84334
 274.54682 262.43529 250.43577 239.72825 229.84172 220.93720 213.11068 206.10415
 199.92963 194.85911 191.43259 189.46606 188.49454 188.55002 189.37649 190.67597
 192.39245 194.47892 196.73340 199.08388 201.52035 203.99183 206.07131 207.90479
 209.52226 210.65874 210.87922 211.09869 211.02717 210.72365 210.34812 209.96960
 209.57808 209.27955 209.07903 208.93451 208.85399 209.17646 209.55394 209.93442
 210.71889 211.88837 213.12985 214.90432 216.82380 218.85828 220.94476 223.01923
 225.07071 227.14619 229.23466 231.33214 233.45262 235.61609 237.86357 240.22505
 242.83752 245.08000 247.07348 248.82996 250.23843 251.35291 252.16639 252.47386
 252.50234 252.26782 251.61929 250.55877 249.15625 247.30873 245.20920 243.03368
 240.81616 238.61163 236.42311 234.25359 232.10506 229.96354 227.98102 226.12949
 224.40397 222.86745 221.48893 220.25240 219.12588 218.07736 217.17283 216.30531
 215.53879 214.71026 213.79974 213.15522 212.59669 212.70844 212.97246 214.12090
 215.29747 216.62296 217.75618 218.64767 220.24271 222.97453 228.02071 232.32430
 235.85605 239.69054 243.40622 246.63914 249.21922 251.91542 255.02783 258.14780
 260.77496 263.19974 265.66580 268.11450 270.48169 272.69550 274.57626 276.27881
 277.94348 279.50848 280.95978 282.31696 283.49722 284.54260 285.49634 286.37576
 287.18268 287.87756 288.48828 289.28326
 366.78100 356.32634 345.74968 334.60702 323.00136 311.18670 299.04805 286.84239
 274.54573 262.43407 250.43441 239.72675 229.84009 220.93543 213.10877 206.10211
 199.92745 194.85679 191.43014 189.46348 188.49182 188.54716 189.37350 190.67284
 192.38918 194.47552 196.72986 199.08020 201.51654 203.98788 206.06723 207.90057
 209.51791 210.65425 210.87459 211.09393 211.02227 210.71861 210.34295 209.96429
 209.57263 209.27397 209.07332 208.92866 208.84800 209.17034 209.54768 209.92802
 210.71236 211.88170 213.12304 214.89738 216.81672 218.85106 220.93741 223.01175
 225.06309 227.13843 229.22677 231.32411 233.44445 235.60779 237.85513 240.21647
 242.82881 245.07115 247.06450 248.82084 250.22918 251.34352 252.15686 252.46420
 252.49254 252.25788 251.60922 250.54856 249.14590 247.29824 245.19859 243.02293
 240.80527 238.60061 236.41195 234.24229 232.09363 229.95197 227.96931 226.11765
 224.39199 222.85533 221.47668 220.24002 219.11336 218.06470 217.16004 216.29238
 215.52572 214.69706 213.78640 213.14174 212.58308 212.72469 213.06285 214.27997
 215.37279 216.62358 217.81670 218.78545 220.35089 223.08521 227.95631 232.23555
 235.75180 239.59862 243.28894 246.45799 249.00558 251.67340 254.78893 257.92426
 260.62668 263.07831 265.56116 268.02509 270.42303 272.65982 274.60532 276.35464
 278.01260 279.55478 281.00433 282.37497 283.56393 284.62640 285.60638 286.49329
 287.28162 287.98141 288.61603 289.43536
 366.78100 356.32701 345.75102 334.60903 323.00404 311.19005 299.05206 286.84707
 274.55108 262.44009 250.44109 239.73410 229.84811 220.94412 213.11813 206.11214
 199.93815 194.86816 191.44217 189.47618 188.50519 188.56120 189.38821 190.68822
 192.40523 194.49224 196.74725 199.09826 201.53527 204.00727 206.08728 207.92129
 209.53930 210.67631 210.89732 211.11733 211.04634 210.74335 210.36836 209.99037
 209.59938 209.30139 209.10140 208.95741 208.87742 209.20043 209.57844 209.95945
 210.74446 211.91446 213.15647 214.93148 216.85149 218.88650 220.97351 223.04852
 225.10053 227.17654 229.26555 231.36356 233.48457 235.64858 237.89659 240.25860
 242.87161 245.11462 247.10863 248.86564 250.27464 251.38965 252.20366 252.51167
 252.54068 252.30669 251.65870 250.59871 249.19672 247.34973 245.25074 243.07575
 240.85876 238.65477 236.46678 234.29779 232.14980 230.00881 228.02682 226.17582
 224.45083 222.91484 221.53685 220.30086 219.17487 218.12688 217.22289 216.35590
 215.58991 214.76192 213.85193 213.20794 212.64995 212.79086 213.15738 214.40999
 215.33638 216.55133 217.88934 218.94159 220.51193 223.22432 227.87259 232.16417
 235.65068 239.49147 243.14523 246.26097 248.81947 251.47968 254.58073 257.71021
 260.51993 263.08612 265.56366 268.04135 270.43640 272.66528 274.63321 276.37183
 277.99414 279.50525 281.04288 282.40884 283.59891 284.66183 285.65253 286.56009
 287.42169 288.20068 288.88123 289.74844
 366.78100 356.32744 345.75189 334.61033 323.00577 311.19222 299.05466 286.85010
 274.55455 262.44399 250.44543 239.73888 229.85332 220.94976 213.12421 206.11865
 199.94509 194.87554 191.44998 189.48442 188.51387 188.57031 189.39775 190.69820
 192.41564 194.50308 196.75853 199.10997 201.54741 204.01986 206.10030 207.93474
 209.55319 210.69063 210.91207 211.13252 211.06196 210.75940 210.38484 210.00729
 209.61673 209.31917 209.11962 208.97606 208.89650 209.21995 209.59839 209.97983
 210.76528 211.93572 213.17816 214.95361 216.87405 218.90949 220.99694 223.07238
 225.12482 227.20127 229.29071 231.38915 233.51060 235.67504 237.92348 240.28593
 242.89937 245.14281 247.13726 248.89470 250.30414 251.41959 252.23403 252.54247
 252.57192 252.33836 251.69080 250.63125 249.22969 247.38313 245.28458 243.11002
 240.89346 238.68991 236.50235 234.33379 232.18624 230.04568 228.06412 226.21357
 224.48901 222.95345 221.57590 220.34034 219.21478 218.16723 217.26367 216.39711
 215.63156 214.80400 213.89444 213.25089 212.69333 212.85451 213.29756 214.42477
 215.29265 216.59822 217.95705 219.05478 220.67433 223.39677 227.80780 232.08363
 235.55069 239.34557 242.93761 245.99950 248.60530 251.32573 254.43243 257.59155
 260.47897 263.14471 265.68835 268.14127 270.51770 272.74988 274.72693 276.45538
 278.03494 279.51395 281.02795 282.40390 283.60849 284.70950 285.84058 286.87668
 287.80853 288.63834 289.36325 290.28708
 366.78100 356.32825 345.75350 334.61276 323.00901 311.19626 299.05951 286.85576
 274.56101 262.45127 250.45352 239.74777 229.86302 220.96027 213.13553 206.13078
 199.95803 194.88928 191.46453 189.49979 188.53004 188.58729 189.41554 190.71679
 192.43504 194.52330 196.77955 199.13180 201.57005 204.04330 206.12456 207.95981
 209.57906 210.71731 210.93956 211.16081 211.09107 210.78932 210.41557 210.03882
 209.64907 209.35233 209.15358 209.01083 208.93208 209.25633 209.63559 210.01784
 210.80409 211.97534 213.21859 214.99484 216.91610 218.95235 221.04060 223.11685
 225.17010 227.24736 229.33761 231.43686 233.55911 235.72436 237.97361 240.33687
 242.95112 245.19537 247.19062 248.94887 250.35913 251.47538 252.29063 252.59988
 252.63013 252.39739 251.75064 250.69189 249.29114 247.44539 245.34764 243.17390
 240.95815 238.75540 236.56865 234.40090 232.25416 230.11441 228.13366 226.28391
 224.56016 223.02541 221.64867 220.41392 219.28917 218.24242 217.33967 216.47393
 215.70918 214.88243 213.97368 213.33093 212.77419 212.92873 213.36563 214.50568
 215.51649 216.85104 218.07040 219.11769 220.74585 223.44797 227.73801 231.96040
 235.42052 239.16545 242.68715 245.69562 248.31467 251.08575 254.23474 257.44937
 260.36703 263.12216 265.73251 268.21680 270.58936 272.82797 274.82974 276.56119
 278.08896 279.50299 281.06927 282.45605 283.67838 284.85565 286.00659 287.04922
 287.98697 288.82205 289.55154 290.48120
 366.78100 356.32832 345.75365 334.61297 323.00930 311.19662 299.05995 286.85627
 274.56160 262.45192 250.45424 239.74857 229.86389 220.96122 213.13654 206.13187
 199.95919 194.89052 191.46584 189.50117 188.53149 188.58881 189.41714 190.71846
 192.43679 194.52511 196.78144 199.13376 201.57209 204.04541 206.12673 207.96206
 209.58138 210.71971 210.94203 211.16336 211.09368 210.79201 210.41833 210.04165
 209.65198 209.35530 209.15663 209.01395 208.93528 209.25960 209.63893 210.02125
 210.80758 211.97890 213.22222 214.99855 216.91987 218.95620 221.04452 223.12085
 225.17417 227.25150 229.34182 231.44114 233.56347 235.72879 237.97812 240.34144
 242.95577 245.20009 247.19542 248.95374 250.36406 251.48039 252.29571 252.60504
 252.63536 252.40269 251.75601 250.69734 249.29666 247.45099 245.35331 243.17963
 240.96396 238.76128 236.57461 234.40693 232.26026 230.12058 228.13991 226.29023
 224.56655 223.03188 221.65520 220.42053 219.29585 218.24918 217.34650 216.48083
 215.71615 214.88947 213.98080 213.33812 212.78145 212.95421 213.42860 214.64064
 215.71956 217.03085 218.16519 219.18626 220.81885 223.48477 227.68065 231.82379
 235.26932 238.94595 242.37772 245.32018 247.94647 250.75435 253.92523 257.14304
 260.12195 262.93604 265.63300 268.16156 270.56830 272.82898 274.85318 276.59711
 278.14453 279.60916 281.12854 282.50647 283.71231 284.81299 285.92422 286.93192
 287.83823 288.64529 289.35031 290.24881
 366.78100 356.32803 345.75306 334.61208 323.00811 311.19514 299.05817 286.85420
 274.55923 262.44925 250.45128 239.74531 229.86034 220.95737 213.13239 206.12742
 199.95445 194.88548 191.46051 189.49554 188.52556 188.58259 189.41062 190.71165
 192.42968 194.51770 196.77373 199.12576 201.56379 204.03682 206.11784 207.95287
 209.57190 210.70993 210.93196 211.15299 211.08301 210.78104 210.40707 210.03010
 209.64013 209.34315 209.14418 209.00121 208.92224 209.24627 209.62530 210.00732
 210.79335 211.96438 213.20741 214.98344 216.90446 218.94049 221.02852 223.10455
 225.15758 227.23461 229.32463 231.42366 233.54569 235.71072 237.95975 240.32277
 242.93680 245.18083 247.17586 248.93389 250.34391 251.45994 252.27497 252.58400
 252.61403 252.38106 251.73408 250.67511 249.27414 247.42817 245.33020 243.15622
 240.94025 238.73728 236.55031 234.38234 232.23537 230.09539 228.11442 226.26445
 224.54048 223.00551 221.62853 220.39356 219.26859 218.22162 217.31865 216.45268
 215.68770 214.86073 213.95176 213.30879 212.75182 212.94804 213.46965 214.86261
 215.81068 217.05225 218.30997 219.38829 221.03502 223.60959 227.70950 231.75269
 235.16872 238.77127 242.10239 244.96486 247.58018 250.41290 253.60805 256.85904
 259.92953 262.80270 265.52100 268.07104 270.46423 272.70590 274.71793 276.49432
 278.11761 279.56805 281.09723 282.46243 283.65094 284.73108 285.75375 286.74194
 287.63071 288.42215 289.11353 289.99463
 366.78100 356.32932 345.75564 334.61596 323.01327 311.20159 299.06591 286.86323
 274.56955 262.46087 250.46418 239.75950 229.87582 220.97414 213.15046 206.14678
 199.97510 194.90741 191.48373 189.52005 188.55137 188.60969 189.43901 190.74132
 192.46064 194.54996 196.80728 199.16060 201.59992 204.07423 206.15655 207.99287
 209.61319 210.75251 210.97583 211.19815 211.12946 210.82878 210.45610 210.08042
 209.69174 209.39606 209.19837 209.05669 208.97901 209.30433 209.68465 210.06797
 210.85529 212.02760 213.27192 215.04924 216.97156 219.00888 221.09820 223.17551
 225.22983 227.30815 229.39947 231.49979 233.62311 235.78942 238.03974 240.40406
 243.01938 245.26470 247.26102 249.02034 250.43165 251.54897 252.36529 252.67561
 252.70693 252.47525 251.82956 250.77188 249.37220 247.52752 245.43084 243.25816
 241.04348 238.84179 236.65611 234.48943 232.34375 230.20507 228.22539 226.37670
 224.65402 223.12034 221.74466 220.51098 219.38730 218.34162 217.43993 216.57525
 215.81157 214.98589 214.07821 213.43653 212.88084 213.03194 213.41673 214.99707
 216.01900 217.24274 218.53577 219.57301 221.22058 223.67747 227.75528 231.68550
 235.10283 238.64230 241.86345 244.62921 247.21678 250.09203 253.35751 256.67325
 259.82278 262.74738 265.45102 267.98743 270.37180 272.59515 274.62756 276.46054
 278.14200 279.65845 281.00223 282.31967 283.49335 284.54984 285.52042 286.38129
 287.17242 287.91956 288.57220 289.40396
 366.78100 356.32983 345.75666 334.61749 323.01531 311.20414 299.06897 286.86680
 274.57363 262.46546 250.46928 239.76511 229.88194 220.98077 213.15760 206.15443
 199.98325 194.91608 191.49291 189.52974 188.56157 188.62040 189.45022 190.75305
 192.47288 194.56271 196.82054 199.17437 201.61419 204.08902 206.17185 208.00868
 209.62951 210.76934 210.99317 211.21599 211.14782 210.84765 210.47548 210.10031
 209.71214 209.41696 209.21979 209.07862 209.00145 209.32728 209.70811 210.09193
 210.87976 212.05259 213.29742 215.07525 216.99808 219.03590 221.12573 223.20356
 225.25839 227.33722 229.42905 231.52988 233.65370 235.82053 238.07136 240.43619
 243.05202 245.29785 247.29467 249.05450 250.46633 251.58416 252.40099 252.71182
 252.74364 252.51247 251.86730 250.81013 249.41096 247.56679 245.47061 243.29844
 241.08427 238.88310 236.69793 234.53176 232.38658 230.24841 228.26924 226.42107
 224.69890 223.16573 221.79056 220.55738 219.43421 218.38904 217.48787 216.62370
 215.86053 215.03535 214.12818 213.48701 212.93184 213.08560 213.44891 215.07600
 216.15060 217.44781 218.72578 219.78619 221.44722 223.83878 227.83913 231.69484
 235.02649 238.46678 241.56316 244.27328 246.90106 249.84828 253.16873 256.53339
 259.73257 262.68616 265.38632 267.91794 270.30612 272.54062 274.59607 276.46075
 278.18906 279.74808 281.11172 282.29956 283.36203 284.41492 285.38168 286.18054
 286.86343 287.54337 288.16309 288.98267
 366.78100 356.32974 345.75647 334.61721 323.01494 311.20368 299.06842 286.86615
 274.57289 262.46463 250.46836 239.76410 229.88083 220.97957 213.15631 206.15304
 199.98178 194.91452 191.49125 189.52799 188.55972 188.61846 189.44820 190.75093
 192.47067 194.56041 196.81814 199.17188 201.61161 204.08635 206.16909 208.00582
 209.62656 210.76630 210.99003 211.21277 211.14450 210.84424 210.47198 210.09671
 209.70845 209.41319 209.21592 209.07466 208.99739 209.32313 209.70387 210.08760
 210.87534 212.04808 213.29281 215.07055 216.99328 219.03102 221.12076 223.19849
 225.25323 227.33196 229.42370 231.52444 233.64817 235.81491 238.06565 240.43038
 243.04612 245.29185 247.28859 249.04833 250.46006 251.57780 252.39454 252.70527
 252.73701 252.50574 251.86048 250.80322 249.40395 247.55969 245.46343 243.29116
 241.07690 238.87563 236.69037 234.52411 232.37884 230.24058 228.26132 226.41305
 224.69079 223.15752 221.78226 220.54900 219.42573 218.38047 217.47921 216.61494
 215.85168 215.02641 214.11915 213.47789 212.92262 213.11299 213.56273 215.09781
 216.22913 217.62500 218.82794 219.90555 221.62242 223.94806 227.88289 231.70680
 234.98096 238.32106 241.28882 243.92636 246.58731 249.60817 252.98415 256.39169
 259.62796 262.61429 265.35034 267.90466 270.28723 272.50955 274.56891 276.46069
 278.21255 279.77557 281.12906 282.31403 283.48706 284.52481 285.36169 286.00049
 286.71741 287.40167 288.01868 288.85172
 366.78100 356.32995 345.75690 334.61785 323.01580 311.20475 299.06970 286.86765
 274.57460 262.46655 250.47050 239.76646 229.88341 220.98236 213.15931 206.15626
 199.98521 194.91816 191.49511 189.53206 188.56401 188.62296 189.45291 190.75586
 192.47581 194.56576 196.82371 199.17766 201.61761 204.09256 206.17551 208.01246
 209.63341 210.77337 210.99732 211.22027 211.15222 210.85217 210.48012 210.10507
 209.71702 209.42197 209.22492 209.08387 209.00682 209.33277 209.71372 210.09767
 210.88562 212.05857 213.30352 215.08147 217.00442 219.04237 221.13232 223.21028
 225.26523 227.34418 229.43613 231.53708 233.66103 235.82798 238.07893 240.44388
 243.05983 245.30578 247.30273 249.06268 250.47463 251.59258 252.40953 252.72048
 252.75243 252.52138 251.87633 250.81928 249.42023 247.57619 245.48014 243.30809
 241.09404 238.89299 236.70794 234.54189 232.39684 230.25879 228.27974 226.43169
 224.70964 223.17659 221.80154 220.56849 219.44544 218.40039 217.49934 216.63529
 215.87224 215.04719 214.14015 213.49910 212.94405 213.15611 213.66617 215.15564
 216.16740 217.72639 218.97128 219.90793 221.71622 224.00908 227.92072 231.74983
 234.95766 238.19260 241.02260 243.56970 246.26848 249.36795 252.81538 256.28204
 259.57452 262.61438 265.39639 267.95987 270.31900 272.50757 274.55249 276.45715
 278.20572 279.76373 281.10992 282.31094 283.44653 284.48218 285.25589 286.02762
 286.80069 287.52228 288.18274 289.02448
 366.78100 356.32969 345.75638 334.61708 323.01477 311.20346 299.06815 286.86585
 274.57254 262.46423 250.46792 239.76362 229.88031 220.97900 213.15569 206.15238
 199.98108 194.91377 191.49046 189.52715 188.55885 188.61754 189.44723 190.74992
 192.46961 194.55931 196.81700 199.17069 201.61038 204.08508 206.16777 208.00446
 209.62515 210.76485 210.98854 211.21123 211.14292 210.84261 210.47031 210.09500
 209.70669 209.41138 209.21408 209.07277 208.99546 209.32115 209.70184 210.08554
 210.87323 212.04592 213.29061 215.06831 216.99100 219.02869 221.11838 223.19608
 225.25077 227.32946 229.42115 231.52184 233.64554 235.81223 238.06292 240.42761
 243.04331 245.28900 247.28569 249.04538 250.45708 251.57477 252.39146 252.70215
 252.73384 252.50254 251.85723 250.79992 249.40061 247.55631 245.46000 243.28769
 241.07338 238.87207 236.68677 234.52046 232.37515 230.23684 228.25754 226.40923
 224.68692 223.15361 221.77831 220.54500 219.42169 218.37638 217.47507 216.61077
 215.84746 215.02215 214.11484 213.47354 212.91823 213.17661 213.84174 215.16997
 216.13631 217.39766 218.81451 220.11220 221.92485 224.27817 227.99582 231.84686
 234.90842 238.04007 240.76602 243.27643 246.03151 249.22528 252.71935 256.24234
 259.58105 262.67422 265.50827 268.07355 270.39160 272.52536 274.54446 276.43814
 278.17923 279.73132 281.04626 282.35544 283.55179 284.62653 285.65973 286.63623
 287.51450 288.29660 288.97980 289.85049
 366.78100 356.33384 345.76468 334.62952 323.03136 311.22420 299.09304 286.89488
 274.60572 262.50156 250.50940 239.80924 229.93008 221.03292 213.21376 206.21460
 200.04744 194.98428 191.56512 189.60596 188.64180 188.70464 189.53848 190.84532
 192.56916 194.66300 196.92484 199.28268 201.72652 204.20536 206.29220 208.13304
 209.75788 210.90172 211.12956 211.35640 211.29224 210.99608 210.62792 210.25676
 209.87260 209.58144 209.38828 209.25112 209.17796 209.50780 209.89264 210.28048
 211.07232 212.24916 213.49800 215.27984 217.20668 219.24852 221.34236 223.42420
 225.48304 227.56588 229.66172 231.76656 233.89440 236.06524 238.32008 240.68892
 243.30876 245.55860 247.55944 249.32328 250.73911 251.86095 252.68179 252.99663
 253.03247 252.80531 252.16415 251.11099 249.71583 247.87567 245.78351 243.61535
 241.40519 239.20803 237.02687 234.86471 232.72355 230.58939 228.61423 226.77007
 225.05191 223.52275 222.15159 220.92243 219.80327 218.76211 217.86495 217.00479
 216.24563 215.42447 214.52131 213.88415 213.33299 213.44423 213.84708 215.05782
 216.52870 217.85951 219.16537 220.58624 222.21796 224.40460 228.12721 231.72070
 234.83269 237.82979 240.40530 242.86549 245.72202 249.06090 252.65433 256.30804
 259.73984 262.89984 265.74063 268.25345 270.47580 272.52197 274.49600 276.36496
 278.26608 280.12442 281.97479 283.66125 285.12073 286.41199 287.59006 288.65732
 289.61722 290.47198 291.21869 292.17032
 366.78100 356.33829 345.77358 334.64287 323.04916 311.24645 299.11975 286.92604
 274.64133 262.54162 250.55391 239.85820 229.98349 221.09078 213.27607 206.28136
 200.11865 195.05995 191.64524 189.69053 188.73082 188.79811 189.63640 190.94769
 192.67598 194.77427 197.04056 199.40285 201.85115 204.33444 206.42573 208.27102
 209.90031 211.04860 211.28089 211.51218 211.45247 211.16076 210.79705 210.43035
 210.05064 209.76393 209.57522 209.44251 209.37380 209.70809 210.09738 210.48967
 211.28596 212.46725 213.72055 215.50684 217.43813 219.48442 221.58271 223.66900
 225.73229 227.81958 229.91987 232.02916 234.16145 236.33675 238.59604 240.96933
 243.59362 245.84791 247.85320 249.62149 251.04178 252.16807 252.99336 253.31265
 253.35295 253.13024 252.49353 251.44482 250.05411 248.21840 246.13069 243.96698
 241.76127 239.56856 237.39185 235.23415 233.09744 230.96773 228.99702 227.15731
 225.44360 223.91889 222.55218 221.32747 220.21276 219.17606 218.28335 217.42764
 216.67293 215.85622 214.95751 214.32480 213.77809 213.72110 213.84319 215.16895
 216.66780 217.92101 219.31671 220.71191 222.23151 224.43149 228.08160 231.76999
 234.64725 237.37320 239.81776 242.40755 245.46698 249.01707 252.78424 256.44919
 259.87149 263.01279 265.82480 268.32565 270.52875 272.45258 275.10239 278.20740
 280.98935 283.37390 285.43732 287.24918 288.81717 290.20447 291.47012 292.61676
 293.64801 294.56635 295.36859 296.39096
 366.78100 356.34056 345.77812 334.64968 323.05823 311.25779 299.13335 286.94191
 274.65947 262.56203 250.57659 239.88315 230.01070 221.12026 213.30782 206.31538
 200.15494 195.09850 191.68606 189.73361 188.77617 188.84573 189.68629 190.99985
 192.73041 194.83097 197.09953 199.46408 201.91464 204.40020 206.49376 208.34132
 209.97288 211.12344 211.35799 211.59155 211.53411 211.24467 210.88323 210.51879
 210.14135 209.85691 209.67046 209.54002 209.47358 209.81014 210.20170 210.59626
 211.39482 212.57838 213.83393 215.62249 217.55605 219.60461 221.70517 223.79373
 225.85929 227.94884 230.05140 232.16296 234.29752 236.47508 238.73664 241.11220
 243.73876 245.99531 248.00287 249.77343 251.19599 252.32455 253.15211 253.47367
 253.51622 253.29578 252.66134 251.61490 250.22646 248.39302 246.30758 244.14614
 241.94269 239.75225 237.57781 235.42237 233.28793 231.16049 229.19205 227.35460
 225.64316 224.12072 222.75628 221.53384 220.42140 219.38696 218.49652 217.64307
 216.89063 216.07619 215.17975 214.54931 214.00487 213.84422 213.85362 215.35005
 216.82990 218.08357 219.53290 220.83836 222.34624 224.52303 228.10475 231.76186
 234.55913 237.11772 239.37706 241.85957 244.99100 248.70663 252.55702 256.26865
 259.70731 262.86060 265.67584 268.14783 270.33371 272.57523 275.27832 278.25113
 280.87659 283.12701 285.07437 286.78430 288.26410 289.57333 290.76782 291.84995
 292.82321 293.68988 294.44699 295.41187
 366.78100 356.33981 345.77661 334.64742 323.05523 311.25403 299.12884 286.93665
 274.65345 262.55526 250.56907 239.87487 230.00168 221.11049 213.29729 206.30410
 200.14291 195.08571 191.67252 189.71932 188.76113 188.82994 189.66974 190.98255
 192.71236 194.81216 197.07997 199.44378 201.89358 204.37839 206.47120 208.31800
 209.94881 211.09862 211.33242 211.56523 211.50704 211.21684 210.85465 210.48946
 210.11126 209.82607 209.63888 209.50768 209.44049 209.77630 210.16710 210.56091
 211.35872 212.54152 213.79633 215.58414 217.51694 219.56475 221.66455 223.75236
 225.81717 227.90597 230.00778 232.11859 234.25239 236.42920 238.69001 241.06481
 243.69062 245.94643 247.95323 249.72304 251.14485 252.27265 253.09946 253.42027
 253.46207 253.24088 252.60569 251.55849 250.16930 248.33511 246.24891 244.08672
 241.88253 239.69133 237.51614 235.35995 233.22475 231.09656 229.12737 227.28917
 225.57698 224.05378 222.68859 221.46540 220.35220 219.31701 218.42582 217.57162
 216.81843 216.00324 215.10604 214.47485 213.92966 213.79752 213.82805 215.57304
 217.18500 218.40147 219.61340 220.85828 222.41045 224.69804 228.09769 231.64630
 234.36853 236.90115 239.16418 241.60992 244.65446 248.29761 252.15297 255.83809
 259.26312 262.42944 265.33701 267.94855 270.27457 272.43057 274.50778 276.66031
 278.78415 280.79184 282.64435 284.27103 285.67874 286.92422 288.06052 289.08994
 290.01578 290.84024 291.56049 292.47836
 366.78100 356.34071 345.77842 334.65013 323.05884 311.25854 299.13425 286.94296
 274.66067 262.56338 250.57809 239.88480 230.01251 221.12221 213.30992 206.31763
 200.15734 195.10105 191.68876 189.73647 188.77918 188.84889 189.68959 191.00330
 192.73401 194.83472 197.10343 199.46814 201.91885 204.40456 206.49826 208.34597
 209.97768 211.12839 211.36310 211.59681 211.53952 211.25023 210.88894 210.52464
 210.14735 209.86306 209.67677 209.54648 209.48019 209.81690 210.20861 210.60331
 211.40202 212.58573 213.84144 215.63015 217.56386 219.61257 221.71328 223.80199
 225.86769 227.95740 230.06011 232.17182 234.30653 236.48424 238.74595 241.12166
 243.74836 246.00507 248.01278 249.78349 251.20620 252.33491 253.16262 253.48433
 253.52704 253.30674 252.67245 251.62616 250.23787 248.40458 246.31929 244.15800
 241.95471 239.76441 237.59012 235.43483 233.30054 231.17325 229.20496 227.36767
 225.65638 224.13409 222.76979 221.54750 220.43521 219.40092 218.51063 217.65734
 216.90505 216.09076 215.19446 214.56417 214.01988 213.85182 213.79501 215.76228
 217.36031 218.56966 219.73250 220.97809 222.56471 224.78674 228.05449 231.57498
 234.32744 236.74390 238.75887 240.95923 244.01506 247.84822 251.96909 255.67563
 259.09698 262.24887 265.16547 267.73865 269.96185 272.00070 274.20413 276.46042
 278.54706 280.38321 282.05313 283.58881 284.91779 286.09360 287.16632 288.13818
 289.01224 289.79059 290.47052 291.33707
 366.78100 356.33992 345.77683 334.64775 323.05567 311.25458 299.12950 286.93741
 274.65433 262.55625 250.57016 239.87608 230.00300 221.11191 213.29883 206.30574
 200.14466 195.08758 191.67449 189.72141 188.76333 188.83224 189.67216 190.98507
 192.71499 194.81491 197.08282 199.44674 201.89666 204.38157 206.47449 208.32140
 209.95232 211.10224 211.33615 211.56907 211.51099 211.22090 210.85882 210.49373
 210.11565 209.83057 209.64348 209.51240 209.44532 209.78123 210.17215 210.56607
 211.36398 212.54690 213.80181 215.58973 217.52265 219.57056 221.67048 223.75840
 225.82331 227.91223 230.01414 232.12506 234.25898 236.43589 238.69681 241.07173
 243.69764 245.95356 247.96047 249.73039 251.15231 252.28022 253.10714 253.42806
 253.46997 253.24889 252.61380 251.56672 250.17764 248.34355 246.25747 244.09539
 241.89130 239.70022 237.52514 235.36905 233.23397 231.10588 229.13680 227.29872
 225.58663 224.06355 222.69847 221.47538 220.36230 219.32721 218.43613 217.58205
 216.82896 216.01388 215.11680 214.48571 213.94063 213.83537 213.88272 215.82243
 217.36166 218.66557 219.86429 221.12616 222.68266 224.92931 228.14761 231.67049
 234.36685 236.61827 238.43134 240.48187 243.61475 247.76834 251.83214 255.53090
 258.95984 262.13123 265.04193 267.55792 269.73114 271.82526 274.12695 276.43054
 278.51181 280.33261 281.94891 283.43109 284.71982 285.85999 286.90024 287.84262
 288.69019 289.44495 290.10431 290.94458
 366.78100 356.33479 345.76658 334.63236 323.03515 311.22894 299.09873 286.90151
 274.61330 262.51009 250.51888 239.81966 229.94145 221.04524 213.22703 206.22881
 200.06260 195.00039 191.58218 189.62397 188.66075 188.72454 189.55933 190.86712
 192.59190 194.68669 196.94948 199.30827 201.75305 204.23284 206.32063 208.16242
 209.78820 210.93299 211.16178 211.38957 211.32636 211.03114 210.66393 210.29372
 209.91051 209.62029 209.42808 209.29187 209.21966 209.55044 209.93623 210.32502
 211.11781 212.29559 213.54538 215.32817 217.25596 219.29875 221.39353 223.47632
 225.53611 227.61990 229.71668 231.82247 233.95126 236.12305 238.37883 240.74862
 243.36941 245.62020 247.62198 249.38677 250.80356 251.92635 252.74814 253.06392
 253.10071 252.87450 252.23429 251.18207 249.78786 247.94865 245.85744 243.69022
 241.48101 239.28480 237.10459 234.94337 232.80316 230.66995 228.69574 226.85253
 225.13531 223.60710 222.23689 221.00868 219.89046 218.85025 217.95404 217.09483
 216.33661 215.51640 214.61419 213.97798 213.42776 213.57787 214.03619 216.02359
 217.14966 218.24428 219.95940 221.23250 222.72920 224.95305 228.42801 231.48383
 234.21819 236.39726 238.23680 240.37589 243.47777 247.45151 251.52802 255.29021
 258.78992 262.03876 264.99982 267.60553 269.90738 272.08585 274.24527 276.31161
 278.15991 279.76752 281.20093 282.53812 283.71646 284.75827 285.76105 286.69543
 287.53583 288.28418 288.93796 289.77109
 366.78100 356.33235 345.76170 334.62506 323.02541 311.21676 299.08411 286.88447
 274.59382 262.48817 250.49452 239.79288 229.91223 221.01358 213.19293 206.19229
 200.02364 194.95899 191.53834 189.57769 188.61205 188.67340 189.50575 190.81110
 192.53346 194.62581 196.88616 199.24251 201.68487 204.16222 206.24757 208.08692
 209.71028 210.85263 211.07898 211.30433 211.23868 210.94104 210.57139 210.19874
 209.81309 209.52045 209.32580 209.18715 209.11250 209.44086 209.82421 210.21056
 211.00091 212.17626 213.42362 215.20397 217.12932 219.16967 221.26203 223.34238
 225.39973 227.48108 229.57544 231.67879 233.80514 235.97449 238.22785 240.59520
 243.21355 245.46190 247.46125 249.22361 250.63796 251.75831 252.57766 252.89102
 252.92537 252.69672 252.05407 250.99943 249.60278 247.76113 245.66748 243.49784
 241.28619 239.08754 236.90489 234.74124 232.59860 230.46295 228.48630 226.64065
 224.92101 223.39036 222.01771 220.78706 219.66642 218.62377 217.72512 216.86347
 216.10283 215.28018 214.37553 213.73688 213.18423 213.44478 214.06035 216.29593
 217.58418 218.22591 220.16087 221.57716 222.94075 225.00453 228.47157 231.39725
 233.94507 236.02620 237.79700 239.97697 243.19296 247.22485 251.34677 255.17276
 258.72595 262.00922 265.00894 267.63513 269.94003 272.08838 274.21417 276.27286
 278.15222 279.77249 281.13925 282.33090 283.41626 284.25369 284.88623 285.59695
 286.36789 287.07193 287.72974 288.58438
 366.78100 356.33291 345.76283 334.62674 323.02765 311.21956 299.08748 286.88839
 274.59830 262.49322 250.50013 239.79904 229.91895 221.02087 213.20078 206.20069
 200.03260 194.96852 191.54843 189.58834 188.62326 188.68517 189.51808 190.82399
 192.54691 194.63982 196.90073 199.25765 201.70056 204.17847 206.26438 208.10430
 209.72821 210.87112 211.09804 211.32395 211.25886 210.96177 210.59269 210.22060
 209.83551 209.54342 209.34934 209.21125 209.13716 209.46608 209.84999 210.23690
 211.02781 212.20373 213.45164 215.23255 217.15847 219.19938 221.29229 223.37320
 225.43112 227.51303 229.60794 231.71186 233.83877 236.00868 238.26259 240.63051
 243.24942 245.49833 247.49824 249.26116 250.67607 251.79698 252.61690 252.93081
 252.96572 252.73763 252.09555 251.04146 249.64537 247.80429 245.71120 243.54211
 241.33102 239.13294 236.95085 234.78776 232.64568 230.51059 228.53450 226.68941
 224.97033 223.44024 222.06815 220.83806 219.71798 218.67589 217.77780 216.91672
 216.15663 215.33454 214.43045 213.79237 213.24028 213.49318 214.09067 216.25679
 217.86261 218.51067 220.24635 221.82249 223.19087 225.11739 228.37993 231.30647
 233.71338 235.66420 237.35812 239.61925 242.99513 247.10452 251.24695 255.13652
 258.70853 261.99948 264.99814 267.61542 269.89703 272.01108 274.11105 276.13525
 278.01260 279.65109 281.02264 282.22562 283.43085 284.15811 284.69928 285.35751
 286.11996 286.82056 287.45081 288.31528
 366.78100 356.33424 345.76548 334.63073 323.03297 311.22621 299.09545 286.89769
 274.60894 262.50518 250.51342 239.81366 229.93490 221.03815 213.21939 206.22063
 200.05387 194.99111 191.57236 189.61360 188.64984 188.71308 189.54732 190.85457
 192.57881 194.67305 196.93529 199.29353 201.73778 204.21702 206.30426 208.14550
 209.77074 210.91499 211.14323 211.37047 211.30671 211.01095 210.64320 210.27244
 209.88868 209.59792 209.40516 209.26841 209.19565 209.52589 209.91113 210.29937
 211.09162 212.26886 213.51810 215.30034 217.22758 219.26983 221.36407 223.44631
 225.50555 227.58879 229.68504 231.79028 233.91852 236.08976 238.34500 240.71425
 243.33449 245.58473 247.58597 249.35021 250.76646 251.88870 252.70994 253.02518
 253.06142 252.83467 252.19391 251.14115 249.74639 247.90663 245.81488 243.64712
 241.43736 239.24060 237.05984 234.89809 232.75733 230.62357 228.64881 226.80505
 225.08730 223.55854 222.18778 220.95902 219.84026 218.79951 217.90275 217.04299
 216.28423 215.46347 214.56072 213.92396 213.37320 213.58688 214.09174 216.24861
 217.99823 218.77448 220.36499 221.96999 223.33112 225.22337 228.36261 231.26631
 233.53984 235.33388 236.97238 239.31636 242.84483 247.00827 251.16534 255.09644
 258.69272 261.99438 264.98773 267.58807 269.83887 271.91977 273.99579 275.99844
 277.87985 279.51929 280.88882 282.09048 283.27634 284.22781 284.82251 285.38034
 286.14026 286.84286 287.47797 288.34988
 366.78100 356.33594 345.76889 334.63583 323.03977 311.23472 299.10566 286.90960
 274.62254 262.52049 250.53043 239.83237 229.95532 221.06026 213.24320 206.24615
 200.08109 195.02003 191.60297 189.64592 188.68386 188.74880 189.58475 190.89369
 192.61963 194.71558 196.97952 199.33946 201.78541 204.26635 206.35529 208.19823
 209.82518 210.97112 211.20106 211.43001 211.36795 211.07389 210.70784 210.33878
 209.95672 209.66766 209.47661 209.34155 209.27049 209.60244 209.98938 210.37932
 211.17327 212.35221 213.60315 215.38710 217.31604 219.35998 221.45592 223.53987
 225.60081 227.68575 229.78370 231.89064 234.02058 236.19353 238.45047 240.82141
 243.44335 245.69530 247.69824 249.46418 250.88213 252.00607 252.82901 253.14596
 253.18390 252.95884 252.31979 251.26873 249.87567 248.03761 245.94756 243.78150
 241.57344 239.37839 237.19933 235.03927 232.90022 230.76816 228.79510 226.95304
 225.23699 223.70993 222.34087 221.11382 219.99676 218.95770 218.06265 217.20459
 216.44753 215.62848 214.72742 214.09236 213.54330 213.69585 214.05624 216.31067
 218.14810 218.95421 220.52931 222.12177 223.43846 225.29791 228.35683 231.19046
 233.31358 234.96490 236.59001 239.02963 242.69420 246.90288 251.08333 255.05443
 258.67963 261.98892 264.97510 267.56705 269.80603 271.86835 273.91092 275.88629
 277.76865 279.41721 280.82407 282.01160 282.92795 283.98730 284.94827 285.57248
 286.28174 286.98425 287.62726 288.49771
 366.78100 356.33646 345.76992 334.63738 323.04184 311.23730 299.10875 286.91321
 274.62667 262.52513 250.53559 239.83805 229.96151 221.06697 213.25043 206.25389
 200.08935 195.02880 191.61226 189.65572 188.69418 188.75964 189.59610 190.90556
 192.63202 194.72848 196.99294 199.35340 201.79985 204.28131 206.37077 208.21423
 209.84169 210.98815 211.21861 211.44807 211.38653 211.09299 210.72745 210.35890
 209.97736 209.68882 209.49828 209.36374 209.29320 209.62566 210.01312 210.40358
 211.19804 212.37750 213.62895 215.41341 217.34287 219.38733 221.48379 223.56825
 225.62971 227.71517 229.81363 231.92109 234.05155 236.22500 238.48246 240.85392
 243.47638 245.72884 247.73230 249.49876 250.91722 252.04168 252.86514 253.18260
 253.22105 252.99651 252.35797 251.30743 249.91489 248.07735 245.98781 243.82227
 241.61473 239.42019 237.24165 235.08211 232.94356 230.81202 228.83948 226.99794
 225.28240 223.75586 222.38732 221.16078 220.04424 219.00570 218.11116 217.25361
 216.49707 215.67853 214.77799 214.14345 213.59491 213.74362 214.09497 216.31078
 218.34766 219.12088 220.69766 222.30023 223.58800 225.36993 228.33946 231.07124
 233.05342 234.58922 236.22426 238.76978 242.53398 246.78793 251.00194 255.00641
 258.65353 261.96255 264.94037 267.52924 269.77438 271.83093 273.83545 275.78204
 277.65463 279.31573 280.75409 281.94559 282.85306 283.90643 284.88818 285.70804
 286.44562 287.14584 287.78378 288.64243
 366.78100 356.33584 345.76868 334.63552 323.03936 311.23420 299.10504 286.90888
 274.62172 262.51956 250.52940 239.83124 229.95408 221.05891 213.24175 206.24459
 200.07943 195.01827 191.60111 189.64395 188.68179 188.74663 189.58247 190.89131
 192.61715 194.71299 196.97683 199.33667 201.78251 204.26335 206.35219 208.19503
 209.82187 210.96771 211.19755 211.42639 211.36423 211.07006 210.70390 210.33474
 209.95258 209.66342 209.47226 209.33710 209.26594 209.59778 209.98462 210.37446
 211.16830 212.34714 213.59798 215.38182 217.31066 219.35450 221.45034 223.53418
 225.59502 227.67986 229.77770 231.88454 234.01438 236.18721 238.44405 240.81489
 243.43673 245.68857 247.69141 249.45725 250.87509 251.99893 252.82177 253.13861
 253.17645 252.95129 252.31213 251.26097 249.86781 248.02965 245.93949 243.77333
 241.56517 239.37001 237.19085 235.03069 232.89153 230.75937 228.78620 226.94404
 225.22788 223.70072 222.33156 221.10440 219.98724 218.94808 218.05292 217.19476
 216.43760 215.61844 214.71728 214.08212 213.53296 213.73181 214.20164 216.28955
 218.44727 219.43047 220.92155 222.40686 223.65019 225.44643 228.36826 230.96202
 232.78760 234.19586 235.84413 238.51793 242.37579 246.67677 250.92119 254.94765
 258.61032 261.92017 264.89099 267.48248 269.73965 271.79541 273.76181 275.67270
 277.53668 279.20041 280.61832 281.82886 282.92072 283.96863 284.95111 285.81134
 286.56516 287.26593 287.89658 288.74457
 366.78100 356.33575 345.76850 334.63525 323.03900 311.23376 299.10451 286.90826
 274.62101 262.51876 250.52851 239.83026 229.95301 221.05777 213.24052 206.24327
 200.07802 195.01677 191.59952 189.64227 188.68002 188.74478 189.58053 190.88928
 192.61503 194.71078 196.97453 199.33428 201.78003 204.26079 206.34954 208.19229
 209.81904 210.96479 211.19454 211.42329 211.36104 211.06680 210.70055 210.33130
 209.94905 209.65980 209.46855 209.33330 209.26205 209.59381 209.98056 210.37031
 211.16406 212.34281 213.59356 215.37731 217.30606 219.34982 221.44557 223.52932
 225.59007 227.67482 229.77257 231.87932 234.00907 236.18183 238.43858 240.80933
 243.43108 245.68283 247.68558 249.45133 250.86908 251.99284 252.81559 253.13234
 253.17009 252.94484 252.30559 251.25434 249.86109 248.02285 245.93260 243.76635
 241.55810 239.36285 237.18360 235.02335 232.88410 230.75186 228.77861 226.93636
 225.22011 223.69286 222.32361 221.09636 219.97911 218.93987 218.04462 217.18637
 216.42912 215.60987 214.70862 214.07337 213.52412 213.74516 214.26741 216.31685
 218.52605 219.70345 221.10973 222.50415 223.72282 225.56664 228.44774 230.86169
 232.48439 233.75529 235.45145 238.29521 242.24568 246.57877 250.84515 254.89102
 258.56998 261.88397 264.84912 267.43842 269.69363 271.72369 273.63531 275.51544
 277.37244 279.01779 280.50116 281.85477 283.03387 284.08755 285.07138 285.96182
 286.74042 287.43634 288.05127 288.88083
 366.78100 356.33608 345.76915 334.63623 323.04031 311.23539 299.10646 286.91054
 274.62362 262.52169 250.53177 239.83385 229.95692 221.06200 213.24508 206.24816
 200.08323 195.02231 191.60539 189.64846 188.68654 188.75162 189.58769 190.89677
 192.62285 194.71893 196.98300 199.34308 201.78916 204.27023 206.35931 208.20239
 209.82946 210.97554 211.20562 211.43470 211.37277 211.07885 210.71293 210.34400
 209.96208 209.67316 209.48223 209.34731 209.27639 209.60847 209.99554 210.38562
 211.17970 212.35877 213.60985 215.39393 217.32300 219.36708 221.46316 223.54724
 225.60831 227.69339 229.79147 231.89854 234.02862 236.20170 238.45878 240.82985
 243.45193 245.70401 247.70708 249.47316 250.89124 252.01531 252.83839 253.15547
 253.19355 252.96862 252.32970 251.27878 249.88585 248.04793 245.95801 243.79208
 241.58416 239.38924 237.21032 235.05039 232.91147 230.77955 228.80662 226.96470
 225.24878 223.72185 222.35293 221.12601 220.00909 218.97016 218.07524 217.21732
 216.46039 215.64147 214.74055 214.10562 213.55670 213.78033 214.30869 216.35095
 218.59091 219.94478 221.28009 222.62592 223.85893 225.70422 228.51688 230.75864
 232.15399 233.29384 235.08186 238.11752 242.14592 246.49501 250.77676 254.84213
 258.53613 261.85141 264.80698 267.39346 269.64801 271.65985 273.53195 275.39844
 277.24380 278.90671 280.45145 281.82080 283.00714 284.06815 285.05817 285.95322
 286.74854 287.44595 288.06195 288.89734
 366.78100 356.33640 345.76980 334.63720 323.04160 311.23700 299.10840 286.91280
 274.62620 262.52460 250.53501 239.83741 229.96081 221.06621 213.24961 206.25301
 200.08841 195.02781 191.61121 189.65461 188.69301 188.75841 189.59481 190.90421
 192.63061 194.72701 196.99141 199.35181 201.79821 204.27961 206.36902 208.21242
 209.83982 210.98622 211.21662 211.44602 211.38442 211.09082 210.72522 210.35662
 209.97502 209.68642 209.49582 209.36122 209.29062 209.62302 210.01042 210.40082
 211.19522 212.37462 213.62603 215.41043 217.33983 219.38423 221.48063 223.56503
 225.62643 227.71183 229.81023 231.91763 234.04803 236.22143 238.47883 240.85023
 243.47263 245.72503 247.72843 249.49483 250.91323 252.03763 252.86104 253.17844
 253.21684 252.99224 252.35364 251.30304 249.91044 248.07284 245.98324 243.81764
 241.61004 239.41544 237.23684 235.07724 232.93864 230.80704 228.83444 226.99284
 225.27724 223.75064 222.38205 221.15545 220.03885 219.00025 218.10565 217.24805
 216.49145 215.67285 214.77225 214.13765 213.58905 213.81688 214.35516 216.38611
 218.62695 220.14262 221.46393 222.78377 224.03471 225.81679 228.55029 230.67729
 231.85320 232.85463 234.74504 237.95390 242.04764 246.41107 250.70554 254.78687
 258.49255 261.80804 264.75638 267.34412 269.60858 271.62210 273.47000 275.31137
 277.14160 278.80426 280.34698 281.71371 282.89465 283.94382 284.90155 285.78925
 286.61935 287.34592 287.96750 288.81693
 366.78100 356.33673 345.77047 334.63820 323.04293 311.23866 299.11040 286.91513
 274.62886 262.52759 250.53833 239.84106 229.96479 221.07052 213.25426 206.25799
 200.09372 195.03345 191.61719 189.66092 188.69965 188.76538 189.60212 190.91185
 192.63858 194.73531 197.00005 199.36078 201.80751 204.28924 206.37898 208.22271
 209.85044 210.99717 211.22791 211.45764 211.39637 211.10310 210.73784 210.36957
 209.98830 209.70003 209.50977 209.37550 209.30523 209.63796 210.02570 210.41643
 211.21116 212.39089 213.64263 215.42736 217.35709 219.40182 221.49856 223.58329
 225.64502 227.73075 229.82949 231.93722 234.06795 236.24168 238.49942 240.87115
 243.49388 245.74661 247.75035 249.51708 250.93581 252.06054 252.88428 253.20201
 253.24074 253.01647 252.37821 251.32794 249.93567 248.09841 246.00914 243.84387
 241.63660 239.44234 237.26407 235.10480 232.96653 230.83527 228.86300 227.02173
 225.30646 223.78020 222.41193 221.18566 220.06939 219.03113 218.13686 217.27959
 216.52332 215.70506 214.80479 214.17052 213.62225 213.85504 214.40504 216.42152
 218.65808 220.29666 221.66780 222.97443 224.21140 225.88832 228.55913 230.60919
 231.59117 232.45743 234.44267 237.79495 241.94884 246.32741 250.63020 254.71872
 258.42813 261.73862 264.68137 267.27768 269.56812 271.60757 273.41800 275.12955
 277.03168 278.74582 280.29489 281.66214 282.84711 283.89740 284.86008 285.74762
 286.56644 287.30698 287.93304 288.78546
 366.78100 356.33696 345.77093 334.63889 323.04386 311.23982 299.11179 286.91675
 274.63072 262.52968 250.54065 239.84361 229.96758 221.07354 213.25751 206.26147
 200.09744 195.03740 191.62137 189.66533 188.70430 188.77026 189.60723 190.91719
 192.64416 194.74112 197.00609 199.36705 201.81402 204.29598 206.38595 208.22991
 209.85788 211.00484 211.23581 211.46577 211.40474 211.11170 210.74667 210.37863
 209.99760 209.70956 209.51953 209.38549 209.31546 209.64842 210.03639 210.42735
 211.22232 212.40228 213.65425 215.43921 217.36918 219.41414 221.51111 223.59607
 225.65804 227.74400 229.84297 231.95093 234.08190 236.25586 238.51383 240.88579
 243.50876 245.76172 247.76569 249.53265 250.95161 252.07658 252.90054 253.21851
 253.25747 253.03344 252.39540 251.34537 249.95333 248.11630 246.02726 243.86223
 241.65519 239.46116 237.28312 235.12409 232.98605 230.85502 228.88298 227.04195
 225.32691 223.80088 222.43284 221.20681 220.09077 219.05274 218.15870 217.30167
 216.54563 215.72760 214.82756 214.19353 213.64549 213.88831 214.46201 216.44724
 218.69278 220.42430 221.87659 223.18233 224.38525 225.94319 228.55344 230.52428
 231.34015 232.09401 234.16719 237.65144 241.85965 246.25009 250.55661 254.64548
 258.35507 261.66299 264.60822 267.22134 269.53149 271.55981 273.29483 274.93655
 276.91174 278.69855 280.25656 281.62827 282.81906 283.87415 284.84348 285.73239
 286.54538 287.28241 287.92789 288.80460
 366.78100 356.33705 345.77110 334.63915 323.04420 311.24025 299.11230 286.91735
 274.63140 262.53045 250.54150 239.84455 229.96860 221.07465 213.25870 206.26275
 200.09880 195.03885 191.62290 189.66695 188.70600 188.77205 189.60909 190.91914
 192.64619 194.74324 197.00829 199.36934 201.81639 204.29844 206.38849 208.23254
 209.86059 211.00764 211.23869 211.46874 211.40779 211.11484 210.74989 210.38194
 210.00099 209.71304 209.52309 209.38914 209.31919 209.65224 210.04029 210.43134
 211.22639 212.40644 213.65849 215.44354 217.37359 219.41864 221.51569 223.60074
 225.66279 227.74884 229.84789 231.95594 234.08699 236.26104 238.51909 240.89114
 243.51418 245.76723 247.77128 249.53833 250.95738 252.08243 252.90648 253.22453
 253.26358 253.03963 252.40168 251.35173 249.95978 248.12283 246.03388 243.86893
 241.66198 239.46803 237.29008 235.13113 232.99318 230.86223 228.89028 227.04933
 225.33438 223.80843 222.44048 221.21453 220.09858 219.06063 218.16668 217.30973
 216.55378 215.73583 214.83588 214.20193 213.65398 213.91469 214.53062 216.45975
 218.72035 220.53969 222.07391 223.38948 224.56894 226.01810 228.54240 230.41389
 231.09680 231.76930 233.91795 237.51740 241.77554 246.17406 250.47813 254.56238
 258.26907 261.57629 264.52652 267.15372 269.47003 271.46301 273.13266 274.96768
 276.82703 278.61505 280.18381 281.56116 282.75534 283.81213 284.78165 285.66687
 286.47238 287.19772 287.83557 288.71643
 366.78100 356.33708 345.77115 334.63923 323.04430 311.24038 299.11246 286.91753
 274.63161 262.53068 250.54176 239.84483 229.96891 221.07499 213.25906 206.26314
 200.09921 195.03929 191.62337 189.66744 188.70652 188.77259 189.60967 190.91974
 192.64682 194.74390 197.00897 199.37005 201.81712 204.29920 206.38928 208.23335
 209.86143 211.00850 211.23958 211.46965 211.40873 211.11581 210.75088 210.38296
 210.00203 209.71411 209.52419 209.39026 209.32034 209.65341 210.04149 210.43257
 211.22764 212.40772 213.65979 215.44487 217.37494 219.42002 221.51710 223.60217
 225.66425 227.75032 229.84940 231.95748 234.08855 236.26263 238.52070 240.89278
 243.51585 245.76893 247.77301 249.54008 250.95916 252.08423 252.90831 253.22639
 253.26546 253.04154 252.40361 251.35369 249.96177 248.12484 246.03592 243.87099
 241.66407 239.47014 237.29222 235.13330 232.99537 230.86445 228.89252 227.05160
 225.33668 223.81075 222.44283 221.21690 220.10098 219.06305 218.16913 217.31221
 216.55628 215.73836 214.83843 214.20451 213.65659 213.93895 214.60608 216.46777
 218.73627 220.64777 222.25664 223.58530 224.75552 226.11610 228.52727 230.27847
 230.86230 231.48714 233.69830 237.39568 241.69978 246.10400 250.39941 254.47311
 258.17239 261.47562 264.42825 267.06903 269.39865 271.38522 273.03928 274.91684
 276.75262 278.54266 280.11319 281.49417 282.68811 283.74670 284.71695 285.60278
 286.40768 287.13260 287.77011 288.65341
 366.78100 356.33708 345.77117 334.63925 323.04434 311.24042 299.11250 286.91759
 274.63167 262.53076 250.54184 239.84492 229.96901 221.07509 213.25918 206.26326
 200.09934 195.03943 191.62351 189.66759 188.70668 188.77276 189.60985 190.91993
 192.64701 194.74410 197.00918 199.37027 201.81735 204.29943 206.38952 208.23360
 209.86169 211.00877 211.23985 211.46994 211.40902 211.11611 210.75119 210.38327
 210.00236 209.71444 209.52453 209.39061 209.32069 209.65378 210.04186 210.43295
 211.22803 212.40811 213.66020 215.44528 217.37537 219.42045 221.51753 223.60262
 225.66470 227.75078 229.84987 231.95795 234.08904 236.26312 238.52120 240.89329
 243.51637 245.76946 247.77354 249.54062 250.95971 252.08479 252.90888 253.22696
 253.26604 253.04213 252.40421 251.35430 249.96238 248.12546 246.03655 243.87163
 241.66472 239.47080 237.29288 235.13397 232.99605 230.86514 228.89322 227.05230
 225.33739 223.81147 222.44355 221.21764 220.10172 219.06381 218.16989 217.31297
 216.55706 215.73914 214.83923 214.20531 213.65739 213.96246 214.68321 216.47920
 218.74258 220.74913 222.42984 223.76953 224.93617 226.22636 228.51103 230.12296
 230.62813 231.23190 233.50801 237.29707 241.63629 246.03978 250.32253 254.37938
 258.06323 261.35507 264.30618 266.95572 269.28922 271.27185 272.97861 274.92886
 276.71542 278.49088 280.05890 281.43839 282.63333 283.69272 284.66315 285.55246
 286.35999 287.08719 287.72803 288.61279
 366.78100 356.33713 345.77127 334.63940 323.04453 311.24066 299.11280 286.91793
 274.63206 262.53120 250.54233 239.84546 229.96960 221.07573 213.25986 206.26399
 200.10013 195.04026 191.62439 189.66853 188.70766 188.77379 189.61092 190.92106
 192.64819 194.74532 197.01046 199.37159 201.81872 204.30085 206.39099 208.23512
 209.86325 211.01039 211.24152 211.47165 211.41079 211.11792 210.75305 210.38518
 210.00432 209.71645 209.52658 209.39272 209.32285 209.65598 210.04411 210.43525
 211.23038 212.41051 213.66265 215.44778 217.37791 219.42305 221.52018 223.60531
 225.66744 227.75358 229.85271 231.96084 234.09198 236.26611 238.52424 240.89637
 243.51951 245.77264 247.77677 249.54391 250.96304 252.08817 252.91230 253.23044
 253.26957 253.04570 252.40784 251.35797 249.96610 248.12924 246.04037 243.87550
 241.66863 239.47477 237.29690 235.13803 233.00017 230.86930 228.89743 227.05656
 225.34170 223.81583 222.44796 221.22210 220.10623 219.06836 218.17449 217.31763
 216.56176 215.74389 214.84403 214.21016 213.66229 213.98946 214.76242 216.49648
 218.73759 220.83191 222.59567 223.95050 225.10364 226.33330 228.50066 229.96127
 230.39267 231.00034 233.34656 237.22238 241.58769 245.98232 250.24709 254.28151
 257.94620 261.22629 264.17770 266.84079 269.18216 271.16647 272.89371 274.89734
 276.65866 278.43472 280.00809 281.39014 282.58731 283.64664 284.61963 285.50769
 286.31714 287.04623 287.68311 288.57458
 366.78100 356.33701 345.77103 334.63904 323.04406 311.24007 299.11208 286.91710
 274.63111 262.53013 250.54114 239.84415 229.96817 221.07418 213.25820 206.26221
 200.09822 195.03824 191.62225 189.66627 188.70528 188.77130 189.60831 190.91832
 192.64534 194.74235 197.00737 199.36838 201.81539 204.29741 206.38742 208.23144
 209.85945 211.00646 211.23748 211.46749 211.40651 211.11352 210.74853 210.38055
 209.99956 209.71158 209.52159 209.38760 209.31762 209.65063 210.03865 210.42966
 211.22467 212.40469 213.65670 215.44172 217.37173 219.41675 221.51376 223.59877
 225.66079 227.74680 229.84582 231.95383 234.08484 236.25886 238.51687 240.88889
 243.51190 245.76491 247.76893 249.53594 250.95496 252.07997 252.90398 253.22200
 253.26101 253.03703 252.39904 251.34905 249.95707 248.12008 246.03110 243.86611
 241.65912 239.46514 237.28715 235.12817 232.99018 230.85920 228.88721 227.04622
 225.33124 223.80525 222.43727 221.21128 220.09529 219.05731 218.16332 217.30634
 216.55035 215.73236 214.83238 214.19839 213.65041 214.00790 214.85252 216.52223
 218.72182 220.89058 222.73903 224.12415 225.26588 226.43942 228.49400 229.80217
 230.16388 230.79474 233.21875 237.16843 241.55110 245.93121 250.17175 254.17580
 257.81696 261.08661 264.04459 266.72916 269.08151 271.06189 272.79636 274.84033
 276.60828 278.38913 279.96167 281.34497 282.54129 283.60156 284.57468 285.46307
 286.27362 287.00201 287.64514 288.52625
 366.78100 356.33654 345.77008 334.63763 323.04217 311.23771 299.10925 286.91379
 274.62734 262.52588 250.53642 239.83896 229.96251 221.06805 213.25159 206.25513
 200.09067 195.03022 191.61376 189.65730 188.69584 188.76138 189.59793 190.90747
 192.63401 194.73055 196.99509 199.35564 201.80218 204.28372 206.37326 208.21681
 209.84435 210.99089 211.22143 211.45097 211.38952 211.09606 210.73060 210.36214
 209.98068 209.69223 209.50177 209.36731 209.29685 209.62939 210.01694 210.40748
 211.20202 212.38156 213.63311 215.41765 217.34719 219.39173 221.48827 223.57282
 225.63436 227.71990 229.81844 231.92598 234.05653 236.23007 238.48761 240.85915
 243.48169 245.73424 247.73778 249.50432 250.92286 252.04741 252.87095 253.18849
 253.22703 253.00257 252.36412 251.31366 249.92120 248.08374 245.99428 243.82883
 241.62137 239.42691 237.24845 235.08899 232.95054 230.81908 228.84662 227.00516
 225.28971 223.76325 222.39479 221.16833 220.05187 219.01342 218.11896 217.26150
 216.50504 215.68658 214.78613 214.15167 213.60321 214.00592 214.95735 216.55516
 218.69991 220.93408 222.86339 224.28854 225.41817 226.53944 228.48830 229.63805
 229.92734 230.60173 233.10249 237.12675 241.52931 245.89481 250.10973 254.08188
 257.69943 260.95779 263.92239 266.63129 269.00391 270.98682 272.61124 274.66055
 276.59763 278.37936 279.94089 281.31824 282.51273 283.57230 284.54300 285.43256
 286.24463 286.97479 287.61914 288.49741
 366.78100 356.33608 345.76916 334.63624 323.04032 311.23540 299.10648 286.91056
 274.62364 262.52172 250.53180 239.83388 229.95696 221.06204 213.24512 206.24820
 200.08328 195.02236 191.60544 189.64852 188.68660 188.75168 189.58775 190.89683
 192.62291 194.71899 196.98307 199.34315 201.78923 204.27031 206.35939 208.20247
 209.82955 210.97563 211.20571 211.43479 211.37287 211.07895 210.71303 210.34411
 209.96219 209.67327 209.48235 209.34743 209.27651 209.60859 209.99567 210.38575
 211.17983 212.35891 213.60999 215.39407 217.32315 219.36723 221.46331 223.54739
 225.60847 227.69355 229.79163 231.89871 234.02879 236.20187 238.45895 240.83003
 243.45210 245.70418 247.70726 249.47334 250.89142 252.01550 252.83858 253.15566
 253.19374 252.96882 252.32990 251.27898 249.88606 248.04814 245.95822 243.79230
 241.58438 239.38946 237.21054 235.05062 232.91170 230.77978 228.80686 226.96494
 225.24902 223.72210 222.35318 221.12626 220.00934 218.97042 218.07550 217.21758
 216.46066 215.64174 214.74082 214.10590 213.55698 214.00494 215.06332 216.58942
 218.67618 220.96687 222.98009 224.44888 225.56863 226.64517 228.47893 229.47800
 229.70815 230.43828 233.00453 237.09175 241.50780 245.85255 250.03603 253.97098
 257.56223 260.81332 263.79068 266.51541 268.86841 270.84698 272.66345 274.59857
 276.58929 278.37100 279.92737 281.30081 282.49170 283.55014 284.52057 285.41086
 286.22205 286.95547 287.59818 288.47586
 366.78100 356.33580 345.76861 334.63541 323.03921 311.23401 299.10482 286.90862
 274.62142 262.51922 250.52903 239.83083 229.95363 221.05843 213.24124 206.24404
 200.07884 195.01764 191.60045 189.64325 188.68105 188.74585 189.58166 190.89046
 192.61626 194.71206 196.97587 199.33567 201.78147 204.26227 206.35108 208.19388
 209.82068 210.96648 211.19629 211.42509 211.36289 211.06869 210.70250 210.33330
 209.95110 209.66190 209.47071 209.33551 209.26431 209.59611 209.98292 210.37272
 211.16652 212.34532 213.59613 215.37993 217.30873 219.35253 221.44834 223.53214
 225.59294 227.67774 229.77555 231.88235 234.01215 236.18495 238.44176 240.81256
 243.43436 245.68616 247.68897 249.45477 250.87257 251.99637 252.81918 253.13598
 253.17378 252.94858 252.30939 251.25819 249.86499 248.02679 245.93660 243.77040
 241.56220 239.36700 237.18781 235.02761 232.88841 230.75621 228.78302 226.94082
 225.22462 223.69742 222.32823 221.10103 219.98383 218.94463 218.04944 217.19124
 216.43404 215.61484 214.71365 214.07845 213.52925 214.01253 215.15431 216.63737
 218.66661 220.98802 223.07045 224.58037 225.69199 226.72815 228.47574 229.34819
 229.51221 230.29927 232.93842 237.07521 241.49883 245.82094 249.96950 253.86217
 257.42068 260.65671 263.64124 266.39935 268.80084 270.79446 272.48068 274.71506
 276.57220 278.33521 279.89188 281.26468 282.45398 283.51266 284.48318 285.37027
 286.18185 286.91367 287.56049 288.42819
 366.78100 356.33541 345.76783 334.63424 323.03766 311.23207 299.10248 286.90590
 274.61831 262.51573 250.52514 239.82655 229.94897 221.05338 213.23580 206.23821
 200.07262 195.01104 191.59345 189.63587 188.67328 188.73769 189.57311 190.88152
 192.60694 194.70235 196.96576 199.32518 201.77059 204.25101 206.33942 208.18183
 209.80825 210.95366 211.18308 211.41149 211.34890 211.05432 210.68773 210.31815
 209.93556 209.64597 209.45439 209.31880 209.24722 209.57863 209.96505 210.35446
 211.14787 212.32629 213.57670 215.36012 217.28853 219.33194 221.42736 223.51077
 225.57119 227.65560 229.75301 231.85943 233.98884 236.16126 238.41767 240.78808
 243.40950 245.66091 247.66333 249.42874 250.84615 251.96957 252.79198 253.10840
 253.14581 252.92022 252.28064 251.22905 249.83547 247.99688 245.90629 243.73971
 241.53112 239.33554 237.15595 234.99536 232.85578 230.72319 228.74961 226.90702
 225.19043 223.66285 222.29326 221.06568 219.94809 218.90850 218.01292 217.15433
 216.39675 215.57716 214.67557 214.03999 213.49040 214.01213 215.24478 216.70030
 218.67885 221.00281 223.13139 224.65717 225.78192 226.85342 228.46919 229.17279
 229.29791 230.17996 232.89990 237.07727 241.50592 245.80971 249.92776 253.78000
 257.30466 260.51904 263.50104 266.26489 268.63501 270.60284 272.51733 274.64587
 276.57361 278.32306 279.87302 281.24207 282.43027 283.48517 284.45276 285.33817
 286.14838 286.87927 287.52310 288.38565
 366.78100 356.33476 345.76651 334.63227 323.03502 311.22878 299.09853 286.90129
 274.61304 262.50980 250.51855 239.81931 229.94107 221.04482 213.22658 206.22833
 200.06209 194.99984 191.58160 189.62335 188.66011 188.72386 189.55862 190.86638
 192.59113 194.68589 196.94864 199.30740 201.75215 204.23191 206.31966 208.16142
 209.78717 210.93193 211.16069 211.38844 211.32520 211.02995 210.66271 210.29246
 209.90922 209.61897 209.42673 209.29048 209.21824 209.54900 209.93475 210.32351
 211.11626 212.29402 213.54377 215.32653 217.25428 219.29704 221.39179 223.47455
 225.53431 227.61806 229.71482 231.82057 233.94933 236.12108 238.37684 240.74659
 243.36735 245.61810 247.61986 249.38462 250.80137 251.92413 252.74588 253.06164
 253.09839 252.87215 252.23190 251.17966 249.78541 247.94617 245.85493 243.68768
 241.47844 239.28219 237.10195 234.94070 232.80046 230.66721 228.69297 226.84972
 225.13248 223.60424 222.23399 221.00575 219.88750 218.84726 217.95101 217.09177
 216.33352 215.51328 214.61103 213.97479 213.42455 213.99481 215.34212 216.77307
 218.69908 221.01421 223.17836 224.70906 225.82997 226.95000 228.46262 229.00703
 229.09593 230.08206 232.88124 237.08911 241.52046 245.80710 249.89607 253.71106
 257.20520 260.40472 263.38501 266.14368 268.46902 270.43039 272.57001 274.56290
 276.54309 278.28287 279.82843 281.19531 282.38135 283.43481 284.39960 285.28336
 286.09018 286.82001 287.46118 288.31863
 366.78100 356.33407 345.76515 334.63022 323.03229 311.22536 299.09444 286.89651
 274.60758 262.50366 250.51173 239.81180 229.93288 221.03595 213.21702 206.21809
 200.05117 194.98824 191.56931 189.61039 188.64646 188.70953 189.54360 190.85068
 192.57475 194.66882 196.93090 199.28897 201.73304 204.21211 206.29919 208.14026
 209.76533 210.90941 211.13748 211.36455 211.30063 211.00470 210.63677 210.26584
 209.88192 209.59099 209.39806 209.26114 209.18821 209.51828 209.90335 210.29143
 211.08350 212.26057 213.50965 215.29172 217.21879 219.26087 221.35494 223.43701
 225.49608 227.57916 229.67523 231.78030 233.90838 236.07945 238.33452 240.70359
 243.32367 245.57374 247.57481 249.33889 250.75496 251.87703 252.69810 253.01318
 253.04925 252.82232 252.18140 251.12847 249.73354 247.89362 245.80169 243.63376
 241.42383 239.22691 237.04598 234.88405 232.74313 230.60920 228.63427 226.79034
 225.07242 223.54349 222.17256 220.94364 219.82471 218.78378 217.88686 217.02693
 216.26800 215.44707 214.54415 213.90722 213.35629 213.97231 215.42773 216.86488
 218.72597 221.02948 223.22229 224.75060 225.82936 226.98996 228.46028 228.87793
 228.90894 229.98763 232.87157 237.10539 241.53937 245.80997 249.87206 253.65427
 257.12259 260.30835 263.28091 266.03058 268.34952 270.35223 272.47711 274.53677
 276.48764 278.21893 279.76172 281.12802 282.31161 283.36398 284.32739 285.20847
 286.01361 286.74127 287.38168 288.22906
 366.78100 356.33356 345.76413 334.62869 323.03025 311.22282 299.09138 286.89294
 274.60351 262.49907 250.50663 239.80620 229.92676 221.02932 213.20989 206.21045
 200.04301 194.97958 191.56014 189.60070 188.63627 188.69883 189.53239 190.83896
 192.56252 194.65608 196.91765 199.27521 201.71877 204.19734 206.28390 208.12446
 209.74903 210.89259 211.12015 211.34671 211.28228 210.98584 210.61740 210.24597
 209.86153 209.57009 209.37666 209.23922 209.16578 209.49535 209.87991 210.26747
 211.05904 212.23560 213.48416 215.26573 217.19229 219.23385 221.32742 223.40898
 225.46754 227.55011 229.64567 231.75023 233.87780 236.04836 238.30292 240.67149
 243.29105 245.54061 247.54118 249.30474 250.72030 251.84187 252.66243 252.97699
 253.01256 252.78512 252.14368 251.09025 249.69481 247.85437 245.76194 243.59350
 241.38306 239.18563 237.00419 234.84175 232.70032 230.56588 228.59044 226.74601
 225.02757 223.49813 222.12670 220.89726 219.77782 218.73639 217.83895 216.97851
 216.21908 215.39764 214.49420 213.85677 213.30533 213.95625 215.49413 216.97778
 218.76613 221.04817 223.25418 224.78616 225.81729 226.99570 228.44591 228.77223
 228.74001 229.89198 232.86453 237.12477 241.56097 245.81496 249.84991 253.59973
 257.04248 260.21542 263.18781 265.95212 268.29367 270.31900 272.34335 274.51611
 276.43658 278.14798 279.68256 281.04446 282.22629 283.27490 284.23410 285.11127
 285.91150 286.63394 287.26672 288.08902
 366.78100 356.33312 345.76323 334.62735 323.02847 311.22058 299.08870 286.88982
 274.59994 262.49505 250.50217 239.80129 229.92140 221.02352 213.20364 206.20375
 200.03587 194.97199 191.55211 189.59222 188.62734 188.68946 189.52257 190.82869
 192.55181 194.64492 196.90604 199.26316 201.70627 204.18439 206.27051 208.11063
 209.73474 210.87786 211.10498 211.33109 211.26621 210.96933 210.60044 210.22856
 209.84368 209.55180 209.35791 209.22003 209.14615 209.47526 209.85938 210.24650
 211.03761 212.21373 213.46185 215.24297 217.16908 219.21020 221.30332 223.38443
 225.44255 227.52467 229.61978 231.72390 233.85102 236.02113 238.27525 240.64337
 243.26249 245.51160 247.51172 249.27484 250.68995 251.81107 252.63119 252.94530
 252.98042 252.75254 252.11066 251.05677 249.66089 247.82001 245.72712 243.55824
 241.34736 239.14947 236.96759 234.80471 232.66282 230.52794 228.55206 226.70718
 224.98829 223.45841 222.08653 220.85664 219.73676 218.69488 217.79699 216.93611
 216.17623 215.35435 214.45046 213.81258 213.26070 213.94263 215.55376 217.10423
 218.82570 221.06273 223.25511 224.80501 225.82275 226.99750 228.40453 228.66615
 228.59445 229.80592 232.86342 237.15123 241.58899 245.82553 249.83270 253.55000
 256.96509 260.12143 263.08673 265.85297 268.21240 270.31326 272.38742 274.47305
 276.36072 278.06412 279.59558 280.95441 282.13486 283.18195 284.13928 285.01489
 285.81058 286.53140 287.16217 287.97952
 366.78100 356.33275 345.76250 334.62624 323.02699 311.21874 299.08649 286.88723
 274.59698 262.49173 250.49848 239.79722 229.91697 221.01872 213.19847 206.19821
 200.02996 194.96571 191.54546 189.58520 188.61995 188.68170 189.51445 190.82019
 192.54294 194.63569 196.89644 199.25318 201.69593 204.17368 206.25943 208.09917
 209.72292 210.86567 211.09242 211.31816 211.25291 210.95566 210.58641 210.21415
 209.82890 209.53665 209.34240 209.20414 209.12989 209.45864 209.84239 210.22913
 211.01988 212.19563 213.44338 215.22412 217.14987 219.19062 221.28337 223.36412
 225.42186 227.50361 229.59836 231.70211 233.82885 235.99860 238.25235 240.62010
 243.23884 245.48759 247.48734 249.25009 250.66483 251.78558 252.60533 252.91908
 252.95382 252.72557 252.08332 251.02907 249.63281 247.79156 245.69831 243.52906
 241.31780 239.11955 236.93730 234.77405 232.63179 230.49654 228.52029 226.67504
 224.95578 223.42553 222.05328 220.82303 219.70277 218.66052 217.76227 216.90102
 216.14076 215.31851 214.41426 213.77601 213.22375 213.93076 215.60112 217.24104
 218.92294 221.08308 223.21910 224.78400 225.82788 226.99190 228.33051 228.55031
 228.47466 229.74010 232.87090 237.18294 241.62215 245.84537 249.83067 253.52063
 256.91019 260.04581 262.99377 265.75397 268.13162 270.30054 272.41760 274.41138
 276.28381 277.97717 279.50058 280.85605 282.03180 283.07620 284.03339 284.90359
 285.69885 286.41782 287.04437 287.86139
 366.78100 356.33215 345.76130 334.62444 323.02459 311.21574 299.08289 286.88304
 274.59218 262.48633 250.49248 239.79063 229.90977 221.01092 213.19007 206.18922
 200.02037 194.95551 191.53466 189.57381 188.60796 188.66911 189.50125 190.80640
 192.52855 194.62070 196.88084 199.23699 201.67914 204.15629 206.24144 208.08058
 209.70373 210.84588 211.07203 211.29718 211.23132 210.93347 210.56362 210.19077
 209.80492 209.51206 209.31721 209.17836 209.10351 209.43165 209.81480 210.20095
 210.99110 212.16625 213.41339 215.19354 217.11869 219.15884 221.25099 223.33113
 225.38828 227.46943 229.56358 231.66672 233.79287 235.96202 238.21517 240.58232
 243.20046 245.44861 247.44776 249.20991 250.62406 251.74420 252.56335 252.87650
 252.91065 252.68180 252.03894 250.98409 249.58724 247.74539 245.65153 243.48168
 241.26983 239.07098 236.88813 234.72427 232.58142 230.44557 228.46872 226.62287
 224.90301 223.37216 221.99931 220.76846 219.64760 218.60475 217.70590 216.84405
 216.08320 215.26034 214.35549 213.71664 213.16379 213.90318 215.65010 217.38235
 219.04155 221.11142 223.16858 224.73978 225.82893 226.97839 228.23802 228.42331
 228.35974 229.68294 232.88333 237.21968 241.65906 245.87303 249.84431 253.51309
 256.87778 259.98764 262.91144 265.65735 268.05231 270.26071 272.38831 274.34641
 276.20807 277.89401 279.41055 280.76392 281.93906 282.98224 283.93594 284.80652
 285.59830 286.31436 286.93744 287.75223
 366.78100 356.33168 345.76035 334.62303 323.02271 311.21339 299.08006 286.87974
 274.58842 262.48209 250.48777 239.78545 229.90413 221.00480 213.18348 206.18216
 200.01283 194.94751 191.52619 189.56487 188.59854 188.65922 189.49090 190.79557
 192.51725 194.60893 196.86861 199.22428 201.66596 204.14264 206.22731 208.06599
 209.68867 210.83035 211.05602 211.28070 211.21438 210.91605 210.54573 210.17241
 209.78609 209.49276 209.29744 209.15812 209.08279 209.41047 209.79315 210.17883
 210.96850 212.14318 213.38986 215.16953 217.09421 219.13389 221.22557 223.30524
 225.36192 227.44260 229.53627 231.63895 233.76463 235.93331 238.18598 240.55266
 243.17034 245.41801 247.41669 249.17837 250.59205 251.71172 252.53040 252.84308
 252.87675 252.64743 252.00411 250.94879 249.55146 247.70914 245.61482 243.44449
 241.23217 239.03285 236.84953 234.68520 232.54188 230.40556 228.42823 226.58191
 224.86159 223.33027 221.95694 220.72562 219.60430 218.56097 217.66165 216.79933
 216.03801 215.21468 214.30936 213.67004 213.11671 213.87903 215.68010 217.53851
 219.19125 221.15906 223.10904 224.66321 225.79695 226.94722 228.13893 228.30280
 228.26184 229.64235 232.90277 237.25209 241.69601 245.90811 249.86664 253.51448
 256.85669 259.94333 262.84177 265.57507 267.97064 270.20300 272.34570 274.28964
 276.14240 277.81030 279.30746 280.63654 281.78958 282.82169 283.76974 284.63931
 285.43570 286.16061 286.77469 287.58377
 366.78100 356.33197 345.76095 334.62392 323.02390 311.21487 299.08185 286.88182
 274.59080 262.48477 250.49074 239.78872 229.90769 221.00867 213.18764 206.18662
 200.01759 194.95256 191.53154 189.57051 188.60449 188.66546 189.49744 190.80241
 192.52439 194.61636 196.87633 199.23231 201.67428 204.15126 206.23623 208.07521
 209.69818 210.84015 211.06613 211.29110 211.22508 210.92705 210.55703 210.18400
 209.79798 209.50495 209.30992 209.17090 209.09587 209.42385 209.80682 210.19280
 210.98277 212.15774 213.40472 215.18469 217.10967 219.14964 221.24162 223.32159
 225.37857 227.45954 229.55351 231.65649 233.78246 235.95144 238.20441 240.57139
 243.18936 245.43734 247.43631 249.19828 250.61226 251.73223 252.55121 252.86418
 252.89816 252.66913 252.02610 250.97108 249.57405 247.73203 245.63800 243.46798
 241.25595 239.05693 236.87390 234.70987 232.56685 230.43082 228.45380 226.60777
 224.88775 223.35672 221.98369 220.75267 219.63164 218.58862 217.68959 216.82757
 216.06654 215.24352 214.33849 213.69946 213.14644 213.89783 215.67308 217.63959
 219.38109 221.25188 223.05518 224.54865 225.69041 226.84140 227.96196 228.14854
 228.10889 229.59666 232.94054 237.32320 241.78046 245.99248 249.94809 253.58655
 256.90533 259.95859 262.81302 265.54544 267.92203 270.10809 272.26511 274.20197
 276.04126 277.71017 279.20978 280.54617 281.71100 282.75034 283.70404 284.58475
 285.39447 286.12067 286.76947 287.59628
 366.78100 356.33290 345.76280 334.62670 323.02760 311.21949 299.08739 286.88829
 274.59819 262.49309 250.49999 239.79889 229.91879 221.02068 213.20058 206.20048
 200.03238 194.96828 191.54818 189.58808 188.62298 188.68487 189.51777 190.82367
 192.54657 194.63947 196.90037 199.25727 201.70017 204.17806 206.26396 208.10386
 209.72776 210.87066 211.09756 211.32346 211.25836 210.96125 210.59215 210.22005
 209.83495 209.54285 209.34875 209.21065 209.13655 209.46544 209.84934 210.23624
 211.02714 212.20304 213.45094 215.23184 217.15774 219.19863 221.29153 223.37243
 225.43033 227.51223 229.60713 231.71103 233.83793 236.00782 238.26172 240.62962
 243.24852 245.49742 247.49732 249.26022 250.67512 251.79601 252.61591 252.92981
 252.96471 252.73661 252.09451 251.04041 249.64431 247.80320 245.71010 243.54100
 241.32990 239.13180 236.94970 234.78660 232.64450 230.50939 228.53329 226.68819
 224.96909 223.43899 222.06689 220.83679 219.71669 218.67458 217.77648 216.91538
 216.15528 215.33318 214.42908 213.79098 213.23888 213.95181 215.65239 217.70998
 219.49718 221.29495 223.02740 224.46971 225.62717 226.76239 227.76009 228.04439
 227.82220 229.47166 232.91125 237.35538 241.84514 246.11366 250.08392 253.71019
 257.00958 260.03461 262.86719 265.50940 267.85043 270.06857 272.18661 274.14877
 275.94638 277.59027 279.05719 280.37030 281.52243 282.56583 283.53232 284.42615
 285.27911 286.03870 286.70224 287.54785
 366.78100 356.33388 345.76476 334.62964 323.03151 311.22439 299.09327 286.89515
 274.60603 262.50191 250.50979 239.80967 229.93054 221.03342 213.21430 206.21518
 200.04806 194.98494 191.56582 189.60669 188.64257 188.70545 189.53933 190.84621
 192.57009 194.66397 196.92585 199.28372 201.72760 204.20648 206.29336 208.13424
 209.75912 210.90300 211.13088 211.35775 211.29363 210.99751 210.62939 210.25827
 209.87415 209.58303 209.38990 209.25278 209.17966 209.50954 209.89442 210.28230
 211.07418 212.25106 213.49993 215.28181 217.20869 219.25057 221.34445 223.42633
 225.48521 227.56808 229.66396 231.76884 233.89672 236.06760 238.32248 240.69136
 243.31124 245.56111 247.56199 249.32587 250.74175 251.86363 252.68451 252.99939
 253.03527 252.80814 252.16702 251.11390 249.71878 247.87866 245.78654 243.61842
 241.40829 239.21117 237.03005 234.86793 232.72681 230.59269 228.61757 226.77345
 225.05532 223.52620 222.15508 220.92596 219.80684 218.76572 217.86860 217.00847
 216.24935 215.42823 214.52511 213.88799 213.33687 214.00624 215.61946 217.78441
 219.69333 221.42828 223.01578 224.40202 225.57607 226.66127 227.59354 227.88988
 227.56252 229.34425 232.94162 237.40506 241.92065 246.18715 250.15759 253.79262
 257.09714 260.09958 262.89307 265.49954 267.76941 269.99896 272.12424 274.07434
 275.86328 277.47546 278.91733 280.22974 281.39554 282.44284 283.42572 284.37598
 285.24982 286.02798 286.70776 287.57410
 366.78100 356.33454 345.76607 334.63161 323.03414 311.22768 299.09722 286.89975
 274.61129 262.50783 250.51636 239.81690 229.93843 221.04197 213.22351 206.22504
 200.05858 194.99612 191.57765 189.61919 188.65572 188.71926 189.55380 190.86133
 192.58587 194.68040 196.94294 199.30148 201.74601 204.22555 206.31309 208.15462
 209.78016 210.92469 211.15323 211.38077 211.31730 211.02184 210.65437 210.28391
 209.90045 209.60998 209.41752 209.28106 209.20859 209.53913 209.92466 210.31320
 211.10574 212.28327 213.53281 215.31535 217.24288 219.28542 221.37995 223.46249
 225.52203 227.60556 229.70210 231.80763 233.93617 236.10771 238.36324 240.73278
 243.35332 245.60385 247.60539 249.36992 250.78646 251.90900 252.73053 253.04607
 253.08261 252.85614 252.21568 251.16321 249.76875 247.92929 245.83782 243.67036
 241.46089 239.26443 237.08397 234.92250 232.78204 230.64858 228.67411 226.83065
 225.11318 223.58472 222.21426 220.98579 219.86733 218.82687 217.93040 217.07094
 216.31247 215.49201 214.58955 213.95308 213.40262 214.04326 215.59465 217.83606
 219.93999 221.59245 222.98663 224.32541 225.55304 226.56279 227.39821 227.65256
 227.41652 229.32530 232.98608 237.46429 241.98708 246.23764 250.22258 253.85284
 257.14297 260.11841 262.88004 265.45364 267.71719 269.92914 272.02499 274.01065
 275.77261 277.36313 278.77835 280.08313 281.24969 282.29730 283.28043 284.22583
 285.08554 285.85110 286.51990 287.37222
 366.78100 356.33477 345.76654 334.63231 323.03508 311.22885 299.09862 286.90139
 274.61316 262.50993 250.51870 239.81947 229.94124 221.04501 213.22678 206.22854
 200.06231 195.00008 191.58185 189.62362 188.66039 188.72416 189.55893 190.86670
 192.59147 194.68624 196.94901 199.30778 201.75255 204.23232 206.32009 208.16186
 209.78763 210.93240 211.16117 211.38894 211.32571 211.03048 210.66325 210.29302
 209.90979 209.61956 209.42733 209.29109 209.21886 209.54963 209.93540 210.32417
 211.11694 212.29471 213.54448 215.32725 217.25502 219.29779 221.39256 223.47533
 225.53510 227.61887 229.71564 231.82141 233.95018 236.12195 238.37772 240.74749
 243.36826 245.61903 247.62080 249.38557 250.80234 251.92511 252.74688 253.06264
 253.09941 252.87318 252.23295 251.18072 249.78649 247.94726 245.85603 243.68880
 241.47957 239.28334 237.10311 234.94188 232.80165 230.66842 228.69419 226.85096
 225.13373 223.60550 222.23527 221.00704 219.88881 218.84858 217.95235 217.09312
 216.33489 215.51466 214.61243 213.97619 213.42596 214.05688 215.57268 217.89502
 220.19720 221.80795 223.01733 224.28690 225.49811 226.46214 227.27344 227.40910
 227.33720 229.35391 233.04210 237.53885 242.04750 246.31168 250.28662 253.90762
 257.19153 260.16110 262.90720 265.48480 267.73047 269.88483 272.00662 273.98260
 275.75443 277.30148 278.70480 279.96155 281.07269 282.09665 283.05145 283.92664
 284.74127 285.46671 286.10043 286.90805
 366.78100 356.33404 345.76508 334.63013 323.03217 311.22521 299.09425 286.89630
 274.60734 262.50338 250.51142 239.81146 229.93251 221.03555 213.21659 206.21763
 200.05068 194.98772 191.56876 189.60980 188.64585 188.70889 189.54293 190.84997
 192.57401 194.66806 196.93010 199.28814 201.73218 204.21123 206.29827 208.13931
 209.76435 210.90839 211.13644 211.36348 211.29952 211.00356 210.63561 210.26465
 209.88069 209.58973 209.39677 209.25982 209.18686 209.51690 209.90194 210.28999
 211.08203 212.25907 213.50811 215.29016 217.21720 219.25924 221.35328 223.43532
 225.49437 227.57741 229.67345 231.77849 233.90654 236.07758 238.33262 240.70166
 243.32170 245.57175 247.57279 249.33683 250.75287 251.87492 252.69596 253.01100
 253.04704 252.82008 252.17913 251.12617 249.73121 247.89125 245.79930 243.63134
 241.42138 239.22442 237.04347 234.88151 232.74055 230.60659 228.63163 226.78768
 225.06972 223.54076 222.16980 220.94085 219.82189 218.78093 217.88397 217.02401
 216.26506 215.44410 214.54114 213.90418 213.35323 214.01857 215.59052 217.96640
 220.39389 222.11346 223.20085 224.25929 225.40544 226.40167 227.11728 226.96521
 227.21745 229.39182 233.15497 237.63026 242.13394 246.40463 250.38582 254.00877
 257.27466 260.22021 262.91782 265.51651 267.79187 269.80035 271.95355 273.83688
 275.68689 277.31018 278.74442 279.97723 281.03558 282.01712 282.92670 283.62878
 284.34512 285.02966 285.64822 286.43652
 366.78100 356.33287 345.76273 334.62660 323.02747 311.21934 299.08720 286.88807
 274.59794 262.49281 250.49967 239.79854 229.91841 221.02028 213.20014 206.20001
 200.03188 194.96774 191.54761 189.58748 188.62235 188.68421 189.51708 190.82295
 192.54582 194.63868 196.89955 199.25642 201.69929 204.17715 206.26302 208.10289
 209.72675 210.86962 211.09649 211.32236 211.25722 210.96009 210.59096 210.21883
 209.83369 209.54156 209.34743 209.20930 209.13516 209.46403 209.84790 210.23476
 211.02563 212.20150 213.44937 215.23023 217.15610 219.19697 221.28984 223.37070
 225.42857 227.51044 229.60531 231.70917 233.83604 236.00591 238.25977 240.62764
 243.24651 245.49538 247.49524 249.25811 250.67298 251.79385 252.61371 252.92758
 252.96245 252.73432 252.09218 251.03805 249.64192 247.80078 245.70765 243.53852
 241.32739 239.12925 236.94712 234.78399 232.64186 230.50672 228.53059 226.68546
 224.96633 223.43619 222.06406 220.83393 219.71379 218.67166 217.77353 216.91240
 216.15226 215.33013 214.42600 213.78787 213.23573 213.96193 215.68645 218.00208
 220.44243 222.16687 223.19310 224.13423 225.35957 226.44485 227.06705 227.04097
 226.97501 229.10658 233.02087 237.65265 242.23340 246.52469 250.52202 254.17470
 257.45959 260.36591 262.99423 265.52966 267.69904 269.70035 271.94775 273.83749
 275.42365 276.79602 278.18042 279.38818 280.38934 281.28033 282.04587 282.72342
 283.40762 284.02621 284.56659 285.25522
 366.78100 356.33590 345.76880 334.63570 323.03960 311.23450 299.10540 286.90930
 274.62220 262.52010 250.53000 239.83190 229.95480 221.05970 213.24260 206.24550
 200.08040 195.01930 191.60220 189.64510 188.68300 188.74790 189.58380 190.89270
 192.61860 194.71450 196.97840 199.33830 201.78420 204.26510 206.35400 208.19690
 209.82380 210.96970 211.19960 211.42850 211.36640 211.07230 210.70620 210.33710
 209.95500 209.66590 209.47480 209.33970 209.26860 209.60050 209.98740 210.37730
 211.17120 212.35010 213.60100 215.38490 217.31380 219.35770 221.45360 223.53750
 225.59840 227.68330 229.78120 231.88810 234.01800 236.19090 238.44780 240.81870
 243.44060 245.69250 247.69540 249.46130 250.87920 252.00310 252.82600 253.14290
 253.18080 252.95570 252.31660 251.26550 249.87240 248.03430 245.94420 243.77810
 241.57000 239.37490 237.19580 235.03570 232.89660 230.76450 228.79140 226.94930
 225.23320 223.70610 222.33700 221.10990 219.99280 218.95370 218.05860 217.20050
 216.44340 215.62430 214.72320 214.08810 213.53900 214.13974 215.68323 218.07655
 220.57950 222.11407 223.19453 224.21864 225.43474 226.40921 226.95050 227.19920
 227.26941 229.30472 233.04736 237.56560 242.13148 246.47112 250.49957 254.17365
 257.46216 260.33249 262.98590 265.30228 267.30804 269.93835 271.97894 273.75638
 275.17593 276.42108 277.60858 278.84204 280.09824 281.22476 282.25256 283.18365
 284.02109 284.76685 285.41830 286.24850
 366.78100 356.34087 345.77873 334.65060 323.05946 311.25933 299.13519 286.94406
 274.66192 262.56479 250.57965 239.88652 230.01438 221.12425 213.31211 206.31998
 200.15984 195.10371 191.69157 189.73944 188.78230 188.85217 189.69303 191.00690
 192.73777 194.83863 197.10750 199.47236 201.92323 204.40909 206.50296 208.35082
 209.98269 211.13355 211.36842 211.60228 211.54515 211.25601 210.89488 210.53074
 210.15361 209.86947 209.68334 209.55320 209.48707 209.82394 210.21580 210.61067
 211.40953 212.59340 213.84926 215.63813 217.57199 219.62086 221.72172 223.81059
 225.87645 227.96632 230.06918 232.18105 234.31591 236.49378 238.75564 241.13151
 243.75837 246.01524 248.02310 249.79397 251.21684 252.34570 253.17357 253.49543
 253.53830 253.31816 252.68403 251.63789 250.24976 248.41662 246.33149 244.17035
 241.96722 239.77708 237.60295 235.44781 233.31368 231.18654 229.21841 227.38127
 225.67014 224.14800 222.78387 221.56174 220.44960 219.41547 218.52533 217.67220
 216.92006 216.10593 215.20979 214.57966 214.03552 214.42305 215.59660 218.09726
 220.85223 222.45990 223.48645 224.42580 225.48079 226.04869 227.04648 226.60135
 226.89351 229.18675 233.12517 237.66936 242.23273 246.56689 250.60834 254.32422
 257.65070 260.55557 263.16437 265.26669 267.33087 269.80563 271.89404 273.72983
 275.19785 276.66086 278.35947 279.85098 281.14175 282.28375 283.32565 284.26956
 285.11850 285.87448 286.53488 287.37650
 366.78100 356.34020 345.77739 334.64859 323.05679 311.25599 299.13118 286.93938
 274.65658 262.55877 250.57297 239.87917 230.00637 221.11556 213.30276 206.30996
 200.14916 195.09235 191.67955 189.72675 188.76894 188.83814 189.67834 190.99154
 192.72173 194.82193 197.09013 199.45432 201.90452 204.38972 206.48292 208.33011
 209.96131 211.11151 211.34570 211.57890 211.52110 211.23130 210.86949 210.50469
 210.12689 209.84208 209.65528 209.52448 209.45768 209.79387 210.18507 210.57927
 211.37747 212.56066 213.81586 215.60406 217.53725 219.58545 221.68565 223.77385
 225.83904 227.92824 230.03044 232.14163 234.27583 236.45303 238.71423 241.08942
 243.71562 245.97182 247.97901 249.74921 251.17141 252.29961 253.12680 253.44800
 253.49020 253.26940 252.63459 251.58779 250.19899 248.36518 246.27938 244.11758
 241.91378 239.72297 237.54817 235.39237 233.25756 231.12976 229.16096 227.32316
 225.61135 224.08855 222.72375 221.50094 220.38814 219.35334 218.46254 217.60873
 216.85593 216.04113 215.14433 214.51352 213.96872 214.41139 215.66608 218.00598
 220.82964 222.81706 223.88373 224.58514 225.40958 226.01181 226.55911 226.03926
 226.41466 229.00658 233.14793 237.76956 242.37201 246.73828 250.81549 254.57642
 258.00165 260.97485 263.65186 265.90445 267.57684 269.73724 271.73859 273.59924
 275.28915 277.04095 278.89691 280.52658 281.93689 283.18469 284.32309 285.35440
 286.28198 287.10797 287.82956 288.74911
 366.78100 356.33551 345.76802 334.63452 323.03803 311.23254 299.10305 286.90656
 274.61907 262.51657 250.52608 239.82759 229.95010 221.05461 213.23711 206.23962
 200.07413 195.01264 191.59515 189.63766 188.67516 188.73967 189.57518 190.88369
 192.60920 194.70470 196.96821 199.32772 201.77323 204.25374 206.34225 208.18475
 209.81126 210.95677 211.18628 211.41479 211.35229 211.05780 210.69131 210.32182
 209.93933 209.64983 209.45834 209.32285 209.25136 209.58287 209.96938 210.35888
 211.15239 212.33090 213.58141 215.36492 217.29342 219.33693 221.43244 223.51595
 225.57646 227.66097 229.75847 231.86498 233.99449 236.16700 238.42351 240.79401
 243.41552 245.66703 247.66954 249.43505 250.85256 251.97606 252.79857 253.11508
 253.15259 252.92710 252.28760 251.23611 249.84262 248.00413 245.91364 243.74715
 241.53865 239.34316 237.16367 235.00318 232.86369 230.73119 228.75770 226.91521
 225.19872 223.67123 222.30174 221.07424 219.95675 218.91726 218.02177 217.16328
 216.40578 215.58629 214.68480 214.04931 213.49982 214.17421 215.87050 218.03387
 220.51143 222.76401 224.08116 224.76155 225.51329 226.26071 226.43335 225.90227
 226.28723 228.82832 233.01266 237.63170 242.19951 246.55635 250.64810 254.39565
 257.81778 260.86685 263.61969 266.08963 268.01437 269.68607 271.82224 273.83347
 275.50580 277.11877 278.68790 280.23688 281.68173 282.96008 284.12637 285.18295
 286.13324 286.97946 287.71869 288.66077
 366.78100 356.33409 345.76519 334.63028 323.03237 311.22547 299.09456 286.89665
 274.60774 262.50384 250.51193 239.81202 229.93312 221.03621 213.21730 206.21840
 200.05149 194.98858 191.56968 189.61077 188.64686 188.70995 189.54405 190.85114
 192.57523 194.66933 196.93142 199.28951 201.73361 204.21270 206.29979 208.14089
 209.76598 210.91007 211.13816 211.36526 211.30135 211.00544 210.63754 210.26663
 209.88272 209.59182 209.39891 209.26200 209.18910 209.51919 209.90428 210.29237
 211.08447 212.26156 213.51065 215.29275 217.21984 219.26193 221.35603 223.43812
 225.49721 227.58030 229.67640 231.78149 233.90958 236.08068 238.33577 240.70486
 243.32496 245.57505 247.57614 249.34024 250.75633 251.87842 252.69951 253.01461
 253.05070 252.82379 252.18289 251.12998 249.73507 247.89517 245.80326 243.63535
 241.42545 239.22854 237.04763 234.88572 232.74482 230.61091 228.63600 226.79210
 225.07419 223.54528 222.17438 220.94547 219.82656 218.78566 217.88875 217.02884
 216.26993 215.44903 214.54612 213.90921 213.35831 214.09001 215.90843 218.23083
 220.46695 222.46863 223.85349 224.61700 225.47763 226.42841 226.78270 226.16875
 226.35231 228.70201 232.91226 237.52902 242.06219 246.37733 250.43182 254.15924
 257.55423 260.59375 263.34363 265.89716 268.00525 269.75986 271.70343 273.78238
 275.46136 276.89310 278.40439 279.79370 281.07541 282.29047 283.39902 284.40326
 285.30649 286.11081 286.81348 287.70889
 366.78100 356.33692 345.77084 334.63876 323.04368 311.23960 299.11152 286.91644
 274.63036 262.52928 250.54020 239.84312 229.96704 221.07296 213.25688 206.26080
 200.09672 195.03664 191.62056 189.66448 188.70340 188.76932 189.60624 190.91616
 192.64308 194.74000 197.00492 199.36584 201.81276 204.29468 206.38460 208.22852
 209.85644 211.00336 211.23428 211.46420 211.40312 211.11004 210.74496 210.37688
 209.99580 209.70772 209.51764 209.38356 209.31348 209.64640 210.03432 210.42524
 211.22016 212.40008 213.65200 215.43692 217.36684 219.41176 221.50868 223.59360
 225.65552 227.74144 229.84036 231.94828 234.07920 236.25312 238.51104 240.88296
 243.50588 245.75880 247.76272 249.52964 250.94856 252.07348 252.89740 253.21532
 253.25424 253.03016 252.39208 251.34200 249.94992 248.11284 246.02377 243.85869
 241.65161 239.45753 237.27945 235.12037 232.98229 230.85121 228.87913 227.03805
 225.32297 223.79689 222.42881 221.20273 220.08665 219.04857 218.15449 217.29741
 216.54133 215.72325 214.82317 214.18909 213.64101 214.23296 215.75180 218.37952
 220.71342 222.38937 223.64404 224.41583 225.29843 226.32782 226.82585 226.30489
 226.45609 228.75983 232.95615 237.56490 242.08673 246.40219 250.43484 254.14964
 257.51865 260.53525 263.25452 265.82150 268.02469 269.84842 271.68939 273.71014
 275.43396 276.84137 278.22528 279.59821 280.82620 282.01376 283.11252 284.10794
 285.00317 285.80042 286.49686 287.38440
 366.78100 356.33890 345.77480 334.64470 323.05160 311.24950 299.12340 286.93029
 274.64619 262.54709 250.55999 239.86489 229.99079 221.09869 213.28459 206.29049
 200.12839 195.07029 191.65619 189.70209 188.74299 188.81088 189.64978 190.96168
 192.69058 194.78948 197.05638 199.41928 201.86818 204.35208 206.44398 208.28988
 209.91978 211.06868 211.30158 211.53347 211.47437 211.18327 210.82017 210.45407
 210.07497 209.78887 209.60077 209.46867 209.40057 209.73547 210.12537 210.51827
 211.31517 212.49706 213.75096 215.53786 217.46976 219.51666 221.61556 223.70246
 225.76636 227.85426 229.95516 232.06506 234.19796 236.37386 238.63376 241.00765
 243.63255 245.88745 247.89335 249.66225 251.08315 252.21005 253.03595 253.35585
 253.39675 253.17465 252.53855 251.49045 250.10035 248.26524 246.17814 244.01504
 241.80994 239.61784 237.44174 235.28464 233.14854 231.01944 229.04934 227.21024
 225.49714 223.97304 222.60694 221.38283 220.26873 219.23263 218.34053 217.48543
 216.73133 215.91523 215.01713 214.38503 213.83893 214.34962 215.68573 218.37555
 220.92690 222.51537 223.61159 224.37318 225.22833 226.20662 226.68579 226.17210
 226.35503 228.76367 232.98409 237.58795 242.11621 246.44279 250.49620 254.23462
 257.60886 260.61447 263.31479 265.86450 268.08884 269.94165 271.73331 273.66281
 275.39755 276.77057 278.07166 279.42615 280.63800 281.80627 282.89392 283.87924
 284.76544 285.55460 286.24399 287.12256
 366.78100 356.34080 345.77860 334.65041 323.05921 311.25901 299.13481 286.94361
 274.66142 262.56422 250.57902 239.88582 230.01362 221.12342 213.31123 206.31903
 200.15883 195.10263 191.69043 189.73824 188.78104 188.85084 189.69164 191.00544
 192.73625 194.83705 197.10585 199.47065 201.92145 204.40726 206.50106 208.34886
 209.98066 211.13146 211.36626 211.60007 211.54287 211.25367 210.89247 210.52827
 210.15108 209.86688 209.68068 209.55048 209.48428 209.82109 210.21289 210.60769
 211.40649 212.59029 213.84610 215.63490 217.56870 219.61750 221.71830 223.80710
 225.87291 227.96271 230.06551 232.17731 234.31211 236.48992 238.75172 241.12752
 243.75432 246.01112 248.01893 249.78973 251.21253 252.34133 253.16913 253.49093
 253.53374 253.31354 252.67934 251.63314 250.24494 248.41175 246.32655 244.16535
 241.96215 239.77195 237.59776 235.44256 233.30836 231.18116 229.21296 227.37577
 225.66457 224.14237 222.77817 221.55597 220.44377 219.40958 218.51938 217.66618
 216.91398 216.09978 215.20359 214.57339 214.02919 214.47321 215.67374 218.30710
 221.05341 222.67957 223.71759 224.50801 225.32779 226.16028 226.47667 226.00116
 226.21512 228.74872 232.97226 237.57562 242.11914 246.47070 250.55260 254.31693
 257.73083 260.75223 263.44702 265.95361 268.16785 270.02914 271.73447 273.55771
 275.26736 276.55652 277.92395 279.30017 280.59106 281.84250 282.98422 284.01855
 284.94882 285.77722 286.50089 287.42313
 366.78100 356.34204 345.78108 334.65412 323.06416 311.26520 299.14224 286.95228
 274.67132 262.57537 250.59141 239.89945 230.02849 221.13953 213.32857 206.33761
 200.17865 195.12369 191.71273 189.76177 188.80581 188.87685 189.71889 191.03393
 192.76597 194.86802 197.13806 199.50410 201.95614 204.44318 206.53822 208.38726
 210.02030 211.17234 211.40838 211.64342 211.58746 211.29950 210.93954 210.57658
 210.20062 209.91766 209.73271 209.60375 209.53879 209.87683 210.26987 210.66591
 211.46595 212.65099 213.90803 215.69807 217.63311 219.68315 221.78519 223.87523
 225.94227 228.03331 230.13736 232.25040 234.38644 236.56548 238.82852 241.20556
 243.83360 246.09164 248.10068 249.87272 251.29676 252.42680 253.25584 253.57888
 253.62292 253.40396 252.77101 251.72605 250.33909 248.50713 246.42317 244.26321
 242.06125 239.87229 237.69933 235.54537 233.41241 231.28645 229.31949 227.48353
 225.77357 224.25261 222.88965 221.66870 220.55774 219.52478 218.63582 217.78386
 217.03290 216.21994 215.32498 214.69602 214.15306 214.57304 215.73889 218.21303
 221.04967 222.87791 223.99649 224.75801 225.48395 226.10860 226.21817 225.65927
 226.00566 228.70729 232.96051 237.58888 242.14934 246.52634 250.64424 254.43613
 257.87921 260.95367 263.68933 266.16422 268.35333 270.19110 271.84280 273.51627
 275.10928 276.43277 277.95154 279.46368 280.95026 282.26553 283.46548 284.55258
 285.53027 286.40094 287.16153 288.13083
 366.78100 356.34085 345.77870 334.65055 323.05940 311.25925 299.13510 286.94395
 274.66180 262.56465 250.57950 239.88635 230.01420 221.12405 213.31190 206.31975
 200.15960 195.10345 191.69130 189.73915 188.78200 188.85185 189.69270 191.00655
 192.73740 194.83825 197.10710 199.47194 201.92279 204.40864 206.50249 208.35034
 209.98219 211.13304 211.36789 211.60174 211.54459 211.25544 210.89429 210.53014
 210.15299 209.86884 209.68269 209.55254 209.48639 209.82324 210.21509 210.60994
 211.40879 212.59264 213.84849 215.63734 217.57119 219.62004 221.72089 223.80974
 225.87559 227.96544 230.06829 232.18014 234.31499 236.49284 238.75469 241.13054
 243.75739 246.01424 248.02209 249.79294 251.21579 252.34464 253.17249 253.49434
 253.53719 253.31704 252.68289 251.63674 250.24859 248.41544 246.33029 244.16914
 241.96599 239.77583 237.60168 235.44653 233.31238 231.18523 229.21708 227.37993
 225.66878 224.14663 222.78248 221.56033 220.44818 219.41403 218.52388 217.67073
 216.91858 216.10443 215.20828 214.57813 214.03398 214.54570 215.89540 218.14330
 220.88742 223.00092 224.26759 224.97217 225.62062 226.15355 226.07225 225.33920
 225.72845 228.54175 232.88103 237.54701 242.12546 246.51248 250.65091 254.48792
 258.00211 261.14276 263.91013 266.43121 268.64264 270.52490 272.15601 273.71478
 275.20795 276.59116 278.16168 279.78674 281.27725 282.59601 283.79913 284.88910
 285.86942 286.74237 287.50500 288.47684
 366.78100 356.33926 345.77553 334.64579 323.05306 311.25132 299.12558 286.93285
 274.64911 262.55038 250.56364 239.86890 229.99517 221.10343 213.28970 206.29596
 200.13422 195.07649 191.66275 189.70902 188.75028 188.81854 189.65781 190.97007
 192.69934 194.79860 197.06586 199.42913 201.87839 204.36266 206.45492 208.30118
 209.93145 211.08071 211.31397 211.54624 211.48750 211.19677 210.83403 210.46829
 210.08956 209.80382 209.61609 209.48435 209.41661 209.75188 210.14214 210.53541
 211.33267 212.51493 213.76920 215.55646 217.48873 219.53599 221.63525 223.72252
 225.78678 227.87505 229.97631 232.08657 234.21984 236.39610 238.65637 241.03063
 243.65589 245.91116 247.91742 249.68669 251.10795 252.23521 253.06148 253.38174
 253.42301 253.20127 252.56553 251.51780 250.12806 248.29333 246.20659 244.04385
 241.83912 239.64738 237.47165 235.31491 233.17917 231.05044 229.08070 227.24197
 225.52923 224.00549 222.63976 221.41602 220.30228 219.26655 218.37481 217.52008
 216.76634 215.95060 215.05287 214.42113 213.87540 214.48184 216.00996 218.14662
 220.70219 222.91876 224.30855 225.02386 225.64328 226.31114 226.26555 225.37500
 225.61845 228.34305 232.71097 237.36850 241.92430 246.30450 250.46751 254.35703
 257.93607 261.16290 264.01297 266.59100 268.89087 270.88074 272.58542 274.10645
 275.57562 276.88126 278.34253 279.77402 281.22385 282.54263 283.74582 284.83585
 285.81619 286.68921 287.45184 288.42374
 366.78100 356.33896 345.77492 334.64488 323.05183 311.24979 299.12375 286.93071
 274.64667 262.54763 250.56059 239.86555 229.99150 221.09946 213.28542 206.29138
 200.12934 195.07130 191.65726 189.70321 188.74417 188.81213 189.65109 190.96305
 192.69201 194.79097 197.05792 199.42088 201.86984 204.35380 206.44576 208.29172
 209.92168 211.07064 211.30359 211.53555 211.47651 211.18547 210.82243 210.45639
 210.07735 209.79130 209.60326 209.47122 209.40318 209.73814 210.12810 210.52106
 211.31801 212.49997 213.75393 215.54089 217.47285 219.51981 221.61877 223.70573
 225.76968 227.85764 229.95860 232.06856 234.20152 236.37748 238.63744 241.01139
 243.63635 245.89131 247.89727 249.66623 251.08719 252.21415 253.04010 253.36006
 253.40102 253.17898 252.54294 251.49490 250.10486 248.26982 246.18277 244.01973
 241.81469 239.62265 237.44661 235.28957 233.15353 231.02448 229.05444 227.21540
 225.50236 223.97832 222.61228 221.38824 220.27419 219.23815 218.34611 217.49107
 216.73703 215.92099 215.02295 214.39091 213.84486 214.47679 216.04791 218.22818
 220.58517 222.74690 224.16075 224.91248 225.64644 226.54996 226.62486 225.47223
 225.54614 228.15967 232.55330 237.20351 241.73926 246.11035 250.28119 254.18790
 257.79620 261.08072 264.01196 266.64114 269.00543 271.08298 272.86871 274.41809
 275.83081 277.14554 278.48267 279.87317 281.12988 282.41449 283.60483 284.68317
 285.65305 286.51669 287.27118 288.23267
 366.78100 356.33840 345.77380 334.64320 323.04960 311.24699 299.12039 286.92679
 274.64219 262.54259 250.55499 239.85939 229.98479 221.09218 213.27758 206.28298
 200.12038 195.06178 191.64718 189.69258 188.73298 188.80037 189.63877 190.95017
 192.67857 194.77697 197.04337 199.40577 201.85417 204.33757 206.42896 208.27436
 209.90376 211.05216 211.28456 211.51596 211.45636 211.16476 210.80115 210.43455
 210.05495 209.76835 209.57975 209.44715 209.37855 209.71295 210.10234 210.49474
 211.29114 212.47254 213.72594 215.51234 217.44374 219.49014 221.58853 223.67493
 225.73833 227.82573 229.92613 232.03553 234.16793 236.34333 238.60273 240.97612
 243.60052 245.85492 247.86032 249.62872 251.04912 252.17552 253.00092 253.32031
 253.36071 253.13811 252.50151 251.45291 250.06231 248.22671 246.13911 243.97550
 241.76990 239.57730 237.40070 235.24310 233.10650 230.97690 229.00630 227.16670
 225.45309 223.92849 222.56189 221.33729 220.22269 219.18609 218.29349 217.43789
 216.68328 215.86668 214.96808 214.33548 213.78888 214.45662 216.09305 218.35300
 220.44460 222.48517 224.01987 224.87474 225.68045 226.67232 226.95720 225.43837
 225.39206 227.99341 232.44388 237.07144 241.61444 246.00050 250.20035 254.13745
 257.77454 261.09265 264.07788 266.73630 269.13583 271.27655 273.13470 274.71857
 276.10193 277.38391 278.58862 279.95206 281.15945 282.26337 283.41028 284.46335
 285.41049 286.25394 286.99075 287.92972
 366.78100 356.33746 345.77192 334.64038 323.04584 311.24230 299.11476 286.92022
 274.63468 262.53414 250.54559 239.84905 229.97351 221.07997 213.26443 206.26889
 200.10535 195.04581 191.63027 189.67473 188.71419 188.78065 189.61811 190.92857
 192.65603 194.75349 197.01895 199.38041 201.82786 204.31032 206.40078 208.24524
 209.87370 211.02116 211.25262 211.48308 211.42254 211.13000 210.76546 210.39792
 210.01738 209.72984 209.54030 209.40676 209.33722 209.67068 210.05914 210.45059
 211.24605 212.42651 213.67897 215.46443 217.39489 219.44035 221.53781 223.62327
 225.68573 227.77219 229.87165 231.98011 234.11157 236.28603 238.54449 240.91695
 243.54041 245.79387 247.79832 249.56578 250.98524 252.11070 252.93516 253.25362
 253.29308 253.06954 252.43200 251.38246 249.99092 248.15438 246.06584 243.90130
 241.69476 239.50122 237.32368 235.16514 233.02759 230.89705 228.92551 227.08497
 225.37043 223.84489 222.47735 221.25181 220.13627 219.09873 218.20519 217.34865
 216.59311 215.77557 214.87603 214.24249 213.69495 214.41414 216.13553 218.45428
 220.49139 222.40562 223.98116 224.97110 225.77727 226.65057 226.98930 225.39377
 225.39679 227.92770 232.34544 236.91518 241.47044 245.87160 250.10521 254.08221
 257.76508 261.12866 264.14560 266.82196 269.22568 271.39673 273.30185 274.93756
 276.35312 277.62619 278.79547 279.97925 281.14825 282.20877 283.19870 284.15085
 285.07550 285.89893 286.61823 287.53491
 366.78100 356.33843 345.77387 334.64330 323.04974 311.24717 299.12060 286.92704
 274.64247 262.54291 250.55534 239.85977 229.98521 221.09264 213.27807 206.28351
 200.12094 195.06238 191.64781 189.69324 188.73368 188.80111 189.63955 190.95098
 192.67941 194.77785 197.04428 199.40672 201.85515 204.33858 206.43002 208.27545
 209.90488 211.05332 211.28575 211.51719 211.45762 211.16605 210.80249 210.43592
 210.05636 209.76979 209.58122 209.44866 209.38009 209.71453 210.10396 210.49639
 211.29283 212.47426 213.72769 215.51413 217.44556 219.49200 221.59043 223.67686
 225.74030 227.82773 229.92817 232.03760 234.17003 236.34547 238.60490 240.97834
 243.60277 245.85720 247.86264 249.63107 251.05150 252.17794 253.00337 253.32281
 253.36324 253.14067 252.50411 251.45554 250.06498 248.22941 246.14184 243.97828
 241.77271 239.58015 237.40358 235.24601 233.10945 230.97988 229.00931 227.16975
 225.45618 223.93162 222.56505 221.34048 220.22592 219.18935 218.29679 217.44122
 216.68665 215.87009 214.97152 214.33896 213.79239 214.47354 216.08507 218.51938
 220.59946 222.42252 223.94328 224.93373 225.75156 226.61070 227.03056 225.59456
 225.52699 228.00212 232.28720 236.80101 241.33180 245.72813 249.97865 253.98831
 257.71442 261.12198 264.17368 266.86459 269.27408 271.45563 273.37094 275.00711
 276.42621 277.69873 278.86725 280.00595 281.17117 282.22589 283.20874 284.12271
 284.96405 285.76062 286.45648 287.34326
 366.78100 356.34165 345.78031 334.65296 323.06261 311.26327 299.13992 286.94957
 274.66822 262.57188 250.58753 239.89518 230.02384 221.13449 213.32314 206.33180
 200.17245 195.11710 191.70575 189.75441 188.79806 188.86871 189.71037 191.02502
 192.75667 194.85833 197.12798 199.49363 201.94529 204.43194 206.52659 208.37524
 210.00790 211.15955 211.39520 211.62986 211.57351 211.28516 210.92482 210.56147
 210.18512 209.90177 209.71643 209.58708 209.52173 209.85939 210.25204 210.64769
 211.44735 212.63200 213.88865 215.67830 217.61296 219.66261 221.76426 223.85392
 225.92057 228.01122 230.11488 232.22753 234.36318 236.54184 238.80449 241.18114
 243.80879 246.06645 248.07510 249.84675 251.27041 252.40006 253.22871 253.55137
 253.59502 253.37567 252.74232 251.69698 250.30963 248.47728 246.39294 244.23259
 242.03024 239.84090 237.66755 235.51320 233.37986 231.25351 229.28616 227.44981
 225.73947 224.21812 222.85477 221.63343 220.52208 219.48873 218.59939 217.74704
 216.99569 216.18234 215.28700 214.65765 214.11430 214.65598 215.93573 218.57573
 220.70845 222.45885 223.94238 224.78963 225.55057 226.46007 227.09778 225.87560
 225.71985 228.07922 232.28799 236.76044 241.25626 245.63550 249.88412 253.91025
 257.66104 261.09644 264.17276 266.88348 269.31552 271.53586 273.48016 275.12137
 276.53397 277.79077 278.94281 280.06873 281.21078 282.25919 283.22678 284.12555
 284.95392 285.75903 286.47845 287.39523
 366.78100 356.34315 345.78330 334.65746 323.06861 311.27076 299.14891 286.96006
 274.68021 262.58537 250.60252 239.91167 230.04182 221.15397 213.34412 206.35428
 200.19643 195.14258 191.73273 189.78288 188.82804 188.90019 189.74334 191.05949
 192.79264 194.89579 197.16695 199.53410 201.98725 204.47540 206.57155 208.42170
 210.05586 211.20901 211.44616 211.68231 211.62746 211.34061 210.98177 210.61992
 210.24507 209.96322 209.77937 209.65153 209.58768 209.92683 210.32098 210.71813
 211.51928 212.70544 213.96359 215.75474 217.69089 219.74204 221.84519 223.93635
 226.00450 228.09665 230.20180 232.31595 234.45311 236.63326 238.89741 241.27556
 243.90471 246.16386 248.17402 249.94717 251.37232 252.50347 253.33362 253.65777
 253.70293 253.48508 252.85323 251.80938 250.42353 248.59269 246.50984 244.35099
 242.15014 239.96229 237.79044 235.63760 233.50575 231.38090 229.41505 227.58020
 225.87135 224.35151 222.98966 221.76981 220.65996 219.62811 218.74026 217.88942
 217.13957 216.32772 215.43387 214.80602 214.26418 214.75337 215.90913 218.55370
 220.81258 222.52512 223.95276 224.72597 225.39810 226.27808 227.06169 226.07483
 225.88905 228.16219 232.28450 236.74768 241.21785 245.59290 249.84612 253.88785
 257.66061 261.11884 264.20654 266.90298 269.33096 271.57745 273.54855 275.21838
 276.66364 277.93674 279.08643 280.17691 281.26254 282.30502 283.26483 284.15103
 284.95953 285.72690 286.43790 287.34396
 366.78100 356.34260 345.78219 334.65579 323.06638 311.26798 299.14558 286.95617
 274.67577 262.58036 250.59696 239.90555 230.03515 221.14675 213.33634 206.34594
 200.18753 195.13313 191.72273 189.77232 188.81692 188.88851 189.73111 191.04671
 192.77930 194.88190 197.15249 199.51909 201.97168 204.45928 206.55488 208.40447
 210.03807 211.19066 211.42726 211.66286 211.60745 211.32005 210.96064 210.59824
 210.22284 209.94043 209.75603 209.62762 209.56322 209.90181 210.29541 210.69201
 211.49260 212.67820 213.93579 215.72639 217.66199 219.71258 221.81518 223.90577
 225.97337 228.06496 230.16956 232.28316 234.41975 236.59935 238.86294 241.24054
 243.86914 246.12773 248.13733 249.90992 251.33452 252.46512 253.29471 253.61831
 253.66290 253.44450 252.81209 251.76769 250.38129 248.54988 246.46648 244.30707
 242.10567 239.91727 237.74486 235.59146 233.45905 231.33365 229.36725 227.53184
 225.82244 224.30203 222.93963 221.71922 220.60882 219.57642 218.68801 217.83661
 217.08620 216.27380 215.37940 214.75099 214.20859 214.74207 216.00250 218.50407
 220.84352 222.58122 223.94333 224.72583 225.36098 226.19447 226.98447 226.16319
 225.95168 228.19760 232.25783 236.72713 241.18274 245.56427 249.82768 253.88423
 257.67642 261.15100 264.24844 266.93216 269.34955 271.58801 273.53122 275.19031
 276.66190 277.97726 279.15976 280.25238 281.33057 282.37433 283.33417 284.21426
 285.02713 285.77707 286.45422 287.31714
 366.78100 356.34185 345.78071 334.65356 323.06342 311.26427 299.14113 286.95098
 274.66984 262.57369 250.58955 239.89740 230.02626 221.13711 213.32597 206.33482
 200.17568 195.12053 191.70939 189.75824 188.80210 188.87295 189.71480 191.02966
 192.76151 194.86337 197.13322 199.49908 201.95093 204.43779 206.53264 208.38150
 210.01435 211.16621 211.40206 211.63692 211.58077 211.29263 210.93248 210.56934
 210.19319 209.91005 209.72490 209.59575 209.53061 209.86846 210.26132 210.65717
 211.45703 212.64188 213.89874 215.68859 217.62345 219.67330 221.77516 223.86501
 225.93187 228.02272 230.12658 232.23943 234.37529 236.55414 238.81699 241.19385
 243.82170 246.07956 248.08841 249.86027 251.28412 252.41398 253.24283 253.56569
 253.60954 253.39040 252.75725 251.71211 250.32496 248.49282 246.40867 244.24853
 242.04638 239.85724 237.68409 235.52994 233.39680 231.27065 229.30351 227.46736
 225.75722 224.23607 222.87293 221.65178 220.54064 219.50749 218.61835 217.76620
 217.01506 216.20191 215.30677 214.67762 214.13448 214.71916 216.10057 218.46857
 220.80969 222.60323 223.93152 224.69553 225.30728 226.15515 226.96115 226.21426
 225.99875 228.21254 232.23950 236.70869 241.16006 245.54781 249.81831 253.88359
 257.68872 261.17569 264.28256 266.95731 269.37256 271.61444 273.53320 275.15149
 276.60056 277.92566 279.13861 280.27002 281.39862 282.44452 283.40652 284.28738
 285.09985 285.84808 286.50903 287.36462
 366.78100 356.34160 345.78020 334.65280 323.06239 311.26299 299.13959 286.94919
 274.66779 262.57139 250.58699 239.89458 230.02318 221.13378 213.32238 206.33098
 200.17158 195.11618 191.70477 189.75337 188.79697 188.86757 189.70917 191.02377
 192.75537 194.85696 197.12656 199.49216 201.94376 204.43036 206.52496 208.37356
 210.00615 211.15775 211.39335 211.62795 211.57155 211.28315 210.92275 210.55934
 210.18294 209.89954 209.71414 209.58474 209.51934 209.85694 210.24953 210.64513
 211.44473 212.62933 213.88593 215.67553 217.61013 219.65972 221.76132 223.85092
 225.91752 228.00812 230.11172 232.22432 234.35991 236.53851 238.80111 241.17771
 243.80531 246.06291 248.07151 249.84310 251.26670 252.39630 253.22490 253.54750
 253.59110 253.37170 252.73829 251.69289 250.30549 248.47309 246.38869 244.22829
 242.02588 239.83648 237.66308 235.50868 233.37528 231.24888 229.28148 227.44507
 225.73467 224.21327 222.84987 221.62847 220.51707 219.48367 218.59426 217.74186
 216.99046 216.17706 215.28166 214.65226 214.10886 214.71997 216.16382 218.45576
 220.76376 222.60773 223.93332 224.64926 225.21382 226.08749 226.93887 226.27225
 226.07625 228.24097 232.23497 236.70227 241.15669 245.54823 249.82368 253.89435
 257.70700 261.20056 264.30890 266.97314 269.39066 271.64841 273.56607 275.16406
 276.58405 277.89542 279.11288 280.28949 281.44708 282.50003 283.46609 284.35318
 285.17059 285.91977 286.57718 287.45004
 366.78100 356.34178 345.78057 334.65335 323.06314 311.26392 299.14070 286.95049
 274.66927 262.57306 250.58884 239.89663 230.02541 221.13619 213.32498 206.33376
 200.17455 195.11933 191.70811 189.75690 188.80068 188.87147 189.71325 191.02803
 192.75982 194.86160 197.13139 199.49717 201.94896 204.43574 206.53052 208.37931
 210.01209 211.16388 211.39966 211.63444 211.57823 211.29001 210.92980 210.56658
 210.19036 209.90715 209.72193 209.59272 209.52750 209.86528 210.25807 210.65385
 211.45364 212.63842 213.89521 215.68499 217.61977 219.66956 221.77134 223.86113
 225.92791 228.01869 230.12248 232.23526 234.37105 236.54983 238.81261 241.18940
 243.81718 246.07497 248.08375 249.85554 251.27932 252.40910 253.23789 253.56067
 253.60446 253.38524 252.75202 251.70681 250.31959 248.48738 246.40316 244.24294
 242.04073 239.85151 237.67830 235.52408 233.39087 231.26465 229.29743 227.46122
 225.75100 224.22979 222.86657 221.64535 220.53414 219.50092 218.61171 217.75949
 217.00827 216.19506 215.29984 214.67063 214.12741 214.74202 216.19412 218.46365
 220.72731 222.59799 223.92982 224.60838 225.12595 226.00148 226.89662 226.31903
 226.15312 228.27643 232.23546 236.70293 241.16122 245.55789 249.83881 253.91452
 257.73120 261.22366 264.32520 266.97372 269.38794 271.65488 273.57349 275.17294
 276.58649 277.88956 279.10355 280.32016 281.48898 282.54437 283.51212 284.40424
 285.22232 285.97266 286.63184 287.50797
 366.78100 356.34216 345.78131 334.65447 323.06463 311.26578 299.14294 286.95309
 274.67225 262.57641 250.59256 239.90072 230.02988 221.14103 213.33019 206.33934
 200.18050 195.12566 191.71481 189.76397 188.80813 188.87928 189.72144 191.03659
 192.76875 194.87091 197.14106 199.50722 201.95938 204.44653 206.54169 208.39084
 210.02400 211.17616 211.41231 211.64747 211.59163 211.30378 210.94394 210.58109
 210.20525 209.92241 209.73756 209.60872 209.54388 209.88203 210.27519 210.67134
 211.47150 212.65666 213.91381 215.70397 217.63913 219.68928 221.79144 223.88159
 225.94875 228.03991 230.14406 232.25722 234.39338 236.57253 238.83569 241.21285
 243.84100 246.09916 248.10831 249.88047 251.30463 252.43478 253.26394 253.58710
 253.63125 253.41241 252.77956 251.73472 250.34788 248.51603 246.43219 244.27235
 242.07050 239.88166 237.70881 235.55497 233.42213 231.29628 229.32944 227.49360
 225.78375 224.26291 222.90006 221.67922 220.56838 219.53553 218.64669 217.79485
 217.04400 216.23116 215.33631 214.70747 214.16463 214.77208 216.20726 218.48103
 220.70670 222.57817 223.90596 224.55978 225.04988 225.91928 226.84146 226.36205
 226.23959 228.32060 232.23969 236.70419 241.16960 245.57567 249.86398 253.94156
 257.75571 261.24030 264.32956 266.96548 269.37604 271.64304 273.55682 275.16077
 276.58206 277.88687 279.10120 280.34756 281.52170 282.57779 283.54861 284.44070
 285.25980 286.00998 286.66977 287.54572
 366.78100 356.34250 345.78199 334.65549 323.06598 311.26748 299.14497 286.95547
 274.67496 262.57946 250.59595 239.90445 230.03394 221.14544 213.33493 206.34443
 200.18593 195.13142 191.72092 189.77041 188.81491 188.88640 189.72890 191.04439
 192.77689 194.87938 197.14988 199.51637 201.96887 204.45636 206.55186 208.40135
 210.03485 211.18735 211.42384 211.65934 211.60383 211.31633 210.95682 210.59432
 210.21881 209.93631 209.75180 209.62330 209.55879 209.89729 210.29078 210.68728
 211.48778 212.67327 213.93077 215.72126 217.65676 219.70725 221.80975 223.90024
 225.96774 228.05923 230.16373 232.27722 234.41372 236.59321 238.85671 241.23421
 243.86270 246.12120 248.13069 249.90319 251.32768 252.45818 253.28767 253.61117
 253.65566 253.43716 252.80465 251.76015 250.37364 248.54214 246.45864 244.29913
 242.09763 239.90912 237.73662 235.58311 233.45061 231.32510 229.35860 227.52309
 225.81359 224.29308 222.93058 221.71007 220.59957 219.56706 218.67856 217.82706
 217.07655 216.26405 215.36954 214.74104 214.19853 214.80008 216.22128 218.48798
 220.70488 222.56122 223.87881 224.49829 224.95366 225.81717 226.78011 226.40436
 226.33054 228.37769 232.25394 236.71362 241.18779 245.60492 249.90028 253.97510
 257.78006 261.24930 264.32227 266.95029 269.36337 271.62967 273.53513 275.14120
 276.57068 277.88269 279.10416 280.36807 281.54474 282.60132 283.57294 284.46722
 285.28476 286.03455 286.69382 287.56934
 366.78100 356.34276 345.78252 334.65628 323.06704 311.26879 299.14655 286.95731
 274.67707 262.58183 250.59859 239.90735 230.03711 221.14886 213.33862 206.34838
 200.19014 195.13590 191.72566 189.77542 188.82018 188.89194 189.73469 191.05045
 192.78321 194.88597 197.15673 199.52349 201.97625 204.46401 206.55977 208.40952
 210.04328 211.19604 211.43280 211.66856 211.61332 211.32608 210.96684 210.60459
 210.22935 209.94711 209.76287 209.63463 209.57039 209.90915 210.30291 210.69967
 211.50042 212.68618 213.94394 215.73470 217.67046 219.72122 221.82398 223.91474
 225.98250 228.07425 230.17901 232.29277 234.42953 236.60929 238.87305 241.25081
 243.87957 246.13832 248.14808 249.92084 251.34560 252.47636 253.30612 253.62988
 253.67464 253.45640 252.82415 251.77991 250.39367 248.56243 246.47919 244.31995
 242.11871 239.93047 237.75822 235.60498 233.47274 231.34750 229.38126 227.54602
 225.83678 224.31654 222.95430 221.73405 220.62381 219.59157 218.70333 217.85209
 217.10185 216.28961 215.39537 214.76713 214.22488 214.82513 216.24330 218.47931
 220.71091 222.55540 223.86075 224.43600 224.84349 225.68199 226.67912 226.44888
 226.45157 228.45169 232.27673 236.73526 241.21764 245.64827 249.95058 254.01874
 257.80765 261.25345 264.30441 266.92758 269.34793 271.61545 273.51617 275.11981
 276.55356 277.87424 279.10422 280.37979 281.55777 282.61481 283.58682 284.47995
 285.29718 286.04633 286.70453 287.57953
 366.78100 356.34294 345.78287 334.65681 323.06775 311.26968 299.14762 286.95856
 274.67849 262.58343 250.60036 239.90930 230.03924 221.15117 213.34111 206.35105
 200.19298 195.13892 191.72886 189.77879 188.82373 188.89567 189.73860 191.05454
 192.78747 194.89041 197.16135 199.52828 201.98122 204.46916 206.56509 208.41503
 210.04897 211.20190 211.43884 211.67478 211.61971 211.33265 210.97359 210.61152
 210.23646 209.95439 209.77033 209.64227 209.57820 209.91714 210.31108 210.70801
 211.50895 212.69489 213.95282 215.74376 217.67970 219.73063 221.83357 223.92450
 225.99244 228.08438 230.18931 232.30325 234.44019 236.62012 238.88406 241.26200
 243.89093 246.14987 248.15981 249.93274 251.35768 252.48862 253.31855 253.64249
 253.68742 253.46936 252.83730 251.79323 250.40717 248.57611 246.49304 244.33398
 242.13292 239.94485 237.77279 235.61973 233.48766 231.36260 229.39653 227.56147
 225.85241 224.33234 222.97028 221.75022 220.64015 219.60809 218.72003 217.86896
 217.11890 216.30684 215.41277 214.78471 214.24265 214.84645 216.27299 218.46227
 220.70947 222.57071 223.85597 224.36244 224.70612 225.52875 226.57463 226.45503
 226.54222 228.54637 232.32011 236.76813 241.26370 245.70966 250.01733 254.07294
 257.83908 261.25458 264.27667 266.89615 269.32681 271.59790 273.49628 275.09888
 276.53287 277.85950 279.10175 280.38455 281.56454 282.62183 283.59268 284.48636
 285.30188 286.04669 286.70416 287.58047
 366.78100 356.34298 345.78296 334.65693 323.06791 311.26989 299.14787 286.95885
 274.67882 262.58380 250.60078 239.90976 230.03974 221.15171 213.34169 206.35167
 200.19365 195.13963 191.72960 189.77958 188.82456 188.89654 189.73952 191.05549
 192.78847 194.89145 197.16243 199.52940 201.98238 204.47036 206.56634 208.41632
 210.05029 211.20327 211.44025 211.67623 211.62121 211.33418 210.97516 210.61314
 210.23812 209.95610 209.77207 209.64405 209.58003 209.91901 210.31299 210.70996
 211.51094 212.69692 213.95490 215.74588 217.68185 219.73283 221.83581 223.92679
 225.99477 228.08674 230.19172 232.30570 234.44268 236.62266 238.88663 241.26461
 243.89359 246.15257 248.16255 249.93552 251.36050 252.49148 253.32146 253.64543
 253.69041 253.47239 252.84037 251.79635 250.41032 248.57930 246.49628 244.33726
 242.13624 239.94821 237.77619 235.62317 233.49115 231.36613 229.40010 227.56508
 225.85606 224.33604 222.97402 221.75399 220.64397 219.61195 218.72393 217.87291
 217.12288 216.31086 215.41684 214.78882 214.24680 214.86049 216.31041 218.44269
 220.68985 222.60658 223.87894 224.30128 224.54930 225.31082 226.41516 226.52870
 226.70811 228.62857 232.35606 236.81010 241.32269 245.78526 250.09689 254.13728
 257.87540 261.25525 264.24527 266.86154 269.30231 271.57721 273.47705 275.08017
 276.50970 277.84323 279.08838 280.38565 281.56580 282.62183 283.59143 284.48303
 285.29739 286.04199 286.69861 287.56390
 366.78100 356.34289 345.78278 334.65666 323.06755 311.26944 299.14733 286.95822
 274.67810 262.58299 250.59988 239.90877 230.03866 221.15055 213.34043 206.35032
 200.19221 195.13810 191.72799 189.77787 188.82276 188.89465 189.73754 191.05343
 192.78631 194.88920 197.16009 199.52698 201.97987 204.46775 206.56364 208.41353
 210.04742 211.20031 211.43719 211.67308 211.61797 211.33086 210.97175 210.60964
 210.23452 209.95241 209.76830 209.64019 209.57608 209.91496 210.30885 210.70574
 211.50663 212.69252 213.95040 215.74129 217.67718 219.72807 221.83096 223.92184
 225.98973 228.08162 230.18651 232.30040 234.43728 236.61717 238.88106 241.25895
 243.88784 246.14673 248.15661 249.92950 251.35439 252.48528 253.31517 253.63905
 253.68394 253.46583 252.83372 251.78961 250.40349 248.57238 246.48927 244.33016
 242.12905 239.94093 237.76882 235.61571 233.48360 231.35849 229.39238 227.55726
 225.84815 224.32804 222.96593 221.74582 220.63570 219.60359 218.71548 217.86437
 217.11426 216.30214 215.40803 214.77992 214.23781 214.86699 216.35352 218.42331
 220.65604 222.63579 223.91966 224.27965 224.42242 225.08427 226.21405 226.56407
 226.85796 228.71242 232.39595 236.85652 241.39104 245.87105 250.18727 254.21071
 257.91620 261.25812 264.21613 266.83078 269.28101 271.55902 273.46146 275.06815
 276.49155 277.82861 279.06778 280.38232 281.56430 282.61868 283.58856 284.47678
 285.28979 286.02997 286.68195 287.54736
 366.78100 356.34277 345.78253 334.65630 323.06707 311.26883 299.14660 286.95736
 274.67713 262.58190 250.59866 239.90743 230.03720 221.14896 213.33873 206.34849
 200.19026 195.13603 191.72579 189.77556 188.82033 188.89209 189.73486 191.05063
 192.78339 194.88616 197.15692 199.52369 201.97646 204.46422 206.55999 208.40976
 210.04352 211.19629 211.43305 211.66882 211.61359 211.32635 210.96712 210.60489
 210.22965 209.94742 209.76319 209.63495 209.57072 209.90948 210.30325 210.70002
 211.50078 212.68655 213.94432 215.73508 217.67085 219.72161 221.82438 223.91515
 225.98291 228.07468 230.17945 232.29321 234.42998 236.60975 238.87351 241.25128
 243.88004 246.13881 248.14858 249.92134 251.34611 252.47688 253.30664 253.63041
 253.67517 253.45694 252.82471 251.78047 250.39424 248.56301 246.47977 244.32054
 242.11931 239.93107 237.75884 235.60560 233.47337 231.34814 229.38190 227.54667
 225.83744 224.31720 222.95497 221.73473 220.62450 219.59227 218.70403 217.85280
 217.10257 216.29033 215.39610 214.76787 214.22563 214.87158 216.39769 218.40750
 220.62120 222.64297 223.95168 224.27701 224.32655 224.88185 226.00987 226.54900
 226.96043 228.79085 232.44470 236.91144 241.46742 245.96524 250.28535 254.29140
 257.96198 261.26495 264.19376 266.80771 269.26755 271.54642 273.45285 275.06238
 276.48062 277.81714 279.05078 280.37363 281.55856 282.61331 283.58322 284.47012
 285.27997 286.01697 286.66751 287.52826
 366.78100 356.34270 345.78241 334.65611 323.06681 311.26852 299.14622 286.95692
 274.67663 262.58133 250.59803 239.90674 230.03644 221.14814 213.33785 206.34755
 200.18925 195.13496 191.72466 189.77436 188.81907 188.89077 189.73347 191.04918
 192.78188 194.88458 197.15529 199.52199 201.97469 204.46240 206.55810 208.40780
 210.04151 211.19421 211.43091 211.66662 211.61132 211.32402 210.96473 210.60243
 210.22713 209.94484 209.76054 209.63224 209.56795 209.90665 210.30035 210.69706
 211.49776 212.68346 213.94116 215.73187 217.66757 219.71827 221.82098 223.91168
 225.97938 228.07109 230.17579 232.28949 234.42620 236.60590 238.86960 241.24731
 243.87601 246.13471 248.14442 249.91712 251.34182 252.47253 253.30223 253.62593
 253.67064 253.45234 252.82004 251.77575 250.38945 248.55815 246.47486 244.31556
 242.11426 239.92597 237.75367 235.60037 233.46808 231.34278 229.37648 227.54119
 225.83189 224.31159 222.94930 221.72900 220.61870 219.58641 218.69811 217.84681
 217.09652 216.28422 215.38992 214.76163 214.21933 214.87933 216.43866 218.39693
 220.58549 222.63678 223.97173 224.27196 224.24031 224.69762 225.81471 226.50252
 227.02844 228.86829 232.49533 236.97116 241.55234 246.06860 250.39073 254.37747
 258.01239 261.27719 264.17819 266.79449 269.26190 271.53958 273.44803 275.06110
 276.47440 277.80746 279.03952 280.36392 281.55069 282.60532 283.57501 284.46082
 285.26968 286.00369 286.65182 287.50922
 366.78100 356.34273 345.78245 334.65618 323.06690 311.26863 299.14635 286.95708
 274.67680 262.58153 250.59825 239.90698 230.03670 221.14843 213.33815 206.34788
 200.18960 195.13533 191.72505 189.77478 188.81950 188.89123 189.73395 191.04968
 192.78240 194.88513 197.15585 199.52258 201.97530 204.46303 206.55875 208.40848
 210.04220 211.19493 211.43165 211.66738 211.61210 211.32483 210.96555 210.60328
 210.22800 209.94573 209.76145 209.63318 209.56891 209.90763 210.30136 210.69808
 211.49881 212.68453 213.94226 215.73298 217.66871 219.71943 221.82216 223.91288
 225.98061 228.07233 230.17706 232.29078 234.42751 236.60723 238.87096 241.24868
 243.87741 246.13613 248.14586 249.91858 251.34331 252.47403 253.30376 253.62748
 253.67221 253.45393 252.82166 251.77738 250.39111 248.55983 246.47656 244.31728
 242.11601 239.92773 237.75546 235.60218 233.46991 231.34464 229.37836 227.54309
 225.83381 224.31354 222.95126 221.73099 220.62071 219.58844 218.70016 217.84889
 217.09861 216.28634 215.39206 214.76379 214.22151 214.89171 216.47511 218.39432
 220.54449 222.62445 223.98439 224.25871 224.15480 224.52432 225.62648 226.43147
 227.06650 228.94060 232.55815 237.04156 241.64540 246.17865 250.50090 254.46782
 258.06781 261.29562 264.17102 266.78961 269.26154 271.53827 273.44720 275.06189
 276.47141 277.80063 279.03040 280.35696 281.54553 282.60074 283.57098 284.45596
 285.26321 285.99332 286.63931 287.49319
 366.78100 356.34284 345.78267 334.65651 323.06734 311.26918 299.14701 286.95785
 274.67768 262.58252 250.59935 239.90819 230.03802 221.14986 213.33969 206.34953
 200.19136 195.13720 191.72704 189.77687 188.82171 188.89354 189.73638 191.05221
 192.78505 194.88788 197.15872 199.52555 201.97839 204.46622 206.56206 208.41189
 210.04573 211.19856 211.43540 211.67124 211.61607 211.32891 210.96974 210.60758
 210.23241 209.95025 209.76608 209.63792 209.57375 209.91259 210.30642 210.70326
 211.50409 212.68993 213.94776 215.73860 217.67443 219.72527 221.82811 223.91894
 225.98678 228.07861 230.18345 232.29728 234.43412 236.61395 238.87779 241.25562
 243.88446 246.14329 248.15313 249.92596 251.35080 252.48163 253.31147 253.63531
 253.68014 253.46198 252.82981 251.78565 250.39948 248.56832 246.48515 244.32599
 242.12482 239.93666 237.76449 235.61133 233.47916 231.35400 229.38783 227.55267
 225.84351 224.32334 222.96118 221.74101 220.63085 219.59868 218.71052 217.85935
 217.10919 216.29702 215.40286 214.77469 214.23253 214.90842 216.50529 218.39899
 220.50163 222.60693 223.98740 224.23579 224.06949 224.36249 225.44682 226.34679
 227.08415 229.00587 232.62003 237.11797 241.74600 246.29300 250.61407 254.56158
 258.12775 261.32059 264.17252 266.79340 269.27014 271.54352 273.45242 275.06668
 276.47195 277.79572 279.02887 280.35672 281.54538 282.60141 283.56998 284.45306
 285.25793 285.98761 286.63242 287.48282
 366.78100 356.34302 345.78303 334.65705 323.06807 311.27009 299.14810 286.95912
 274.67914 262.58416 250.60117 239.91019 230.04021 221.15223 213.34224 206.35226
 200.19428 195.14029 191.73031 189.78033 188.82535 188.89736 189.74038 191.05640
 192.78942 194.89243 197.16345 199.53047 201.98349 204.47150 206.56752 208.41754
 210.05155 211.20457 211.44159 211.67761 211.62262 211.33564 210.97666 210.61468
 210.23969 209.95771 209.77373 209.64574 209.58176 209.92078 210.31480 210.71181
 211.51283 212.69885 213.95687 215.74788 217.68390 219.73492 221.83794 223.92895
 225.99697 228.08899 230.19400 232.30802 234.44504 236.62506 238.88907 241.26709
 243.89611 246.15513 248.16514 249.93816 251.36318 252.49420 253.32421 253.64823
 253.69325 253.47526 252.84328 251.79930 250.41332 248.58233 246.49935 244.34037
 242.13939 239.95140 237.77942 235.62644 233.49446 231.36947 229.40349 227.56851
 225.85952 224.33954 222.97756 221.75758 220.64759 219.61561 218.72763 217.87665
 217.12666 216.31468 215.42070 214.79272 214.25073 214.92894 216.53125 218.40593
 220.46230 222.58336 223.97871 224.20236 223.98218 224.20898 225.27533 226.25508
 227.08995 229.06679 232.68272 237.19888 241.85124 246.40926 250.72726 254.65498
 258.18875 261.34946 264.18304 266.80670 269.28778 271.55746 273.46417 275.07663
 276.47690 277.79578 279.03510 280.36459 281.55283 282.60736 283.57520 284.45981
 285.26303 285.98871 286.63068 287.48224
 366.78100 356.34323 345.78346 334.65769 323.06892 311.27114 299.14937 286.96060
 274.68083 262.58606 250.60329 239.91252 230.04275 221.15498 213.34521 206.35543
 200.19766 195.14389 191.73412 189.78435 188.82958 188.90181 189.74504 191.06127
 192.79450 194.89772 197.16895 199.53618 201.98941 204.47764 206.57387 208.42410
 210.05833 211.21156 211.44878 211.68501 211.63024 211.34347 210.98470 210.62293
 210.24816 209.96639 209.78262 209.65485 209.59107 209.93030 210.32453 210.72176
 211.52299 212.70922 213.96745 215.75868 217.69491 219.74614 221.84936 223.94059
 226.00882 228.10105 230.20628 232.32051 234.45774 236.63797 238.90220 241.28042
 243.90965 246.16888 248.17911 249.95234 251.37757 252.50880 253.33903 253.66326
 253.70849 253.49071 252.85894 251.81517 250.42940 248.59863 246.51586 244.35709
 242.15632 239.96855 237.79678 235.64400 233.51223 231.38746 229.42169 227.58692
 225.87815 224.35838 222.99661 221.77684 220.66706 219.63529 218.74752 217.89675
 217.14698 216.33521 215.44144 214.81367 214.27190 214.95203 216.55890 218.41251
 220.42450 222.55217 223.96082 224.16315 223.89337 224.05933 225.10905 226.15446
 227.08517 229.12701 232.75375 237.28738 241.96059 246.52570 250.83737 254.74480
 258.24789 261.38232 264.20264 266.83109 269.31424 271.57983 273.48221 275.09143
 276.48676 277.80176 279.05048 280.38135 281.56940 282.62384 283.59213 284.47617
 285.27780 286.00250 286.64435 287.49158
 366.78100 356.34342 345.78384 334.65827 323.06969 311.27211 299.15053 286.96196
 274.68238 262.58780 250.60522 239.91465 230.04507 221.15749 213.34791 206.35834
 200.20076 195.14718 191.73760 189.78803 188.83345 188.90587 189.74929 191.06572
 192.79914 194.90256 197.17398 199.54141 201.99483 204.48325 206.57967 208.43010
 210.06452 211.21794 211.45536 211.69179 211.63721 211.35063 210.99205 210.63048
 210.25590 209.97432 209.79074 209.66317 209.59959 209.93901 210.33343 210.73085
 211.53228 212.71870 213.97712 215.76854 217.70497 219.75639 221.85981 223.95123
 226.01966 228.11208 230.21750 232.33192 234.46935 236.64977 238.91419 241.29261
 243.92204 246.18146 248.19188 249.96530 251.39073 252.52215 253.35257 253.67699
 253.72242 253.50484 252.87326 251.82968 250.44411 248.61353 246.53095 244.37237
 242.17180 239.98422 237.81264 235.66006 233.52849 231.40391 229.43833 227.60375
 225.89518 224.37560 223.01402 221.79444 220.68486 219.65329 218.76571 217.91513
 217.16555 216.35398 215.46040 214.83282 214.29124 214.97534 216.59160 218.41634
 220.38342 222.51207 223.93538 224.12057 223.80605 223.91438 224.94608 226.04022
 227.06897 229.19246 232.83479 237.38446 242.07314 246.63982 250.94102 254.82858
 258.30429 261.41849 264.23260 266.86676 269.34894 271.60770 273.50354 275.10684
 276.49915 277.81424 279.07843 280.41129 281.59979 282.65530 283.62302 284.50580
 285.30817 286.03409 286.67456 287.52457
 366.78100 356.34364 345.78427 334.65891 323.07055 311.27318 299.15182 286.96346
 274.68409 262.58973 250.60737 239.91700 230.04764 221.16027 213.35091 206.36155
 200.20418 195.15082 191.74146 189.79209 188.83773 188.91037 189.75400 191.07064
 192.80428 194.90791 197.17955 199.54719 202.00082 204.48946 206.58610 208.43673
 210.07137 211.22501 211.46264 211.69928 211.64491 211.35855 211.00019 210.63882
 210.26446 209.98310 209.79973 209.67237 209.60901 209.94864 210.34328 210.74092
 211.54255 212.72919 213.98783 215.77946 217.71610 219.76774 221.87137 223.96301
 226.03165 228.12428 230.22992 232.34456 234.48219 236.66283 238.92746 241.30610
 243.93574 246.19537 248.20601 249.97965 251.40528 252.53692 253.36756 253.69219
 253.73783 253.52047 252.88910 251.84574 250.46038 248.63001 246.54765 244.38929
 242.18892 240.00156 237.83020 235.67783 233.54647 231.42210 229.45674 227.62238
 225.91401 224.39465 223.03329 221.81392 220.70456 219.67320 218.78583 217.93547
 217.18611 216.37474 215.48138 214.85402 214.31265 215.00008 216.62418 218.41963
 220.33847 222.46118 223.90373 224.07822 223.72276 223.77306 224.78671 225.91379
 227.03979 229.26306 232.92989 237.49078 242.18568 246.74657 251.03491 254.90479
 258.35840 261.45831 264.27094 266.91049 269.38940 271.63663 273.52148 275.11810
 276.51361 277.83328 279.12106 280.45831 281.64709 282.70380 283.67157 284.55423
 285.35641 286.08276 286.72375 287.57092
 366.78100 356.34393 345.78486 334.65979 323.07173 311.27466 299.15359 286.96552
 274.68645 262.59238 250.61031 239.92024 230.05118 221.16411 213.35504 206.36597
 200.20890 195.15583 191.74676 189.79770 188.84363 188.91656 189.76049 191.07742
 192.81135 194.91528 197.18721 199.55515 202.00908 204.49801 206.59494 208.44587
 210.08080 211.23473 211.47267 211.70960 211.65553 211.36946 211.01139 210.65032
 210.27625 209.99518 209.81212 209.68505 209.62198 209.96191 210.35684 210.75477
 211.55670 212.74363 214.00257 215.79450 217.73143 219.78336 221.88729 223.97922
 226.04815 228.14109 230.24702 232.36195 234.49988 236.68081 238.94574 241.32467
 243.95460 246.21454 248.22547 249.99940 251.42533 252.55726 253.38819 253.71312
 253.75906 253.54199 252.91092 251.86785 250.48278 248.65271 246.57064 244.41257
 242.21251 240.02544 237.85437 235.70230 233.57123 231.44716 229.48209 227.64803
 225.93996 224.42089 223.05982 221.84075 220.73168 219.70061 218.81354 217.96348
 217.21441 216.40334 215.51027 214.88320 214.34213 215.02878 216.65106 218.42480
 220.29887 222.40131 223.85988 224.03372 223.65060 223.64201 224.62303 225.78500
 227.00507 229.33200 233.03304 237.60242 242.29599 246.84572 251.12003 254.97450
 258.41031 261.50073 264.31717 266.96027 269.43082 271.66348 273.53326 275.12234
 276.52457 277.85422 279.17734 280.52240 281.71201 282.76749 283.73679 284.61981
 285.42337 286.14886 286.79013 287.63782
 366.78100 356.34426 345.78552 334.66079 323.07305 311.27631 299.15557 286.96783
 274.68910 262.59536 250.61362 239.92388 230.05515 221.16841 213.35967 206.37093
 200.21419 195.16146 191.75272 189.80398 188.85024 188.92350 189.76777 191.08503
 192.81929 194.92355 197.19582 199.56408 202.01834 204.50760 206.60486 208.45613
 210.09139 211.24565 211.48391 211.72117 211.66744 211.38170 211.02396 210.66322
 210.28949 210.00875 209.82601 209.69927 209.63653 209.97680 210.37206 210.77032
 211.57258 212.75984 214.01911 215.81137 217.74863 219.80089 221.90516 223.99742
 226.06668 228.15994 230.26620 232.38147 234.51973 236.70099 238.96625 241.34551
 243.97578 246.23604 248.24730 250.02156 251.44783 252.58009 253.41135 253.73661
 253.78287 253.56614 252.93540 251.89266 250.50792 248.67818 246.59645 244.43871
 242.23897 240.05223 237.88150 235.72976 233.59902 231.47528 229.51054 227.67681
 225.96907 224.45033 223.08959 221.87085 220.76212 219.73138 218.84464 217.99490
 217.24617 216.43543 215.54269 214.91595 214.37521 215.05899 216.67451 218.42909
 220.26526 222.34201 223.80533 223.97769 223.57623 223.51788 224.46304 225.65985
 226.96947 229.39665 233.13614 237.71336 242.40184 246.93832 251.19934 255.04179
 258.46347 261.54770 264.36996 267.01465 269.47162 271.68427 273.53622 275.11877
 276.53592 277.88831 279.24719 280.59641 281.78659 282.84491 283.81351 284.69711
 285.50247 286.22699 286.86908 287.71924
 366.78100 356.34461 345.78623 334.66184 323.07446 311.27807 299.15769 286.97030
 274.69191 262.59853 250.61714 239.92776 230.05937 221.17299 213.36460 206.37621
 200.21983 195.16744 191.75906 189.81067 188.85729 188.93090 189.77551 191.09313
 192.82774 194.93236 197.20497 199.57359 202.02820 204.51781 206.61543 208.46704
 210.10266 211.25727 211.49589 211.73350 211.68012 211.39473 211.03734 210.67696
 210.30357 210.02319 209.84080 209.71442 209.65203 209.99264 210.38826 210.78687
 211.58949 212.77710 214.03672 215.82933 217.76694 219.81956 221.92417 224.01679
 226.08640 228.18002 230.28663 232.40224 234.54086 236.72247 238.98809 241.36770
 243.99832 246.25893 248.27054 250.04516 251.47177 252.60439 253.43600 253.76162
 253.80823 253.59184 252.96146 251.91907 250.53469 248.70530 246.62392 244.46653
 242.26714 240.08076 237.91037 235.75899 233.62860 231.50522 229.54083 227.70744
 226.00006 224.48167 223.12129 221.90290 220.79452 219.76413 218.87775 218.02836
 217.27997 216.46959 215.57720 214.95082 214.41043 215.09009 216.69588 218.43391
 220.23221 222.27847 223.74634 223.92477 223.51352 223.39616 224.28209 225.55270
 226.94888 229.44092 233.23241 237.82787 242.50990 247.03133 251.27916 255.10942
 258.51764 261.59692 264.42639 267.07053 269.51041 271.69913 273.52850 275.10281
 276.53912 277.88095 279.33862 280.69940 281.88870 282.94434 283.91190 284.79495
 285.59793 286.32361 286.96585 287.81628
 366.78100 356.34512 345.78724 334.66335 323.07647 311.28059 299.16071 286.97383
 274.69595 262.60306 250.62218 239.93330 230.06542 221.17954 213.37165 206.38377
 200.22789 195.17601 191.76813 189.82024 188.86736 188.94148 189.78660 191.10472
 192.83984 194.94495 197.21807 199.58719 202.04231 204.53243 206.63054 208.48266
 210.11878 211.27390 211.51302 211.75114 211.69825 211.41337 211.05649 210.69661
 210.32373 210.04384 209.86196 209.73608 209.67420 210.01532 210.41144 210.81055
 211.61367 212.80179 214.06191 215.85503 217.79314 219.84626 221.95138 224.04450
 226.11462 228.20873 230.31585 232.43197 234.57109 236.75321 239.01933 241.39944
 244.03056 246.29168 248.30380 250.07892 251.50603 252.63915 253.47127 253.79739
 253.84451 253.62863 252.99874 251.95686 250.57298 248.74410 246.66322 244.50633
 242.30745 240.12157 237.95169 235.80081 233.67092 231.54804 229.58416 227.75128
 226.04440 224.52652 223.16663 221.94875 220.84087 219.81099 218.92511 218.07622
 217.32834 216.51846 215.62658 215.00070 214.46082 215.12859 216.70628 218.44241
 220.20483 222.20309 223.66652 223.86674 223.47096 223.31126 224.10883 225.36345
 226.88943 229.51166 233.33885 237.94559 242.61971 247.12468 251.35855 255.17648
 258.57056 261.64545 264.48273 267.12399 269.54379 271.70377 273.51074 275.08093
 276.53885 277.91623 279.42169 280.79358 281.98688 283.04401 284.01337 284.89590
 285.69949 286.42746 287.06696 287.91928
 366.78100 356.34578 345.78857 334.66535 323.07913 311.28391 299.16470 286.97848
 274.70126 262.60905 250.62883 239.94061 230.07339 221.18818 213.38096 206.39374
 200.23853 195.18731 191.78009 189.83287 188.88066 188.95544 189.80122 191.12001
 192.85579 194.96157 197.23535 199.60514 202.06092 204.55170 206.65048 208.50327
 210.14005 211.29583 211.53562 211.77440 211.72218 211.43796 211.08175 210.72253
 210.35031 210.07110 209.88988 209.76466 209.70344 210.04523 210.44201 210.84179
 211.64558 212.83436 214.09514 215.88892 217.82771 219.88149 221.98727 224.08106
 226.15184 228.24662 230.35440 232.47119 234.61097 236.79375 239.06054 241.44132
 244.07310 246.33488 248.34767 250.12345 251.55123 252.68502 253.51780 253.84458
 253.89236 253.67715 253.04793 252.00671 250.62349 248.79528 246.71506 244.55884
 242.36063 240.17541 238.00619 235.85597 233.72676 231.60454 229.64132 227.80911
 226.10289 224.58567 223.22645 222.00924 220.90202 219.87280 218.98759 218.13937
 217.39215 216.58293 215.69172 215.06650 214.52728 215.17476 216.70448 218.44864
 220.19066 222.13158 223.56883 223.78386 223.41696 223.24060 223.95660 225.17284
 226.81714 229.57256 233.44427 238.06776 242.73134 247.21759 251.43736 255.24295
 258.62320 261.69440 264.53943 267.17520 269.56973 271.69522 273.47308 275.04132
 276.53677 277.98529 279.50696 280.88495 282.08173 283.14374 284.11481 285.00067
 285.80316 286.53171 287.17218 288.02377
 366.78100 356.34639 345.78978 334.66716 323.08155 311.28694 299.16833 286.98272
 274.70611 262.61449 250.63488 239.94727 230.08066 221.19605 213.38944 206.40282
 200.24821 195.19760 191.79099 189.84438 188.89277 188.96815 189.81454 191.13393
 192.87032 194.97671 197.25110 199.62148 202.07787 204.56926 206.66865 208.52204
 210.15943 211.31581 211.55620 211.79559 211.74398 211.46037 211.10476 210.74614
 210.37453 210.09592 209.91531 209.79070 209.73009 210.07247 210.46986 210.87025
 211.67464 212.86403 214.12541 215.91980 217.85919 219.91358 222.01997 224.11436
 226.18574 228.28113 230.38952 232.50691 234.64730 236.83069 239.09807 241.47946
 244.11185 246.37424 248.38763 250.16402 251.59240 252.72679 253.56018 253.88757
 253.93596 253.72135 253.09273 252.05212 250.66951 248.84190 246.76229 244.60668
 242.40906 240.22445 238.05584 235.90623 233.77762 231.65601 229.69339 227.86178
 226.15617 224.63956 223.28095 222.06433 220.95772 219.92911 219.04450 218.19689
 217.45028 216.64166 215.75105 215.12644 214.58783 215.21667 216.70241 218.44734
 220.18279 222.07762 223.47145 223.67929 223.33365 223.15573 223.81491 224.99837
 226.73720 229.62251 233.55458 238.19882 242.84882 247.31516 251.52074 255.31213
 258.67673 261.74240 264.59180 267.21893 269.58557 271.67462 273.42685 275.00067
 276.52512 278.05771 279.59262 280.97363 282.17328 283.23819 284.20926 285.09555
 285.89838 286.62802 287.26385 288.12061
 366.78100 356.34679 345.79058 334.66837 323.08316 311.28896 299.17075 286.98554
 274.70933 262.61812 250.63891 239.95170 230.08549 221.20128 213.39508 206.40887
 200.25466 195.20445 191.79824 189.85203 188.90082 188.97661 189.82340 191.14320
 192.87999 194.98678 197.26157 199.63236 202.08915 204.58094 206.68073 208.53452
 210.17232 211.32911 211.56990 211.80969 211.75848 211.47527 211.12006 210.76185
 210.39065 210.11244 209.93223 209.80802 209.74781 210.09060 210.48839 210.88918
 211.69397 212.88377 214.14556 215.94035 217.88014 219.93493 222.04172 224.13651
 226.20830 228.30409 230.41289 232.53068 234.67147 236.85526 239.12305 241.50484
 244.13763 246.40042 248.41421 250.19101 251.61980 252.75459 253.58838 253.91617
 253.96496 253.75075 253.12254 252.08233 250.70013 248.87292 246.79371 244.63850
 242.44129 240.25708 238.08887 235.93966 233.81145 231.69025 229.72804 227.89683
 226.19162 224.67541 223.31720 222.10099 220.99478 219.96657 219.08237 218.23516
 217.48895 216.68074 215.79053 215.16632 214.62811 215.24625 216.70663 218.43860
 220.17151 222.04059 223.38741 223.56493 223.22047 223.04305 223.67432 224.84712
 226.65707 229.66872 233.67326 238.33672 242.96834 247.41365 251.60722 255.38719
 258.73636 261.79437 264.64490 267.25494 269.58615 271.63101 273.36188 274.95386
 276.49240 278.15009 279.68994 281.06274 282.25974 283.32291 284.29474 285.17990
 285.98349 286.71130 287.35077 288.20496
 366.78100 356.34706 345.79113 334.66919 323.08425 311.29032 299.17238 286.98745
 274.71151 262.62057 250.64164 239.95470 230.08876 221.20483 213.39889 206.41295
 200.25902 195.20908 191.80315 189.85721 188.90627 188.98234 189.82940 191.14946
 192.88653 194.99359 197.26865 199.63972 202.09678 204.58885 206.68891 208.54297
 210.18104 211.33810 211.57916 211.81923 211.76829 211.48536 211.13042 210.77248
 210.40155 210.12361 209.94367 209.81974 209.75980 210.10286 210.50093 210.90199
 211.70706 212.89712 214.15918 215.95425 217.89431 219.94937 222.05644 224.15150
 226.22356 228.31963 230.42869 232.54676 234.68782 236.87188 239.13995 241.52201
 244.15507 246.41814 248.43220 250.20926 251.63833 252.77339 253.60746 253.93552
 253.98458 253.77065 253.14271 252.10277 250.72084 248.89390 246.81496 244.66003
 242.46309 240.27916 238.11122 235.96228 233.83435 231.71341 229.75147 227.92054
 226.21560 224.69966 223.34173 222.12579 221.01986 219.99192 219.10798 218.26105
 217.51511 216.70717 215.81724 215.19330 214.65536 215.26781 216.71475 218.42216
 220.15155 222.01138 223.32297 223.46199 223.09741 222.90080 223.51950 224.70464
 226.58003 229.72060 233.80403 238.47891 243.08792 247.51277 251.69254 255.45914
 258.79410 261.84570 264.69592 267.29089 269.58636 271.58633 273.28760 274.88116
 276.47363 278.20993 279.76633 281.14246 282.33893 283.39938 284.36816 285.25171
 286.05344 286.77972 287.41663 288.26682
 366.78100 356.34736 345.79172 334.67009 323.08545 311.29181 299.17417 286.98953
 274.71390 262.62326 250.64462 239.95798 230.09235 221.20871 213.40307 206.41743
 200.26379 195.21416 191.80852 189.86288 188.91224 188.98860 189.83597 191.15633
 192.89369 195.00105 197.27641 199.64778 202.10514 204.59750 206.69786 208.55223
 210.19059 211.34795 211.58931 211.82967 211.77904 211.49640 211.14176 210.78412
 210.41348 210.13585 209.95621 209.83257 209.77293 210.11630 210.51466 210.91602
 211.72138 212.91174 214.17411 215.96947 217.90983 219.96519 222.07255 224.16792
 226.24028 228.33664 230.44600 232.56436 234.70573 236.89009 239.15845 241.54081
 244.17418 246.43754 248.45190 250.22926 251.65862 252.79399 253.62835 253.95671
 254.00607 253.79243 253.16480 252.12516 250.74352 248.91688 246.83824 244.68361
 242.48697 240.30333 238.13569 235.98706 233.85942 231.73878 229.77714 227.94650
 226.24187 224.72623 223.36859 222.15295 221.04731 220.01968 219.13604 218.28940
 217.54376 216.73612 215.84649 215.22285 214.68521 215.29013 216.71930 218.40295
 220.12549 221.97514 223.26268 223.37581 222.98952 222.75208 223.35086 224.55005
 226.49237 229.76889 233.94020 238.62595 243.21208 247.62172 251.79369 255.54649
 258.85782 261.89227 264.73102 267.29932 269.55402 271.50974 273.21472 274.88177
 276.46027 278.22113 279.79153 281.17661 282.37939 283.44299 284.41321 285.29681
 286.09796 286.82196 287.45886 288.31488
 366.78100 356.34785 345.79269 334.67154 323.08739 311.29423 299.17708 286.99293
 274.71778 262.62762 250.64947 239.96332 230.09816 221.21501 213.40986 206.42470
 200.27155 195.22240 191.81724 189.87209 188.92194 188.99878 189.84663 191.16748
 192.90533 195.01317 197.28902 199.66087 202.11871 204.61156 206.71241 208.56725
 210.20610 211.36395 211.60579 211.84664 211.79649 211.51433 211.16018 210.80303
 210.43288 210.15572 209.97657 209.85342 209.79426 210.13811 210.53696 210.93880
 211.74465 212.93550 214.19834 215.99419 217.93504 219.99088 222.09873 224.19458
 226.26743 228.36427 230.47412 232.59297 234.73481 236.91966 239.18851 241.57135
 244.20520 246.46905 248.48389 250.26174 251.69159 252.82743 253.66228 253.99113
 254.04098 253.82782 253.20067 252.16152 250.78036 248.95421 246.87606 244.72190
 242.52575 240.34260 238.17544 236.02729 233.90014 231.77999 229.81883 227.98868
 226.28453 224.76937 223.41222 222.19707 221.09191 220.06476 219.18161 218.33545
 217.59030 216.78315 215.89399 215.27084 214.73369 215.32153 216.71040 218.38998
 220.10617 221.92793 223.18826 223.27831 222.87955 222.60863 223.18784 224.40556
 226.40919 229.80659 234.07278 238.76762 243.33319 247.73732 251.91420 255.66237
 258.95233 261.95819 264.76874 267.29590 269.49677 271.40714 273.08353 274.60275
 276.54041 278.31329 279.86560 281.23831 282.43066 283.48886 284.45511 285.33453
 286.13354 286.85449 287.49191 288.34927
 366.78100 356.34840 345.79379 334.67319 323.08959 311.29698 299.18038 286.99678
 274.72217 262.63257 250.65497 239.96936 230.10476 221.22216 213.41755 206.43295
 200.28035 195.23174 191.82714 189.88254 188.93293 189.01033 189.85873 191.18012
 192.91852 195.02692 197.30331 199.67571 202.13411 204.62750 206.72890 208.58430
 210.22369 211.38209 211.62449 211.86588 211.81628 211.53468 211.18107 210.82447
 210.45487 210.17826 209.99966 209.87706 209.81845 210.16285 210.56225 210.96464
 211.77104 212.96244 214.22583 216.02223 217.96363 220.02002 222.12842 224.22482
 226.29821 228.39561 230.50601 232.62540 234.76780 236.95320 239.22259 241.60599
 244.24039 246.50478 248.52018 250.29858 251.72897 252.86537 253.70077 254.03016
 254.08056 253.86796 253.24135 252.20275 250.82215 248.99654 246.91894 244.76534
 242.56973 240.38713 238.22053 236.07292 233.94632 231.82672 229.86611 228.03651
 226.33291 224.81830 223.46170 222.24710 221.14249 220.11589 219.23329 218.38768
 217.64308 216.83648 215.94787 215.32527 214.78867 215.35524 216.69385 218.37566
 220.10196 221.88969 223.10110 223.15927 222.75061 222.45508 223.04065 224.28165
 226.35643 229.85893 234.19847 238.89366 243.44557 247.84698 252.02434 255.76730
 259.05292 262.03796 264.82544 267.30994 269.44659 271.26685 272.85666 274.69098
 276.53372 278.30399 279.85483 281.22153 282.41110 283.46341 284.42395 285.29919
 286.09540 286.81586 287.45294 288.29315
 366.78100 356.34875 345.79450 334.67425 323.09100 311.29875 299.18249 286.99924
 274.72499 262.63574 250.65849 239.97324 230.10899 221.22674 213.42249 206.43824
 200.28599 195.23774 191.83348 189.88923 188.93998 189.01773 189.86648 191.18823
 192.92698 195.03573 197.31248 199.68523 202.14398 204.63772 206.73947 208.59522
 210.23497 211.39372 211.63647 211.87822 211.82897 211.54772 211.19447 210.83822
 210.46897 210.19271 210.01446 209.89221 209.83396 210.17871 210.57846 210.98121
 211.78796 212.97971 214.24346 216.04021 217.98196 220.03870 222.14745 224.24420
 226.31795 228.41570 230.52645 232.64620 234.78895 236.97470 239.24445 241.62820
 244.26294 246.52769 248.54344 250.32219 251.75294 252.88969 253.72544 254.05519
 254.10594 253.89369 253.26744 252.22919 250.84893 249.02368 246.94643 244.79318
 242.59793 240.41568 238.24943 236.10218 233.97593 231.85668 229.89643 228.06717
 226.36392 224.84967 223.49342 222.27917 221.17492 220.14867 219.26642 218.42117
 217.67692 216.87067 215.98242 215.36016 214.82391 215.37668 216.68268 218.34781
 220.10124 221.87206 223.01469 223.01433 222.59167 222.30350 222.89114 224.16681
 226.32901 229.94466 234.33005 239.02498 243.56444 247.95490 252.11841 255.84389
 259.10583 262.09891 264.87906 267.35141 269.46329 271.26181 272.86526 274.55307
 276.46094 278.17313 279.69177 281.02979 282.19019 283.21988 284.16415 285.02701
 285.81824 286.54016 287.17828 287.99591
 366.78100 356.34885 345.79470 334.67456 323.09141 311.29926 299.18311 286.99996
 274.72582 262.63667 250.65952 239.97437 230.11023 221.22808 213.42393 206.43978
 200.28763 195.23949 191.83534 189.89119 188.94204 189.01989 189.86875 191.19060
 192.92945 195.03830 197.31516 199.68801 202.14686 204.64071 206.74256 208.59842
 210.23827 211.39712 211.63997 211.88182 211.83268 211.55153 211.19838 210.84223
 210.47309 210.19694 210.01879 209.89664 209.83849 210.18335 210.58320 210.98605
 211.79290 212.98475 214.24861 216.04546 217.98731 220.04416 222.15302 224.24987
 226.32372 228.42157 230.53242 232.65228 234.79513 236.98098 239.25083 241.63468
 244.26954 246.53439 248.55024 250.32909 251.75995 252.89680 253.73265 254.06250
 254.11335 253.90121 253.27506 252.23691 250.85676 249.03161 246.95447 244.80132
 242.60617 240.42402 238.25787 236.11073 233.98458 231.86543 229.90528 228.07614
 226.37299 224.85884 223.50269 222.28854 221.18440 220.15825 219.27610 218.43095
 217.68680 216.88066 215.99251 215.37036 214.83421 215.38376 216.68211 218.30667
 220.09921 221.88522 222.94084 222.84410 222.39230 222.09763 222.74686 224.09894
 226.32762 230.03915 234.48264 239.17882 243.70139 248.06934 252.19170 255.88858
 259.14432 262.12411 264.90826 267.37885 269.50491 271.33484 272.97894 274.60217
 276.41473 278.05621 279.51834 280.80768 281.93896 282.92493 283.83725 284.69629
 285.49161 286.22260 286.84421 287.65128
 366.78100 356.34896 345.79492 334.67488 323.09184 311.29980 299.18377 287.00073
 274.72669 262.63765 250.66061 239.97557 230.11153 221.22949 213.42545 206.44141
 200.28937 195.24134 191.83730 189.89326 188.94422 189.02218 189.87114 191.19310
 192.93206 195.04102 197.31798 199.69095 202.14991 204.64387 206.74583 208.60179
 210.24175 211.40071 211.64367 211.88563 211.83659 211.55555 211.20252 210.84648
 210.47744 210.20140 210.02336 209.90132 209.84328 210.18824 210.58820 210.99116
 211.79812 212.99009 214.25405 216.05101 217.99297 220.04993 222.15889 224.25585
 226.32981 228.42777 230.53873 232.65869 234.80166 236.98762 239.25758 241.64154
 244.27650 246.54146 248.55742 250.33638 251.76734 252.90430 253.74026 254.07023
 254.12119 253.90915 253.28311 252.24507 250.86503 249.03999 246.96295 244.80991
 242.61487 240.43284 238.26680 236.11976 233.99372 231.87468 229.91464 228.08560
 226.38256 224.86852 223.51248 222.29844 221.19441 220.16837 219.28633 218.44129
 217.69725 216.89121 216.00317 215.38113 214.84509 215.39037 216.67862 218.26527
 220.09602 221.90363 222.91524 222.71565 222.14891 221.81523 222.52528 223.96127
 226.33116 230.17738 234.68181 239.37373 243.87860 248.22737 252.31799 255.97530
 259.20282 262.20169 264.95782 267.40875 269.50925 271.32428 272.97250 274.62735
 276.34653 277.94144 279.35269 280.60837 281.72858 282.74118 283.68793 284.55295
 285.32510 286.00198 286.59613 287.39178
 366.78100 356.34929 345.79558 334.67587 323.09315 311.30144 299.18573 287.00302
 274.72931 262.64060 250.66389 239.97918 230.11546 221.23375 213.43004 206.44633
 200.29462 195.24691 191.84320 189.89949 188.95077 189.02906 189.87835 191.20064
 192.93993 195.04922 197.32651 199.69979 202.15908 204.65337 206.75566 208.61195
 210.25224 211.41153 211.65482 211.89710 211.84839 211.56768 211.21497 210.85926
 210.49055 210.21484 210.03712 209.91541 209.85770 210.20299 210.60328 211.00657
 211.81386 213.00615 214.27043 216.06772 218.01001 220.06730 222.17659 224.27388
 226.34817 228.44646 230.55774 232.67803 234.82132 237.00761 239.27790 241.66219
 244.29748 246.56276 248.57905 250.35834 251.78963 252.92692 253.76321 254.09350
 254.14479 253.93307 253.30736 252.26965 250.88994 249.06523 246.98852 244.83581
 242.64109 240.45938 238.29367 236.14696 234.02125 231.90254 229.94283 228.11412
 226.41140 224.89769 223.54198 222.32827 221.22456 220.19885 219.31714 218.47243
 217.72871 216.92300 216.03529 215.41358 214.87787 215.40685 216.65662 218.25081
 220.05539 221.89490 222.92999 222.60136 221.92186 221.55370 222.26707 223.75737
 226.26099 230.27832 234.89084 239.58200 244.07883 248.41733 252.50621 256.12808
 259.31894 262.30038 265.02621 267.44547 269.55032 271.37973 273.01700 274.67014
 276.27307 277.79535 279.16174 280.38879 281.46683 282.45245 283.41034 284.28268
 285.04269 285.64673 286.14526 286.78387
 366.78100 356.34821 345.79342 334.67263 323.08884 311.29605 299.17926 286.99547
 274.72068 262.63088 250.65309 239.96730 230.10251 221.21972 213.41493 206.43014
 200.27735 195.22856 191.82377 189.87898 188.92919 189.00640 189.85461 191.17582
 192.91403 195.02224 197.29845 199.67065 202.12886 204.62207 206.72328 208.57849
 210.21770 211.37591 211.61812 211.85933 211.80954 211.52775 211.17396 210.81717
 210.44738 210.17059 209.99180 209.86901 209.81022 210.15442 210.55363 210.95584
 211.76205 212.95326 214.21647 216.01268 217.95389 220.01010 222.11831 224.21452
 226.28773 228.38494 230.49515 232.61436 234.75657 236.94178 239.21098 241.59419
 244.22840 246.49261 248.50782 250.28603 251.71624 252.85245 253.68766 254.01687
 254.06708 253.85429 253.22750 252.18871 250.80792 248.98213 246.90434 244.75055
 242.55475 240.37196 238.20517 236.05738 233.93059 231.81080 229.85001 228.02022
 226.31643 224.80164 223.44485 222.23006 221.12527 220.09848 219.21569 218.36990
 217.62511 216.81831 215.92952 215.30673 214.76994 215.35248 216.72882 218.15118
 220.03860 221.82506 222.76730 222.51930 221.88718 221.33562 221.95576 223.57365
 226.26115 230.37184 235.06337 239.74393 244.22815 248.57245 252.67006 256.26492
 259.39627 262.29642 264.97333 267.40894 269.53876 271.41803 273.14291 274.81973
 276.38651 277.84326 279.17038 280.38120 281.42148 282.33786 283.26758 284.10587
 284.72269 285.24310 285.73026 286.35110
 366.78100 356.34769 345.79238 334.67107 323.08676 311.29345 299.17613 286.99182
 274.71651 262.62620 250.64789 239.96158 230.09627 221.21296 213.40765 206.42234
 200.26903 195.21971 191.81440 189.86909 188.91878 188.99547 189.84316 191.16385
 192.90154 195.00923 197.28492 199.65661 202.11430 204.60698 206.70767 208.56236
 210.20105 211.35874 211.60043 211.84112 211.79081 211.50850 211.15419 210.79688
 210.42656 210.14925 209.96994 209.84663 209.78732 210.13101 210.52970 210.93139
 211.73708 212.92777 214.19046 215.98614 217.92683 219.98252 222.09021 224.18590
 226.25859 228.35528 230.46497 232.58366 234.72535 236.91004 239.17872 241.56141
 244.19510 246.45879 248.47348 250.25117 251.68086 252.81655 253.65124 253.97993
 254.02962 253.81630 253.18899 252.14968 250.76837 248.94206 246.86375 244.70944
 242.51313 240.32982 238.16251 236.01420 233.88689 231.76657 229.80526 227.97495
 226.27064 224.75533 223.39802 222.18271 221.07740 220.05009 219.16678 218.32047
 217.57515 216.76784 215.87853 215.25522 214.71791 215.33846 216.81418 218.11752
 219.92587 221.36150 222.69028 222.85117 221.96107 220.93358 221.60448 223.43587
 226.28780 230.48227 235.21393 239.90762 244.39351 248.70766 252.74373 256.31619
 259.45175 262.29315 264.88614 267.28531 269.42850 271.34821 273.14520 274.84030
 276.41943 277.83521 279.10297 280.38220 281.54074 282.60599 283.60867 284.51703
 285.33398 286.06149 286.69702 287.50696
 366.78100 356.34669 345.79038 334.66806 323.08275 311.28844 299.17013 286.98482
 274.70851 262.61719 250.63788 239.95057 230.08426 221.19995 213.39363 206.40732
 200.25301 195.20270 191.79639 189.85007 188.89876 188.97445 189.82114 191.14083
 192.87752 194.98420 197.25889 199.62958 202.08627 204.57796 206.67764 208.53133
 210.16902 211.32571 211.56640 211.80608 211.75477 211.47146 211.11615 210.75784
 210.38653 210.10821 209.92790 209.80359 209.74328 210.08597 210.48365 210.88434
 211.68903 212.87872 214.14041 215.93509 217.87478 219.92947 222.03616 224.13085
 226.20254 228.29822 230.40691 232.52460 234.66529 236.84898 239.11666 241.49835
 244.13104 246.39373 248.40742 250.18410 251.61279 252.74748 253.58117 253.90886
 253.95755 253.74323 253.11492 252.07461 250.69230 248.86499 246.78567 244.63036
 242.43305 240.24874 238.08043 235.93111 233.80280 231.68149 229.71918 227.88787
 226.18256 224.66624 223.30793 222.09162 220.98531 219.95700 219.07268 218.22537
 217.47906 216.67075 215.78044 215.15612 214.61781 215.30460 216.90306 218.10706
 219.92690 221.56706 222.96719 222.86948 221.72263 220.79169 221.28416 223.24327
 226.27568 230.60576 235.42340 240.16978 244.62546 248.89046 252.89313 256.45071
 259.57730 262.34866 264.93814 267.30099 269.33899 271.17172 272.88947 274.52432
 276.13913 277.78391 279.40149 280.92834 282.24969 283.41873 284.48532 285.45157
 286.32062 287.09448 287.77054 288.63208
 366.78100 356.34646 345.78992 334.66738 323.08184 311.28730 299.16876 286.98322
 274.70668 262.61514 250.63560 239.94807 230.08153 221.19699 213.39045 206.40391
 200.24937 195.19883 191.79229 189.84575 188.89421 188.96967 189.81613 191.13559
 192.87205 194.97851 197.25297 199.62343 202.07989 204.57135 206.67081 208.52427
 210.16174 211.31820 211.55866 211.79812 211.74658 211.46304 211.10750 210.74896
 210.37742 210.09888 209.91834 209.79380 209.73326 210.07572 210.47318 210.87364
 211.67810 212.86756 214.12902 215.92348 217.86294 219.91740 222.02387 224.11833
 226.18979 228.28525 230.39371 232.51117 234.65163 236.83509 239.10255 241.48401
 244.11647 246.37893 248.39239 250.16885 251.59731 252.73177 253.56523 253.89269
 253.94115 253.72661 253.09807 252.05754 250.67500 248.84746 246.76792 244.61238
 242.41484 240.23030 238.06176 235.91222 233.78368 231.66214 229.69960 227.86806
 226.16252 224.64598 223.28744 222.07090 220.96436 219.93582 219.05128 218.20374
 217.45721 216.64867 215.75813 215.13359 214.59505 215.29224 216.91161 218.10292
 219.83449 221.72139 222.96486 222.64641 221.51183 220.51617 220.96439 223.09979
 226.30533 230.70676 235.58051 240.37343 244.87169 249.11562 253.07574 256.61911
 259.73279 262.46051 265.00876 267.31100 269.29346 271.06564 272.68842 274.27560
 275.69275 277.14151 278.84204 280.36389 281.68091 282.84613 283.90921 284.87231
 285.73849 286.50983 287.18369 288.04239
 366.78100 356.34772 345.79244 334.67116 323.08688 311.29361 299.17633 286.99205
 274.71677 262.62649 250.64821 239.96193 230.09665 221.21337 213.40810 206.42282
 200.26954 195.22026 191.81498 189.86970 188.91942 188.99614 189.84387 191.16459
 192.90231 195.01003 197.28575 199.65747 202.11519 204.60791 206.70863 208.56336
 210.20208 211.35980 211.60152 211.84224 211.79196 211.50968 211.15540 210.79812
 210.42785 210.15057 209.97129 209.84801 209.78873 210.13245 210.53117 210.93289
 211.73862 212.92934 214.19206 215.98778 217.92850 219.98422 222.09194 224.18766
 226.26038 228.35711 230.46683 232.58555 234.72727 236.91199 239.18071 241.56343
 244.19715 246.46087 248.47560 250.25332 251.68304 252.81876 253.65348 253.98220
 254.03192 253.81864 253.19137 252.15209 250.77081 248.94453 246.86625 244.71197
 242.51569 240.33241 238.16513 236.01686 233.88958 231.76930 229.80802 227.97774
 226.27346 224.75818 223.40090 222.18562 221.08035 220.05307 219.16979 218.32351
 217.57823 216.77095 215.88167 215.25839 214.72112 215.34163 216.83380 218.16214
 219.73964 221.68686 222.88452 222.50029 221.33522 220.23187 220.67592 223.05994
 226.39565 230.83505 235.73421 240.57381 245.10658 249.35405 253.29463 256.82797
 259.92361 262.61896 265.04556 267.26218 269.21652 270.97552 272.55896 274.08533
 275.41818 276.53217 278.10593 279.56821 280.83368 281.95331 282.97479 283.90021
 284.73248 285.47366 286.12112 286.94623
 366.78100 356.34864 345.79428 334.67393 323.09057 311.29821 299.18185 286.99849
 274.72413 262.63478 250.65742 239.97206 230.10770 221.22534 213.42099 206.43663
 200.28427 195.23591 191.83155 189.88720 188.93784 189.01548 189.86412 191.18576
 192.92440 195.03305 197.30969 199.68233 202.14097 204.63461 206.73626 208.59190
 210.23154 211.39018 211.63282 211.87447 211.82511 211.54375 211.19039 210.83403
 210.46467 210.18832 210.00996 209.88760 209.82924 210.17388 210.57353 210.97617
 211.78281 212.97445 214.23809 216.03474 217.97638 220.03302 222.14166 224.23830
 226.31194 228.40959 230.52023 232.63987 234.78251 236.96815 239.23780 241.62144
 244.25608 246.52072 248.53636 250.31501 251.74565 252.88229 253.71793 254.04757
 254.09821 253.88586 253.25950 252.22114 250.84078 249.01542 246.93807 244.78471
 242.58935 240.40699 238.24063 236.09327 233.96692 231.84756 229.88720 228.05784
 226.35448 224.84013 223.48377 222.26941 221.16505 220.13869 219.25634 218.41098
 217.66662 216.86026 215.97190 215.34954 214.81319 215.37553 216.75970 218.19719
 219.69902 221.59689 222.74570 222.36073 221.16469 219.98973 220.44484 223.03830
 226.45372 230.95143 235.89061 240.77786 245.32368 249.55994 253.47998 257.00601
 260.11020 262.81250 265.18265 267.31787 269.21628 270.93094 272.52441 274.12241
 275.30148 276.28186 277.46133 278.91174 280.16696 281.27753 282.29074 283.20862
 284.03418 284.76932 285.41153 286.22995
 366.78100 356.34847 345.79395 334.67342 323.08990 311.29737 299.18084 286.99732
 274.72279 262.63327 250.65574 239.97021 230.10569 221.22316 213.41864 206.43411
 200.28158 195.23306 191.82853 189.88401 188.93448 189.01195 189.86043 191.18190
 192.92038 195.02885 197.30532 199.67780 202.13627 204.62975 206.73122 208.58669
 210.22617 211.38464 211.62712 211.86859 211.81906 211.53754 211.18401 210.82749
 210.45796 210.18143 210.00291 209.88038 209.82186 210.16633 210.56580 210.96828
 211.77475 212.96623 214.22970 216.02618 217.96765 220.02412 222.13260 224.22907
 226.30255 228.40002 230.51049 232.62997 234.77244 236.95792 239.22739 241.61086
 244.24534 246.50981 248.52529 250.30376 251.73423 252.87071 253.70618 254.03566
 254.08613 253.87360 253.24708 252.20855 250.82803 249.00250 246.92497 244.77145
 242.57592 240.39340 238.22687 236.07934 233.95282 231.83329 229.87277 228.04324
 226.33971 224.82519 223.46866 222.25414 221.14961 220.12308 219.24056 218.39503
 217.65051 216.84398 215.95545 215.33293 214.79640 215.35205 216.71399 218.20941
 219.64160 221.45337 222.61314 222.16791 220.89951 219.70433 220.23102 223.05132
 226.54927 231.07410 236.03279 240.94087 245.52873 249.77266 253.67964 257.17047
 260.25305 262.96136 265.32422 267.43579 269.33255 271.04715 272.56876 274.11761
 275.22366 276.06445 276.87704 278.07697 279.34940 280.47516 281.50223 282.43271
 283.26956 284.01477 284.66577 285.49542
 366.78100 356.34840 345.79380 334.67319 323.08959 311.29699 299.18039 286.99679
 274.72218 262.63258 250.65498 239.96938 230.10477 221.22217 213.41757 206.43297
 200.28037 195.23176 191.82716 189.88256 188.93296 189.01036 189.85875 191.18015
 192.91855 195.02695 197.30334 199.67574 202.13414 204.62754 206.72894 208.58433
 210.22373 211.38213 211.62453 211.86593 211.81632 211.53472 211.18112 210.82452
 210.45492 210.17831 209.99971 209.87711 209.81851 210.16290 210.56230 210.96470
 211.77110 212.96250 214.22589 216.02229 217.96369 220.02009 222.12849 224.22488
 226.29828 228.39568 230.50608 232.62547 234.76787 236.95327 239.22267 241.60607
 244.24046 246.50486 248.52026 250.29866 251.72906 252.86545 253.70085 254.03025
 254.08065 253.86805 253.24144 252.20284 250.82224 248.99664 246.91903 244.76543
 242.56983 240.38723 238.22063 236.07302 233.94642 231.82682 229.86622 228.03662
 226.33301 224.81841 223.46181 222.24721 221.14260 220.11600 219.23340 218.38780
 217.64320 216.83659 215.94799 215.32539 214.78879 215.33539 216.67366 218.23907
 219.62213 221.27226 222.51250 222.12796 220.65257 219.29134 220.01375 222.97182
 226.62627 231.19702 236.17467 241.09642 245.70685 249.96390 253.86523 257.35883
 260.41486 263.05319 265.36166 267.47394 269.40265 271.16492 272.77328 274.16583
 275.16699 275.84186 276.72406 277.70975 278.95108 280.10818 281.16391 282.12030
 282.98047 283.74643 284.41559 285.26834
 354.97500 345.04800 334.58700 324.11500 313.32600 302.53700 291.65000 280.76700
 269.93100 259.19300 248.62200 238.61700 229.08700 220.35500 212.54000 205.53500
 199.46400 194.49300 191.14300 189.19000 188.08900 188.01400 188.72400 189.90600
 191.46900 193.38200 195.40300 197.55600 199.80700 202.06000 204.28800 206.47900
 208.55200 210.37800 212.02500 213.65900 214.99800 216.11800 217.17200 218.25900
 219.49400 220.64500 221.67900 222.61400 223.54500 224.98200 226.57100 228.19000
 229.79700 231.81100 233.86500 235.97200 238.24200 240.55300 242.89900 245.25300
 247.48800 249.53500 251.36600 252.84800 254.09800 255.16700 256.02700 256.25300
 256.09500 255.54300 253.93500 252.56600 251.38400 250.24500 249.05200 247.70100
 246.01600 243.99600 241.78400 239.39300 236.81300 234.22300 231.65800 229.14400
 226.74000 224.47300 222.33500 220.32500 218.44000 216.67700 214.96200 213.47200
 212.20000 211.10800 210.26000 209.63900 209.24400 209.03100 209.05800 209.33300
 209.78400 210.62600 211.33100 212.39100 213.62500 214.84668 217.72949 219.47640
 220.32566 220.86828 220.88710 220.27371 219.43733 218.84250 219.04934 220.86203
 222.60583 225.72206 229.03064 232.61777 236.12270 239.51333 242.70767 245.68587
 248.41061 250.90679 253.19353 254.91714 256.48655 257.94920 259.39966 260.69384
 261.81714 262.77997 263.71679 264.54570 265.26305 265.89772 266.47676 267.00133
 267.47312 267.89325 268.26027 268.72800
