|-------------------------------------------------------------------------|
|   File Name : in_temp.dat
|   Subject   : temperature profiles used for initial guess atmosphere
|   File Type : input of gmtr
|   Data Type : atmospherical data
|   Author/s  : WRF-Chem
|   Date      : Fri Jul 26 15:39:24 2024
|-------------------------------------------------------------------------|

 WRF-Chem temperature
#
 values of T (K)    (8f10.5)
#
 354.97500 345.04800 334.58700 324.11500 313.32600 302.53700 291.65000 280.76700
 269.93100 259.19300 248.62200 238.61700 229.08700 220.35500 212.54000 205.53500
 199.46400 194.49300 191.14300 189.19000 188.08900 188.01400 188.72400 189.90600
 191.46900 193.38200 195.40300 197.55600 199.80700 202.06000 204.28800 206.47900
 208.55200 210.37800 212.02500 213.65900 214.99800 216.11800 217.17200 218.25900
 219.49400 220.64500 221.67900 222.61400 223.54500 224.98200 226.57100 228.19000
 229.79700 231.81100 233.86500 235.97200 238.24200 240.55300 242.89900 245.25300
 247.48800 249.53500 251.36600 252.84800 254.09800 255.16700 256.02700 256.25300
 256.09500 255.54300 253.93500 252.56600 251.38400 250.24500 249.05200 247.70100
 246.01600 243.99600 241.78400 239.39300 236.81300 234.22300 231.65800 229.14400
 226.74000 224.47300 222.33500 220.32500 218.44000 216.67700 214.96200 213.47200
 212.20000 211.10800 210.26000 209.63900 209.24400 209.03100 209.05800 209.33300
 209.78400 210.62600 211.33100 212.39100 213.62500 214.84668 217.72949 219.47640
 220.32566 220.86828 220.88710 220.27371 219.43733 218.84250 219.04934 220.86203
 222.60583 225.72206 229.03064 232.61777 236.12270 239.51333 242.70767 245.68587
 248.41061 250.90679 253.19353 254.91714 256.48655 257.94920 259.39966 260.69384
 261.81714 262.77997 263.71679 264.54570 265.26305 265.89772 266.47676 267.00133
 267.47312 267.89325 268.26027 268.72800
 366.78100 356.33500 345.76700 334.63300 323.03600 311.23000 299.10000 286.90300
 274.61500 262.51200 250.52100 239.82200 229.94400 221.04800 213.23000 206.23200
 200.06600 195.00400 191.58600 189.62800 188.66500 188.72900 189.56400 190.87200
 192.59700 194.69200 196.95500 199.31400 201.75900 204.23900 206.32700 208.16900
 209.79500 210.94000 211.16900 211.39700 211.33400 211.03900 210.67200 210.30200
 209.91900 209.62900 209.43700 209.30100 209.22900 209.56000 209.94600 210.33500
 211.12800 212.30600 213.55600 215.33900 217.26700 219.31000 221.40500 223.48800
 225.54800 227.63200 229.72900 231.83500 233.96400 236.13600 238.39200 240.76200
 243.38300 245.63400 247.63600 249.40100 250.81800 251.94100 252.76300 253.07900
 253.11600 252.89000 252.25000 251.19800 249.80400 247.96500 245.87400 243.70700
 241.49800 239.30200 237.12200 234.96100 232.82100 230.68800 228.71400 226.87100
 225.15400 223.62600 222.25600 221.02800 219.91000 218.87000 217.97400 217.11500
 216.35700 215.53700 214.63500 213.99900 213.44900 212.85855 212.01316 212.61654
 214.26826 216.08686 218.14273 220.53346 223.40855 226.78828 231.49734 235.90155
 239.42278 243.28576 247.23140 251.11907 254.80144 258.23331 261.38913 264.27520
 266.89312 269.26852 271.44504 273.08845 274.58484 275.98591 277.39845 278.65879
 279.75272 280.69038 281.56708 282.34086 283.01050 283.60295 284.14348 284.63317
 285.07358 285.46577 285.80838 286.24500
 381.81900 372.39900 361.20600 349.77600 337.62200 324.85300 311.81000 298.35300
 284.86000 271.32400 258.56100 246.30400 236.08700 226.79600 218.44800 211.29000
 205.52200 200.89400 197.38100 194.84800 193.01500 192.31500 192.25000 192.43100
 192.91200 193.53700 194.13600 194.71200 195.26200 195.83100 196.39300 196.97600
 197.60400 198.14900 198.58400 199.05700 199.69500 200.37800 201.05400 201.70800
 202.31300 202.85700 203.35500 203.86200 204.56900 205.29700 206.02600 206.98700
 208.19300 209.44100 210.96900 212.57600 214.46200 216.51300 218.63000 220.85300
 223.34100 225.96200 228.73900 231.69700 234.70600 237.70600 240.69200 243.65700
 246.73700 249.69900 252.52100 255.06300 257.29000 259.23300 260.63300 261.68000
 262.46100 262.79800 262.69100 262.22400 261.06900 259.52500 257.70700 255.50700
 253.00100 250.30200 247.39800 244.45200 241.65400 239.05400 236.73300 234.59000
 232.59500 230.72500 228.83400 226.82600 224.66600 222.38700 220.10400 217.71500
 215.45900 213.06600 210.54600 208.09300 205.35400 202.08130 196.05959 200.71215
 209.01611 216.90438 223.84126 229.78593 235.00632 240.20838 245.98943 250.68668
 254.32982 257.93487 261.55666 264.96801 268.15192 271.06452 273.76717 276.25691
 278.57680 280.74479 282.77456 284.60533 286.27232 287.81705 289.31715 290.65561
 291.81734 292.81312 293.70701 294.49387 295.17482 295.77730 296.32696 296.82492
 297.27278 297.67160 298.02000 298.46400
 399.33000 389.90700 379.81300 368.66800 357.52200 345.30100 333.07400 320.22700
 307.21600 293.84800 280.37600 267.29600 254.61000 242.98700 232.15100 221.97700
 212.67200 204.28600 197.66900 192.82100 189.48600 187.45200 186.81400 187.08900
 187.78100 189.05400 190.64800 192.54200 194.63000 196.75200 198.67100 200.15800
 201.53500 202.48700 202.97500 203.34000 203.53900 203.49700 203.38500 203.24700
 203.00500 202.78600 202.60300 202.43700 202.42600 202.88800 203.42000 203.95100
 204.89500 205.99200 207.30100 208.95800 210.73800 213.10000 215.56400 218.18000
 220.96600 223.91800 226.96100 230.09200 233.29300 236.55700 239.95500 243.53700
 246.84500 249.39000 251.54200 253.47400 255.19500 256.48400 257.43100 258.05900
 258.21200 258.04000 257.58200 256.64300 255.23900 253.50700 251.40800 249.05600
 246.57600 243.99400 241.38900 238.83000 236.34400 233.98600 231.96900 230.11800
 228.42300 226.89900 225.54800 224.29700 223.10500 221.96500 220.95800 220.11300
 219.49000 218.92000 218.32500 217.88100 217.42300 216.96366 216.35568 216.80261
 217.73415 218.28582 218.64258 219.10077 220.44626 222.53987 226.38451 230.35736
 233.59734 237.39164 241.29814 245.22796 248.98002 252.51130 255.78595 258.80109
 261.54781 264.05210 266.34239 268.04198 269.58951 271.01303 272.35754 273.55718
 274.59842 275.49092 276.28989 276.99307 277.60161 278.14001 278.63122 279.07623
 279.47646 279.83287 280.14422 280.54100
 399.73800 389.78500 379.66200 368.15100 356.64100 344.35000 331.79200 318.88800
 305.72600 292.49300 279.20900 266.73800 254.69600 244.21100 234.45700 225.43300
 217.56900 210.45100 204.30000 199.30600 195.45800 192.57600 191.02700 190.38600
 190.23900 190.53400 191.16600 191.92500 192.79500 193.76600 194.73200 195.31200
 195.80000 196.05200 196.11500 196.11500 196.03900 195.72300 195.34000 194.98900
 194.75100 194.79200 195.13300 195.59800 196.50600 198.13600 199.85800 201.56600
 204.17900 206.82300 209.89300 213.28400 216.82800 220.60500 224.38700 228.20900
 232.03200 235.82500 239.56000 243.25800 246.84500 250.20100 253.70900 257.46800
 261.53000 264.22100 266.60100 268.68100 270.32900 271.74100 272.83600 273.47400
 273.89800 274.00200 273.75700 273.28800 272.37100 271.10000 269.58900 267.77900
 265.81600 263.72100 261.39300 258.91600 256.29800 253.42300 250.33100 247.11400
 243.83700 240.52900 237.24900 233.99900 230.72800 227.51500 224.25400 220.95200
 217.62700 213.65600 210.12100 206.78900 204.01000 201.99491 199.07309 198.76551
 199.40006 200.48994 201.46112 202.31912 203.45100 204.96110 207.47502 210.85391
 213.70530 217.29629 220.99574 224.72316 228.28753 231.64854 234.68024 237.40893
 239.70644 241.60899 243.46854 245.67368 247.68154 249.52395 251.24767 252.78566
 254.12057 255.26479 256.23740 257.09036 257.82852 258.48160 259.07744 259.61723
 260.10271 260.53504 260.91270 261.39400
 399.73800 389.78500 379.66200 368.15100 356.64100 344.35000 331.79200 318.88800
 305.72600 292.49300 279.20900 266.73800 254.69600 244.21100 234.45700 225.43300
 217.56900 210.45100 204.30000 199.30600 195.45800 192.57600 191.02700 190.38600
 190.23900 190.53400 191.16600 191.92500 192.79500 193.76600 194.73200 195.31200
 195.80000 196.05200 196.11500 196.11500 196.03900 195.72300 195.34000 194.98900
 194.75100 194.79200 195.13300 195.59800 196.50600 198.13600 199.85800 201.56600
 204.17900 206.82300 209.89300 213.28400 216.82800 220.60500 224.38700 228.20900
 232.03200 235.82500 239.56000 243.25800 246.84500 250.20100 253.70900 257.46800
 261.53000 264.22100 266.60100 268.68100 270.32900 271.74100 272.83600 273.47400
 273.89800 274.00200 273.75700 273.28800 272.37100 271.10000 269.58900 267.77900
 265.81600 263.72100 261.39300 258.91600 256.29800 253.42300 250.33100 247.11400
 243.83700 240.52900 237.24900 233.99900 230.72800 227.51500 224.25400 220.95200
 217.62700 213.65600 210.12100 206.78900 204.01000 201.99491 199.07309 198.76551
 199.40006 200.48994 201.46112 202.31912 203.45100 204.96110 207.47502 210.85391
 213.70530 217.29629 220.99574 224.72316 228.28753 231.64854 234.68024 237.40893
 239.70644 241.60899 243.46854 245.67368 247.68154 249.52395 251.24767 252.78566
 254.12057 255.26479 256.23740 257.09036 257.82852 258.48160 259.07744 259.61723
 260.10271 260.53504 260.91270 261.39400
 399.33000 389.90700 379.81300 368.66800 357.52200 345.30100 333.07400 320.22700
 307.21600 293.84800 280.37600 267.29600 254.61000 242.98700 232.15100 221.97700
 212.67200 204.28600 197.66900 192.82100 189.48600 187.45200 186.81400 187.08900
 187.78100 189.05400 190.64800 192.54200 194.63000 196.75200 198.67100 200.15800
 201.53500 202.48700 202.97500 203.34000 203.53900 203.49700 203.38500 203.24700
 203.00500 202.78600 202.60300 202.43700 202.42600 202.88800 203.42000 203.95100
 204.89500 205.99200 207.30100 208.95800 210.73800 213.10000 215.56400 218.18000
 220.96600 223.91800 226.96100 230.09200 233.29300 236.55700 239.95500 243.53700
 246.84500 249.39000 251.54200 253.47400 255.19500 256.48400 257.43100 258.05900
 258.21200 258.04000 257.58200 256.64300 255.23900 253.50700 251.40800 249.05600
 246.57600 243.99400 241.38900 238.83000 236.34400 233.98600 231.96900 230.11800
 228.42300 226.89900 225.54800 224.29700 223.10500 221.96500 220.95800 220.11300
 219.49000 218.92000 218.32500 217.88100 217.42300 216.96366 216.35568 216.80261
 217.73415 218.28582 218.64258 219.10077 220.44626 222.53987 226.38451 230.35736
 233.59734 237.39164 241.29814 245.22796 248.98002 252.51130 255.78595 258.80109
 261.54781 264.05210 266.34239 268.04198 269.58951 271.01303 272.35754 273.55718
 274.59842 275.49092 276.28989 276.99307 277.60161 278.14001 278.63122 279.07623
 279.47646 279.83287 280.14422 280.54100
 381.81900 372.39900 361.20600 349.77600 337.62200 324.85300 311.81000 298.35300
 284.86000 271.32400 258.56100 246.30400 236.08700 226.79600 218.44800 211.29000
 205.52200 200.89400 197.38100 194.84800 193.01500 192.31500 192.25000 192.43100
 192.91200 193.53700 194.13600 194.71200 195.26200 195.83100 196.39300 196.97600
 197.60400 198.14900 198.58400 199.05700 199.69500 200.37800 201.05400 201.70800
 202.31300 202.85700 203.35500 203.86200 204.56900 205.29700 206.02600 206.98700
 208.19300 209.44100 210.96900 212.57600 214.46200 216.51300 218.63000 220.85300
 223.34100 225.96200 228.73900 231.69700 234.70600 237.70600 240.69200 243.65700
 246.73700 249.69900 252.52100 255.06300 257.29000 259.23300 260.63300 261.68000
 262.46100 262.79800 262.69100 262.22400 261.06900 259.52500 257.70700 255.50700
 253.00100 250.30200 247.39800 244.45200 241.65400 239.05400 236.73300 234.59000
 232.59500 230.72500 228.83400 226.82600 224.66600 222.38700 220.10400 217.71500
 215.45900 213.06600 210.54600 208.09300 205.35400 202.08130 196.05959 200.71215
 209.01611 216.90438 223.84126 229.78593 235.00632 240.20838 245.98943 250.68668
 254.32982 257.93487 261.55666 264.96801 268.15192 271.06452 273.76717 276.25691
 278.57680 280.74479 282.77456 284.60533 286.27232 287.81705 289.31715 290.65561
 291.81734 292.81312 293.70701 294.49387 295.17482 295.77730 296.32696 296.82492
 297.27278 297.67160 298.02000 298.46400
 366.78100 356.33992 345.77685 334.64777 323.05569 311.25461 299.12954 286.93746
 274.65438 262.55630 250.57023 239.87615 230.00307 221.11199 213.29892 206.30584
 200.14476 195.08769 191.67461 189.72153 188.76345 188.83238 189.67230 190.98522
 192.71514 194.81507 197.08299 199.44691 201.89684 204.38176 206.47468 208.32160
 209.95253 211.10245 211.33637 211.56929 211.51122 211.22114 210.85906 210.49398
 210.11591 209.83083 209.64375 209.51268 209.44560 209.78152 210.17244 210.56637
 211.36429 212.54721 213.80213 215.59006 217.52298 219.57090 221.67083 223.75875
 225.82367 227.91259 230.01452 232.12544 234.25936 236.43628 238.69721 241.07213
 243.69805 245.95397 247.96090 249.73082 251.15274 252.28067 253.10759 253.42851
 253.47043 253.24936 252.61428 251.56720 250.17812 248.34405 246.25797 244.09589
 241.89182 239.70074 237.52566 235.36958 233.23451 231.10643 229.13735 227.29927
 225.58720 224.06412 222.69904 221.47596 220.36289 219.32781 218.43673 217.58266
 216.82958 216.01450 215.11742 214.48635 213.94127 212.95676 210.64261 209.89398
 210.34607 210.50150 211.75525 215.22916 219.57593 224.35323 230.12457 235.12498
 238.97546 242.98137 247.23120 251.40202 255.11957 258.45468 261.21133 263.62753
 266.44632 269.16211 271.74457 274.31317 276.45181 278.12219 279.41403 280.94110
 282.82608 284.60980 286.15500 287.51608 288.69189 289.73282 290.68253 291.54190
 292.31204 292.99692 293.59293 294.34369
 366.78100 356.34002 345.77703 334.64805 323.05607 311.25508 299.13010 286.93812
 274.65513 262.55715 250.57117 239.87719 230.00420 221.11322 213.30024 206.30725
 200.14627 195.08929 191.67630 189.72332 188.76534 188.83435 189.67437 190.98739
 192.71740 194.81742 197.08544 199.44945 201.89947 204.38449 206.47751 208.32452
 209.95554 211.10556 211.33957 211.57259 211.51461 211.22462 210.86264 210.49766
 210.11967 209.83469 209.64771 209.51672 209.44974 209.78576 210.17677 210.57079
 211.36881 212.55182 213.80684 215.59486 217.52788 219.57589 221.67591 223.76393
 225.82894 227.91796 230.01998 232.13099 234.26501 236.44203 238.70304 241.07806
 243.70408 245.96009 247.96711 249.73713 251.15914 252.28716 253.11418 253.43520
 253.47721 253.25623 252.62125 251.57426 250.18528 248.35130 246.26531 244.10333
 241.89935 239.70836 237.53338 235.37740 233.24241 231.11443 229.14545 227.30746
 225.59548 224.07250 222.70752 221.48453 220.37155 219.33657 218.44558 217.59160
 216.83862 216.02363 215.12665 214.49567 213.95068 212.98723 210.72186 209.97459
 210.34889 210.56880 211.77931 215.16336 219.53453 224.30930 230.03539 235.02731
 238.87439 242.88022 247.13866 251.31755 255.04568 258.41873 261.20557 263.62305
 266.43372 269.13345 271.69058 274.23099 276.35849 278.03671 279.35504 280.89569
 282.76749 284.53662 286.07767 287.43762 288.61444 289.65616 290.60617 291.46552
 292.23605 292.92227 293.51950 294.27496
 366.78100 356.34033 345.77767 334.64900 323.05734 311.25667 299.13201 286.94034
 274.65768 262.56001 250.57435 239.88068 230.00802 221.11735 213.30469 206.31202
 200.15136 195.09469 191.68203 189.72936 188.77170 188.84103 189.68137 190.99470
 192.72504 194.82537 197.09371 199.45804 201.90838 204.39371 206.48705 208.33438
 209.96572 211.11605 211.35039 211.58372 211.52606 211.23639 210.87473 210.51006
 210.13240 209.84773 209.66107 209.53040 209.46374 209.80007 210.19141 210.58574
 211.38408 212.56741 213.82275 215.61108 217.54442 219.59275 221.69309 223.78142
 225.84676 227.93609 230.03843 232.14976 234.28410 236.46143 238.72277 241.09810
 243.72444 245.98077 247.98811 249.75844 251.18078 252.30911 253.13645 253.45778
 253.50012 253.27945 252.64479 251.59812 250.20946 248.37579 246.29013 244.12846
 241.92480 239.73413 237.55947 235.40380 233.26914 231.14147 229.17281 227.33514
 225.62348 224.10081 222.73615 221.51348 220.40082 219.36615 218.47549 217.62182
 216.86916 216.05449 215.15783 214.52716 213.98250 213.02771 210.78246 210.06699
 210.36218 210.62477 211.82021 215.11526 219.47699 224.24197 229.94670 234.93785
 238.78360 242.78699 247.05019 251.23325 254.96915 258.37659 261.19110 263.61246
 266.41748 269.10214 271.63474 274.14847 276.26620 277.95612 279.30148 280.85434
 282.71439 284.46075 286.00082 287.35950 288.53690 289.57791 290.52933 291.38977
 292.16061 292.84958 293.44675 294.20651
 366.78100 356.34060 345.77819 334.64979 323.05838 311.25798 299.13358 286.94217
 274.65977 262.56236 250.57696 239.88355 230.01115 221.12075 213.30834 206.31594
 200.15553 195.09913 191.68673 189.73432 188.77692 188.84651 189.68711 191.00071
 192.73130 194.83190 197.10049 199.46509 201.91569 204.40128 206.49488 208.34247
 209.97407 211.12466 211.35926 211.59286 211.53545 211.24605 210.88464 210.52024
 210.14284 209.85843 209.67203 209.54162 209.47522 209.81182 210.20341 210.59801
 211.39660 212.58020 213.83580 215.62439 217.55799 219.60658 221.70718 223.79577
 225.86137 227.95097 230.05356 232.16516 234.29975 236.47735 238.73895 241.11454
 243.74114 245.99773 248.00533 249.77593 251.19852 252.32712 253.15471 253.47631
 253.51891 253.29850 252.66410 251.61769 250.22929 248.39588 246.31048 244.14908
 241.94567 239.75527 237.58086 235.42546 233.29106 231.16365 229.19525 227.35784
 225.64644 224.12404 222.75963 221.53723 220.42482 219.39042 218.50002 217.64661
 216.89421 216.07980 215.18340 214.55299 214.00859 213.06403 210.84250 210.15402
 210.38893 210.67865 211.86542 215.07773 219.40598 224.16827 229.86316 234.85533
 238.69786 242.69617 246.96065 251.14545 254.88914 258.33090 261.17130 263.59680
 266.39795 269.06836 271.57803 274.06424 276.17514 277.87875 279.25095 280.81479
 282.66458 284.39038 285.92410 287.28308 288.46014 289.50455 290.45462 291.31552
 292.08804 292.77380 293.37518 294.13824
 366.78100 356.34080 345.77860 334.65039 323.05919 311.25899 299.13479 286.94359
 274.66138 262.56418 250.57898 239.88578 230.01358 221.12337 213.31117 206.31897
 200.15877 195.10256 191.69036 189.73816 188.78096 188.85076 189.69155 191.00535
 192.73615 194.83695 197.10575 199.47054 201.92134 204.40714 206.50094 208.34874
 209.98053 211.13133 211.36613 211.59993 211.54273 211.25352 210.89232 210.52812
 210.15092 209.86672 209.68051 209.55031 209.48411 209.82091 210.21270 210.60750
 211.40630 212.59010 213.84590 215.63469 217.56849 219.61729 221.71809 223.80689
 225.87268 227.96248 230.06528 232.17708 234.31188 236.48967 238.75147 241.12727
 243.75407 246.01087 248.01866 249.78946 251.21226 252.34106 253.16886 253.49065
 253.53345 253.31325 252.67905 251.63285 250.24464 248.41144 246.32624 244.16504
 241.96183 239.77163 237.59743 235.44223 233.30803 231.18082 229.21262 227.37542
 225.66422 224.14202 222.77781 221.55561 220.44341 219.40921 218.51901 217.66580
 216.91360 216.09940 215.20320 214.57300 214.02879 213.09619 210.90240 210.23508
 210.43013 210.73405 211.90759 215.04912 219.32875 224.09279 229.78444 234.77371
 238.61082 242.60443 246.86995 251.05666 254.80939 258.28290 261.14673 263.57550
 266.37350 269.02997 271.51703 273.97778 276.08487 277.80472 279.20425 280.77756
 282.61755 284.32419 285.85312 287.21094 288.38901 289.43188 290.38373 291.24310
 292.01883 292.70557 293.30627 294.07288
 366.78100 356.34102 345.77903 334.65105 323.06006 311.26008 299.13609 286.94511
 274.66312 262.56614 250.58115 239.88817 230.01618 221.12620 213.31421 206.32223
 200.16224 195.10626 191.69427 189.74229 188.78530 188.85532 189.69633 191.01035
 192.74136 194.84238 197.11139 199.47641 201.92742 204.41344 206.50745 208.35547
 209.98748 211.13850 211.37351 211.60753 211.55054 211.26156 210.90057 210.53659
 210.15960 209.87562 209.68963 209.55965 209.49366 209.83068 210.22269 210.61771
 211.41672 212.60074 213.85675 215.64577 217.57978 219.62880 221.72981 223.81883
 225.88484 227.97486 230.07787 232.18989 234.32490 236.50292 238.76493 241.14095
 243.76796 246.02498 248.03299 249.80401 251.22702 252.35604 253.18405 253.50607
 253.54908 253.32910 252.69511 251.64913 250.26115 248.42816 246.34318 244.18219
 241.97921 239.78922 237.61524 235.46025 233.32627 231.19928 229.23130 227.39431
 225.68333 224.16134 222.79736 221.57537 220.46339 219.42940 218.53942 217.68643
 216.93445 216.12046 215.22448 214.59449 214.05051 213.12787 210.95718 210.31622
 210.48013 210.79092 211.94704 215.02924 219.24911 224.01349 229.70908 234.69133
 238.52225 242.51218 246.78000 250.96956 254.73181 258.23404 261.11673 263.54712
 266.34274 268.98639 271.45291 273.89001 275.99680 277.73471 279.16043 280.74319
 282.57300 284.26273 285.78638 287.14441 288.32245 289.36584 290.31772 291.17874
 291.95230 292.64108 293.24231 294.01123
 366.78100 356.34131 345.77961 334.65192 323.06123 311.26153 299.13784 286.94715
 274.66546 262.56876 250.58407 239.89138 230.01968 221.12999 213.31830 206.32660
 200.16691 195.11122 191.69953 189.74783 188.79114 188.86145 189.70275 191.01706
 192.74837 194.84967 197.11898 199.48429 201.93560 204.42190 206.51621 208.36452
 209.99682 211.14813 211.38344 211.61774 211.56105 211.27236 210.91166 210.54797
 210.17128 209.88759 209.70189 209.57220 209.50651 209.84381 210.23612 210.63143
 211.43073 212.61504 213.87135 215.66066 217.59496 219.64427 221.74558 223.83488
 225.90119 227.99150 230.09480 232.20711 234.34242 236.52072 238.78303 241.15934
 243.78665 246.04395 248.05226 249.82357 251.24687 252.37618 253.20449 253.52679
 253.57010 253.35041 252.71672 251.67102 250.28333 248.45064 246.36594 244.20525
 242.00256 239.81286 237.63917 235.48448 233.35079 231.22409 229.25640 227.41971
 225.70901 224.18732 222.82363 221.60193 220.49024 219.45655 218.56685 217.71416
 216.96247 216.14878 215.25308 214.62339 214.07970 213.16203 211.00281 210.39990
 210.53711 210.85033 211.98541 215.01607 219.16772 223.93134 229.63646 234.60826
 238.43231 242.41974 246.69020 250.88333 254.65617 258.18414 261.08023 263.51141
 266.30640 268.93845 271.38589 273.80118 275.91153 277.66891 279.11853 280.70923
 282.53116 284.20648 285.72562 287.08456 288.26273 289.30573 290.25781 291.11871
 291.89197 292.58014 293.18115 293.94952
 366.78100 356.34163 345.78025 334.65288 323.06251 311.26314 299.13976 286.94939
 274.66802 262.57164 250.58727 239.89490 230.02353 221.13415 213.32278 206.33141
 200.17203 195.11666 191.70529 189.75391 188.79754 188.86817 189.70980 191.02442
 192.75605 194.85768 197.12730 199.49293 201.94456 204.43119 206.52581 208.37444
 210.00707 211.15869 211.39432 211.62895 211.57258 211.28420 210.92383 210.56046
 210.18408 209.90071 209.71534 209.58597 209.52059 209.85822 210.25085 210.64647
 211.44610 212.63073 213.88735 215.67698 217.61161 219.66124 221.76286 223.85249
 225.91912 228.00974 230.11337 232.22600 234.36163 236.54025 238.80288 241.17951
 243.80713 246.06476 248.07339 249.84502 251.26864 252.39827 253.22690 253.54952
 253.59315 253.37378 252.74041 251.69503 250.30766 248.47529 246.39091 244.23054
 242.02817 239.83879 237.66542 235.51105 233.37768 231.25130 229.28393 227.44756
 225.73718 224.21581 222.85244 221.63107 220.51969 219.48632 218.59695 217.74457
 216.99320 216.17983 215.28446 214.65508 214.11171 213.19670 211.04356 210.48247
 210.60434 210.91284 212.02213 215.01027 219.08401 223.84399 229.56277 234.52335
 238.34157 242.32819 246.60106 250.79747 254.58238 258.13257 261.03851 263.46857
 266.26541 268.88696 271.31500 273.71085 275.82748 277.60779 279.07864 280.67642
 282.49097 284.15735 285.67261 287.02963 288.20908 289.25027 290.20331 291.06256
 291.83539 292.52365 293.12329 293.88968
 366.78100 356.34225 345.78150 334.65474 323.06499 311.26624 299.14349 286.95373
 274.67298 262.57723 250.59348 239.90172 230.03097 221.14222 213.33147 206.34072
 200.18196 195.12721 191.71646 189.76571 188.80995 188.88120 189.72345 191.03870
 192.77094 194.87319 197.14344 199.50969 201.96193 204.44918 206.54443 208.39368
 210.02693 211.17917 211.41542 211.65067 211.59492 211.30716 210.94741 210.58466
 210.20891 209.92615 209.74140 209.61265 209.54790 209.88615 210.27939 210.67564
 211.47589 212.66114 213.91838 215.70863 217.64388 219.69413 221.79637 223.88662
 225.95387 228.04512 230.14936 232.26261 234.39886 236.57811 238.84136 241.21860
 243.84685 246.10510 248.11435 249.88659 251.31084 252.44109 253.27034 253.59358
 253.63783 253.41908 252.78633 251.74158 250.35482 248.52307 246.43932 244.27957
 242.07781 239.88906 237.71631 235.56256 233.42980 231.30405 229.33730 227.50155
 225.79180 224.27104 222.90829 221.68754 220.57679 219.54403 218.65528 217.80353
 217.05278 216.24002 215.34527 214.71652 214.17377 213.24571 211.06194 210.57562
 210.68321 210.97166 212.06761 215.00407 218.99644 223.75133 229.49057 234.43771
 238.25110 242.23734 246.51137 250.71065 254.50848 258.08020 260.99384 263.42148
 266.22235 268.83340 271.24109 273.62000 275.74500 277.54929 279.03821 280.64285
 282.45120 284.11038 285.62415 286.98257 288.16049 289.20325 290.15338 291.01389
 291.78445 292.47244 293.07156 293.83627
 366.78100 356.34270 345.78240 334.65610 323.06680 311.26850 299.14620 286.95690
 274.67659 262.58129 250.59799 239.90669 230.03639 221.14809 213.33779 206.34749
 200.18919 195.13489 191.72459 189.77429 188.81899 188.89069 189.73339 191.04908
 192.78178 194.88448 197.15518 199.52188 201.97458 204.46228 206.55798 208.40768
 210.04138 211.19408 211.43078 211.66648 211.61118 211.32388 210.96457 210.60227
 210.22697 209.94467 209.76037 209.63207 209.56777 209.90647 210.30017 210.69687
 211.49757 212.68327 213.94097 215.73167 217.66737 219.71806 221.82076 223.91146
 225.97916 228.07086 230.17556 232.28926 234.42596 236.60566 238.86936 241.24706
 243.87576 246.13446 248.14416 249.91686 251.34155 252.47225 253.30195 253.62565
 253.67035 253.45205 252.81975 251.77545 250.38915 248.55785 246.47455 244.31525
 242.11395 239.92565 237.75335 235.60004 233.46774 231.34244 229.37614 227.54084
 225.83154 224.31124 222.94894 221.72864 220.61834 219.58604 218.69774 217.84644
 217.09614 216.28384 215.38953 214.76123 214.21893 213.28595 211.09030 210.64738
 210.78354 211.05302 212.08871 215.00166 218.92476 223.64935 229.40840 234.34456
 238.15718 242.14735 246.42337 250.62631 254.43938 258.03284 260.95343 263.37424
 266.17755 268.77618 271.16174 273.52264 275.65958 277.48615 278.99237 280.60556
 282.41199 284.06699 285.58151 286.93912 288.11679 289.15936 290.10934 290.96841
 291.74292 292.43265 293.02991 293.78641
 366.78100 356.34394 345.78488 334.65982 323.07176 311.27470 299.15364 286.96558
 274.68652 262.59246 250.61040 239.92035 230.05129 221.16423 213.35517 206.36611
 200.20905 195.15599 191.74693 189.79787 188.84381 188.91675 189.76069 191.07763
 192.81157 194.91551 197.18745 199.55539 202.00933 204.49827 206.59521 208.44615
 210.08110 211.23504 211.47298 211.70992 211.65586 211.36980 211.01174 210.65068
 210.27662 209.99556 209.81250 209.68544 209.62238 209.96232 210.35726 210.75520
 211.55714 212.74408 214.00302 215.79496 217.73191 219.78385 221.88779 223.97973
 226.04867 228.14161 230.24755 232.36249 234.50043 236.68137 238.94631 241.32525
 243.95519 246.21513 248.22607 250.00001 251.42595 252.55789 253.38883 253.71377
 253.75971 253.54266 252.91160 251.86854 250.48348 248.65342 246.57136 244.41330
 242.21324 240.02618 237.85512 235.70306 233.57200 231.44794 229.48288 227.64882
 225.94076 224.42170 223.06064 221.84158 220.73252 219.70146 218.81441 217.96435
 217.21529 216.40423 215.51117 214.88411 214.34305 213.36440 211.06174 210.75648
 210.90092 211.11584 212.15411 214.97548 218.79875 223.53340 229.33171 234.25819
 238.07172 242.06577 246.34317 250.55043 254.37894 257.99237 260.91687 263.32574
 266.12955 268.71326 271.07562 273.41937 275.57138 277.41962 278.94000 280.56454
 282.37143 284.02261 285.54471 286.90155 288.07855 289.12024 290.07178 290.93231
 291.70612 292.39627 292.99380 293.74173
 366.78100 356.34598 345.78896 334.66593 323.07991 311.28489 299.16587 286.97984
 274.70282 262.61080 250.63078 239.94276 230.07573 221.19071 213.38369 206.39667
 200.24165 195.19062 191.78360 189.83658 188.88456 188.95953 189.80551 191.12449
 192.86047 194.96645 197.24042 199.61040 202.06638 204.55736 206.65634 208.50931
 210.14629 211.30227 211.54225 211.78122 211.72920 211.44518 211.08916 210.73014
 210.35811 210.07909 209.89807 209.77305 209.71202 210.05400 210.45098 210.85096
 211.65494 212.84391 214.10489 215.89887 217.83785 219.89183 221.99780 224.09178
 226.16276 228.25774 230.36571 232.48269 234.62267 236.80565 239.07263 241.45360
 244.08558 246.34756 248.36054 250.13651 251.56449 252.69847 253.53145 253.85843
 253.90640 253.69138 253.06236 252.02134 250.63832 248.81029 246.73027 244.57425
 242.37623 240.19120 238.02218 235.87216 233.74314 231.62112 229.65809 227.82607
 226.12005 224.60303 223.24401 222.02698 220.91996 219.89094 219.00592 218.15789
 217.41087 216.60185 215.71083 215.08581 214.54678 213.48610 210.99049 210.81262
 211.16595 211.20201 212.03806 214.92569 218.75545 223.44022 229.25960 234.17499
 237.99019 241.99030 246.26828 250.47920 254.32141 257.95044 260.87347 263.26868
 266.07413 268.64343 270.98413 273.31427 275.48483 277.35690 278.88959 280.52457
 282.33099 283.98029 285.50928 286.86624 288.04373 289.08508 290.03485 290.89728
 291.66809 292.35965 292.95621 293.69626
 366.78100 356.34671 345.79042 334.66813 323.08284 311.28855 299.17025 286.98496
 274.70867 262.61738 250.63809 239.95080 230.08451 221.20022 213.39393 206.40764
 200.25334 195.20305 191.79676 189.85047 188.89918 188.97489 189.82160 191.14131
 192.87802 194.98473 197.25943 199.63014 202.08685 204.57856 206.67827 208.53198
 210.16969 211.32640 211.56711 211.80682 211.75553 211.47223 211.11694 210.75865
 210.38736 210.10907 209.92878 209.80449 209.74420 210.08691 210.48462 210.88532
 211.69003 212.87974 214.14145 215.93616 217.87587 219.93058 222.03729 224.13200
 226.20371 228.29942 230.40812 232.52583 234.66654 236.85025 239.11796 241.49967
 244.13238 246.39509 248.40880 250.18551 251.61421 252.74892 253.58263 253.91034
 253.95905 253.74476 253.11647 252.07618 250.69389 248.86660 246.78730 244.63201
 242.43472 240.25043 238.08214 235.93285 233.80456 231.68327 229.72098 227.88969
 226.18440 224.66810 223.30981 222.09352 220.98723 219.95894 219.07465 218.22736
 217.48107 216.67278 215.78249 215.15819 214.61990 213.54311 211.00844 210.80687
 211.34396 211.36763 212.07245 214.86024 218.62088 223.32330 229.17937 234.09215
 237.91496 241.92313 246.19910 250.41122 254.26389 257.90302 260.82074 263.20334
 266.01346 268.57004 270.89182 273.21210 275.40408 277.30112 278.84406 280.48615
 282.29236 283.93878 285.47699 286.83453 288.01089 289.05121 290.00037 290.86026
 291.63367 292.32120 292.91788 293.64828
 366.78100 356.34681 345.79062 334.66843 323.08324 311.28905 299.17086 286.98567
 274.70948 262.61829 250.63911 239.95192 230.08573 221.20154 213.39535 206.40916
 200.25497 195.20478 191.79859 189.85240 188.90121 188.97702 189.82383 191.14364
 192.88045 194.98726 197.26207 199.63288 202.08969 204.58150 206.68132 208.53513
 210.17294 211.32975 211.57056 211.81037 211.75918 211.47599 211.12080 210.76261
 210.39142 210.11323 209.93304 209.80885 209.74866 210.09147 210.48928 210.89009
 211.69490 212.88471 214.14653 215.94134 217.88115 219.93596 222.04277 224.13758
 226.20939 228.30520 230.41401 232.53182 234.67263 236.85644 239.12425 241.50606
 244.13887 246.40168 248.41549 250.19230 251.62111 252.75592 253.58974 253.91755
 253.96636 253.75217 253.12398 252.08379 250.70160 248.87441 246.79522 244.64003
 242.44284 240.25865 238.09046 235.94127 233.81308 231.69189 229.72970 227.89851
 226.19332 224.67714 223.31895 222.10276 220.99657 219.96838 219.08419 218.23700
 217.49081 216.68262 215.79243 215.16824 214.63005 213.56839 211.06802 210.79666
 211.38713 211.48709 212.21870 214.83139 218.48772 223.23639 229.12152 234.03862
 237.86066 241.86935 246.13463 250.34280 254.20401 257.84937 260.76019 263.13406
 265.95032 268.49603 270.79965 273.11234 275.32739 277.24634 278.79639 280.44629
 282.25037 283.89890 285.44321 286.80121 287.97778 289.01865 289.96710 290.82657
 291.59988 292.28702 292.88348 293.60623
 366.78100 356.34735 345.79171 334.67006 323.08542 311.29177 299.17413 286.98948
 274.71383 262.62319 250.64454 239.95790 230.09225 221.20860 213.40296 206.41731
 200.26367 195.21402 191.80838 189.86273 188.91208 188.98844 189.83579 191.15615
 192.89350 195.00085 197.27621 199.64756 202.10492 204.59727 206.69763 208.55198
 210.19033 211.34769 211.58904 211.82940 211.77875 211.49610 211.14146 210.78381
 210.41317 210.13552 209.95588 209.83223 209.77258 210.11594 210.51429 210.91565
 211.72100 212.91135 214.17371 215.96906 217.90942 219.96477 222.07213 224.16748
 226.23983 228.33619 230.44554 232.56390 234.70525 236.88960 239.15796 241.54031
 244.17367 246.43702 248.45138 250.22873 251.65808 252.79344 253.62779 253.95615
 254.00550 253.79185 253.16421 252.12456 250.74292 248.91627 246.83763 244.68298
 242.48633 240.30269 238.13504 235.98640 233.85875 231.73811 229.77646 227.94581
 226.24117 224.72552 223.36788 222.15223 221.04658 220.01894 219.13529 218.28865
 217.54300 216.73536 215.84571 215.22206 214.68442 213.61523 211.09619 210.80762
 211.44533 211.55478 212.32872 214.83679 218.40295 223.17050 229.07828 233.99358
 237.80670 241.80956 246.06346 250.26750 254.14009 257.79333 260.70016 263.06717
 265.88861 268.42172 270.70786 273.01331 275.25125 277.19156 278.74731 280.40466
 282.21094 283.86453 285.41034 286.76990 287.94400 288.98199 289.92920 290.78888
 291.56387 292.25174 292.84042 293.53616
 366.78100 356.34812 345.79324 334.67236 323.08847 311.29559 299.17871 286.99483
 274.71995 262.63007 250.65218 239.96630 230.10142 221.21854 213.41366 206.42878
 200.27589 195.22701 191.82213 189.87725 188.92737 189.00449 189.85260 191.17372
 192.91184 195.01996 197.29608 199.66820 202.12631 204.61943 206.72055 208.57567
 210.21479 211.37291 211.61502 211.85614 211.80626 211.52438 211.17050 210.81362
 210.44373 210.16685 209.98797 209.86509 209.80621 210.15033 210.54944 210.95156
 211.75768 212.94880 214.21192 216.00804 217.94915 220.00527 222.11339 224.20951
 226.28263 228.37975 230.48986 232.60898 234.75110 236.93622 239.20534 241.58846
 244.22257 246.48669 248.50181 250.27993 251.71005 252.84617 253.68128 254.01040
 254.06052 253.84764 253.22076 252.18188 250.80099 248.97511 246.89723 244.74335
 242.54747 240.36459 238.19770 236.04982 233.92294 231.80306 229.84218 228.01230
 226.30841 224.79353 223.43665 222.22177 221.11689 220.09001 219.20712 218.36124
 217.61636 216.80948 215.92060 215.29772 214.76083 213.67342 211.11049 210.81677
 211.52249 211.62749 212.40822 214.84621 218.34859 223.10832 229.03563 233.93779
 237.73967 241.73958 245.98695 250.19090 254.07907 257.74155 260.64709 263.00623
 265.82880 268.34750 270.61395 272.91476 275.17435 277.13303 278.69492 280.36240
 282.16998 283.82956 285.37802 286.73599 287.90802 288.94208 289.88992 290.74716
 291.52252 292.20856 292.78601 293.45212
 366.78100 356.34877 345.79453 334.67430 323.09107 311.29884 299.18260 286.99937
 274.72514 262.63591 250.65867 239.97344 230.10921 221.22697 213.42274 206.43851
 200.28628 195.23804 191.83381 189.88958 188.94035 189.01811 189.86688 191.18865
 192.92742 195.03618 197.31295 199.68572 202.14448 204.63825 206.74002 208.59579
 210.23555 211.39432 211.63709 211.87886 211.82962 211.54839 211.19516 210.83892
 210.46969 210.19346 210.01523 209.89299 209.83476 210.17953 210.57930 210.98206
 211.78883 212.98060 214.24436 216.04113 217.98290 220.03967 222.14843 224.24520
 226.31897 228.41674 230.52750 232.64727 234.79004 236.97580 239.24557 241.62934
 244.26411 246.52887 248.54464 250.32341 251.75418 252.89094 253.72671 254.05648
 254.10725 253.89501 253.26878 252.23055 250.85031 249.02508 246.94785 244.79462
 242.59938 240.41715 238.25092 236.10369 233.97745 231.85822 229.89799 228.06875
 226.36552 224.85129 223.49506 222.28082 221.17659 220.15036 219.26813 218.42289
 217.67866 216.87243 215.98419 215.36196 214.82573 213.72557 211.13167 210.81888
 211.58855 211.72168 212.48363 214.85764 218.30885 223.04286 228.98912 233.87306
 237.66670 241.66806 245.91261 250.11913 254.02338 257.69519 260.59991 262.94806
 265.76889 268.26950 270.51764 272.81650 275.09793 277.07169 278.64127 280.31931
 282.12915 283.79218 285.34119 286.69968 287.87088 288.90192 289.84683 290.70450
 291.48129 292.16821 292.75467 293.40057
 366.78100 356.34928 345.79555 334.67583 323.09310 311.30138 299.18565 287.00293
 274.72921 262.64048 250.66376 239.97903 230.11531 221.23358 213.42986 206.44614
 200.29441 195.24669 191.84296 189.89924 188.95051 189.02879 189.87807 191.20034
 192.93962 195.04889 197.32617 199.69944 202.15872 204.65300 206.75527 208.61155
 210.25182 211.41110 211.65437 211.89665 211.84793 211.56720 211.21448 210.85875
 210.49003 210.21430 210.03658 209.91486 209.85713 210.20241 210.60268 211.00596
 211.81323 213.00551 214.26979 216.06706 218.00934 220.06661 222.17589 224.27316
 226.34744 228.44572 230.55699 232.67727 234.82054 237.00682 239.27709 241.66137
 244.29665 246.56192 248.57820 250.35747 251.78875 252.92602 253.76230 254.09258
 254.14385 253.93213 253.30640 252.26868 250.88895 249.06423 246.98751 244.83478
 242.64006 240.45833 238.29261 236.14588 234.02016 231.90144 229.94171 228.11299
 226.41026 224.89654 223.54081 222.32709 221.22337 220.19764 219.31592 218.47119
 217.72747 216.92174 216.03402 215.41230 214.87657 213.77002 211.16005 210.81903
 211.64232 211.82127 212.55786 214.87581 218.27176 222.97821 228.93867 233.80791
 237.59422 241.60019 245.84262 250.05290 253.97351 257.65265 260.55164 262.89392
 265.70541 268.19083 270.42413 272.72131 275.02252 277.00897 278.58456 280.27426
 282.08835 283.75662 285.30594 286.66537 287.82950 288.85590 289.79926 290.65680
 291.43414 292.12274 292.65646 293.23077
 366.78100 356.34974 345.79649 334.67723 323.09498 311.30372 299.18847 287.00621
 274.73296 262.64470 250.66845 239.98419 230.12094 221.23968 213.43642 206.45317
 200.30191 195.25466 191.85140 189.90815 188.95989 189.03864 189.88838 191.21113
 192.95087 195.06062 197.33836 199.71210 202.17185 204.66659 206.76934 208.62608
 210.26683 211.42657 211.67032 211.91306 211.86481 211.58455 211.23230 210.87704
 210.50878 210.23353 210.05627 209.93502 209.87776 210.22351 210.62425 211.02800
 211.83574 213.02849 214.29323 216.09098 218.03372 220.09146 222.20121 224.29895
 226.37370 228.47244 230.58419 232.70493 234.84868 237.03542 239.30617 241.69091
 244.32666 246.59240 248.60914 250.38889 251.82063 252.95838 253.79512 254.12587
 254.17761 253.96636 253.34110 252.30385 250.92459 249.10034 247.02408 244.87182
 242.67757 240.49631 238.33106 236.18480 234.05955 231.94129 229.98204 228.15378
 226.45153 224.93827 223.58302 222.36976 221.26650 220.24125 219.35999 218.51574
 217.77248 216.96723 216.07997 215.45872 214.92346 213.81239 211.19095 210.81783
 211.68991 211.91817 212.64270 214.90022 218.22339 222.91454 228.88486 233.74246
 237.52281 241.53410 245.77455 249.98936 253.92693 257.61188 260.51556 262.83752
 265.64722 268.10913 270.32709 272.62701 274.94324 276.94104 278.53116 280.23535
 282.04819 283.71912 285.26840 286.62555 287.78143 288.80038 289.74255 290.59991
 291.38037 292.06653 292.56259 293.08115
 366.78100 356.35042 345.79784 334.67926 323.09767 311.30709 299.19251 287.01093
 274.73835 262.65077 250.67518 239.99160 230.12902 221.24844 213.44586 206.46328
 200.31270 195.26611 191.86353 189.92095 188.97337 189.05279 189.90321 191.22662
 192.96704 195.07746 197.35588 199.73030 202.19072 204.68613 206.78955 208.64697
 210.28839 211.44881 211.69323 211.93665 211.88906 211.60948 211.25790 210.90332
 210.53574 210.26116 210.08457 209.96399 209.90741 210.25383 210.65525 211.05967
 211.86809 213.06150 214.32692 216.12534 218.06876 220.12718 222.23760 224.33601
 226.41143 228.51085 230.62327 232.74469 234.88911 237.07653 239.34794 241.73336
 244.36978 246.63620 248.65362 250.43404 251.86645 253.00487 253.84229 254.17371
 254.22613 254.01555 253.39097 252.35438 250.97580 249.15222 247.07664 244.92506
 242.73148 240.55089 238.38631 236.24073 234.11615 231.99857 230.03999 228.21240
 226.51082 224.99824 223.64366 222.43108 221.32850 220.30392 219.42333 218.57975
 217.83717 217.03259 216.14601 215.52543 214.99084 213.86565 211.20984 210.81441
 211.74078 212.01697 212.73317 214.92551 218.17938 222.85915 228.82947 233.67519
 237.44978 241.46449 245.70464 249.92455 253.87764 257.56668 260.46671 262.79590
 265.58282 268.03137 270.23914 272.54294 274.87534 276.88126 278.47830 280.19504
 282.00909 283.68243 285.23026 286.58466 287.73221 288.74753 289.68875 290.54736
 291.32922 292.01666 292.48416 292.95581
 366.78100 356.35118 345.79936 334.68153 323.10071 311.31089 299.19707 287.01624
 274.74442 262.65760 250.68278 239.99995 230.13813 221.25831 213.45649 206.47466
 200.32484 195.27902 191.87720 189.93537 188.98855 189.06873 189.91991 191.24408
 192.98526 195.09644 197.37562 199.75079 202.21197 204.70815 206.81233 208.67050
 210.31268 211.47386 211.71904 211.96322 211.91639 211.63757 211.28675 210.93293
 210.56610 210.29228 210.11646 209.99664 209.94081 210.28799 210.69017 211.09535
 211.90452 213.09870 214.36488 216.16406 218.10823 220.16741 222.27859 224.37777
 226.45394 228.55412 230.66730 232.78948 234.93465 237.12283 239.39501 241.78119
 244.41836 246.68554 248.70372 250.48490 251.91807 253.05725 253.89543 254.22761
 254.28079 254.07096 253.44714 252.41132 251.03350 249.21067 247.13585 244.98503
 242.79221 240.61238 238.44856 236.30374 234.17992 232.06309 230.10527 228.27845
 226.57763 225.06580 223.71198 222.50016 221.39834 220.37451 219.49469 218.65187
 217.91005 217.10622 216.22040 215.60058 215.06676 213.92439 211.22725 210.80658
 211.78017 212.10966 212.82654 214.95340 218.13780 222.81224 228.78011 233.61288
 237.38130 241.40051 245.64182 249.86987 253.83975 257.53186 260.42923 262.74747
 265.52823 267.96262 270.16330 272.46671 274.80707 276.81531 278.42404 280.15384
 281.96835 283.64224 285.18671 286.53467 287.67535 288.68134 289.62149 290.47989
 291.26468 291.94382 292.37671 292.81754
 366.78100 356.35181 345.80062 334.68343 323.10324 311.31405 299.20086 287.02067
 274.74947 262.66328 250.68909 240.00690 230.14571 221.26652 213.46533 206.48414
 200.33495 195.28976 191.88857 189.94738 189.00119 189.08200 189.93380 191.25861
 193.00042 195.11223 197.39204 199.76785 202.22966 204.72647 206.83128 208.69009
 210.33290 211.49471 211.74052 211.98533 211.93913 211.66094 211.31075 210.95756
 210.59137 210.31818 210.14299 210.02380 209.96861 210.31642 210.71923 211.12504
 211.93485 213.12966 214.39646 216.19627 218.14108 220.20089 222.31270 224.41251
 226.48932 228.59013 230.70394 232.82675 234.97256 237.16137 239.43418 241.82099
 244.45879 246.72660 248.74541 250.52722 251.96103 253.10084 253.93965 254.27246
 254.32627 254.11708 253.49389 252.45870 251.08151 249.25932 247.18512 245.03493
 242.84274 240.66355 238.50036 236.35617 234.23298 232.11679 230.15960 228.33341
 226.63322 225.12203 223.76884 222.55765 221.45645 220.43326 219.55407 218.71188
 217.97069 217.16750 216.28231 215.66312 215.12993 213.97618 211.25134 210.80853
 211.80095 212.18358 212.91905 214.98367 218.11179 222.77090 228.73296 233.55479
 237.32079 241.34586 245.59097 249.83006 253.81868 257.51166 260.41663 262.70889
 265.48187 267.89536 270.09293 272.39957 274.73779 276.74902 278.38492 280.12460
 281.93137 283.59961 285.13718 286.47614 287.61279 288.61557 289.55313 290.41443
 291.20145 291.86801 292.25940 292.70837
 366.78100 356.35202 345.80103 334.68405 323.10406 311.31508 299.20209 287.02211
 274.75113 262.66514 250.69116 240.00917 230.14819 221.26920 213.46822 206.48724
 200.33825 195.29327 191.89228 189.95130 189.00531 189.08633 189.93835 191.26336
 193.00538 195.11739 197.39741 199.77342 202.23544 204.73246 206.83747 208.69649
 210.33950 211.50152 211.74754 211.99255 211.94657 211.66858 211.31860 210.96561
 210.59963 210.32665 210.15166 210.03268 209.97769 210.32571 210.72872 211.13474
 211.94476 213.13977 214.40679 216.20680 218.15182 220.21183 222.32385 224.42387
 226.50088 228.60190 230.71591 232.83893 234.98494 237.17396 239.44698 241.83399
 244.47201 246.74002 248.75904 250.54105 251.97507 253.11509 253.95410 254.28712
 254.34113 254.13215 253.50916 252.47418 251.09720 249.27521 247.20123 245.05124
 242.85926 240.68027 238.51729 236.37331 234.25032 232.13434 230.17735 228.35137
 226.65138 225.14040 223.78742 222.57643 221.47545 220.45246 219.57348 218.73150
 217.99051 217.18753 216.30254 215.68356 215.15057 214.00383 211.29485 210.83122
 211.82501 212.24516 212.99149 214.98746 218.07721 222.72122 228.68449 233.49696
 237.25586 241.28880 245.53920 249.79272 253.80190 257.49615 260.41751 262.68741
 265.44211 267.82928 270.02130 272.33401 274.67670 276.70325 278.36627 280.10800
 281.89648 283.55200 285.08142 286.41467 287.54715 288.54416 289.47836 290.34363
 291.14337 291.77914 292.14969 292.62601
 366.78100 356.35182 345.80064 334.68346 323.10328 311.31411 299.20093 287.02075
 274.74957 262.66339 250.68921 240.00703 230.14585 221.26667 213.46549 206.48432
 200.33514 195.28996 191.88878 189.94760 189.00142 189.08224 189.93406 191.25888
 193.00070 195.11253 197.39235 199.76817 202.22999 204.72681 206.83163 208.69045
 210.33327 211.49509 211.74092 211.98574 211.93956 211.66138 211.31120 210.95802
 210.59184 210.31866 210.14348 210.02430 209.96913 210.31695 210.71977 211.12559
 211.93541 213.13023 214.39705 216.19687 218.14169 220.20151 222.31334 224.41316
 226.48998 228.59080 230.70462 232.82744 234.97326 237.16208 239.43490 241.82173
 244.45955 246.72737 248.74619 250.52801 251.96183 253.10165 253.94047 254.27329
 254.32711 254.11794 253.49476 252.45958 251.08240 249.26022 247.18604 245.03586
 242.84368 240.66450 238.50132 236.35715 234.23397 232.11779 230.16061 228.33443
 226.63425 225.12307 223.76989 222.55871 221.45754 220.43436 219.55518 218.71300
 217.97182 217.16864 216.28346 215.66428 215.13110 214.00734 211.35231 210.86940
 211.86754 212.30150 213.02094 214.97639 218.03850 222.67072 228.62685 233.42715
 237.18333 241.22668 245.48549 249.75496 253.78627 257.48334 260.40393 262.68356
 265.39816 267.76166 269.95215 272.26950 274.62427 276.66919 278.35077 280.09256
 281.86279 283.50644 285.02811 286.35675 287.48090 288.45013 289.37000 290.24554
 291.06348 291.68365 292.04153 292.54532
 366.78100 356.35160 345.80019 334.68279 323.10238 311.31298 299.19957 287.01917
 274.74777 262.66136 250.68696 240.00455 230.14315 221.26375 213.46234 206.48094
 200.33153 195.28613 191.88472 189.94332 188.99692 189.07751 189.92911 191.25370
 192.99530 195.10690 197.38649 199.76209 202.22368 204.72028 206.82487 208.68347
 210.32607 211.48766 211.73326 211.97785 211.93145 211.65305 211.30264 210.94924
 210.58283 210.30943 210.13402 210.01462 209.95922 210.30681 210.70941 211.11500
 211.92460 213.11919 214.38579 216.18539 218.12998 220.18958 222.30117 224.40077
 226.47737 228.57796 230.69156 232.81415 234.95975 237.14834 239.42094 241.80754
 244.44513 246.71273 248.73132 250.51292 251.94652 253.08611 253.92471 254.25730
 254.31090 254.10149 253.47809 252.44269 251.06528 249.24288 247.16847 245.01807
 242.82567 240.64626 238.48286 236.33845 234.21505 232.09864 230.14124 228.31484
 226.61443 225.10303 223.74962 222.53822 221.43682 220.41341 219.53401 218.69160
 217.95020 217.14679 216.26139 215.64199 215.10858 214.00644 211.40253 210.92830
 211.89403 212.34492 213.07909 214.96967 217.98407 222.60907 228.57434 233.36394
 237.11459 241.16510 245.43233 249.71777 253.76746 257.46094 260.38721 262.66782
 265.33594 267.68823 269.87729 272.20233 274.56815 276.61649 278.31229 280.06570
 281.82996 283.46542 284.97754 286.29526 287.40033 288.38852 289.34061 290.20984
 290.98370 291.56216 291.91351 292.45432
 366.78100 356.35140 345.79981 334.68221 323.10161 311.31202 299.19842 287.01783
 274.74623 262.65963 250.68504 240.00244 230.14084 221.26125 213.45965 206.47806
 200.32846 195.28286 191.88127 189.93967 188.99307 189.07348 189.92488 191.24929
 192.99069 195.10209 197.38150 199.75690 202.21830 204.71471 206.81911 208.67751
 210.31992 211.48132 211.72673 211.97113 211.92453 211.64594 211.29534 210.94174
 210.57515 210.30155 210.12596 210.00636 209.95076 210.29817 210.70057 211.10597
 211.91538 213.10978 214.37619 216.17559 218.11999 220.17940 222.29080 224.39020
 226.46661 228.56701 230.68042 232.80282 234.94822 237.13663 239.40903 241.79543
 244.43284 246.70024 248.71864 250.50005 251.93345 253.07286 253.91126 254.24366
 254.29707 254.08747 253.46387 252.42828 251.05068 249.22809 247.15349 245.00289
 242.81030 240.63070 238.46710 236.32251 234.19891 232.08232 230.12472 228.29812
 226.59753 225.08593 223.73233 222.52074 221.41914 220.39554 219.51595 218.67335
 217.93176 217.12816 216.24256 215.62297 215.08937 214.00691 211.44946 210.96060
 211.98880 212.38821 213.03412 214.92169 217.97438 222.60791 228.54549 233.32549
 237.06439 241.11594 245.38762 249.68582 253.75235 257.43643 260.33401 262.65195
 265.27808 267.61313 269.80652 272.13354 274.49988 276.54880 278.26733 280.03561
 281.78775 283.41913 284.91391 286.21002 287.30859 288.32608 289.28049 290.14072
 290.87918 291.40988 291.79272 292.37936
 366.78100 356.35046 345.79791 334.67937 323.09783 311.30729 299.19274 287.01120
 274.73866 262.65112 250.67557 239.99203 230.12949 221.24895 213.44640 206.46386
 200.31332 195.26678 191.86423 189.92169 188.97415 189.05360 189.90406 191.22752
 192.96798 195.07843 197.35689 199.73135 202.19181 204.68726 206.79072 208.64818
 210.28964 211.45009 211.69455 211.93801 211.89046 211.61092 211.25938 210.90484
 210.53729 210.26275 210.08621 209.96567 209.90912 210.25558 210.65704 211.06150
 211.86995 213.06341 214.32887 216.12733 218.07078 220.12924 222.23970 224.33815
 226.41361 228.51307 230.62553 232.74698 234.89144 237.07890 239.35036 241.73581
 244.37227 246.63873 248.65619 250.43664 251.86910 253.00756 253.84502 254.17647
 254.22893 254.01839 253.39384 252.35730 250.97876 249.15522 247.07967 244.92813
 242.73459 240.55405 238.38950 236.24396 234.11942 232.00188 230.04333 228.21579
 226.51425 225.00170 223.64716 222.43462 221.33208 220.30753 219.42699 218.58345
 217.84091 217.03636 216.14982 215.52928 214.99474 213.96811 211.54259 211.00052
 212.00275 212.39325 213.06227 215.00591 217.98143 222.50668 228.50214 233.28307
 237.00865 241.06552 245.34886 249.66972 253.75797 257.42126 260.35806 262.63470
 265.21848 267.53424 269.73682 272.08508 274.44556 276.49826 278.24304 280.01215
 281.76526 283.37851 284.85687 286.13913 287.23599 288.25943 289.20914 290.06430
 290.75281 291.25098 291.64941 292.30615
 366.78100 356.34912 345.79525 334.67537 323.09249 311.30061 299.18474 287.00186
 274.72798 262.63911 250.66223 239.97735 230.11348 221.23160 213.42772 206.44384
 200.29197 195.24409 191.84021 189.89634 188.94746 189.02558 189.87471 191.19683
 192.93595 195.04507 197.32220 199.69532 202.15444 204.64857 206.75069 208.60681
 210.24694 211.40606 211.64918 211.89130 211.84243 211.56155 211.20867 210.85280
 210.48392 210.20804 210.03016 209.90829 209.85041 210.19553 210.59566 210.99878
 211.80590 212.99803 214.26215 216.05927 218.00139 220.05852 222.16764 224.26476
 226.33889 228.43701 230.54813 232.66826 234.81138 236.99750 239.26762 241.65175
 244.28687 246.55199 248.56812 250.34724 251.77836 252.91549 253.75161 254.08173
 254.13285 253.92098 253.29510 252.25722 250.87735 249.05247 246.97559 244.82272
 242.62784 240.44596 238.28008 236.13321 234.00733 231.88845 229.92858 228.09970
 226.39682 224.88294 223.52707 222.31319 221.20931 220.18344 219.30156 218.45668
 217.71281 216.90693 216.01905 215.39717 214.86130 213.90535 211.64743 211.10306
 212.04099 212.38264 213.05634 215.02121 217.89108 222.38716 228.44667 233.22159
 236.92766 240.99112 245.28860 249.62607 253.74109 257.44052 260.22958 262.75726
 265.29913 267.57309 269.77948 272.08493 274.41702 276.45718 278.22623 280.01700
 281.70303 283.27069 284.71384 285.96552 287.04663 288.06033 289.00204 289.82761
 290.46149 290.97662 291.48053 292.17004
 366.78100 356.34816 345.79333 334.67249 323.08866 311.29582 299.17899 286.99515
 274.72032 262.63048 250.65265 239.96681 230.10198 221.21914 213.41431 206.42947
 200.27664 195.22780 191.82297 189.87813 188.92830 189.00546 189.85363 191.17479
 192.91296 195.02112 197.29729 199.66945 202.12762 204.62078 206.72195 208.57711
 210.21628 211.37444 211.61661 211.85777 211.80794 211.52610 211.17227 210.81543
 210.44560 210.16876 209.98992 209.86709 209.80825 210.15242 210.55158 210.95375
 211.75991 212.95108 214.21424 216.01041 217.95157 220.00774 222.11590 224.21207
 226.28523 228.38240 230.49256 232.61173 234.75389 236.93906 239.20822 241.59139
 244.22555 246.48972 248.50488 250.28305 251.71321 252.84938 253.68454 254.01371
 254.06387 253.85104 253.22420 252.18537 250.80453 248.97870 246.90086 244.74703
 242.55119 240.36836 238.20152 236.05368 233.92685 231.80701 229.84618 228.01634
 226.31251 224.79767 223.44084 222.22600 221.12117 220.09433 219.21150 218.36566
 217.62083 216.81399 215.92516 215.30232 214.76549 213.86517 211.75009 211.19211
 212.08257 212.37924 213.05956 215.01601 217.85904 222.30750 228.37364 233.16904
 236.84546 240.92400 245.23851 249.60197 253.71172 257.29156 260.24493 262.92578
 265.37247 267.62225 269.80432 272.08557 274.34793 276.35596 278.14679 279.89441
 281.60455 283.12012 284.51306 285.73196 286.82883 287.84753 288.73480 289.39389
 290.02487 290.62875 291.14557 291.80423
 366.78100 356.34768 345.79237 334.67105 323.08673 311.29342 299.17610 286.99178
 274.71646 262.62615 250.64783 239.96151 230.09620 221.21288 213.40756 206.42225
 200.26893 195.21961 191.81429 189.86898 188.91866 188.99534 189.84303 191.16371
 192.90139 195.00908 197.28476 199.65644 202.11412 204.60681 206.70749 208.56217
 210.20086 211.35854 211.60022 211.84091 211.79059 211.50827 211.15395 210.79664
 210.42632 210.14900 209.96969 209.84637 209.78705 210.13074 210.52942 210.93110
 211.73678 212.92747 214.19015 215.98583 217.92652 219.98220 222.08988 224.18557
 226.25825 228.35493 230.46461 232.58330 234.72498 236.90966 239.17835 241.56103
 244.19471 246.45840 248.47308 250.25076 251.68044 252.81613 253.65081 253.97949
 254.02918 253.81586 253.18854 252.14923 250.76791 248.94159 246.86327 244.70896
 242.51264 240.32932 238.16201 236.01369 233.88637 231.76606 229.80474 227.97442
 226.27010 224.75479 223.39747 222.18215 221.07684 220.04952 219.16620 218.31989
 217.57457 216.76725 215.87793 215.25462 214.71730 213.85246 211.83380 211.24350
 212.09308 212.43221 213.13692 215.00725 217.86935 222.27374 228.26460 233.05249
 236.72005 240.81834 245.14838 249.52449 253.67612 257.34012 260.51709 263.09790
 265.44659 267.67468 269.83527 272.06549 274.28021 276.20868 278.05948 279.84485
 281.42065 282.93640 284.27045 285.45901 286.53528 287.47928 288.24478 288.92529
 289.56906 290.13031 290.62061 291.24542
 366.78100 356.34774 345.79248 334.67123 323.08697 311.29371 299.17645 286.99219
 274.71694 262.62668 250.64842 239.96216 230.09690 221.21364 213.40839 206.42313
 200.26987 195.22061 191.81535 189.87010 188.91984 188.99658 189.84432 191.16506
 192.90281 195.01055 197.28629 199.65803 202.11577 204.60852 206.70926 208.56400
 210.20274 211.36048 211.60222 211.84297 211.79271 211.51045 211.15619 210.79893
 210.42868 210.15142 209.97216 209.84890 209.78964 210.13339 210.53213 210.93387
 211.73961 212.93035 214.19310 215.98884 217.92958 219.98532 222.09306 224.18880
 226.26155 228.35829 230.46803 232.58677 234.72851 236.91326 239.18200 241.56474
 244.19848 246.46222 248.47697 250.25471 251.68445 252.82019 253.65493 253.98368
 254.03342 253.82016 253.19290 252.15364 250.77238 248.94613 246.86787 244.71361
 242.51735 240.33409 238.16684 236.01858 233.89132 231.77106 229.80980 227.97955
 226.27529 224.76003 223.40277 222.18751 221.08226 220.05500 219.17174 218.32548
 217.58022 216.77296 215.88371 215.26045 214.72319 213.86139 211.85362 211.28340
 212.14534 212.56149 213.23502 215.04771 217.89996 222.22211 228.16751 232.92091
 236.57935 240.68271 245.02469 249.42215 253.59566 257.33032 260.54318 263.06375
 265.42114 267.65704 269.83658 272.05942 274.24762 276.16971 278.07077 279.81335
 281.34842 282.84546 284.13809 285.29556 286.32013 287.22473 288.00900 288.71213
 289.36975 289.95697 290.46994 291.12366
 366.78100 356.34885 345.79470 334.67455 323.09140 311.29925 299.18310 286.99995
 274.72580 262.63666 250.65951 239.97436 230.11021 221.22806 213.42391 206.43976
 200.28761 195.23946 191.83531 189.89116 188.94201 189.01986 189.86871 191.19056
 192.92941 195.03827 197.31512 199.68797 202.14682 204.64067 206.74252 208.59837
 210.23822 211.39707 211.63992 211.88177 211.83262 211.55147 211.19832 210.84217
 210.47302 210.19687 210.01873 209.89658 209.83843 210.18328 210.58313 210.98598
 211.79283 212.98468 214.24853 216.04538 217.98723 220.04408 222.15293 224.24978
 226.32363 228.42148 230.53234 232.65219 234.79504 236.98089 239.25074 241.63459
 244.26944 246.53429 248.55014 250.32899 251.75984 252.89669 253.73254 254.06239
 254.11324 253.90109 253.27494 252.23680 250.85665 249.03150 246.95435 244.80120
 242.60605 240.42390 238.25775 236.11060 233.98445 231.86530 229.90515 228.07600
 226.37285 224.85870 223.50255 222.28841 221.18426 220.15811 219.27596 218.43081
 217.68666 216.88051 215.99236 215.37021 214.83406 213.92728 211.81779 211.33749
 212.22369 212.67601 213.28925 215.06241 217.90164 222.17303 228.09390 232.82718
 236.47818 240.58728 244.94751 249.35576 253.47774 257.20392 260.53381 263.10187
 265.43295 267.65158 269.83118 272.03754 274.20035 276.15607 278.07620 279.78448
 281.27328 282.75186 284.01727 285.13037 286.10693 287.01160 287.83173 288.53015
 289.19891 289.79416 290.31415 290.97678
 366.78100 356.35033 345.79766 334.67899 323.09732 311.30665 299.19198 287.01030
 274.73763 262.64996 250.67429 239.99062 230.12795 221.24728 213.44461 206.46194
 200.31127 195.26460 191.86193 189.91925 188.97158 189.05091 189.90124 191.22457
 192.96490 195.07523 197.35356 199.72789 202.18822 204.68355 206.78688 208.64420
 210.28553 211.44586 211.69019 211.93352 211.88585 211.60618 211.25451 210.89984
 210.53217 210.25750 210.08083 209.96015 209.90348 210.24981 210.65114 211.05547
 211.86380 213.05713 214.32246 216.12079 218.06412 220.12245 222.23278 224.33111
 226.40643 228.50576 230.61809 232.73942 234.88375 237.07108 239.34241 241.72774
 244.36407 246.63040 248.64773 250.42806 251.86038 252.99871 253.83604 254.16737
 254.21970 254.00903 253.38436 252.34769 250.96902 249.14535 247.06968 244.91801
 242.72433 240.54366 238.37899 236.23332 234.10865 231.99098 230.03231 228.20464
 226.50297 224.99030 223.63563 222.42296 221.32028 220.29561 219.41494 218.57127
 217.82860 217.02393 216.13726 215.51659 214.98192 214.02760 211.82590 211.34740
 212.21223 212.71114 213.35202 215.06393 217.89026 222.16396 228.01422 232.77556
 236.43411 240.55115 244.91681 249.32779 253.41606 257.05191 260.37872 263.13846
 265.44510 267.64615 269.83051 272.03641 274.18396 276.11426 278.09503 279.77673
 281.24942 282.66165 283.89432 284.96915 285.91226 286.78040 287.63641 288.47235
 289.23151 289.90750 290.49808 291.25067
 366.78100 356.35037 345.79774 334.67912 323.09749 311.30686 299.19223 287.01060
 274.73798 262.65035 250.67472 239.99109 230.12846 221.24784 213.44521 206.46258
 200.31195 195.26533 191.86270 189.92007 188.97244 189.05181 189.90219 191.22556
 192.96593 195.07630 197.35467 199.72905 202.18942 204.68479 206.78816 208.64553
 210.28691 211.44728 211.69165 211.93502 211.88739 211.60777 211.25614 210.90151
 210.53388 210.25925 210.08263 209.96200 209.90537 210.25174 210.65311 211.05749
 211.86586 213.05923 214.32460 216.12298 218.06635 220.12472 222.23509 224.33346
 226.40884 228.50821 230.62058 232.74195 234.88632 237.07370 239.34507 241.73044
 244.36681 246.63318 248.65056 250.43093 251.86330 253.00167 253.83904 254.17042
 254.22279 254.01216 253.38753 252.35090 250.97228 249.14865 247.07302 244.92139
 242.72776 240.54714 238.38251 236.23688 234.11225 231.99463 230.03600 228.20837
 226.50674 224.99411 223.63949 222.42686 221.32423 220.29960 219.41897 218.57535
 217.83272 217.02809 216.14146 215.52083 214.98621 214.04761 211.87656 211.33411
 212.20795 212.79689 213.46542 215.08456 217.86395 222.12535 227.98593 232.75020
 236.39299 240.51268 244.88231 249.30373 253.38733 256.98782 260.33975 263.09750
 265.37805 267.59720 269.80814 272.05948 274.26648 276.25586 278.13397 279.92743
 281.40967 282.78915 284.00333 285.05402 285.98349 286.90497 287.85162 288.79227
 289.66269 290.43784 291.11496 291.97787
 366.78100 356.34969 345.79638 334.67708 323.09477 311.30346 299.18815 287.00584
 274.73253 262.64423 250.66792 239.98361 230.12030 221.23899 213.43568 206.45238
 200.30107 195.25376 191.85045 189.90714 188.95883 189.03753 189.88722 191.20991
 192.94960 195.05929 197.33698 199.71068 202.17037 204.66506 206.76775 208.62444
 210.26513 211.42483 211.66852 211.91121 211.86290 211.58259 211.23028 210.87498
 210.50667 210.23136 210.05405 209.93274 209.87543 210.22113 210.62182 211.02551
 211.83320 213.02589 214.29058 216.08828 218.03097 220.08866 222.19835 224.29604
 226.37073 228.46943 230.58112 232.70181 234.84550 237.03219 239.30288 241.68758
 244.32327 246.58896 248.60565 250.38534 251.81703 252.95473 253.79142 254.12211
 254.17380 253.96249 253.33718 252.29988 250.92057 249.09626 247.01995 244.86764
 242.67333 240.49203 238.32672 236.18041 234.05510 231.93679 229.97748 228.14918
 226.44687 224.93356 223.57825 222.36494 221.26163 220.23633 219.35502 218.51071
 217.76740 216.96209 216.07478 215.45348 214.91817 214.01248 211.88536 211.34579
 212.30606 212.99594 213.60838 215.09653 217.80078 222.03625 227.99147 232.69087
 236.32266 240.44992 244.84187 249.26196 253.38956 256.90710 260.11987 262.82245
 265.20712 267.43103 269.68451 271.97614 274.24075 276.34647 278.27029 280.03180
 281.56906 282.91449 284.15344 285.24701 286.19022 287.04086 287.86523 288.69025
 289.46442 290.18060 290.82944 291.65628
 366.78100 356.34859 345.79418 334.67376 323.09035 311.29794 299.18153 286.99812
 274.72371 262.63429 250.65688 239.97147 230.10706 221.22465 213.42024 206.43582
 200.28341 195.23500 191.83059 189.88618 188.93677 189.01435 189.86294 191.18453
 192.92312 195.03171 197.30830 199.68088 202.13947 204.63306 206.73465 208.59024
 210.22983 211.38841 211.63100 211.87259 211.82318 211.54177 211.18836 210.83194
 210.46253 210.18612 210.00771 209.88530 209.82689 210.17147 210.57106 210.97365
 211.78024 212.97183 214.23542 216.03200 217.97359 220.03018 222.13877 224.23536
 226.30895 228.40653 230.51712 232.63671 234.77930 236.96489 239.23448 241.61806
 244.25265 246.51724 248.53283 250.31142 251.74200 252.87859 253.71418 254.04377
 254.09436 253.88195 253.25553 252.21712 250.83671 249.01130 246.93389 244.78048
 242.58506 240.40265 238.23624 236.08883 233.96242 231.84301 229.88259 228.05318
 226.34977 224.83536 223.47895 222.26454 221.16012 220.13371 219.25130 218.40589
 217.66148 216.85507 215.96665 215.34424 214.80783 213.96027 211.95781 211.35782
 212.28098 213.04675 213.69942 215.17661 217.81496 222.01173 228.00558 232.61429
 236.25661 240.38458 244.80064 249.26254 253.42064 256.87054 260.06366 262.59329
 264.92615 267.15082 269.44739 271.78546 274.10406 276.27396 278.23642 279.98599
 281.51334 282.86920 284.13840 285.25653 286.20840 287.05475 287.84796 288.60147
 289.32770 290.00360 290.60330 291.42255
 366.78100 356.34696 345.79092 334.66888 323.08383 311.28979 299.17175 286.98671
 274.71067 262.61963 250.64058 239.95354 230.08750 221.20346 213.39742 206.41138
 200.25733 195.20729 191.80125 189.85521 188.90417 188.98013 189.82708 191.14704
 192.88400 194.99096 197.26592 199.63688 202.09383 204.58579 206.68575 208.53971
 210.17767 211.33463 211.57558 211.81554 211.76450 211.48146 211.12642 210.76838
 210.39733 210.11929 209.93925 209.81521 209.75517 210.09813 210.49608 210.89704
 211.70200 212.89196 214.15392 215.94888 217.88883 219.94379 222.05075 224.14571
 226.21767 228.31363 230.42259 232.54054 234.68150 236.86546 239.13342 241.51538
 244.14834 246.41129 248.42525 250.20221 251.63117 252.76613 253.60009 253.92804
 253.97700 253.76296 253.13492 252.09488 250.71284 248.88579 246.80675 244.65171
 242.45467 240.27063 238.10259 235.95354 233.82550 231.70446 229.74242 227.91138
 226.20634 224.69029 223.33225 222.11621 221.01017 219.98213 219.09809 218.25104
 217.50500 216.69696 215.80692 215.18288 214.64484 213.88118 212.07693 211.49088
 212.18309 212.90010 213.64896 215.22055 217.87532 222.04729 228.00777 232.61392
 236.25121 240.38272 244.81065 249.30420 253.51479 257.01382 260.07248 262.60229
 264.87244 267.10144 269.38678 271.74670 274.06857 276.14053 278.06793 279.85284
 281.41415 282.79318 284.05585 285.16544 286.11191 286.97757 287.78955 288.52005
 289.20038 289.86002 290.45837 291.25751
 366.78100 356.34791 345.79283 334.67174 323.08766 311.29457 299.17748 286.99340
 274.71831 262.62823 250.65014 239.96405 230.09897 221.21588 213.41080 206.42571
 200.27262 195.22354 191.81845 189.87337 188.92328 189.00019 189.84811 191.16902
 192.90694 195.01485 197.29076 199.66268 202.12059 204.61351 206.71442 208.56933
 210.20825 211.36616 211.60808 211.84899 211.79890 211.51682 211.16273 210.80565
 210.43556 210.15847 209.97939 209.85630 209.79722 210.14113 210.54005 210.94196
 211.74787 212.93879 214.20170 215.99762 217.93853 219.99444 222.10236 224.19827
 226.27119 228.36810 230.47801 232.59693 234.73884 236.92376 239.19267 241.57558
 244.20950 246.47341 248.48833 250.26624 251.69615 252.83207 253.66698 253.99590
 254.04581 253.83272 253.20564 252.16655 250.78547 248.95938 246.88129 244.72721
 242.53112 240.34804 238.18095 236.03286 233.90578 231.78569 229.82461 227.99452
 226.29043 224.77535 223.41826 222.20318 221.09809 220.07100 219.18792 218.34183
 217.59675 216.78966 215.90057 215.27749 214.74040 213.94601 212.07985 211.59921
 212.32620 212.88989 213.56844 215.10687 217.79814 222.00494 227.89111 232.54247
 236.14412 240.29503 244.73672 249.22354 253.42964 257.09882 260.25043 262.77582
 265.01376 267.22473 269.51031 271.74774 273.97925 276.14838 278.09982 279.71643
 281.13892 282.50491 283.73035 284.77191 285.64969 286.45486 287.21289 287.94284
 288.65823 289.29572 289.83423 290.52054
 366.78100 356.35002 345.79704 334.67806 323.09607 311.30509 299.19011 287.00813
 274.73515 262.64717 250.67119 239.98720 230.12422 221.24324 213.44026 206.45728
 200.30630 195.25931 191.85633 189.91335 188.96537 189.04439 189.89441 191.21743
 192.95744 195.06746 197.34548 199.71950 202.17952 204.67454 206.77756 208.63457
 210.27559 211.43561 211.67963 211.92265 211.87467 211.59469 211.24270 210.88772
 210.51974 210.24476 210.06778 209.94680 209.88981 210.23583 210.63685 211.04087
 211.84889 213.04191 214.30693 216.10494 218.04796 220.10598 222.21600 224.31402
 226.38904 228.48806 230.60007 232.72109 234.86511 237.05213 239.32315 241.70817
 244.34418 246.61020 248.62722 250.40724 251.83926 252.97728 253.81430 254.14531
 254.19733 253.98635 253.36137 252.32439 250.94541 249.12143 247.04544 244.89346
 242.69948 240.51850 238.35352 236.20754 234.08256 231.96457 230.00559 228.17761
 226.47563 224.96265 223.60767 222.39468 221.29170 220.26672 219.38574 218.54176
 217.79878 216.99380 216.10681 215.48583 214.95085 214.09474 212.10892 211.55000
 212.42857 212.96330 213.61440 215.12560 217.81624 222.02733 227.75447 232.42166
 236.03471 240.19365 244.63596 249.10573 253.22076 256.81284 260.06662 262.79514
 265.08673 267.34772 269.62564 271.85138 274.01044 276.17258 278.11722 279.68829
 281.01373 282.37250 283.54645 284.51892 285.32907 286.06281 286.82565 287.60864
 288.31290 288.94003 289.48788 290.18607
 366.78100 356.34849 345.79397 334.67346 323.08994 311.29743 299.18091 286.99740
 274.72289 262.63337 250.65586 239.97034 230.10583 221.22331 213.41880 206.43429
 200.28177 195.23326 191.82874 189.88423 188.93472 189.01220 189.86069 191.18217
 192.92066 195.02914 197.30563 199.67812 202.13660 204.63009 206.73157 208.58706
 210.22654 211.38503 211.62752 211.86900 211.81949 211.53797 211.18446 210.82794
 210.45843 210.18192 210.00340 209.88089 209.82237 210.16686 210.56635 210.96883
 211.77532 212.96680 214.23029 216.02677 217.96826 220.02475 222.13323 224.22972
 226.30320 228.40069 230.51117 232.63066 234.77315 236.95863 239.22812 241.61160
 244.24609 246.51057 248.52606 250.30455 251.73503 252.87152 253.70700 254.03649
 254.08698 253.87446 253.24795 252.20943 250.82892 249.00340 246.92589 244.77238
 242.57686 240.39435 238.22783 236.08032 233.95380 231.83429 229.87378 228.04426
 226.34075 224.82623 223.46972 222.25520 221.15069 220.12418 219.24166 218.39615
 217.65163 216.84512 215.95661 215.33409 214.79758 214.03734 212.26488 211.59039
 212.20026 213.05997 213.92175 215.30533 217.88251 222.01300 227.71249 232.36914
 235.96956 240.12260 244.56711 249.02499 253.10542 256.65939 259.83063 262.57852
 265.00211 267.32278 269.62515 271.82132 274.03235 276.19931 278.09784 279.72562
 281.18668 282.50696 283.66190 284.65878 285.46027 286.16101 287.02426 287.88474
 288.66855 289.36652 289.97626 290.75330
 366.78100 356.34564 345.78827 334.66491 323.07854 311.28318 299.16381 286.97745
 274.70008 262.60772 250.62735 239.93899 230.07162 221.18626 213.37889 206.39153
 200.23616 195.18480 191.77743 189.83007 188.87770 188.95234 189.79797 191.11661
 192.85224 194.95788 197.23151 199.60115 202.05678 204.54742 206.64605 208.49869
 210.13532 211.29096 211.53059 211.76923 211.71686 211.43250 211.07613 210.71677
 210.34440 210.06504 209.88368 209.75831 209.69695 210.03858 210.43522 210.83485
 211.63849 212.82712 214.08776 215.88139 217.82003 219.87366 221.97930 224.07293
 226.14357 228.23820 230.34584 232.46247 234.60211 236.78474 239.05138 241.43201
 244.06365 246.32528 248.33792 250.11355 251.54119 252.67482 253.50746 253.83409
 253.88173 253.66636 253.03700 251.99563 250.61227 248.78390 246.70354 244.54717
 242.34881 240.16344 237.99408 235.84372 233.71435 231.59199 229.62862 227.79626
 226.08989 224.57253 223.21316 221.99580 220.88843 219.85907 218.97370 218.12534
 217.37797 216.56861 215.67724 215.05188 214.51251 213.89612 212.44795 211.69789
 212.13150 213.09499 214.15411 215.34900 217.75851 221.89345 227.64667 232.25565
 235.84468 240.04036 244.51700 248.98312 253.07970 256.60287 259.75925 262.49512
 264.79880 267.08524 269.44257 271.76562 274.02795 276.21198 278.11194 279.61923
 281.01740 282.42685 283.67462 284.69281 285.43759 286.24280 287.07080 287.89380
 288.66394 289.35052 289.95032 290.71469
 366.78100 356.34352 345.78403 334.65855 323.07007 311.27258 299.15110 286.96262
 274.68313 262.58865 250.60617 239.91568 230.04620 221.15872 213.34923 206.35975
 200.20227 195.14878 191.73930 189.78982 188.83533 188.90785 189.75137 191.06788
 192.80140 194.90491 197.17643 199.54395 201.99746 204.48598 206.58250 208.43301
 210.06753 211.22105 211.45856 211.69508 211.64060 211.35411 210.99563 210.63415
 210.25966 209.97818 209.79470 209.66721 209.60373 209.94325 210.33776 210.73528
 211.53680 212.72331 213.98183 215.77335 217.70986 219.76138 221.86490 223.95641
 226.02493 228.11745 230.22296 232.33748 234.47500 236.65551 238.92003 241.29855
 243.92806 246.18758 248.19810 249.97161 251.39713 252.52864 253.35916 253.68368
 253.72919 253.51171 252.88023 251.83674 250.45126 248.62078 246.53829 244.37981
 242.17933 239.99184 237.82036 235.66788 233.53639 231.41191 229.44643 227.61194
 225.90346 224.38398 223.02249 221.80301 220.69353 219.66204 218.77456 217.92408
 217.17459 216.36311 215.46963 214.84214 214.30066 213.83540 212.69086 211.74855
 212.08748 212.98972 214.23506 215.66986 218.03181 222.03497 227.58571 232.16499
 235.81610 239.99863 244.46892 248.94260 253.01180 256.46182 259.48557 262.31888
 264.90649 267.26599 269.54486 271.81149 274.15207 276.28983 278.06805 279.50409
 280.74576 281.91486 282.95395 283.91373 285.05792 286.07025 286.99384 287.83054
 288.58307 289.25320 289.83862 290.58466
 366.78100 356.34148 345.77996 334.65245 323.06193 311.26241 299.13889 286.94838
 274.66686 262.57034 250.58582 239.89331 230.02179 221.13227 213.32075 206.32924
 200.16972 195.11420 191.70268 189.75117 188.79465 188.86513 189.70661 191.02110
 192.75258 194.85406 197.12354 199.48903 201.94051 204.42699 206.52147 208.36996
 210.00244 211.15392 211.38940 211.62389 211.56737 211.27885 210.91833 210.55482
 210.17830 209.89478 209.70926 209.57975 209.51423 209.85171 210.24419 210.63967
 211.43916 212.62364 213.88012 215.66960 217.60409 219.65357 221.75505 223.84453
 225.91102 228.00150 230.10498 232.21746 234.35295 236.53143 238.79391 241.17039
 243.79788 246.05536 248.06384 249.83532 251.25881 252.38829 253.21677 253.53925
 253.58274 253.36322 252.72970 251.68418 250.29667 248.46415 246.37963 244.21911
 242.01660 239.82708 237.65356 235.49904 233.36553 231.23901 229.27149 227.43497
 225.72445 224.20294 222.83942 221.61790 220.50638 219.47287 218.58335 217.73083
 216.97931 216.16580 215.27028 214.64076 214.09724 213.79991 212.87245 211.72005
 211.97278 212.96872 214.37704 215.93114 218.23338 222.06058 227.66582 232.24265
 235.93181 240.10957 244.55685 248.99251 253.01964 256.50327 259.62488 262.28952
 264.98737 267.41174 269.60022 271.95877 274.37576 276.38095 278.04468 279.43414
 280.66739 281.65448 282.50256 283.24722 283.89169 284.46185 284.98206 285.45331
 285.87717 286.25461 286.58432 287.00452
 366.78100 356.34119 345.77937 334.65156 323.06074 311.26093 299.13711 286.94630
 274.66448 262.56767 250.58286 239.89004 230.01823 221.12841 213.31660 206.32478
 200.16497 195.10915 191.69734 189.74552 188.78871 188.85890 189.70008 191.01427
 192.74545 194.84664 197.11582 199.48101 201.93219 204.41838 206.51257 208.36075
 209.99294 211.14412 211.37931 211.61349 211.55668 211.26786 210.90705 210.54323
 210.16642 209.88261 209.69679 209.56698 209.50116 209.83835 210.23053 210.62572
 211.42490 212.60909 213.86528 215.65446 217.58865 219.63783 221.73902 223.82820
 225.89439 227.98457 230.08776 232.19994 234.33513 236.51332 238.77550 241.15169
 243.77887 246.03606 248.04424 249.81543 251.23861 252.36780 253.19599 253.51817
 253.56136 253.34154 252.70773 251.66191 250.27410 248.44128 246.35647 244.19566
 241.99284 239.80303 237.62921 235.47440 233.34058 231.21377 229.24595 227.40914
 225.69832 224.17651 222.81270 221.59088 220.47907 219.44525 218.55544 217.70262
 216.95081 216.13699 215.24118 214.61137 214.06755 213.80194 212.96793 211.79361
 211.88313 212.84854 214.32277 215.91635 218.16838 222.05649 227.69031 232.24440
 235.91321 240.09517 244.56731 249.03717 253.14363 256.72858 259.75006 262.38416
 265.15204 267.59155 269.78329 271.85144 274.28061 276.28217 277.95142 279.40369
 280.94363 282.75415 284.38556 285.81802 287.05771 288.15454 289.15521 290.06174
 290.87708 291.60312 292.23740 293.04568
 366.78100 356.34307 345.78314 334.65721 323.06828 311.27036 299.14843 286.95950
 274.67957 262.58464 250.60171 239.91078 230.04085 221.15292 213.34299 206.35307
 200.19514 195.14121 191.73128 189.78135 188.82642 188.89849 189.74156 191.05763
 192.79070 194.89378 197.16485 199.53192 201.98499 204.47306 206.56913 208.41920
 210.05327 211.20634 211.44342 211.67949 211.62456 211.33763 210.97870 210.61677
 210.24184 209.95991 209.77598 209.64805 209.58413 209.92320 210.31727 210.71434
 211.51541 212.70148 213.95955 215.75062 217.68669 219.73776 221.84084 223.93191
 225.99998 228.09205 230.19712 232.31119 234.44826 236.62833 238.89240 241.27048
 243.89955 246.15862 248.16869 249.94176 251.36683 252.49790 253.32797 253.65204
 253.69711 253.47919 252.84726 251.80333 250.41740 248.58647 246.50354 244.34461
 242.14368 239.95575 237.78382 235.63090 233.49897 231.37404 229.40811 227.57318
 225.86425 224.34432 222.98239 221.76246 220.65254 219.62061 218.73268 217.88175
 217.13182 216.31989 215.42596 214.79803 214.25610 213.88768 212.93910 211.97073
 211.89925 212.77228 214.28482 215.94899 218.18785 222.12595 227.63982 232.13397
 235.76923 239.95541 244.41370 248.82411 252.86891 256.38730 259.36108 262.16605
 264.98727 267.51318 269.86502 271.93411 274.06842 276.20859 277.96030 279.67242
 281.16049 282.75046 284.35739 285.84140 287.12570 288.26196 289.29865 290.23779
 291.08246 291.83463 292.49173 293.32910
 366.78100 356.34414 345.78529 334.66043 323.07258 311.27572 299.15486 286.96701
 274.68815 262.59429 250.61244 239.92258 230.05373 221.16687 213.35801 206.36916
 200.21230 195.15945 191.75059 189.80173 188.84788 188.92102 189.76517 191.08231
 192.81645 194.92060 197.19274 199.56088 202.01503 204.50417 206.60132 208.45246
 210.08760 211.24175 211.47989 211.71704 211.66318 211.37732 211.01947 210.65861
 210.28476 210.00390 209.82104 209.69419 209.63133 209.97147 210.36662 210.76476
 211.56691 212.75405 214.01319 215.80534 217.74248 219.79463 221.89877 223.99091
 226.06006 228.15320 230.25935 232.37449 234.51263 236.69378 238.95892 241.33806
 243.96821 246.22835 248.23950 250.01364 251.43978 252.57193 253.40307 253.72822
 253.77436 253.55750 252.92665 251.88379 250.49893 248.66908 246.58722 244.42937
 242.22951 240.04265 237.87180 235.71994 233.58909 231.46523 229.50037 227.66652
 225.95866 224.43981 223.07895 221.86009 220.75124 219.72038 218.83352 217.98367
 217.23481 216.42396 215.53110 214.90424 214.36339 213.94962 212.93611 212.06200
 211.85805 212.62758 214.27913 216.09303 218.38120 222.19252 227.62483 232.12753
 235.72778 239.90486 244.36783 248.76070 252.75293 256.17740 259.09613 261.90826
 264.77243 267.40195 269.76547 271.91293 274.03604 276.15717 277.87769 279.44141
 281.03278 282.48337 283.89813 285.19800 286.32864 287.32898 288.24161 289.06842
 289.81204 290.47421 291.05270 291.78992
 366.78100 356.34429 345.78559 334.66088 323.07318 311.27647 299.15577 286.96806
 274.68936 262.59565 250.61395 239.92424 230.05554 221.16883 213.36013 206.37142
 200.21472 195.16201 191.75331 189.80460 188.85090 188.92419 189.76849 191.08578
 192.82008 194.92437 197.19667 199.56496 202.01926 204.50855 206.60585 208.45714
 210.09244 211.24673 211.48503 211.72232 211.66862 211.38291 211.02521 210.66450
 210.29080 210.01009 209.82739 209.70068 209.63798 209.97827 210.37357 210.77186
 211.57416 212.76145 214.02075 215.81304 217.75034 219.80263 221.90693 223.99922
 226.06852 228.16181 230.26811 232.38340 234.52170 236.70299 238.96829 241.34758
 243.97788 246.23817 248.24947 250.02376 251.45006 252.58235 253.41365 253.73894
 253.78524 253.56853 252.93783 251.89512 250.51042 248.68071 246.59901 244.44130
 242.24160 240.05489 237.88419 235.73248 233.60178 231.47807 229.51337 227.67966
 225.97195 224.45325 223.09254 221.87384 220.76513 219.73443 218.84772 217.99802
 217.24931 216.43861 215.54590 214.91920 214.37849 213.99136 213.01097 212.06244
 211.82751 212.52052 214.24797 216.22049 218.54897 222.29163 227.69542 232.18555
 235.79324 239.93903 244.37698 248.75133 252.72470 256.09525 258.93805 261.76407
 264.73029 267.43069 269.80078 271.87326 274.06467 276.13580 277.87363 279.16101
 280.63333 282.08640 283.55005 284.89511 286.05917 287.08905 288.02866 288.87988
 289.64548 290.32721 290.92279 291.68176
 366.78100 356.34210 345.78120 334.65430 323.06440 311.26550 299.14260 286.95270
 274.67180 262.57590 250.59200 239.90010 230.02920 221.14030 213.32940 206.33850
 200.17960 195.12470 191.71380 189.76290 188.80700 188.87810 189.72020 191.03530
 192.76740 194.86950 197.13960 199.50570 201.95780 204.44490 206.54000 208.38910
 210.02220 211.17430 211.41040 211.64550 211.58960 211.30170 210.94180 210.57890
 210.20300 209.92010 209.73520 209.60630 209.54140 209.87950 210.27260 210.66870
 211.46880 212.65390 213.91100 215.70110 217.63620 219.68630 221.78840 223.87850
 225.94560 228.03670 230.14080 232.25390 234.39000 236.56910 238.83220 241.20930
 243.83740 246.09550 248.10460 249.87670 251.30080 252.43090 253.26000 253.58310
 253.62720 253.40830 252.77540 251.73050 250.34360 248.51170 246.42780 244.26790
 242.06600 239.87710 237.70420 235.55030 233.41740 231.29150 229.32460 227.48870
 225.77880 224.25790 222.89500 221.67410 220.56320 219.53030 218.64140 217.78950
 217.03860 216.22570 215.33080 214.70190 214.15900 213.93826 213.20801 212.02129
 211.73962 212.45595 214.22095 216.29480 218.68468 222.27446 227.73572 232.25926
 235.89508 240.02289 244.42554 248.78175 252.75867 256.10416 258.84103 261.68011
 264.67603 267.41736 269.80392 271.78940 274.11475 276.13062 277.77109 279.10898
 280.43756 282.23456 283.84622 285.26138 286.48605 287.56961 288.55817 289.45374
 290.25919 290.97647 291.60306 292.40158
 366.78100 356.33745 345.77191 334.64036 323.04581 311.24227 299.11472 286.92018
 274.63463 262.53408 250.54554 239.84899 229.97344 221.07990 213.26435 206.26880
 200.10526 195.04571 191.63017 189.67462 188.71407 188.78053 189.61798 190.92843
 192.65589 194.75334 197.01880 199.38025 201.82770 204.31016 206.40061 208.24506
 209.87352 211.02097 211.25242 211.48288 211.42233 211.12979 210.76524 210.39769
 210.01715 209.72960 209.54005 209.40651 209.33696 209.67041 210.05887 210.45032
 211.24578 212.42623 213.67868 215.46414 217.39459 219.44004 221.53750 223.62295
 225.68541 227.77186 229.87131 231.97977 234.11122 236.28567 238.54413 240.91658
 243.54003 245.79349 247.79794 249.56540 250.98485 252.11030 252.93476 253.25321
 253.29266 253.06912 252.43157 251.38202 249.99048 248.15393 246.06539 243.90084
 241.69429 239.50075 237.32320 235.16465 233.02711 230.89656 228.92502 227.08447
 225.36992 223.84438 222.47683 221.25128 220.13574 219.09819 218.20464 217.34810
 216.59255 215.77501 214.87546 214.24191 213.69437 213.75514 213.49341 212.02316
 211.54332 212.29716 214.08028 216.25279 218.77141 222.38989 227.80794 232.35960
 236.00000 240.13054 244.53911 248.93208 252.96925 256.32031 259.07327 261.80829
 264.66919 267.32788 269.62778 271.75363 274.15857 276.07944 277.71863 279.11252
 280.84479 282.67453 284.25787 285.64813 286.85132 287.91580 288.88699 289.76682
 290.55814 291.26279 291.87839 292.66287
 366.78100 356.33793 345.77286 334.64180 323.04773 311.24466 299.11759 286.92352
 274.63846 262.53839 250.55032 239.85425 229.97918 221.08612 213.27105 206.27598
 200.11291 195.05384 191.63878 189.68371 188.72364 188.79057 189.62850 190.93944
 192.66737 194.76530 197.03123 199.39316 201.84110 204.32403 206.41496 208.25989
 209.88882 211.03676 211.26869 211.49962 211.43955 211.14749 210.78342 210.41635
 210.03628 209.74921 209.56015 209.42708 209.35801 209.69194 210.08087 210.47281
 211.26874 212.44967 213.70260 215.48853 217.41947 219.46540 221.56333 223.64926
 225.71219 227.79913 229.89906 232.00799 234.13992 236.31485 238.57379 240.94672
 243.57065 245.82458 247.82951 249.59745 251.01738 252.14331 252.96824 253.28717
 253.32711 253.10404 252.46697 251.41790 250.02683 248.19077 246.10270 243.93863
 241.73256 239.53949 237.36243 235.20436 233.06729 230.93722 228.96615 227.12609
 225.41202 223.88695 222.51988 221.29481 220.17975 219.14268 218.24961 217.39354
 216.63847 215.82141 214.92234 214.28927 213.74220 213.77946 213.54781 212.22012
 211.52434 212.12465 213.82889 215.99295 218.63533 222.37675 227.74217 232.33673
 236.00261 240.16478 244.59689 249.01941 253.10593 256.56348 259.37457 262.00085
 264.73352 267.38071 269.64316 271.81226 274.17911 276.07440 277.69110 279.05536
 281.30478 283.29025 285.00839 286.51703 287.82263 288.97775 290.03162 290.98636
 291.84503 292.60968 293.27768 294.12897
 366.78100 356.34489 345.78678 334.66267 323.07555 311.27944 299.15933 286.97222
 274.69411 262.60100 250.61989 239.93077 230.06266 221.17655 213.36844 206.38033
 200.22422 195.17210 191.76399 189.81588 188.86277 188.93666 189.78155 191.09944
 192.83432 194.93921 197.21210 199.58099 202.03588 204.52577 206.62366 208.47554
 210.11143 211.26632 211.50521 211.74310 211.68999 211.40487 211.04776 210.68765
 210.31454 210.03443 209.85232 209.72621 209.66409 210.00498 210.40087 210.79976
 211.60265 212.79054 214.05043 215.84331 217.78120 219.83409 221.93898 224.03187
 226.10176 228.19565 230.30253 232.41842 234.55731 236.73920 239.00509 241.38498
 244.01586 246.27675 248.28864 250.06353 251.49042 252.62331 253.45520 253.78108
 253.82797 253.61186 252.98175 251.93964 250.55553 248.72642 246.64530 244.48819
 242.28908 240.10297 237.93286 235.78175 233.65163 231.52852 229.56441 227.73130
 226.02419 224.50608 223.14597 221.92785 220.81974 219.78963 218.90352 218.05441
 217.30630 216.49619 215.60407 214.97796 214.43785 214.10454 213.27615 212.45583
 211.87212 212.23111 213.70660 215.73912 218.40125 222.24254 227.53868 232.14287
 235.83926 240.05431 244.52661 248.95096 253.01166 256.45337 259.29834 261.99249
 264.71649 267.27448 269.52332 271.90607 274.16187 275.98325 277.57785 279.44470
 281.47864 283.37003 285.00671 286.44385 287.68756 288.78793 289.79184 290.70132
 291.51932 292.24771 292.88403 293.69498
 366.78100 356.34749 345.79197 334.67046 323.08595 311.29243 299.17492 286.99041
 274.71489 262.62438 250.64587 239.95935 230.09384 221.21033 213.40481 206.41930
 200.26579 195.21627 191.81076 189.86525 188.91473 188.99122 189.83871 191.15919
 192.89668 195.00417 197.27965 199.65114 202.10863 204.60111 206.70160 208.55609
 210.19457 211.35206 211.59355 211.83403 211.78352 211.50101 211.14649 210.78898
 210.41846 210.14095 209.96144 209.83792 209.77841 210.12190 210.52038 210.92187
 211.72736 212.91784 214.18033 215.97582 217.91630 219.97179 222.07928 224.17476
 226.24725 228.34374 230.45322 232.57171 234.71320 236.89768 239.16617 241.54866
 244.18214 246.44563 248.46012 250.23760 251.66709 252.80258 253.63706 253.96555
 254.01504 253.80152 253.17401 252.13450 250.75298 248.92647 246.84796 244.69344
 242.49693 240.31342 238.14590 235.99739 233.86988 231.74936 229.78785 227.95734
 226.25282 224.73731 223.37980 222.16428 221.05877 220.03126 219.14774 218.30123
 217.55572 216.74820 215.85869 215.23518 214.69766 214.23895 213.15439 212.40802
 212.06435 212.37448 213.74161 215.74754 218.43890 222.33568 227.38139 232.00436
 235.65819 239.88139 244.34094 248.70972 252.68253 256.09293 259.00998 261.72476
 264.44537 267.08881 269.55878 271.90399 274.05728 275.91830 277.64529 279.58270
 281.32468 282.89996 284.26324 285.47440 286.57880 287.55591 288.44736 289.25497
 289.98132 290.62814 291.19318 291.91327
 366.78100 356.34404 345.78508 334.66012 323.07216 311.27520 299.15424 286.96628
 274.68732 262.59336 250.61140 239.92144 230.05248 221.16552 213.35656 206.36760
 200.21064 195.15768 191.74872 189.79976 188.84580 188.91884 189.76288 191.07992
 192.81396 194.91800 197.19004 199.55808 202.01212 204.50116 206.59820 208.44924
 210.08428 211.23832 211.47636 211.71340 211.65944 211.37348 211.01552 210.65456
 210.28060 209.99964 209.81668 209.68972 209.62676 209.96680 210.36184 210.75988
 211.56192 212.74896 214.00800 215.80004 217.73708 219.78912 221.89316 223.98520
 226.05424 228.14728 230.25332 232.36836 234.50640 236.68744 238.95248 241.33152
 243.96156 246.22160 248.23264 250.00668 251.43272 252.56476 253.39580 253.72084
 253.76688 253.54992 252.91896 251.87600 250.49104 248.66108 246.57912 244.42116
 242.22120 240.03424 237.86328 235.71132 233.58036 231.45640 229.49144 227.65748
 225.94952 224.43056 223.06960 221.85064 220.74168 219.71072 218.82376 217.97380
 217.22484 216.41388 215.52092 214.89396 214.35300 214.05138 213.32858 212.52354
 211.87946 212.11949 213.61763 215.72516 218.43205 222.29712 227.48676 231.93317
 235.67448 239.81917 244.23271 248.53764 252.46262 255.87003 258.80911 261.59213
 264.42368 267.10449 269.56494 271.86819 273.96420 275.80725 277.66107 279.47070
 281.14185 282.62091 283.78906 284.84583 285.72650 286.51913 287.36481 288.22437
 289.01587 289.72070 290.33643 291.12109
 366.78100 356.34267 345.78233 334.65600 323.06667 311.26834 299.14600 286.95667
 274.67634 262.58100 250.59767 239.90634 230.03601 221.14767 213.33734 206.34701
 200.18867 195.13434 191.72401 189.77368 188.81834 188.89001 189.73268 191.04834
 192.78101 194.88368 197.15435 199.52101 201.97368 204.46135 206.55701 208.40668
 210.04035 211.19302 211.42968 211.66535 211.61002 211.32268 210.96335 210.60102
 210.22569 209.94335 209.75902 209.63069 209.56635 209.90502 210.29869 210.69536
 211.49602 212.68169 213.93936 215.73002 217.66569 219.71636 221.81903 223.90969
 225.97736 228.06903 230.17369 232.28736 234.42403 236.60370 238.86736 241.24503
 243.87370 246.13236 248.14203 249.91470 251.33937 252.47003 253.29970 253.62337
 253.66803 253.44970 252.81737 251.77304 250.38670 248.55537 246.47204 244.31270
 242.11137 239.92304 237.75071 235.59737 233.46504 231.33971 229.37337 227.53804
 225.82871 224.30838 222.94604 221.72571 220.61538 219.58304 218.69471 217.84338
 217.09304 216.28071 215.38638 214.75805 214.21571 213.96992 213.38879 212.75214
 211.91954 211.96211 213.51828 215.67497 218.34430 222.25192 227.56754 231.91016
 235.68916 239.81519 244.24646 248.56395 252.49837 255.89168 258.78928 261.48495
 264.37006 267.05814 269.55841 271.84384 273.90262 275.72061 277.46973 279.38919
 281.13519 282.57733 283.69977 284.77005 285.75458 286.43265 286.99573 287.64130
 288.37000 289.06387 289.68719 290.48151
 366.78100 356.34364 345.78428 334.65892 323.07056 311.27320 299.15184 286.96348
 274.68412 262.58976 250.60740 239.91704 230.04768 221.16032 213.35096 206.36161
 200.20425 195.15089 191.74153 189.79217 188.83781 188.91045 189.75409 191.07073
 192.80437 194.90801 197.17965 199.54729 202.00093 204.48957 206.58621 208.43685
 210.07149 211.22513 211.46277 211.69941 211.64505 211.35869 211.00033 210.63897
 210.26461 209.98325 209.79989 209.67253 209.60917 209.94882 210.34346 210.74110
 211.54274 212.72938 213.98802 215.77966 217.71630 219.76794 221.87158 223.96322
 226.03186 228.12450 230.23014 232.34478 234.48242 236.66306 238.92770 241.30634
 243.93598 246.19562 248.20626 249.97990 251.40554 252.53718 253.36782 253.69246
 253.73810 253.52074 252.88939 251.84603 250.46067 248.63031 246.54795 244.38959
 242.18923 240.00187 237.83051 235.67815 233.54679 231.42243 229.45707 227.62271
 225.91435 224.39499 223.03363 221.81427 220.70491 219.67355 218.78619 217.93583
 217.18647 216.37511 215.48175 214.85439 214.31303 214.03195 213.36732 212.79562
 212.02032 212.01520 213.51047 215.65248 218.30634 222.19771 227.47121 231.83386
 235.64262 239.81178 244.23950 248.55476 252.48871 255.88866 258.79987 261.50940
 264.34802 267.05350 269.57913 271.84186 273.84286 275.62164 277.38113 279.33038
 281.08139 282.44199 283.35992 284.45209 285.54590 286.21808 286.71103 287.40262
 288.13062 288.82172 289.43469 290.21582
 366.78100 356.34250 345.78199 334.65549 323.06598 311.26748 299.14497 286.95547
 274.67496 262.57946 250.59595 239.90445 230.03394 221.14544 213.33493 206.34443
 200.18593 195.13142 191.72092 189.77041 188.81491 188.88640 189.72890 191.04439
 192.77689 194.87938 197.14988 199.51637 201.96887 204.45636 206.55186 208.40135
 210.03485 211.18735 211.42384 211.65934 211.60383 211.31633 210.95682 210.59432
 210.21881 209.93631 209.75180 209.62330 209.55879 209.89729 210.29078 210.68728
 211.48778 212.67327 213.93077 215.72126 217.65676 219.70725 221.80975 223.90024
 225.96774 228.05923 230.16373 232.27722 234.41372 236.59321 238.85671 241.23421
 243.86270 246.12120 248.13069 249.90319 251.32768 252.45818 253.28767 253.61117
 253.65566 253.43716 252.80465 251.76015 250.37364 248.54214 246.45864 244.29913
 242.09763 239.90912 237.73662 235.58311 233.45061 231.32510 229.35860 227.52309
 225.81359 224.29308 222.93058 221.71007 220.59957 219.56706 218.67856 217.82706
 217.07655 216.26405 215.36954 214.74104 214.19853 214.00311 213.52325 212.70383
 211.93283 212.08122 213.57405 215.73775 218.40369 222.19153 227.30849 231.77138
 235.55121 239.77632 244.19453 248.49133 252.40822 255.81825 258.78122 261.55353
 264.33969 267.06552 269.58939 271.83130 273.78299 275.47015 277.32574 279.25446
 280.94888 282.19748 283.19940 284.30588 285.18637 285.87885 286.67358 287.53101
 288.31699 289.01694 289.62839 290.40759
 366.78100 356.34037 345.77773 334.64910 323.05746 311.25683 299.13219 286.94056
 274.65792 262.56029 250.57465 239.88102 230.00838 221.11775 213.30511 206.31248
 200.15184 195.09521 191.68257 189.72994 188.77230 188.84167 189.68203 190.99540
 192.72576 194.82613 197.09450 199.45886 201.90923 204.39459 206.48796 208.33532
 209.96669 211.11705 211.35142 211.58478 211.52715 211.23751 210.87588 210.51124
 210.13361 209.84897 209.66234 209.53170 209.46507 209.80143 210.19280 210.58716
 211.38553 212.56889 213.82426 215.61262 217.54599 219.59436 221.69472 223.78309
 225.84845 227.93782 230.04018 232.15155 234.28591 236.46328 238.72464 241.10001
 243.72637 245.98274 247.99010 249.76047 251.18283 252.31120 253.13856 253.45993
 253.50229 253.28166 252.64702 251.60039 250.21175 248.37812 246.29249 244.13085
 241.92722 239.73658 237.56195 235.40631 233.27168 231.14404 229.17541 227.33777
 225.62614 224.10350 222.73887 221.51623 220.40360 219.36896 218.47833 217.62469
 216.87206 216.05742 215.16079 214.53015 213.98552 213.92664 213.70659 212.70027
 211.77707 212.06480 213.70844 215.96851 218.65399 222.34244 227.28635 231.75626
 235.50598 239.74873 244.16304 248.44435 252.34055 255.74168 258.73062 261.55862
 264.36569 267.08093 269.59738 271.82092 273.71646 275.37814 277.32407 279.20993
 280.78427 282.05185 283.11566 284.08188 285.20364 286.27777 287.25772 288.14551
 288.94397 289.65500 290.27615 291.06772
 366.78100 356.34083 345.77866 334.65049 323.05932 311.25915 299.13497 286.94380
 274.66163 262.56446 250.57929 239.88612 230.01395 221.12378 213.31161 206.31944
 200.15926 195.10309 191.69092 189.73875 188.78158 188.85141 189.69224 191.00607
 192.73690 194.83773 197.10656 199.47138 201.92221 204.40804 206.50187 208.34970
 209.98153 211.13236 211.36719 211.60102 211.54385 211.25468 210.89350 210.52933
 210.15216 209.86799 209.68182 209.55165 209.48548 209.82231 210.21414 210.60897
 211.40779 212.59162 213.84745 215.63628 217.57011 219.61894 221.71977 223.80860
 225.87443 227.96426 230.06709 232.17891 234.31374 236.49157 238.75340 241.12923
 243.75606 246.01289 248.02072 249.79155 251.21438 252.34321 253.17103 253.49286
 253.53569 253.31552 252.68135 251.63518 250.24701 248.41384 246.32867 244.16750
 241.96432 239.77415 237.59998 235.44481 233.31064 231.18347 229.21530 227.37813
 225.66696 224.14479 222.78062 221.55844 220.44627 219.41210 218.52193 217.66876
 216.91659 216.10242 215.20625 214.57608 214.03191 213.96843 213.72163 212.77792
 211.76486 212.02225 213.76811 216.12312 218.78537 222.43732 227.35814 231.75752
 235.48463 239.72264 244.13649 248.39702 252.25824 255.64894 258.69016 261.59006
 264.40991 267.09116 269.61032 271.81891 273.66675 275.44067 277.41544 279.26013
 280.81976 281.96021 283.27850 284.75278 286.04047 287.17978 288.21921 289.16086
 290.00775 290.76193 291.42078 292.26038
 366.78100 356.34218 345.78137 334.65455 323.06473 311.26592 299.14310 286.95328
 274.67247 262.57665 250.59283 239.90101 230.03020 221.14138 213.33056 206.33975
 200.18093 195.12611 191.71530 189.76448 188.80866 188.87985 189.72203 191.03721
 192.76940 194.87158 197.14176 199.50794 201.96013 204.44731 206.54249 208.39168
 210.02486 211.17704 211.41323 211.64841 211.59259 211.30478 210.94496 210.58214
 210.20633 209.92351 209.73869 209.60987 209.54506 209.88324 210.27642 210.67261
 211.47279 212.65797 213.91516 215.70534 217.64052 219.69071 221.79289 223.88307
 225.95026 228.04144 230.14562 232.25880 234.39499 236.57417 238.83735 241.21454
 243.84272 246.10090 248.11009 249.88227 251.30645 252.43664 253.26582 253.58900
 253.63319 253.41437 252.78155 251.73673 250.34992 248.51810 246.43428 244.27447
 242.07265 239.88383 237.71102 235.55720 233.42438 231.29857 229.33175 227.49593
 225.78612 224.26530 222.90248 221.68166 220.57085 219.53803 218.64921 217.79740
 217.04658 216.23376 215.33895 214.71013 214.16731 214.04419 213.68291 212.85381
 211.85295 211.95149 213.69919 216.11153 218.78322 222.44749 227.36774 231.75262
 235.46742 239.69534 244.09502 248.33049 252.16866 255.55972 258.62787 261.56070
 264.38574 267.09619 269.64105 271.80811 273.60428 275.48410 277.47617 279.29617
 280.82706 282.23511 283.81097 285.25830 286.51086 287.61908 288.63013 289.54608
 290.36987 291.10345 291.74432 292.56100
 366.78100 356.34228 345.78156 334.65484 323.06512 311.26640 299.14368 286.95396
 274.67324 262.57752 250.59380 239.90208 230.03136 221.14264 213.33192 206.34120
 200.18248 195.12776 191.71704 189.76632 188.81060 188.88188 189.72416 191.03944
 192.77172 194.87400 197.14428 199.51056 201.96284 204.45012 206.54541 208.39469
 210.02797 211.18025 211.41653 211.65181 211.59609 211.30837 210.94865 210.58593
 210.21021 209.92749 209.74277 209.61405 209.54933 209.88761 210.28089 210.67717
 211.47745 212.66273 213.92001 215.71029 217.64557 219.69585 221.79813 223.88841
 225.95569 228.04697 230.15125 232.26453 234.40081 236.58009 238.84337 241.22065
 243.84893 246.10721 248.11649 249.88877 251.31305 252.44333 253.27261 253.59589
 253.64017 253.42145 252.78873 251.74401 250.35729 248.52557 246.44185 244.28213
 242.08041 239.89169 237.71897 235.56525 233.43253 231.30681 229.34009 227.50437
 225.79466 224.27394 222.91122 221.69050 220.57978 219.54706 218.65834 217.80662
 217.05590 216.24318 215.34846 214.71974 214.17702 214.05768 213.69664 212.84862
 211.95903 211.98415 213.65840 216.06516 218.74954 222.43254 227.32954 231.72066
 235.42850 239.65948 244.05704 248.27910 252.10184 255.49817 258.58911 261.53882
 264.36679 267.11038 269.68149 271.78595 273.53970 275.44513 277.41962 279.21335
 280.82370 282.40927 283.93567 285.34021 286.55573 287.63116 288.61230 289.50119
 290.30063 291.01251 291.63443 292.42697
 366.78100 356.34233 345.78165 334.65498 323.06531 311.26663 299.14396 286.95429
 274.67361 262.57794 250.59427 239.90259 230.03192 221.14325 213.33257 206.34190
 200.18322 195.12855 191.71788 189.76720 188.81153 188.88286 189.72518 191.04051
 192.77284 194.87516 197.14549 199.51182 201.96414 204.45147 206.54680 208.39612
 210.02945 211.18178 211.41810 211.65343 211.59776 211.31008 210.95041 210.58774
 210.21206 209.92939 209.74472 209.61604 209.55137 209.88970 210.28302 210.67935
 211.47967 212.66500 213.92233 215.71265 217.64798 219.69831 221.80063 223.89096
 225.95829 228.04961 230.15394 232.26727 234.40359 236.58292 238.84625 241.22357
 243.85190 246.11023 248.11955 249.89188 251.31621 252.44653 253.27586 253.59919
 253.64351 253.42484 252.79217 251.74749 250.36082 248.52915 246.44547 244.28580
 242.08412 239.89545 237.72278 235.56910 233.43643 231.31076 229.34408 227.50841
 225.79874 224.27806 222.91539 221.69472 220.58404 219.55137 218.66270 217.81102
 217.06035 216.24768 215.35300 214.72433 214.18166 214.06367 213.71085 212.83951
 211.98042 211.99474 213.61858 216.03526 218.74586 222.44032 227.29939 231.69864
 235.40813 239.64149 244.03947 248.25877 252.05733 255.46182 258.58890 261.57401
 264.39423 267.11655 269.67831 271.75534 273.48767 275.35590 277.36172 279.16794
 280.80911 282.35513 283.83524 285.18442 286.36075 287.40149 288.35104 289.21124
 289.98489 290.67386 291.27570 292.04269
 366.78100 356.34322 345.78344 334.65765 323.06887 311.27109 299.14931 286.96053
 274.68075 262.58596 250.60318 239.91240 230.04262 221.15484 213.34506 206.35527
 200.19749 195.14371 191.73393 189.78415 188.82937 188.90158 189.74480 191.06102
 192.79424 194.89746 197.16868 199.53589 201.98911 204.47733 206.57355 208.42377
 210.05799 211.21120 211.44842 211.68464 211.62986 211.34308 210.98429 210.62251
 210.24773 209.96595 209.78217 209.65439 209.59060 209.92982 210.32404 210.72126
 211.52248 212.70870 213.96691 215.75813 217.69435 219.74557 221.84879 223.94001
 226.00822 228.10044 230.20566 232.31988 234.45710 236.63732 238.90153 241.27975
 243.90897 246.16819 248.17841 249.95162 251.37684 252.50806 253.33828 253.66250
 253.70772 253.48993 252.85815 251.81437 250.42859 248.59781 246.51503 244.35624
 242.15546 239.96768 237.79590 235.64312 233.51134 231.38655 229.42077 227.58599
 225.87721 224.35743 222.99565 221.77586 220.66608 219.63430 218.74652 217.89574
 217.14596 216.33417 215.44039 214.81261 214.27083 214.10913 213.67906 212.88057
 212.00894 211.94943 213.52341 215.96887 218.72997 222.43344 227.27490 231.69287
 235.40456 239.62410 243.99644 248.18039 251.96599 255.39555 258.57593 261.61151
 264.44193 267.11133 269.64594 271.69531 273.36139 275.22971 277.27637 279.07812
 280.70288 282.20419 283.63367 284.90790 285.96591 286.89932 287.75092 288.52240
 289.21628 289.83417 290.37396 291.06183
 366.78100 356.34383 345.78465 334.65948 323.07131 311.27413 299.15296 286.96479
 274.68561 262.59144 250.60926 239.91909 230.04992 221.16274 213.35357 206.36440
 200.20722 195.15405 191.74488 189.79570 188.84153 188.91436 189.75818 191.07501
 192.80884 194.91266 197.18449 199.55232 202.00614 204.49497 206.59179 208.44262
 210.07745 211.23127 211.46910 211.70593 211.65175 211.36558 211.00741 210.64623
 210.27206 209.99089 209.80771 209.68054 209.61737 209.95719 210.35202 210.74985
 211.55167 212.73850 213.99732 215.78915 217.72598 219.77780 221.88163 223.97346
 226.04228 228.13511 230.24094 232.35576 234.49359 236.67442 238.93924 241.31807
 243.94790 246.20772 248.21855 249.99238 251.41820 252.55003 253.38085 253.70568
 253.75151 253.53433 252.90316 251.85999 250.47481 248.64464 246.56247 244.40429
 242.20412 240.01695 237.84577 235.69360 233.56243 231.43825 229.47308 227.63891
 225.93073 224.41156 223.05038 221.83121 220.72204 219.69086 218.80369 217.95352
 217.20434 216.39317 215.50000 214.87282 214.33165 214.14137 213.66096 212.95041
 212.07640 211.97581 213.43648 215.85046 218.65735 222.38617 227.23029 231.66263
 235.38377 239.59993 243.95570 248.11319 251.87967 255.33139 258.58002 261.68008
 264.55524 267.16193 269.60901 271.67966 273.28830 275.15860 277.15414 278.93195
 280.57217 282.02615 283.31848 284.58411 285.69922 286.72742 287.66547 288.51532
 289.27963 289.96027 290.55487 291.31259
 366.78100 356.34384 345.78468 334.65952 323.07136 311.27420 299.15304 286.96488
 274.68572 262.59156 250.60940 239.91924 230.05008 221.16292 213.35376 206.36460
 200.20744 195.15428 191.74512 189.79596 188.84180 188.91464 189.75848 191.07531
 192.80915 194.91299 197.18483 199.55267 202.00651 204.49535 206.59219 208.44303
 210.07787 211.23171 211.46955 211.70639 211.65223 211.36607 211.00791 210.64675
 210.27259 209.99143 209.80827 209.68111 209.61795 209.95779 210.35263 210.75047
 211.55231 212.73915 213.99799 215.78983 217.72667 219.77851 221.88235 223.97419
 226.04303 228.13587 230.24171 232.35655 234.49439 236.67523 238.94007 241.31891
 243.94875 246.20859 248.21943 249.99326 251.41910 252.55094 253.38178 253.70662
 253.75246 253.53530 252.90414 251.86098 250.47582 248.64566 246.56350 244.40534
 242.20518 240.01802 237.84686 235.69470 233.56354 231.43938 229.47422 227.64006
 225.93190 224.41274 223.05158 221.83242 220.72326 219.69210 218.80494 217.95478
 217.20562 216.39446 215.50130 214.87414 214.33298 214.14027 213.67007 213.09065
 212.16640 212.01601 213.37184 215.70955 218.53185 222.30560 227.15446 231.59918
 235.33498 239.56036 243.91042 248.04912 251.79187 255.25124 258.53632 261.67661
 264.60135 267.23044 269.60788 271.66739 273.32544 275.21005 277.14868 278.91541
 280.53058 281.93250 283.09210 284.25137 285.46191 286.55017 287.54303 288.44247
 289.25146 289.97183 290.60117 291.40317
 366.78100 356.34373 345.78446 334.65919 323.07092 311.27365 299.15238 286.96411
 274.68484 262.59057 250.60830 239.91803 230.04876 221.16149 213.35222 206.36295
 200.20568 195.15241 191.74314 189.79387 188.83960 188.91233 189.75606 191.07279
 192.80652 194.91025 197.18198 199.54971 202.00344 204.49217 206.58890 208.43963
 210.07436 211.22809 211.46582 211.70255 211.64828 211.36201 211.00374 210.64247
 210.26820 209.98693 209.80366 209.67639 209.61312 209.95285 210.34758 210.74531
 211.54704 212.73377 213.99250 215.78423 217.72096 219.77269 221.87642 223.96815
 226.03687 228.12960 230.23533 232.35006 234.48779 236.66852 238.93325 241.31198
 243.94171 246.20144 248.21217 249.98590 251.41163 252.54336 253.37409 253.69882
 253.74455 253.52728 252.89601 251.85274 250.46747 248.63720 246.55493 244.39666
 242.19639 240.00912 237.83785 235.68558 233.55431 231.43004 229.46477 227.63050
 225.92223 224.40296 223.04169 221.82242 220.71315 219.68188 218.79461 217.94434
 217.19507 216.38380 215.49053 214.86326 214.32199 214.13638 213.68858 213.18199
 212.29512 212.02455 213.34462 215.65428 218.45985 222.25949 227.09541 231.55611
 235.28275 239.52113 243.87694 248.01401 251.73877 255.19490 258.49380 261.63174
 264.55161 267.20151 269.57816 271.65668 273.39352 275.32562 277.24164 278.99774
 280.55444 281.86569 282.94971 284.33060 285.58966 286.70361 287.71994 288.64066
 289.46872 290.20612 290.85031 291.67123
 366.78100 356.34357 345.78414 334.65871 323.07028 311.27285 299.15142 286.96299
 274.68356 262.58914 250.60671 239.91628 230.04685 221.15942 213.34999 206.36056
 200.20313 195.14970 191.74027 189.79084 188.83641 188.90898 189.75255 191.06912
 192.80269 194.90627 197.17784 199.54541 201.99898 204.48755 206.58412 208.43469
 210.06926 211.22283 211.46040 211.69697 211.64254 211.35611 210.99768 210.63625
 210.26182 209.98039 209.79697 209.66954 209.60611 209.94568 210.34025 210.73782
 211.53939 212.72596 213.98453 215.77610 217.71267 219.76424 221.86781 223.95938
 226.02795 228.12052 230.22610 232.34067 234.47824 236.65881 238.92338 241.30195
 243.93152 246.19109 248.20166 249.97523 251.40080 252.53237 253.36294 253.68751
 253.73308 253.51565 252.88422 251.84080 250.45537 248.62494 246.54251 244.38408
 242.18365 239.99622 237.82479 235.67236 233.54093 231.41650 229.45107 227.61664
 225.90821 224.38878 223.02735 221.80793 220.69850 219.66707 218.77964 217.92921
 217.17978 216.36835 215.47492 214.84749 214.30606 214.13750 213.71611 213.19122
 212.44466 212.06236 213.34068 215.62871 218.40894 222.22803 227.05994 231.50694
 235.24135 239.48811 243.84404 247.96806 251.70003 255.19885 258.53598 261.67853
 264.58762 267.22629 269.53976 271.63022 273.44730 275.39880 277.28595 278.97247
 280.49063 281.85992 283.40353 284.91000 286.25162 287.43863 288.52158 289.50269
 290.38504 291.17081 291.85724 292.73203
 366.78100 356.34344 345.78389 334.65833 323.06978 311.27222 299.15066 286.96211
 274.68255 262.58800 250.60544 239.91488 230.04533 221.15777 213.34822 206.35866
 200.20110 195.14755 191.73799 189.78844 188.83388 188.90632 189.74977 191.06621
 192.79966 194.90310 197.17454 199.54199 201.99543 204.48387 206.58032 208.43076
 210.06521 211.21865 211.45609 211.69254 211.63798 211.35143 210.99287 210.63131
 210.25676 209.97520 209.79165 209.66409 209.60053 209.93998 210.33442 210.73187
 211.53331 212.71975 213.97820 215.76964 217.70609 219.75753 221.86097 223.95242
 226.02086 228.11331 230.21875 232.33319 234.47064 236.65108 238.91553 241.29397
 243.92341 246.18286 248.19330 249.96675 251.39219 252.52363 253.35408 253.67852
 253.72397 253.50641 252.87485 251.83130 250.44574 248.61518 246.53263 244.37407
 242.17352 239.98596 237.81440 235.66185 233.53029 231.40574 229.44018 227.60562
 225.89707 224.37751 223.01596 221.79640 220.68684 219.65529 218.76773 217.91718
 217.16762 216.35606 215.46251 214.83495 214.29340 214.15906 213.76457 213.13464
 212.59583 212.24052 213.37721 215.61253 218.34930 222.14705 227.02969 231.43701
 235.17480 239.39662 243.71455 247.80313 251.55028 255.09744 258.49554 261.68201
 264.62180 267.26559 269.54187 271.58817 273.54523 275.53018 277.44772 279.12576
 280.75943 282.58112 284.43896 286.07425 287.48941 288.74149 289.88379 290.91867
 291.84940 292.67825 293.40228 294.32501
 366.78100 356.34275 345.78249 334.65624 323.06699 311.26873 299.14648 286.95723
 274.67697 262.58172 250.59846 239.90721 230.03696 221.14870 213.33845 206.34820
 200.18994 195.13569 191.72544 189.77518 188.81993 188.89168 189.73442 191.05017
 192.78292 194.88566 197.15641 199.52315 201.97590 204.46365 206.55939 208.40914
 210.04289 211.19563 211.43238 211.66813 211.61287 211.32562 210.96637 210.60411
 210.22886 209.94661 209.76235 209.63410 209.56985 209.90859 210.30234 210.69908
 211.49983 212.68558 213.94332 215.73407 217.66982 219.72056 221.82331 223.91406
 225.98180 228.07355 230.17830 232.29204 234.42879 236.60854 238.87228 241.25003
 243.87877 246.13752 248.14727 249.92001 251.34476 252.47551 253.30525 253.62900
 253.67375 253.45549 252.82324 251.77899 250.39273 248.56148 246.47823 244.31897
 242.11772 239.92946 237.75721 235.60396 233.47170 231.34645 229.38020 227.54494
 225.83569 224.31544 222.95318 221.73293 220.62268 219.59042 218.70217 217.85092
 217.10066 216.28841 215.39416 214.76590 214.22365 214.16212 213.83926 213.04155
 212.51443 212.30995 213.38649 215.69711 218.49417 222.16125 227.05478 231.41936
 235.15059 239.34660 243.62648 247.67247 251.39859 254.96864 258.39709 261.61325
 264.59357 267.23090 269.58630 271.78101 273.84998 275.87274 277.80069 279.48282
 281.82495 284.00525 285.89194 287.54858 288.98227 290.25070 291.40796 292.45636
 293.39926 294.23895 294.97247 295.90726
 366.78100 356.34210 345.78121 334.65431 323.06442 311.26552 299.14263 286.95273
 274.67184 262.57594 250.59205 239.90015 230.02926 221.14036 213.32947 206.33857
 200.17968 195.12478 191.71388 189.76299 188.80709 188.87820 189.72030 191.03541
 192.76751 194.86962 197.13972 199.50583 201.95793 204.44504 206.54014 208.38925
 210.02235 211.17445 211.41056 211.64566 211.58977 211.30187 210.94198 210.57908
 210.20319 209.92029 209.73540 209.60650 209.54161 209.87971 210.27282 210.66892
 211.46903 212.65413 213.91123 215.70134 217.63644 219.68655 221.78865 223.87876
 225.94586 228.03697 230.14107 232.25418 234.39028 236.56939 238.83249 241.20960
 243.83770 246.09581 248.10491 249.87701 251.30112 252.43122 253.26033 253.58343
 253.62754 253.40864 252.77575 251.73085 250.34396 248.51206 246.42817 244.26827
 242.06638 239.87748 237.70459 235.55069 233.41779 231.29190 229.32500 227.48911
 225.77921 224.25832 222.89542 221.67453 220.56363 219.53074 218.64184 217.78995
 217.03905 216.22616 215.33126 214.70236 214.15947 214.13664 213.90019 213.03513
 212.36580 212.26175 213.33916 215.68762 218.55775 222.23701 227.15457 231.48958
 235.20029 239.37619 243.64064 247.67542 251.38049 254.95009 258.37216 261.54773
 264.49536 267.20148 269.61307 271.87393 274.07343 276.09366 277.69687 279.73178
 282.01892 284.12347 285.94461 287.54370 288.92758 290.15195 291.26901 292.28098
 293.19113 294.00165 294.70969 295.61200
 366.78100 356.34297 345.78295 334.65692 323.06790 311.26987 299.14785 286.95882
 274.67880 262.58377 250.60075 239.90972 230.03970 221.15167 213.34165 206.35162
 200.19360 195.13957 191.72955 189.77952 188.82450 188.89647 189.73945 191.05542
 192.78840 194.89137 197.16235 199.52932 201.98230 204.47027 206.56625 208.41622
 210.05020 211.20317 211.44015 211.67612 211.62110 211.33407 210.97505 210.61302
 210.23800 209.95597 209.77195 209.64392 209.57990 209.91887 210.31285 210.70982
 211.51080 212.69677 213.95475 215.74572 217.68170 219.73267 221.83564 223.92662
 225.99459 228.08657 230.19154 232.30552 234.44249 236.62247 238.88644 241.26442
 243.89339 246.15237 248.16234 249.93532 251.36029 252.49127 253.32124 253.64522
 253.69019 253.47217 252.84014 251.79612 250.41009 248.57907 246.49604 244.33702
 242.13599 239.94797 237.77594 235.62292 233.49089 231.36587 229.39984 227.56482
 225.85579 224.33577 222.97374 221.75372 220.64369 219.61167 218.72364 217.87262
 217.12259 216.31057 215.41654 214.78852 214.24649 214.15469 213.85626 213.16179
 212.43906 212.24748 213.33044 215.50194 218.41302 222.26836 227.14639 231.52505
 235.21822 239.37914 243.62695 247.65921 251.37839 254.91612 258.28964 261.44659
 264.41672 267.09225 269.43579 271.72458 273.97519 276.00366 277.63629 278.93179
 280.52481 282.14340 283.74188 285.15915 286.38568 287.47086 288.46091 289.35785
 290.16452 290.88287 291.51041 292.31015
 366.78100 356.34436 345.78571 334.66107 323.07343 311.27678 299.15614 286.96850
 274.68985 262.59621 250.61457 239.92492 230.05628 221.16964 213.36099 206.37235
 200.21571 195.16306 191.75442 189.80578 188.85213 188.92549 189.76985 191.08721
 192.82156 194.92592 197.19828 199.56663 202.02099 204.51035 206.60770 208.45906
 210.09442 211.24877 211.48713 211.72449 211.67084 211.38520 211.02756 210.66691
 210.29327 210.01263 209.82998 209.70334 209.64070 209.98105 210.37641 210.77477
 211.57712 212.76448 214.02384 215.81619 217.75355 219.80591 221.91026 224.00262
 226.07198 228.16533 230.27169 232.38705 234.52540 236.70676 238.97212 241.35147
 243.98183 246.24219 248.25354 250.02790 251.45426 252.58662 253.41797 253.74333
 253.78969 253.57304 252.94240 251.89976 250.51511 248.68547 246.60383 244.44618
 242.24654 240.05990 237.88925 235.73761 233.60697 231.48332 229.51868 227.68504
 225.97739 224.45875 223.09811 221.87946 220.77082 219.74018 218.85353 218.00389
 217.25525 216.44460 215.55196 214.92532 214.38467 214.21454 213.77194 213.18637
 212.68602 212.31798 213.36221 215.45009 218.28853 222.15132 227.02853 231.41725
 235.13495 239.31764 243.57164 247.57561 251.25151 254.80254 258.20898 261.39120
 264.35678 267.00140 269.27026 271.24994 273.56677 275.67920 277.38040 278.74918
 279.75800 280.79733 281.95248 283.23767 284.38828 285.40628 286.33502 287.17642
 287.93317 288.60706 289.19574 289.94595
 366.78100 356.34518 345.78737 334.66355 323.07673 311.28092 299.16110 286.97429
 274.69647 262.60365 250.62284 239.93402 230.06620 221.18039 213.37257 206.38475
 200.22894 195.17712 191.76931 189.82149 188.86867 188.94286 189.78804 191.10622
 192.84141 194.94659 197.21977 199.58896 202.04414 204.53432 206.63251 208.48469
 210.12088 211.27606 211.51524 211.75343 211.70061 211.41579 211.05898 210.69916
 210.32634 210.04653 209.86471 209.73890 209.67708 210.01826 210.41445 210.81363
 211.61681 212.80500 214.06518 215.85836 217.79655 219.84973 221.95492 224.04810
 226.11828 228.21247 230.31965 232.43583 234.57502 236.75720 239.02338 241.40357
 244.03475 246.29593 248.30812 250.08330 251.51049 252.64367 253.47585 253.80204
 253.84922 253.63340 253.00359 251.96177 250.57795 248.74914 246.66832 244.51151
 242.31269 240.12687 237.95706 235.80624 233.67642 231.55361 229.58979 227.75697
 226.05016 224.53234 223.17253 221.95471 220.84689 219.81708 218.93126 218.08244
 217.33463 216.52481 215.63299 215.00718 214.46736 214.27786 213.76347 213.11150
 212.72005 212.55275 213.55193 215.50493 218.22304 222.06461 227.03304 231.39955
 235.10451 239.26535 243.48482 247.45702 251.14014 254.72923 258.16986 261.36243
 264.35522 266.98859 269.18118 271.11407 273.12650 275.12775 276.77960 278.07666
 279.44266 280.58646 281.47577 282.27097 282.95914 283.56799 284.12347 284.62671
 285.07932 285.48236 285.83447 286.28317
 366.78100 356.34420 345.78540 334.66060 323.07281 311.27601 299.15521 286.96741
 274.68861 262.59481 250.61301 239.92321 230.05442 221.16762 213.35882 206.37002
 200.21322 195.16042 191.75162 189.80282 188.84903 188.92223 189.76643 191.08363
 192.81783 194.92203 197.19423 199.56243 202.01664 204.50584 206.60304 208.45424
 210.08944 211.24364 211.48184 211.71904 211.66525 211.37945 211.02165 210.66085
 210.28705 210.00625 209.82345 209.69665 209.63386 209.97406 210.36926 210.76746
 211.56966 212.75686 214.01606 215.80826 217.74547 219.79767 221.90187 223.99407
 226.06327 228.15647 230.26267 232.37787 234.51608 236.69728 238.96248 241.34168
 243.97188 246.23208 248.24328 250.01748 251.44369 252.57589 253.40709 253.73229
 253.77849 253.56169 252.93089 251.88809 250.50330 248.67350 246.59170 244.43390
 242.23410 240.04730 237.87650 235.72470 233.59391 231.47011 229.50531 227.67151
 225.96371 224.44491 223.08411 221.86531 220.75652 219.72572 218.83892 217.98912
 217.24032 216.42952 215.53672 214.90992 214.36913 214.25282 213.84863 213.06863
 212.65411 212.60939 213.49567 215.41380 218.18318 222.08372 227.07977 231.49168
 235.20274 239.35127 243.55440 247.51468 251.22507 254.87503 258.34171 261.45575
 264.33258 266.93839 269.10547 271.03751 272.97549 274.88144 276.64896 278.23572
 279.66794 280.60211 281.35080 282.00821 282.57715 283.08051 283.53973 283.95575
 284.32993 284.66315 284.95422 285.32520
 366.78100 356.34215 345.78130 334.65445 323.06460 311.26576 299.14291 286.95306
 274.67221 262.57636 250.59251 239.90066 230.02981 221.14097 213.33012 206.33927
 200.18042 195.12557 191.71472 189.76387 188.80802 188.87918 189.72133 191.03648
 192.76863 194.87078 197.14093 199.50708 201.95923 204.44639 206.54154 208.39069
 210.02384 211.17599 211.41214 211.64729 211.59144 211.30360 210.94375 210.58090
 210.20505 209.92220 209.73735 209.60850 209.54365 209.88181 210.27496 210.67111
 211.47126 212.65641 213.91356 215.70371 217.63886 219.68902 221.79117 223.88132
 225.94847 228.03962 230.14377 232.25692 234.39307 236.57223 238.83538 241.21253
 243.84068 246.09883 248.10798 249.88013 251.30428 252.43444 253.26359 253.58674
 253.63089 253.41204 252.77919 251.73434 250.34749 248.51565 246.43180 244.27195
 242.07010 239.88125 237.70840 235.55455 233.42170 231.29586 229.32901 227.49316
 225.78331 224.26246 222.89961 221.67876 220.56791 219.53506 218.64622 217.79437
 217.04352 216.23067 215.33582 214.70697 214.16412 214.15700 213.96880 213.17946
 212.74113 212.57164 213.29242 215.20020 218.10196 222.06680 226.99458 231.48987
 235.21521 239.37250 243.57390 247.54449 251.30699 255.06157 258.62482 261.76337
 264.51984 266.94308 269.07285 270.94287 272.89291 274.93890 276.70392 278.31488
 279.62381 280.49927 281.22437 281.86105 282.41205 282.89954 283.34427 283.74719
 284.10959 284.43228 284.71417 285.07346
 366.78100 356.34131 345.77961 334.65192 323.06123 311.26153 299.13784 286.94715
 274.66545 262.56876 250.58407 239.89137 230.01968 221.12999 213.31830 206.32660
 200.16691 195.11122 191.69952 189.74783 188.79114 188.86144 189.70275 191.01706
 192.74836 194.84967 197.11898 199.48428 201.93559 204.42190 206.51620 208.36451
 209.99682 211.14812 211.38343 211.61774 211.56105 211.27235 210.91166 210.54797
 210.17127 209.88758 209.70189 209.57219 209.50650 209.84381 210.23611 210.63142
 211.43073 212.61503 213.87134 215.66065 217.59495 219.64426 221.74557 223.83487
 225.90118 227.99149 230.09480 232.20710 234.34241 236.52072 238.78302 241.15933
 243.78664 246.04394 248.05225 249.82356 251.24686 252.37617 253.20448 253.52678
 253.57009 253.35040 252.71670 251.67101 250.28332 248.45062 246.36593 244.20524
 242.00255 239.81285 237.63916 235.48447 233.35077 231.22408 229.25639 227.41969
 225.70900 224.18731 222.82361 221.60192 220.49023 219.45653 218.56684 217.71415
 216.96245 216.14876 215.25307 214.62337 214.07968 214.12480 214.02556 213.29858
 212.86197 212.54460 213.14655 215.11424 218.06064 221.98581 226.90854 231.39249
 235.11658 239.27338 243.46405 247.42456 251.19606 255.02049 258.68936 261.99820
 264.95917 267.47202 269.49799 271.18582 272.84537 274.82321 276.76151 278.34720
 279.50534 280.37271 281.12329 281.78235 282.35269 282.85733 283.31772 283.73477
 284.10989 284.44394 284.73575 285.10764
 366.78100 356.34254 345.78209 334.65563 323.06618 311.26772 299.14526 286.95581
 274.67535 262.57989 250.59644 239.90498 230.03453 221.14607 213.33561 206.34516
 200.18670 195.13225 191.72179 189.77133 188.81588 188.88742 189.72996 191.04551
 192.77805 194.88060 197.15114 199.51768 201.97023 204.45777 206.55332 208.40286
 210.03640 211.18895 211.42549 211.66103 211.60558 211.31812 210.95867 210.59621
 210.22075 209.93830 209.75384 209.62539 209.56093 209.89947 210.29302 210.68956
 211.49010 212.67565 213.93319 215.72374 217.65928 219.70982 221.81237 223.90291
 225.97046 228.06200 230.16654 232.28009 234.41663 236.59617 238.85972 241.23726
 243.86581 246.12435 248.13389 249.90644 251.33098 252.46153 253.29107 253.61461
 253.65916 253.44070 252.80824 251.76379 250.37733 248.54588 246.46242 244.30296
 242.10151 239.91305 237.74060 235.58714 233.45468 231.32923 229.36277 227.52731
 225.81786 224.29740 222.93495 221.71449 220.60403 219.57158 218.68312 217.83167
 217.08121 216.26875 215.37430 214.74584 214.20338 214.18877 213.99141 213.32556
 212.88197 212.59358 213.14763 215.02557 217.99413 221.96754 226.89658 231.37334
 235.08000 239.22733 243.40480 247.33424 251.07642 254.91707 258.64612 262.03772
 265.21524 268.09103 270.49823 272.41672 273.95700 275.28210 276.53149 278.31415
 279.42844 280.20926 280.88492 281.47821 281.99167 282.44592 282.86038 283.23584
 283.57352 283.87424 284.13693 284.47171
 366.78100 356.34344 345.78389 334.65833 323.06977 311.27221 299.15066 286.96210
 274.68254 262.58798 250.60543 239.91487 230.04531 221.15775 213.34820 206.35864
 200.20108 195.14752 191.73797 189.78841 188.83385 188.90629 189.74974 191.06618
 192.79962 194.90306 197.17451 199.54195 201.99539 204.48384 206.58028 208.43072
 210.06516 211.21861 211.45605 211.69249 211.63793 211.35138 210.99282 210.63126
 210.25670 209.97515 209.79159 209.66403 209.60047 209.93992 210.33436 210.73180
 211.53324 212.71969 213.97813 215.76957 217.70601 219.75746 221.86090 223.95234
 226.02078 228.11323 230.21867 232.33311 234.47056 236.65100 238.91544 241.29388
 243.92333 246.18277 248.19321 249.96665 251.39210 252.52354 253.35398 253.67842
 253.72387 253.50631 252.87475 251.83119 250.44564 248.61508 246.53252 244.37396
 242.17341 239.98585 237.81429 235.66173 233.53018 231.40562 229.44006 227.60551
 225.89695 224.37739 223.01583 221.79628 220.68672 219.65516 218.76760 217.91705
 217.16749 216.35593 215.46237 214.83482 214.29326 214.21817 213.96355 213.37723
 212.87100 212.61263 213.22891 214.96440 217.90015 221.98605 226.81570 231.38925
 235.06583 239.19536 243.35985 247.28253 251.00404 254.72420 258.32693 261.61588
 264.74902 267.78253 270.60333 272.96854 274.84793 276.32867 277.25720 278.13348
 279.56042 281.15897 282.96368 284.59338 286.00372 287.25153 288.38995 289.42130
 290.34888 291.17490 291.89648 292.81604
 366.78100 356.34317 345.78334 334.65751 323.06868 311.27085 299.14902 286.96019
 274.68036 262.58553 250.60270 239.91187 230.04204 221.15420 213.34437 206.35454
 200.19671 195.14288 191.73305 189.78322 188.82839 188.90056 189.74373 191.05990
 192.79307 194.89624 197.16741 199.53458 201.98775 204.47592 206.57209 208.42226
 210.05643 211.20960 211.44677 211.68294 211.62811 211.34128 210.98245 210.62061
 210.24578 209.96395 209.78012 209.65229 209.58846 209.92763 210.32180 210.71897
 211.52014 212.70631 213.96448 215.75565 217.69182 219.74299 221.84616 223.93733
 226.00550 228.09767 230.20284 232.31701 234.45418 236.63435 238.89852 241.27669
 243.90585 246.16502 248.17519 249.94836 251.37353 252.50470 253.33487 253.65904
 253.70421 253.48638 252.85455 251.81072 250.42489 248.59406 246.51123 244.35240
 242.15157 239.96374 237.79191 235.63908 233.50725 231.38242 229.41659 227.58176
 225.87293 224.35310 222.99126 221.77143 220.66160 219.62977 218.74194 217.89111
 217.14128 216.32945 215.43562 214.80779 214.26596 214.19345 213.97620 213.44719
 212.89183 212.53352 213.23137 215.00250 217.89470 221.91959 226.81360 231.33859
 235.02295 239.16982 243.35715 247.29626 250.98064 254.65524 258.19891 261.37384
 264.28577 267.09720 269.88736 272.40549 274.44208 276.07803 277.32455 278.35754
 279.71902 281.13824 282.61383 284.08200 285.46960 286.69727 287.81732 288.83203
 289.74463 290.55731 291.26727 292.17200
 366.78100 356.34200 345.78099 334.65399 323.06398 311.26498 299.14198 286.95197
 274.67097 262.57497 250.59096 239.89896 230.02795 221.13895 213.32795 206.33694
 200.17794 195.12294 191.71193 189.76093 188.80492 188.87592 189.71792 191.03291
 192.76491 194.86691 197.13690 199.50290 201.95489 204.44189 206.53689 208.38588
 210.01888 211.17087 211.40687 211.64187 211.58586 211.29786 210.93786 210.57485
 210.19885 209.91584 209.73084 209.60184 209.53683 209.87483 210.26783 210.66382
 211.46382 212.64881 213.90581 215.69581 217.63080 219.68080 221.78280 223.87279
 225.93979 228.03078 230.13478 232.24778 234.38377 236.56277 238.82576 241.20276
 243.83076 246.08875 248.09775 249.86975 251.29374 252.42374 253.25273 253.57573
 253.61973 253.40072 252.76772 251.72272 250.33571 248.50371 246.41970 244.25970
 242.05770 239.86869 237.69569 235.54169 233.40868 231.28268 229.31567 227.47967
 225.76967 224.24866 222.88566 221.66465 220.55365 219.52065 218.63164 217.77964
 217.02864 216.21563 215.32063 214.69162 214.14862 214.13397 214.04880 213.44952
 212.84167 212.49083 213.18416 214.98138 217.86340 221.86771 226.82692 231.30019
 235.01097 239.14592 243.33678 247.30583 251.03793 254.76161 258.38763 261.54614
 264.35434 266.97540 269.58475 272.04956 274.06656 275.63312 276.89316 278.14902
 279.66806 281.19141 282.64590 284.00122 285.24066 286.39188 287.44220 288.39371
 289.24948 290.01157 290.67731 291.52570
 366.78100 356.34051 345.77801 334.64952 323.05802 311.25753 299.13304 286.94154
 274.65905 262.56156 250.57606 239.88257 230.01007 221.11958 213.30709 206.31459
 200.15410 195.09761 191.68511 189.73262 188.77512 188.84463 189.68514 190.99864
 192.72915 194.82965 197.09816 199.46267 201.91317 204.39868 206.49219 208.33969
 209.97120 211.12170 211.35621 211.58972 211.53222 211.24273 210.88124 210.51674
 210.13925 209.85475 209.66826 209.53777 209.47127 209.80778 210.19928 210.59379
 211.39230 212.57580 213.83131 215.61982 217.55332 219.60183 221.70233 223.79084
 225.85635 227.94585 230.04836 232.15986 234.29437 236.47188 238.73338 241.10889
 243.73540 245.99190 247.99941 249.76991 251.19242 252.32093 253.14843 253.46994
 253.51245 253.29195 252.65746 251.61096 250.22247 248.38898 246.30348 244.14199
 241.93849 239.74800 237.57351 235.41801 233.28352 231.15603 229.18753 227.35004
 225.63854 224.11605 222.75156 221.52906 220.41657 219.38208 218.49158 217.63809
 216.88559 216.07110 215.17461 214.54411 213.99962 214.04846 214.13388 213.54660
 212.71925 212.28387 212.99837 214.85791 217.78003 221.80296 226.87311 231.26091
 235.00923 239.10976 243.28311 247.26140 251.04552 254.80373 258.45453 261.70953
 264.55200 267.12558 269.58984 271.94284 273.90112 275.41568 276.78091 278.13376
 279.55905 281.00577 282.35657 283.59235 284.70163 285.74164 286.75601 287.71368
 288.57501 289.34204 290.01212 290.86603
 366.78100 356.33983 345.77666 334.64749 323.05533 311.25416 299.12899 286.93682
 274.65365 262.55548 250.56931 239.87515 230.00198 221.11081 213.29764 206.30447
 200.14330 195.08613 191.67297 189.71980 188.76163 188.83046 189.67029 190.98312
 192.71295 194.81279 197.08062 199.44445 201.89428 204.37911 206.47194 208.31877
 209.94961 211.09944 211.33327 211.56610 211.50793 211.21776 210.85559 210.49043
 210.11226 209.82709 209.63992 209.50875 209.44158 209.77741 210.16825 210.56208
 211.35991 212.54274 213.79757 215.58540 217.51823 219.56607 221.66590 223.75373
 225.81856 227.90739 230.00922 232.12006 234.25389 236.43072 238.69155 241.06638
 243.69221 245.94804 247.95488 249.72471 251.14654 252.27437 253.10120 253.42203
 253.46386 253.24270 252.60753 251.56036 250.17119 248.33702 246.25085 244.08868
 241.88452 239.69335 237.51818 235.36201 233.22684 231.09867 229.12950 227.29134
 225.57917 224.05600 222.69083 221.46766 220.35449 219.31932 218.42816 217.57399
 216.82082 216.00565 215.10848 214.47731 213.93214 214.00366 214.16399 213.69710
 212.88911 212.30504 212.88202 214.72740 217.67053 221.73236 226.91093 231.21562
 235.00484 239.08859 243.24677 247.19724 250.96277 254.72098 258.41013 261.73303
 264.63831 267.21265 269.56339 271.82330 273.75592 275.25784 276.66913 278.06100
 279.44748 280.90860 282.20007 283.28894 284.17871 285.02756 285.96335 286.84073
 287.69431 288.47699 289.16077 290.03210
 366.78100 356.34019 345.77738 334.64856 323.05675 311.25594 299.13113 286.93932
 274.65650 262.55869 250.57288 239.87907 230.00625 221.11544 213.30263 206.30982
 200.14901 195.09219 191.67938 189.72657 188.76876 188.83795 189.67813 190.99132
 192.72151 194.82170 197.08989 199.45407 201.90426 204.38945 206.48264 208.32982
 209.96101 211.11120 211.34539 211.57858 211.52076 211.23095 210.86914 210.50433
 210.12652 209.84170 209.65489 209.52408 209.45727 209.79345 210.18464 210.57883
 211.37702 212.56021 213.81539 215.60358 217.53677 219.58496 221.68515 223.77333
 225.83852 227.92771 230.02990 232.14109 234.27527 236.45246 238.71365 241.08884
 243.71502 245.97121 247.97840 249.74859 251.17078 252.29896 253.12615 253.44734
 253.48953 253.26872 252.63390 251.58709 250.19828 248.36447 246.27866 244.11684
 241.91303 239.72222 237.54741 235.39159 233.25678 231.12897 229.16016 227.32235
 225.61053 224.08772 222.72291 221.50010 220.38729 219.35247 218.46166 217.60785
 216.85504 216.04023 215.14341 214.51260 213.96779 214.02675 214.15755 213.76509
 212.93822 212.34323 212.85411 214.65414 217.60677 221.68054 226.86850 231.19991
 234.98639 239.07999 243.22859 247.15775 250.89973 254.65680 258.36563 261.73380
 264.71683 267.34695 269.69244 271.87531 273.68307 275.10938 276.51901 277.95148
 279.35284 280.80078 282.13806 283.30838 284.12466 284.89267 285.82355 286.70621
 287.59198 288.39346 289.09360 289.98587
 366.78100 356.34226 345.78153 334.65479 323.06505 311.26632 299.14358 286.95384
 274.67311 262.57737 250.59363 239.90190 230.03116 221.14242 213.33169 206.34095
 200.18221 195.12748 191.71674 189.76600 188.81027 188.88153 189.72379 191.03906
 192.77132 194.87358 197.14385 199.51011 201.96237 204.44964 206.54490 208.39417
 210.02743 211.17969 211.41596 211.65122 211.59548 211.30775 210.94801 210.58527
 210.20954 209.92680 209.74206 209.61333 209.54859 209.88685 210.28012 210.67638
 211.47664 212.66191 213.91917 215.70943 217.64470 219.69496 221.79722 223.88749
 225.95475 228.04601 230.15028 232.26354 234.39980 236.57907 238.84233 241.21959
 243.84786 246.10612 248.11538 249.88765 251.31191 252.44217 253.27144 253.59470
 253.63896 253.42023 252.78749 251.74275 250.35602 248.52428 246.44054 244.28081
 242.07907 239.89033 237.71760 235.56386 233.43112 231.30539 229.33865 227.50291
 225.79318 224.27244 222.90970 221.68897 220.57823 219.54550 218.65676 217.80502
 217.05429 216.24155 215.34681 214.71808 214.17534 214.14279 214.06296 213.87262
 212.94678 212.26991 212.79456 214.59518 217.57500 221.65094 226.81088 231.20403
 234.96614 239.07999 243.22835 247.15033 250.88066 254.62877 258.32288 261.71112
 264.76050 267.46109 269.85208 272.01846 273.72714 275.07581 276.48087 277.94760
 279.38086 280.82059 282.09473 283.18707 284.21899 285.19763 286.16904 287.14655
 288.05228 288.85883 289.56342 290.46133
 366.78100 356.34428 345.78556 334.66083 323.07311 311.27639 299.15567 286.96794
 274.68922 262.59550 250.61378 239.92405 230.05533 221.16861 213.35989 206.37117
 200.21444 195.16172 191.75300 189.80428 188.85055 188.92383 189.76811 191.08539
 192.81966 194.92394 197.19622 199.56450 202.01878 204.50805 206.60533 208.45661
 210.09189 211.24616 211.48444 211.72172 211.66800 211.38227 211.02455 210.66383
 210.29011 210.00939 209.82666 209.69994 209.63722 209.97750 210.37277 210.77105
 211.57333 212.76061 214.01989 215.81216 217.74944 219.80172 221.90600 223.99827
 226.06755 228.16083 230.26711 232.38238 234.52066 236.70194 238.96722 241.34650
 243.97677 246.23705 248.24833 250.02261 251.44888 252.58116 253.41244 253.73772
 253.78399 253.56727 252.93655 251.89383 250.50911 248.67938 246.59766 244.43994
 242.24022 240.05349 237.88277 235.73105 233.60033 231.47660 229.51188 227.67816
 225.97044 224.45172 223.09099 221.87227 220.76355 219.73283 218.84610 217.99638
 217.24766 216.43694 215.54421 214.91749 214.37677 214.25233 213.96967 213.99982
 213.06764 212.11145 212.62427 214.51198 217.55621 221.64989 226.80734 231.21907
 234.97513 239.10497 243.26880 247.19414 250.90546 254.62317 258.28598 261.66010
 264.73386 267.49265 269.91861 272.07440 273.67545 274.90463 276.31293 277.80759
 279.33710 280.77661 282.05737 283.34595 284.51434 285.55167 286.53558 287.53967
 288.44272 289.24689 289.94940 290.84467
 366.78100 356.34321 345.78342 334.65762 323.06883 311.27104 299.14925 286.96046
 274.68067 262.58587 250.60308 239.91229 230.04250 221.15471 213.34491 206.35512
 200.19733 195.14354 191.73375 189.78396 188.82916 188.90137 189.74458 191.06079
 192.79400 194.89721 197.16841 199.53562 201.98883 204.47704 206.57325 208.42345
 210.05766 211.21087 211.44808 211.68429 211.62950 211.34270 210.98391 210.62212
 210.24733 209.96554 209.78174 209.65395 209.59016 209.92937 210.32358 210.72079
 211.52199 212.70820 213.96641 215.75762 217.69383 219.74504 221.84824 223.93945
 226.00766 228.09987 230.20508 232.31928 234.45649 236.63670 238.90091 241.27912
 243.90833 246.16753 248.17774 249.95095 251.37616 252.50737 253.33757 253.66178
 253.70699 253.48920 252.85741 251.81362 250.42782 248.59703 246.51424 244.35545
 242.15466 239.96687 237.79507 235.64228 233.51049 231.38570 229.41991 227.58511
 225.87632 224.35653 222.99474 221.77495 220.66516 219.63336 218.74557 217.89478
 217.14499 216.33320 215.43940 214.81161 214.26982 214.20857 214.06482 213.95827
 213.35179 212.09613 212.39995 214.34996 217.45818 221.59784 226.78046 231.20407
 234.97371 239.11914 243.30756 247.24617 250.94508 254.62985 258.25452 261.59195
 264.65433 267.45520 269.93237 272.08212 273.58270 274.75540 276.15887 277.67310
 279.28809 280.77325 282.17090 283.52429 284.71335 285.75778 286.74179 287.73874
 288.63730 289.43747 290.13647 291.02728
 366.78100 356.34062 345.77825 334.64987 323.05850 311.25812 299.13374 286.94237
 274.65999 262.56262 250.57724 239.88386 230.01149 221.12111 213.30874 206.31636
 200.15598 195.09961 191.68723 189.73486 188.77748 188.84710 189.68773 191.00135
 192.73198 194.83260 197.10122 199.46585 201.91647 204.40210 206.49572 208.34334
 209.97497 211.12559 211.36022 211.59384 211.53646 211.24709 210.88571 210.52134
 210.14396 209.85958 209.67321 209.54283 209.47646 209.81308 210.20470 210.59933
 211.39795 212.58158 213.83720 215.62582 217.55945 219.60807 221.70870 223.79732
 225.86294 227.95257 230.05519 232.16682 234.30144 236.47906 238.74069 241.11631
 243.74293 245.99956 248.00718 249.77781 251.20043 252.32905 253.15668 253.47830
 253.52093 253.30055 252.66617 251.61980 250.23142 248.39805 246.31267 244.15129
 241.94792 239.75754 237.58317 235.42779 233.29341 231.16604 229.19766 227.36029
 225.64891 224.12653 222.76216 221.53978 220.42741 219.39303 218.50265 217.64928
 216.89690 216.08253 215.18615 214.55577 214.01140 214.09874 214.27000 213.77859
 213.50677 212.28513 212.34026 214.21251 217.32329 221.49222 226.67296 231.14529
 234.91260 239.09108 243.30283 247.26282 250.97209 254.65268 258.25500 261.56876
 264.59659 267.39328 269.90930 272.12213 273.56360 274.72058 276.09686 277.67249
 279.30658 280.81863 282.31009 283.69043 284.90433 285.98697 287.10251 288.13385
 289.06143 289.88745 290.60904 291.52863
 366.78100 356.34024 345.77749 334.64873 323.05697 311.25621 299.13146 286.93970
 274.65694 262.55918 250.57343 239.87967 230.00691 221.11615 213.30340 206.31064
 200.14988 195.09312 191.68037 189.72761 188.76985 188.83909 189.67934 190.99258
 192.72282 194.82306 197.09131 199.45555 201.90579 204.39103 206.48428 208.33152
 209.96276 211.11300 211.34725 211.58049 211.52273 211.23297 210.87122 210.50646
 210.12870 209.84394 209.65719 209.52643 209.45967 209.79591 210.18716 210.58140
 211.37964 212.56288 213.81813 215.60637 217.53961 219.58785 221.68810 223.77634
 225.84158 227.93082 230.03307 232.14431 234.27855 236.45579 238.71704 241.09228
 243.71852 245.97476 247.98201 249.75225 251.17449 252.30273 253.12998 253.45122
 253.49346 253.27270 252.63795 251.59119 250.20243 248.36867 246.28292 244.12116
 241.91740 239.72664 237.55189 235.39613 233.26137 231.13361 229.16486 227.32710
 225.61534 224.09258 222.72783 221.50507 220.39231 219.35755 218.46680 217.61304
 216.86028 216.04552 215.14877 214.51801 213.97325 214.10364 214.33629 213.74670
 213.45197 212.62437 212.63211 214.26460 217.26216 221.39555 226.53928 231.03862
 234.81534 239.02780 243.25984 247.24374 250.98666 254.71057 258.34644 261.68420
 264.70770 267.49210 270.02930 272.16257 273.62079 274.74750 276.07364 277.67297
 279.30640 280.95700 282.52789 283.96048 285.31348 286.62253 287.81686 288.89883
 289.87195 290.73853 291.49554 292.46027
 366.78100 356.34202 345.78104 334.65405 323.06407 311.26509 299.14211 286.95213
 274.67114 262.57516 250.59118 239.89920 230.02821 221.13923 213.32825 206.33727
 200.17829 195.12330 191.71232 189.76134 188.80536 188.87638 189.71839 191.03341
 192.76543 194.86745 197.13746 199.50348 201.95550 204.44252 206.53754 208.38655
 210.01957 211.17159 211.40761 211.64263 211.58664 211.29866 210.93868 210.57570
 210.19971 209.91673 209.73175 209.60277 209.53779 209.87580 210.26882 210.66484
 211.46486 212.64988 213.90689 215.69691 217.63193 219.68195 221.78397 223.87398
 225.94100 228.03202 230.13604 232.24905 234.38507 236.56409 238.82711 241.20413
 243.83214 246.09016 248.09918 249.87120 251.29522 252.42523 253.25425 253.57727
 253.62129 253.40230 252.76932 251.72434 250.33736 248.50538 246.42139 244.26141
 242.05943 239.87045 237.69747 235.54348 233.41050 231.28452 229.31754 227.48155
 225.77157 224.25059 222.88761 221.66663 220.55564 219.52266 218.63368 217.78170
 217.03072 216.21773 215.32275 214.69377 214.15079 214.20134 214.27815 213.88437
 213.24960 212.75288 212.86182 214.33878 217.24333 221.33406 226.43707 230.92078
 234.70053 238.92598 243.16518 247.15692 250.91754 254.68448 258.38058 261.78693
 264.85947 267.67258 270.27716 272.53857 274.06671 275.09424 276.28751 277.81354
 279.40100 281.16226 282.76114 284.23703 285.76758 287.13217 288.37714 289.50497
 290.51938 291.42267 292.21179 293.21744
 366.78100 356.34378 345.78456 334.65935 323.07113 311.27391 299.15269 286.96447
 274.68526 262.59104 250.60882 239.91860 230.04939 221.16217 213.35295 206.36373
 200.20651 195.15330 191.74408 189.79486 188.84064 188.91342 189.75721 191.07399
 192.80777 194.91155 197.18333 199.55112 202.00490 204.49368 206.59046 208.44124
 210.07603 211.22981 211.46759 211.70437 211.65016 211.36394 211.00572 210.64450
 210.27028 209.98907 209.80585 209.67863 209.61541 209.95519 210.34998 210.74776
 211.54954 212.73632 213.99510 215.78689 217.72367 219.77545 221.87923 223.97102
 226.03980 228.13258 230.23836 232.35314 234.49093 236.67171 238.93649 241.31527
 243.94505 246.20484 248.21562 249.98940 251.41518 252.54696 253.37775 253.70253
 253.74831 253.53109 252.89988 251.85666 250.47144 248.64122 246.55900 244.40079
 242.20057 240.01335 237.84213 235.68991 233.55870 231.43448 229.46926 227.63504
 225.92682 224.40761 223.04639 221.82717 220.71795 219.68673 218.79952 217.94930
 217.20008 216.38886 215.49565 214.86843 214.32721 214.28275 214.19150 214.12051
 213.14021 212.48920 212.83691 214.44771 217.36057 221.39917 226.46049 230.91400
 234.66141 238.85338 243.04514 246.99886 250.76344 254.54588 258.24435 261.64816
 264.72058 267.56696 270.19962 272.44736 274.01788 275.17831 276.47928 278.01093
 279.67264 281.41644 283.00018 284.44208 285.83823 287.18729 288.41809 289.53311
 290.53595 291.42899 292.20914 293.20334
 366.78100 356.34578 345.78856 334.66534 323.07912 311.28390 299.16467 286.97845
 274.70123 262.60901 250.62879 239.94057 230.07335 221.18813 213.38091 206.39369
 200.23846 195.18724 191.78002 189.83280 188.88058 188.95536 189.80114 191.11992
 192.85570 194.96148 197.23525 199.60503 202.06081 204.55159 206.65037 208.50315
 210.13993 211.29571 211.53549 211.77427 211.72204 211.43782 211.08160 210.72238
 210.35016 210.07094 209.88972 209.76450 209.70328 210.04506 210.44183 210.84161
 211.64539 212.83417 214.09495 215.88873 217.82751 219.88129 221.98707 224.08085
 226.15162 228.24640 230.35418 232.47096 234.61074 236.79352 239.06030 241.44108
 244.07286 246.33464 248.34741 250.12319 251.55097 252.68475 253.51753 253.84431
 253.89209 253.67687 253.04765 252.00643 250.62320 248.79498 246.71476 244.55854
 242.36032 240.17510 238.00588 235.85566 233.72644 231.60422 229.64100 227.80877
 226.10255 224.58533 223.22611 222.00889 220.90167 219.87245 218.98723 218.13901
 217.39179 216.58256 215.69134 215.06612 214.52690 214.39046 214.12816 214.25201
 213.29840 212.27673 212.62747 214.47374 217.49652 221.53728 226.62910 231.00018
 234.70375 238.88693 243.07790 247.00111 250.70111 254.42838 258.09106 261.47559
 264.51883 267.32083 269.93509 272.13983 273.53925 274.63461 276.07468 277.85059
 279.81934 281.63449 283.25620 284.80936 286.29462 287.60870 288.80762 289.89374
 290.87061 291.74048 292.50040 293.46881
 366.78100 356.34689 345.79077 334.66866 323.08355 311.28943 299.17132 286.98621
 274.71010 262.61898 250.63987 239.95276 230.08664 221.20253 213.39642 206.41030
 200.25619 195.20608 191.79997 189.85385 188.90274 188.97863 189.82551 191.14540
 192.88229 194.98917 197.26406 199.63495 202.09183 204.58372 206.68361 208.53750
 210.17538 211.33227 211.57316 211.81304 211.76193 211.47882 211.12370 210.76559
 210.39448 210.11637 209.93625 209.81214 209.75203 210.09491 210.49280 210.89369
 211.69857 212.88846 214.15035 215.94523 217.88512 219.94001 222.04690 224.14178
 226.21367 228.30956 230.41844 232.53633 234.67722 236.86110 239.12899 241.51088
 244.14377 246.40665 248.42054 250.19743 251.62631 252.76120 253.59509 253.92297
 253.97186 253.75775 253.12963 252.08952 250.70741 248.88030 246.80118 244.64607
 242.44896 240.26484 238.09673 235.94762 233.81950 231.69839 229.73628 227.90516
 226.20005 224.68394 223.32583 222.10971 221.00360 219.97549 219.09137 218.24426
 217.49815 216.69003 215.79992 215.17581 214.63770 214.47934 214.16982 214.20457
 213.49240 212.27707 212.40227 214.30486 217.42700 221.52069 226.76009 231.10843
 234.78963 238.93945 243.12222 247.07140 250.82185 254.52866 258.15982 261.54013
 264.58469 267.37454 269.93994 272.00281 273.35199 274.50116 275.98944 278.08768
 280.24573 282.25888 284.32242 286.13437 287.70242 289.08978 290.35553 291.50220
 292.53351 293.45190 294.25418 295.27661
 366.78100 356.34429 345.78559 334.66088 323.07317 311.27646 299.15576 286.96805
 274.68934 262.59563 250.61393 239.92422 230.05551 221.16880 213.36010 206.37139
 200.21468 195.16197 191.75327 189.80456 188.85085 188.92414 189.76844 191.08573
 192.82002 194.92431 197.19661 199.56490 202.01919 204.50848 206.60578 208.45707
 210.09236 211.24665 211.48495 211.72224 211.66853 211.38282 211.02512 210.66441
 210.29070 210.00999 209.82729 209.70058 209.63787 209.97816 210.37346 210.77175
 211.57404 212.76133 214.02063 215.81292 217.75021 219.80250 221.90680 223.99909
 226.06838 228.16167 230.26797 232.38326 234.52155 236.70284 238.96814 241.34743
 243.97772 246.23801 248.24931 250.02360 251.44989 252.58218 253.41348 253.73877
 253.78506 253.56835 252.93765 251.89494 250.51023 248.68052 246.59882 244.44111
 242.24140 240.05469 237.88399 235.73228 233.60157 231.47786 229.51316 227.67945
 225.97174 224.45303 223.09233 221.87362 220.76491 219.73420 218.84750 217.99779
 217.24908 216.43837 215.54567 214.91896 214.37825 214.39101 214.32353 214.05487
 213.76791 212.47009 212.23178 214.00954 217.17776 221.36024 226.63788 231.02800
 234.74199 238.92400 243.13687 247.11562 250.88831 254.60710 258.26489 261.69528
 264.79904 267.65054 270.29581 272.47440 273.92902 274.94498 276.22610 278.44534
 280.64645 282.90997 285.01532 286.86395 288.46378 289.87921 291.17059 292.34048
 293.39267 294.32965 295.14819 296.19131
 366.78100 356.34244 345.78187 334.65531 323.06574 311.26718 299.14461 286.95505
 274.67449 262.57892 250.59536 239.90379 230.03323 221.14467 213.33410 206.34354
 200.18497 195.13041 191.71984 189.76928 188.81372 188.88515 189.72759 191.04302
 192.77546 194.87790 197.14833 199.51477 201.96720 204.45464 206.55007 208.39951
 210.03295 211.18538 211.42182 211.65725 211.60169 211.31413 210.95456 210.59200
 210.21643 209.93387 209.74930 209.62074 209.55618 209.89461 210.28805 210.68448
 211.48492 212.67035 213.92779 215.71823 217.65366 219.70410 221.80653 223.89697
 225.96441 228.05584 230.16028 232.27371 234.41015 236.58958 238.85302 241.23046
 243.85889 246.11733 248.12676 249.89920 251.32364 252.45407 253.28351 253.60694
 253.65138 253.43281 252.80025 251.75569 250.36912 248.53756 246.45399 244.29443
 242.09286 239.90430 237.73174 235.57817 233.44561 231.32004 229.35348 227.51792
 225.80835 224.28779 222.92522 221.70466 220.59409 219.56153 218.67297 217.82140
 217.07084 216.25827 215.36371 214.73515 214.19258 214.32399 214.44270 213.94690
 213.92278 212.85497 212.37062 213.86304 216.95709 221.16985 226.37987 230.81212
 234.55984 238.77132 242.99182 246.98077 250.77611 254.51552 258.19382 261.66125
 264.81299 267.72086 270.44342 272.78677 274.34241 275.31470 276.50684 278.65268
 280.81308 283.02219 285.14014 286.99985 288.60928 290.03320 291.33231 292.50922
 293.56772 294.51035 295.33377 296.38315
 366.78100 356.34335 345.78371 334.65806 323.06941 311.27176 299.15012 286.96147
 274.68182 262.58718 250.60453 239.91388 230.04423 221.15659 213.34694 206.35729
 200.19965 195.14600 191.73635 189.78670 188.83206 188.90441 189.74776 191.06412
 192.79747 194.90082 197.17217 199.53953 201.99288 204.48123 206.57759 208.42794
 210.06229 211.21564 211.45300 211.68935 211.63470 211.34806 210.98941 210.62776
 210.25311 209.97147 209.78782 209.66017 209.59653 209.93588 210.33023 210.72758
 211.52894 212.71529 213.97364 215.76500 217.70135 219.75270 221.85605 223.94741
 226.01576 228.10811 230.21347 232.32782 234.46517 236.64552 238.90988 241.28823
 243.91758 246.17694 248.18729 249.96064 251.38599 252.51735 253.34770 253.67205
 253.71741 253.49976 252.86811 251.82446 250.43882 248.60817 246.52552 244.36688
 242.16623 239.97858 237.80693 235.65429 233.52264 231.39799 229.43235 227.59770
 225.88905 224.36940 223.00776 221.78811 220.67846 219.64682 218.75917 217.90852
 217.15888 216.34723 215.45358 214.82593 214.28429 214.38216 214.45197 213.96776
 213.80785 213.01460 212.60692 213.94054 216.91521 221.07062 226.23891 230.66968
 234.42909 238.64896 242.87286 246.87621 250.69563 254.44666 258.12839 261.60464
 264.78540 267.72845 270.48239 272.86456 274.58966 275.59579 276.70410 278.87067
 281.05188 283.26147 285.24722 286.99088 288.49982 289.83487 291.05292 292.15637
 293.14877 294.03256 294.80460 295.78848
 366.78100 356.34540 345.78780 334.66421 323.07761 311.28201 299.16241 286.97582
 274.69822 262.60562 250.62502 239.93643 230.06883 221.18323 213.37563 206.38803
 200.23244 195.18084 191.77324 189.82564 188.87305 188.94745 189.79285 191.11125
 192.84665 194.95206 197.22546 199.59486 202.05026 204.54067 206.63907 208.49147
 210.12787 211.28328 211.52268 211.76108 211.70848 211.42388 211.06729 210.70769
 210.33509 210.05549 209.87390 209.74830 209.68670 210.02810 210.42450 210.82391
 211.62731 212.81571 214.07611 215.86952 217.80792 219.86132 221.96672 224.06013
 226.13053 228.22493 230.33233 232.44873 234.58814 236.77054 239.03694 241.41734
 244.04875 246.31015 248.32255 250.09795 251.52535 252.65876 253.49116 253.81756
 253.86496 253.64937 253.01977 251.97817 250.59457 248.76598 246.68538 244.52878
 242.33018 240.14458 237.97499 235.82439 233.69479 231.57219 229.60860 227.77600
 226.06940 224.55180 223.19220 221.97461 220.86701 219.83741 218.95181 218.10322
 217.35562 216.54602 215.65442 215.02883 214.48923 214.48122 214.40657 214.08769
 213.62073 212.84445 212.68468 214.11172 217.04076 221.14809 226.25903 230.64810
 234.38519 238.60971 242.83827 246.84357 250.66864 254.41391 258.08563 261.56949
 264.76123 267.72354 270.53494 273.10635 274.89630 275.95215 277.12354 279.14209
 281.27545 283.30908 285.20224 286.86456 288.30319 289.57596 290.73721 291.78918
 292.73535 293.57791 294.31393 295.25195
 366.78100 356.34749 345.79199 334.67048 323.08598 311.29247 299.17497 286.99046
 274.71495 262.62445 250.64594 239.95944 230.09393 221.21043 213.40492 206.41941
 200.26591 195.21640 191.81090 189.86539 188.91489 188.99138 189.83887 191.15937
 192.89686 195.00436 197.27985 199.65134 202.10884 204.60133 206.70183 208.55632
 210.19482 211.35231 211.59380 211.83430 211.78379 211.50129 211.14678 210.78928
 210.41877 210.14126 209.96176 209.83825 209.77875 210.12224 210.52074 210.92223
 211.72772 212.91822 214.18071 215.97621 217.91670 219.97220 222.07969 224.17518
 226.24768 228.34417 230.45367 232.57216 234.71366 236.89815 239.16664 241.54914
 244.18263 246.44613 248.46062 250.23811 251.66761 252.80310 253.63760 253.96609
 254.01559 253.80208 253.17457 252.13507 250.75356 248.92706 246.84855 244.69405
 242.49754 240.31403 238.14653 235.99802 233.87052 231.75001 229.78851 227.95800
 226.25349 224.73799 223.38048 222.16498 221.05947 220.03197 219.14846 218.30195
 217.55645 216.74894 215.85944 215.23593 214.69843 214.57515 214.31381 214.25464
 213.63953 212.56071 212.54433 214.20702 217.20908 221.27550 226.28717 230.66254
 234.36223 238.60454 242.84604 246.84140 250.64658 254.34778 257.94705 261.35220
 264.50381 267.45151 270.26782 272.79636 274.71124 276.13895 277.56659 279.28522
 281.28339 283.08472 284.69318 286.19043 287.48618 288.63257 289.67850 290.62601
 291.47821 292.23709 292.90002 293.74487
 366.78100 356.34821 345.79342 334.67263 323.08884 311.29605 299.17927 286.99548
 274.72069 262.63090 250.65311 239.96732 230.10253 221.21974 213.41495 206.43016
 200.27738 195.22859 191.82380 189.87901 188.92922 189.00643 189.85464 191.17585
 192.91406 195.02227 197.29848 199.67070 202.12891 204.62212 206.72333 208.57854
 210.21775 211.37596 211.61817 211.85938 211.80959 211.52781 211.17402 210.81723
 210.44744 210.17065 209.99186 209.86907 209.81028 210.15449 210.55370 210.95592
 211.76213 212.95334 214.21655 216.01276 217.95397 220.01018 222.11839 224.21460
 226.28781 228.38502 230.49524 232.61445 234.75666 236.94187 239.21108 241.59429
 244.22850 246.49271 248.50792 250.28613 251.71635 252.85256 253.68777 254.01698
 254.06719 253.85440 253.22761 252.18882 250.80803 248.98224 246.90445 244.75067
 242.55488 240.37209 238.20530 236.05751 233.93072 231.81093 229.85014 228.02035
 226.31656 224.80178 223.44499 222.23020 221.12541 220.09862 219.21583 218.37004
 217.62525 216.81846 215.92967 215.30688 214.77010 214.61754 214.28877 214.29950
 213.86060 212.47194 212.29659 214.08104 217.19565 221.27745 226.26653 230.62076
 234.33057 238.59152 242.86749 246.90909 250.74483 254.43391 257.98029 261.31531
 264.37570 267.20908 269.89761 272.30838 274.17441 275.80905 277.46622 279.23944
 281.19409 282.99167 284.56049 286.00293 287.31155 288.46936 289.52567 290.48264
 291.34329 292.10974 292.77927 293.63254
 366.78100 356.34612 345.78924 334.66636 323.08048 311.28560 299.16672 286.98084
 274.70396 262.61208 250.63220 239.94432 230.07744 221.19256 213.38568 206.39880
 200.24392 195.19304 191.78616 189.83928 188.88739 188.96251 189.80863 191.12775
 192.86387 194.96999 197.24411 199.61423 202.07035 204.56147 206.66059 208.51371
 210.15083 211.30695 211.54707 211.78619 211.73431 211.45043 211.09455 210.73567
 210.36379 210.08491 209.90403 209.77915 209.71827 210.06039 210.45751 210.85763
 211.66175 212.85087 214.11199 215.90611 217.84523 219.89935 222.00547 224.09959
 226.17071 228.26583 230.37394 232.49106 234.63118 236.81430 239.08142 241.46254
 244.09466 246.35678 248.36990 250.14602 251.57414 252.70826 253.54138 253.86850
 253.91662 253.70174 253.07286 252.03198 250.64910 248.82122 246.74134 244.58546
 242.38758 240.20270 238.03382 235.88394 233.75506 231.63318 229.67030 227.83842
 226.13254 224.61566 223.25678 222.03990 220.93302 219.90414 219.01926 218.17138
 217.42450 216.61561 215.72473 215.09985 214.56097 214.54456 214.45349 214.15282
 214.00876 212.71994 212.29176 213.93390 217.04655 221.14238 226.13564 230.47586
 234.19263 238.48448 242.79453 246.91017 250.84769 254.61687 258.20425 261.55112
 264.59955 267.36752 269.93207 272.16690 273.95068 275.66486 277.42169 279.22241
 281.17078 282.97354 284.58044 286.12903 287.47913 288.67361 289.76343 290.75070
 291.63864 292.42938 293.12015 294.00043
 366.78100 356.34444 345.78587 334.66131 323.07375 311.27719 299.15662 286.96906
 274.69050 262.59694 250.61537 239.92581 230.05725 221.17069 213.36212 206.37356
 200.21700 195.16444 191.75587 189.80731 188.85375 188.92719 189.77162 191.08906
 192.82350 194.92794 197.20037 199.56881 202.02325 204.51269 206.61012 208.46156
 210.09700 211.25144 211.48987 211.72731 211.67375 211.38819 211.03062 210.67006
 210.29650 210.01594 209.83337 209.70681 209.64425 209.98469 210.38012 210.77856
 211.58100 212.76844 214.02787 215.82031 217.75775 219.81019 221.91462 224.00706
 226.07650 228.16994 230.27637 232.39181 234.53025 236.71169 238.97712 241.35656
 243.98700 246.24743 248.25887 250.03331 251.45975 252.59218 253.42362 253.74906
 253.79550 253.57893 252.94837 251.90581 250.52125 248.69168 246.61012 244.45256
 242.25300 240.06643 237.89587 235.74431 233.61375 231.49018 229.52562 227.69206
 225.98450 224.46593 223.10537 221.88681 220.77825 219.74768 218.86112 218.01156
 217.26300 216.45243 215.55987 214.93331 214.39275 214.48491 214.58891 214.04829
 213.93701 213.11302 212.52814 213.86856 216.89551 220.98346 225.92427 230.25624
 233.99573 238.29622 242.60661 246.76419 250.77910 254.63234 258.29733 261.72183
 264.84872 267.65979 270.18604 272.38528 274.13705 275.87744 277.57230 279.27768
 281.25403 283.08084 284.75568 286.35254 287.73447 288.95715 290.07263 291.08319
 291.99207 292.80145 293.50848 294.40955
 366.78100 356.34624 345.78947 334.66671 323.08095 311.28619 299.16742 286.98166
 274.70490 262.61313 250.63337 239.94561 230.07884 221.19408 213.38732 206.40056
 200.24579 195.19503 191.78827 189.84150 188.88974 188.96498 189.81122 191.13045
 192.86669 194.97293 197.24716 199.61740 202.07364 204.56488 206.66411 208.51735
 210.15459 211.31082 211.55106 211.79030 211.73853 211.45477 211.09901 210.74025
 210.36848 210.08972 209.90896 209.78419 209.72343 210.06567 210.46291 210.86314
 211.66738 212.85662 214.11785 215.91209 217.85133 219.90557 222.01180 224.10604
 226.17728 228.27251 230.38075 232.49799 234.63822 236.82146 239.08870 241.46994
 244.10217 246.36441 248.37765 250.15388 251.58212 252.71636 253.54960 253.87683
 253.92507 253.71031 253.08154 252.04078 250.65802 248.83026 246.75049 244.59473
 242.39697 240.21220 238.04344 235.89368 233.76491 231.64315 229.68039 227.84863
 226.14286 224.62610 223.26734 222.05057 220.94381 219.91505 219.03029 218.18252
 217.43576 216.62700 215.73623 215.11147 214.57271 214.57251 214.53200 214.14027
 213.72636 213.23853 212.83014 213.98914 216.93329 220.96980 225.83072 230.13632
 233.86061 238.10782 242.37303 246.50629 250.52861 254.41243 258.11649 261.58585
 264.76398 267.62665 270.18228 272.38538 274.13690 275.82086 277.55075 279.39999
 281.36514 283.15518 284.70453 286.08481 287.31223 288.39816 289.38892 290.28647
 291.09372 291.81259 292.44055 293.24084
 366.78100 356.34748 345.79195 334.67043 323.08591 311.29239 299.17486 286.99034
 274.71482 262.62430 250.64577 239.95925 230.09373 221.21021 213.40468 206.41916
 200.26564 195.21611 191.81059 189.86507 188.91455 188.99102 189.83850 191.15898
 192.89646 195.00393 197.27941 199.65089 202.10836 204.60084 206.70132 208.55580
 210.19427 211.35175 211.59323 211.83371 211.78318 211.50066 211.14614 210.78862
 210.41809 210.14057 209.96105 209.83752 209.77800 210.12148 210.51996 210.92143
 211.72691 212.91739 214.17987 215.97534 217.91582 219.97130 222.07878 224.17425
 226.24673 228.34321 230.45268 232.57116 234.71264 236.89712 239.16559 241.54807
 244.18155 246.44503 248.45950 250.23698 251.66646 252.80193 253.63641 253.96489
 254.01437 253.80084 253.17332 252.13380 250.75228 248.92575 246.84723 244.69271
 242.49619 240.31266 238.14514 235.99662 233.86909 231.74857 229.78705 227.95653
 226.25200 224.73648 223.37896 222.16344 221.05791 220.03039 219.14687 218.30034
 217.55482 216.74730 215.85778 215.23425 214.69673 214.63344 214.48192 214.29013
 213.64888 212.90244 212.81052 214.05247 217.03691 221.08463 225.97298 230.22153
 233.89403 238.07426 242.30397 246.39897 250.38173 254.23653 257.92529 261.39899
 264.60852 267.50089 270.04761 272.19092 273.91592 275.55621 277.32541 279.22931
 281.17822 282.93381 284.43140 285.76715 286.94315 287.95471 288.87024 289.69968
 290.44565 291.10995 291.69028 292.42981
 366.78100 356.34775 345.79250 334.67125 323.08700 311.29375 299.17650 286.99225
 274.71700 262.62675 250.64850 239.96224 230.09699 221.21374 213.40849 206.42324
 200.26999 195.22074 191.81549 189.87024 188.91999 188.99674 189.84449 191.16524
 192.90299 195.01074 197.28649 199.65824 202.11599 204.60874 206.70949 208.56424
 210.20299 211.36073 211.60248 211.84323 211.79298 211.51073 211.15648 210.79923
 210.42898 210.15173 209.97248 209.84923 209.78998 210.13373 210.53248 210.93423
 211.73998 212.93073 214.19348 215.98923 217.92998 219.98573 222.09347 224.18922
 226.26197 228.35872 230.46847 232.58722 234.72897 236.91372 239.18247 241.56522
 244.19897 246.46272 248.47747 250.25522 251.68497 252.82072 253.65547 253.98422
 254.03397 253.82072 253.19347 252.15421 250.77296 248.94671 246.86846 244.71421
 242.51796 240.33471 238.16746 236.01921 233.89196 231.77171 229.81046 227.98021
 226.27596 224.76071 223.40346 222.18821 221.08296 220.05571 219.17246 218.32621
 217.58096 216.77370 215.88445 215.26120 214.72395 214.67041 214.53386 214.31607
 213.79280 212.75188 212.61302 214.07394 217.09053 221.14511 226.09541 230.30746
 233.95010 238.13249 242.37471 246.48093 250.44164 254.24431 257.88116 261.31866
 264.51230 267.41461 269.98337 272.13470 273.85428 275.47525 277.18967 279.04059
 280.89648 282.62366 284.14481 285.51166 286.74979 287.84637 288.84683 289.75317
 290.56836 291.29425 291.92841 292.73654
 366.78100 356.34657 345.79014 334.66771 323.08228 311.28785 299.16942 286.98399
 274.70756 262.61613 250.63670 239.94927 230.08284 221.19841 213.39198 206.40555
 200.25113 195.20070 191.79427 189.84784 188.89641 188.97198 189.81855 191.13812
 192.87469 194.98126 197.25583 199.62640 202.08297 204.57454 206.67411 208.52768
 210.16525 211.32182 211.56239 211.80196 211.75053 211.46710 211.11167 210.75324
 210.38181 210.10338 209.92295 209.79852 209.73809 210.08066 210.47824 210.87881
 211.68338 212.87295 214.13452 215.92909 217.86866 219.92323 222.02980 224.12437
 226.19594 228.29151 230.40008 232.51765 234.65822 236.84179 239.10936 241.49093
 244.12350 246.38607 248.39964 250.17621 251.60478 252.73935 253.57292 253.90049
 253.94906 253.73463 253.10620 252.06577 250.68335 248.85592 246.77649 244.62106
 242.42363 240.23920 238.07077 235.92134 233.79291 231.67148 229.70905 227.87762
 226.17219 224.65576 223.29733 222.08090 220.97447 219.94604 219.06161 218.21418
 217.46775 216.65932 215.76889 215.14446 214.60603 214.65016 214.66119 214.20747
 213.83459 212.82721 212.56204 214.03371 217.06075 221.10249 226.16949 230.32071
 233.94884 238.13919 242.41660 246.56531 250.54645 254.34325 257.95493 261.36749
 264.55453 267.46884 270.04178 272.20779 274.00339 275.62936 277.27225 279.03699
 280.85019 282.65930 284.39441 285.97641 287.34546 288.55673 289.66183 290.66299
 291.56342 292.36523 293.06570 293.95837
 366.78100 356.34482 345.78664 334.66247 323.07529 311.27911 299.15893 286.97176
 274.69358 262.60040 250.61922 239.93005 230.06187 221.17569 213.36751 206.37934
 200.22316 195.17098 191.76280 189.81463 188.86145 188.93527 189.78009 191.09792
 192.83274 194.93756 197.21038 199.57921 202.03403 204.52385 206.62167 208.47350
 210.10932 211.26414 211.50296 211.74079 211.68761 211.40243 211.04525 210.68508
 210.31190 210.03172 209.84954 209.72336 209.66119 210.00201 210.39783 210.79665
 211.59948 212.78730 214.04712 215.83994 217.77777 219.83059 221.93541 224.02823
 226.09806 228.19188 230.29870 232.41452 234.55335 236.73517 239.00099 241.38081
 244.01164 246.27246 248.28428 250.05910 251.48593 252.61875 253.45057 253.77639
 253.82322 253.60704 252.97686 251.93468 250.55051 248.72133 246.64015 244.48297
 242.28380 240.09762 237.92744 235.77626 233.64608 231.52291 229.55873 227.72555
 226.01837 224.50020 223.14002 221.92184 220.81366 219.78349 218.89731 218.04813
 217.29995 216.48978 215.59760 214.97142 214.43124 214.57225 214.79358 214.16002
 213.76944 212.90598 212.56541 214.01045 217.03360 221.09132 226.04861 230.25792
 233.90034 238.10452 242.39830 246.55960 250.55092 254.33937 257.92526 261.32056
 264.51599 267.46942 270.12653 272.39914 274.21539 275.78262 277.33734 278.92401
 280.57971 282.32922 283.91052 285.40897 286.73639 287.91086 288.98236 289.95306
 290.82611 291.60355 292.28271 293.14822
 366.78100 356.34533 345.78767 334.66400 323.07733 311.28166 299.16200 286.97533
 274.69766 262.60499 250.62433 239.93566 230.06799 221.18232 213.37466 206.38699
 200.23132 195.17965 191.77199 189.82432 188.87165 188.94598 189.79132 191.10965
 192.84498 194.95031 197.22365 199.59298 202.04831 204.53864 206.63698 208.48931
 210.12564 211.28097 211.52031 211.75864 211.70597 211.42130 211.06464 210.70497
 210.33230 210.05263 209.87097 209.74530 209.68363 210.02496 210.42130 210.82063
 211.62396 212.81229 214.07263 215.86596 217.80429 219.85762 221.96296 224.05629
 226.12662 228.22095 230.32829 232.44462 234.58395 236.76628 239.03262 241.41295
 244.04428 246.30562 248.31795 250.09328 251.52061 252.65395 253.48628 253.81261
 253.85994 253.64428 253.01461 251.97294 250.58927 248.76061 246.67994 244.52327
 242.32460 240.13894 237.96927 235.81860 233.68893 231.56627 229.60260 227.76993
 226.06326 224.54560 223.18593 221.96826 220.86059 219.83093 218.94526 218.09659
 217.34892 216.53926 215.64759 215.02192 214.48225 214.59822 214.80554 214.28253
 213.81174 212.87305 212.47258 213.88168 216.95616 221.02582 225.93597 230.18906
 233.83604 238.02055 242.31171 246.49297 250.49452 254.26364 257.80444 261.16483
 264.35016 267.31647 270.00854 272.34067 274.22754 275.81839 277.40384 279.01065
 280.51477 281.86398 283.11539 284.44318 285.70975 286.86044 287.91025 288.86130
 289.71667 290.47839 291.14380 291.99179
 366.78100 356.34724 345.79149 334.66973 323.08497 311.29122 299.17346 286.98870
 274.71295 262.62219 250.64344 239.95668 230.09092 221.20717 213.40141 206.41565
 200.26190 195.21214 191.80638 189.86063 188.90987 188.98611 189.83336 191.15360
 192.89085 194.99809 197.27333 199.64458 202.10182 204.59406 206.69431 208.54855
 210.18679 211.34404 211.58528 211.82552 211.77477 211.49201 211.13725 210.77950
 210.40874 210.13099 209.95123 209.82747 209.76772 210.11096 210.50920 210.91045
 211.71569 212.90593 214.16818 215.96342 217.90366 219.95891 222.06615 224.16140
 226.23364 228.32988 230.43913 232.55737 234.69861 236.88286 239.15110 241.53334
 244.16659 246.42983 248.44407 250.22132 251.65056 252.78581 253.62005 253.94829
 253.99754 253.78378 253.15602 252.11627 250.73451 248.90775 246.82900 244.67424
 242.47748 240.29373 238.12597 235.97721 233.84946 231.72870 229.76695 227.93619
 226.23143 224.71568 223.35792 222.14216 221.03641 220.00865 219.12489 218.27814
 217.53238 216.72462 215.83487 215.21111 214.67336 214.71138 214.74870 214.32669
 213.86497 212.84419 212.47519 213.87509 216.95471 221.02509 225.93369 230.14980
 233.79274 237.98457 242.29048 246.50012 250.52936 254.28761 257.79651 261.11389
 264.26263 267.20227 269.89151 272.25659 274.18674 275.86411 277.50000 279.11719
 280.55869 281.71982 282.88351 284.29517 285.62585 286.80319 287.87732 288.85043
 289.72562 290.50497 291.18582 292.05347
 366.78100 356.34727 345.79154 334.66980 323.08507 311.29134 299.17361 286.98887
 274.71314 262.62241 250.64368 239.95695 230.09121 221.20748 213.40175 206.41602
 200.26228 195.21255 191.80682 189.86109 188.91036 188.98662 189.83389 191.15416
 192.89143 194.99870 197.27396 199.64523 202.10250 204.59477 206.69503 208.54930
 210.18757 211.34484 211.58611 211.82637 211.77564 211.49291 211.13818 210.78044
 210.40971 210.13198 209.95225 209.82852 209.76878 210.11205 210.51032 210.91159
 211.71685 212.90712 214.16939 215.96466 217.90493 219.96019 222.06746 224.16273
 226.23500 228.33127 230.44053 232.55880 234.70007 236.88434 239.15260 241.53487
 244.16814 246.43141 248.44568 250.22294 251.65221 252.78748 253.62175 253.95001
 253.99928 253.78555 253.15782 252.11809 250.73635 248.90962 246.83089 244.67616
 242.47942 240.29569 238.12796 235.97923 233.85150 231.73076 229.76903 227.93830
 226.23357 224.71784 223.36010 222.14437 221.03864 220.01091 219.12717 218.28044
 217.53471 216.72698 215.83725 215.21351 214.67578 214.72572 214.78978 214.30412
 213.78362 212.71432 212.48148 213.89972 216.96423 221.05826 225.98370 230.20084
 233.82121 237.99408 242.30124 246.52888 250.57605 254.33900 257.81265 261.08569
 264.20114 267.11990 269.80536 272.18927 274.15790 275.84344 277.47723 279.04651
 280.37216 281.42352 282.56216 283.91580 285.22293 286.40375 287.48105 288.45703
 289.33481 290.11646 290.79932 291.66953
 366.78100 356.34547 345.78795 334.66442 323.07790 311.28237 299.16285 286.97632
 274.69880 262.60627 250.62574 239.93722 230.06969 221.18417 213.37664 206.38912
 200.23359 195.18207 191.77454 189.82701 188.87449 188.94896 189.79444 191.11291
 192.84839 194.95386 197.22734 199.59681 202.05228 204.54276 206.64123 208.49371
 210.13018 211.28566 211.52513 211.76361 211.71108 211.42655 211.07003 210.71050
 210.33798 210.05845 209.87693 209.75140 209.68988 210.03135 210.42782 210.82730
 211.63077 212.81925 214.07972 215.87320 217.81167 219.86515 221.97062 224.06409
 226.13457 228.22904 230.33652 232.45299 234.59247 236.77494 239.04142 241.42189
 244.05336 246.31484 248.32731 250.10279 251.53026 252.66374 253.49621 253.82269
 253.87016 253.65463 253.02511 251.98358 250.60006 248.77153 246.69101 244.53448
 242.33596 240.15043 237.98090 235.83038 233.70085 231.57833 229.61480 227.78228
 226.07575 224.55823 223.19870 221.98117 220.87365 219.84412 218.95860 218.11007
 217.36255 216.55302 215.66150 215.03597 214.49644 214.63860 214.92369 214.32919
 213.72101 212.55641 212.29820 213.71399 216.85065 221.04028 226.01553 230.24458
 233.85060 237.99359 242.29736 246.53014 250.57919 254.34128 257.80243 261.04193
 264.12964 267.03674 269.71780 272.12454 274.11700 275.80331 277.38348 278.84018
 280.03854 281.04395 282.06100 283.26831 284.45554 285.56516 286.59894 287.53549
 288.37781 289.12787 289.78314 290.61819
 366.78100 356.34478 345.78656 334.66234 323.07512 311.27890 299.15868 286.97147
 274.69325 262.60003 250.61881 239.92959 230.06137 221.17515 213.36693 206.37871
 200.22249 195.17027 191.76205 189.81383 188.86062 188.93440 189.77918 191.09696
 192.83174 194.93652 197.20930 199.57808 202.03286 204.52264 206.62042 208.47220
 210.10799 211.26277 211.50155 211.73933 211.68611 211.40089 211.04367 210.68345
 210.31023 210.03001 209.84779 209.72157 209.65935 210.00014 210.39592 210.79470
 211.59748 212.78526 214.04504 215.83782 217.77560 219.82838 221.93316 224.02594
 226.09572 228.18950 230.29629 232.41207 234.55085 236.73263 238.99841 241.37819
 244.00897 246.26975 248.28153 250.05631 251.48309 252.61587 253.44765 253.77344
 253.82022 253.60400 252.97378 251.93156 250.54734 248.71812 246.63690 244.47968
 242.28046 240.09424 237.92402 235.77280 233.64259 231.51937 229.55515 227.72193
 226.01471 224.49649 223.13627 221.91805 220.80983 219.77961 218.89339 218.04417
 217.29596 216.48574 215.59352 214.96730 214.42708 214.60568 214.99202 214.36139
 213.77032 212.45351 212.07524 213.50136 216.72617 221.00603 226.04347 230.25302
 233.86212 237.99272 242.29893 246.53557 250.59341 254.36182 257.81339 261.02991
 264.08865 266.97833 269.67111 272.12338 274.17810 275.89148 277.41882 278.70670
 279.71640 280.62036 281.58755 282.63898 283.77582 284.80731 285.77722 286.67484
 287.48218 288.20108 288.82913 289.62949
 366.78100 356.34527 345.78753 334.66380 323.07707 311.28134 299.16160 286.97487
 274.69714 262.60440 250.62367 239.93494 230.06720 221.18147 213.37374 206.38601
 200.23027 195.17854 191.77081 189.82307 188.87034 188.94461 189.78988 191.10814
 192.84341 194.94868 197.22194 199.59121 202.04648 204.53675 206.63501 208.48728
 210.12355 211.27881 211.51808 211.75635 211.70361 211.41888 211.06215 210.70242
 210.32968 210.04995 209.86822 209.74248 209.68075 210.02202 210.41829 210.81755
 211.62082 212.80909 214.06935 215.86262 217.80089 219.85416 221.95942 224.05269
 226.12296 228.21722 230.32449 232.44076 234.58002 236.76229 239.02856 241.40883
 244.04009 246.30136 248.31363 250.08889 251.51616 252.64943 253.48170 253.80796
 253.85523 253.63950 253.00976 251.96803 250.58430 248.75557 246.67483 244.51810
 242.31937 240.13363 237.96390 235.81317 233.68343 231.56070 229.59697 227.76424
 226.05750 224.53977 223.18004 221.96230 220.85457 219.82484 218.93911 218.09037
 217.34264 216.53291 215.64117 215.01544 214.47571 214.64023 214.99529 214.37729
 213.77162 212.45467 212.00169 213.43076 216.66489 220.97333 226.03503 230.25853
 233.85884 237.99071 242.29758 246.54219 250.60849 254.37897 257.82303 261.02048
 264.05457 266.92178 269.61801 272.10974 274.22327 275.99103 277.48953 278.62976
 279.51163 280.33411 281.04340 281.82932 282.97058 284.03467 285.06390 286.04169
 286.92114 287.70425 288.38840 289.26025
 366.78100 356.34553 345.78806 334.66459 323.07812 311.28264 299.16317 286.97670
 274.69923 262.60676 250.62629 239.93782 230.07035 221.18487 213.37740 206.38993
 200.23446 195.18299 191.77552 189.82805 188.87558 188.95010 189.79563 191.11416
 192.84969 194.95522 197.22875 199.59828 202.05381 204.54433 206.64286 208.49539
 210.13192 211.28745 211.52698 211.76551 211.71304 211.42856 211.07209 210.71262
 210.34015 210.06068 209.87921 209.75374 209.69227 210.03379 210.43032 210.82985
 211.63338 212.82191 214.08244 215.87597 217.81450 219.86802 221.97355 224.06708
 226.13761 228.23214 230.33967 232.45620 234.59573 236.77825 239.04478 241.42531
 244.05684 246.31837 248.33090 250.10643 251.53396 252.66749 253.50001 253.82654
 253.87407 253.65860 253.02913 251.98766 250.60419 248.77572 246.69524 244.53877
 242.34030 240.15483 237.98536 235.83489 233.70542 231.58295 229.61947 227.78700
 226.08053 224.56306 223.20359 221.98612 220.87865 219.84918 218.96370 218.11523
 217.36776 216.55829 215.66682 215.04135 214.50188 214.66389 215.01140 214.43648
 213.60223 212.47141 212.05141 213.39507 216.61142 220.94176 226.01151 230.25180
 233.85005 237.98515 242.29520 246.54985 250.62390 254.39383 257.83176 261.01578
 264.03143 266.87521 269.57114 272.11307 274.28281 276.07379 277.50235 278.60172
 279.48340 280.01541 280.30530 281.06812 282.24216 283.33395 284.42987 285.44730
 286.36237 287.17722 287.88907 288.79623
 366.78100 356.34656 345.79011 334.66767 323.08222 311.28778 299.16933 286.98389
 274.70744 262.61600 250.63656 239.94911 230.08267 221.19822 213.39178 206.40533
 200.25089 195.20044 191.79400 189.84756 188.89611 188.97167 189.81822 191.13778
 192.87433 194.98089 197.25544 199.62600 202.08255 204.57411 206.67367 208.52722
 210.16478 211.32133 211.56189 211.80144 211.75000 211.46655 211.11111 210.75267
 210.38122 210.10278 209.92233 209.79789 209.73744 210.08000 210.47755 210.87811
 211.68267 212.87222 214.13378 215.92833 217.86789 219.92244 222.02900 224.12355
 226.19511 228.29067 230.39922 232.51678 234.65733 236.84089 239.10844 241.49000
 244.12255 246.38511 248.39867 250.17522 251.60378 252.73833 253.57189 253.89944
 253.94800 253.73355 253.10511 252.06466 250.68222 248.85478 246.77533 244.61989
 242.42244 240.23800 238.06955 235.92011 233.79166 231.67022 229.70778 227.87633
 226.17089 224.65444 223.29600 222.07955 220.97311 219.94466 219.06022 218.21278
 217.46633 216.65789 215.76744 215.14300 214.60455 214.71585 214.96437 214.57153
 213.54459 212.47507 212.04466 213.26544 216.52531 220.91632 226.02855 230.24873
 233.85133 237.97501 242.27832 246.52699 250.60126 254.37918 257.82455 261.00821
 264.01035 266.85236 269.56711 272.13235 274.35117 276.15314 277.56488 278.64481
 279.35263 279.68796 279.88202 280.52502 281.58954 282.65372 283.64331 284.63596
 285.53586 286.33722 287.03729 287.92941
 366.78100 356.34726 345.79152 334.66978 323.08504 311.29129 299.17355 286.98881
 274.71307 262.62233 250.64359 239.95685 230.09111 221.20737 213.40163 206.41588
 200.26214 195.21240 191.80666 189.86092 188.91018 188.98644 189.83370 191.15396
 192.89122 194.99847 197.27373 199.64499 202.10225 204.59451 206.69477 208.54903
 210.18729 211.34455 211.58580 211.82606 211.77532 211.49258 211.13784 210.78010
 210.40936 210.13162 209.95188 209.82814 209.76839 210.11165 210.50991 210.91117
 211.71643 212.90669 214.16895 215.96421 217.90447 219.95973 222.06698 224.16224
 226.23450 228.33076 230.44002 232.55828 234.69954 236.88380 239.15206 241.53431
 244.16757 246.43083 248.44509 250.22235 251.65161 252.78687 253.62113 253.94939
 253.99865 253.78490 253.15716 252.11742 250.73568 248.90894 246.83020 244.67546
 242.47872 240.29498 238.12723 235.97849 233.85075 231.73001 229.76827 227.93753
 226.23279 224.71705 223.35931 222.14357 221.03782 220.01008 219.12634 218.27960
 217.53386 216.72612 215.83638 215.21264 214.67490 214.75304 214.93324 214.63852
 213.65613 212.44954 211.93753 213.08867 216.44722 220.90855 226.06602 230.25488
 233.86053 237.96887 242.26012 246.49646 250.56538 254.34119 257.78342 260.95959
 263.95117 266.79797 269.53290 272.12799 274.38428 276.19968 277.61432 278.65948
 279.21973 279.43430 279.64548 280.17770 281.13113 282.19489 283.17529 284.07370
 284.94571 285.72223 286.40057 287.26508
 366.78100 356.34693 345.79086 334.66879 323.08373 311.28966 299.17159 286.98652
 274.71045 262.61938 250.64031 239.95324 230.08718 221.20311 213.39704 206.41097
 200.25690 195.20683 191.80076 189.85470 188.90363 188.97956 189.82649 191.14642
 192.88335 194.99028 197.26522 199.63615 202.09308 204.58501 206.68494 208.53887
 210.17680 211.33373 211.57467 211.81460 211.76353 211.48046 211.12539 210.76732
 210.39625 210.11819 209.93812 209.81405 209.75398 210.09691 210.49484 210.89577
 211.70071 212.89064 214.15257 215.94750 217.88743 219.94236 222.04929 224.14422
 226.21616 228.31209 230.42102 232.53895 234.67988 236.86381 239.13174 241.51368
 244.14661 246.40954 248.42347 250.20040 251.62933 252.76426 253.59819 253.92613
 253.97506 253.76099 253.13292 252.09285 250.71078 248.88371 246.80465 244.64958
 242.45251 240.26844 238.10037 235.95130 233.82323 231.70217 229.74010 227.90903
 226.20396 224.68789 223.32982 222.11375 221.00768 219.97962 219.09555 218.24848
 217.50241 216.69434 215.80427 215.18020 214.64214 214.74278 214.97617 214.61098
 213.75002 212.35728 211.78699 212.96851 216.41116 220.91577 226.10023 230.31042
 233.89638 237.99669 242.27847 246.51060 250.57384 254.34079 257.76849 260.92520
 263.89807 266.73672 269.48593 272.11847 274.41797 276.26712 277.66583 278.58481
 278.95990 279.12134 279.41241 279.97864 280.89737 281.95081 282.92535 283.81470
 284.70197 285.49222 286.18253 287.06229
 366.78100 356.34704 345.79109 334.66913 323.08417 311.29021 299.17226 286.98730
 274.71134 262.62038 250.64143 239.95447 230.08851 221.20455 213.39860 206.41264
 200.25868 195.20872 191.80277 189.85681 188.90585 188.98189 189.82894 191.14898
 192.88602 194.99306 197.26811 199.63915 202.09619 204.58824 206.68828 208.54232
 210.18036 211.33741 211.57845 211.81849 211.76753 211.48458 211.12962 210.77166
 210.40070 210.12275 209.94279 209.81883 209.75887 210.10192 210.49996 210.90100
 211.70604 212.89609 214.15813 215.95317 217.89321 219.94826 222.05530 224.15034
 226.22239 228.31843 230.42747 232.54551 234.68656 236.87060 239.13864 241.52068
 244.15373 246.41677 248.43081 250.20785 251.63690 252.77194 253.60598 253.93402
 253.98307 253.76911 253.14115 252.10119 250.71924 248.89228 246.81332 244.65836
 242.46141 240.27745 238.10949 235.96054 233.83258 231.71162 229.74966 227.91871
 226.21375 224.69779 223.33983 222.12388 221.01792 219.98996 219.10600 218.25905
 217.51309 216.70513 215.81517 215.19122 214.65326 214.75552 214.99092 214.60646
 213.82918 212.23923 211.60220 212.87990 216.38383 220.91365 226.11934 230.37360
 233.93808 238.03545 242.31259 246.54692 250.60710 254.36537 257.77664 260.90939
 263.86014 266.68570 269.44623 272.11258 274.45328 276.32819 277.66901 278.45441
 278.69370 278.85870 279.17172 279.74924 280.75494 281.80957 282.78732 283.70197
 284.59238 285.38528 286.07794 286.96066
 366.78100 356.34688 345.79077 334.66865 323.08354 311.28942 299.17131 286.98619
 274.71007 262.61896 250.63984 239.95273 230.08661 221.20250 213.39638 206.41027
 200.25615 195.20603 191.79992 189.85380 188.90269 188.97857 189.82546 191.14534
 192.88222 194.98911 197.26399 199.63488 202.09176 204.58365 206.68353 208.53742
 210.17530 211.33218 211.57307 211.81295 211.76184 211.47872 211.12361 210.76549
 210.39437 210.11626 209.93614 209.81203 209.75191 210.09480 210.49268 210.89356
 211.69845 212.88833 214.15022 215.94510 217.88499 219.93987 222.04676 224.14164
 226.21352 228.30941 230.41829 232.53618 234.67706 236.86095 239.12883 241.51071
 244.14360 246.40648 248.42037 250.19725 251.62614 252.76102 253.59491 253.92279
 253.97167 253.75756 253.12944 252.08933 250.70721 248.88010 246.80098 244.64586
 242.44875 240.26463 238.09652 235.94740 233.81929 231.69817 229.73605 227.90494
 226.19982 224.68371 223.32559 222.10948 221.00336 219.97525 219.09113 218.24401
 217.49790 216.68978 215.79967 215.17555 214.63744 214.75826 215.02893 214.56464
 213.89485 212.10828 211.45311 212.87938 216.37534 220.88596 226.08806 230.39038
 233.95013 238.04941 242.32950 246.57393 250.63374 254.38326 257.78094 260.89557
 263.82938 266.64203 269.41718 272.11392 274.49106 276.37634 277.63394 278.27023
 278.50156 278.63058 278.93259 279.63419 280.71677 281.78812 282.79181 283.78088
 284.68259 285.48557 286.18701 287.08093
 366.78100 356.34516 345.78732 334.66348 323.07664 311.28080 299.16096 286.97412
 274.69628 262.60344 250.62260 239.93376 230.06592 221.18008 213.37224 206.38440
 200.22856 195.17672 191.76888 189.82104 188.86820 188.94236 189.78752 191.10568
 192.84084 194.94600 197.21916 199.58831 202.04347 204.53363 206.63179 208.48395
 210.12011 211.27527 211.51443 211.75259 211.69975 211.41491 211.05807 210.69823
 210.32539 210.04555 209.86371 209.73787 209.67603 210.01719 210.41335 210.81251
 211.61567 212.80383 214.06399 215.85715 217.79531 219.84847 221.95363 224.04679
 226.11695 228.21111 230.31827 232.43443 234.57359 236.75575 239.02191 241.40207
 244.03323 246.29439 248.30655 250.08171 251.50887 252.64203 253.47419 253.80035
 253.84751 253.63167 253.00183 251.95999 250.57615 248.74731 246.66647 244.50963
 242.31078 240.12494 237.95510 235.80426 233.67442 231.55158 229.58774 227.75490
 226.04806 224.53022 223.17038 221.95254 220.84470 219.81486 218.92902 218.08018
 217.33234 216.52250 215.63066 215.00482 214.46498 214.68100 215.15828 214.47012
 213.86736 212.04675 211.45895 212.93640 216.33423 220.81024 226.00098 230.32761
 233.91507 238.02861 242.32413 246.59140 250.66545 254.41859 257.81531 260.92380
 263.84857 266.65002 269.42810 272.14349 274.55060 276.40005 277.53915 278.11136
 278.30939 278.41547 278.78705 279.58618 280.74557 281.83200 282.89505 283.88943
 284.78375 285.58014 286.27585 287.16248
 366.78100 356.34418 345.78536 334.66054 323.07272 311.27590 299.15508 286.96726
 274.68844 262.59462 250.61280 239.92298 230.05416 221.16734 213.35852 206.36970
 200.21288 195.16006 191.75124 189.80242 188.84859 188.92177 189.76595 191.08313
 192.81731 194.92149 197.19367 199.56185 202.01603 204.50521 206.60239 208.45357
 210.08875 211.24293 211.48111 211.71829 211.66447 211.37865 211.02083 210.66001
 210.28619 210.00537 209.82255 209.69573 209.63291 209.97309 210.36827 210.76645
 211.56863 212.75581 214.01499 215.80717 217.74435 219.79653 221.90071 223.99289
 226.06207 228.15525 230.26142 232.37660 234.51478 236.69596 238.96114 241.34032
 243.97050 246.23068 248.24186 250.01604 251.44222 252.57440 253.40558 253.73076
 253.77694 253.56012 252.92930 251.88648 250.50166 248.67184 246.59002 244.43220
 242.23238 240.04556 237.87474 235.72292 233.59210 231.46828 229.50346 227.66964
 225.96182 224.44300 223.08218 221.86336 220.75454 219.72372 218.83690 217.98708
 217.23825 216.42743 215.53461 214.90779 214.36697 214.63153 215.22499 214.50110
 213.74255 212.11929 211.56450 212.91962 216.22397 220.69322 225.88676 230.21809
 233.85138 237.98160 242.29562 246.58707 250.68018 254.44789 257.85745 260.97363
 263.89886 266.69739 269.47076 272.19006 274.59982 276.43436 277.50946 278.02570
 278.21991 278.37958 278.84143 279.67715 280.81122 281.89215 282.91968 283.93201
 284.84247 285.65326 286.36154 287.26416
 366.78100 356.34565 345.78829 334.66494 323.07859 311.28323 299.16388 286.97753
 274.70017 262.60782 250.62747 239.93912 230.07176 221.18641 213.37906 206.39170
 200.23635 195.18500 191.77764 189.83029 188.87794 188.95258 189.79823 191.11688
 192.85252 194.95817 197.23182 199.60147 202.05711 204.54776 206.64641 208.49905
 210.13570 211.29135 211.53099 211.76964 211.71729 211.43293 211.07658 210.71723
 210.34487 210.06552 209.88417 209.75882 209.69746 210.03911 210.43576 210.83540
 211.63905 212.82770 214.08834 215.88199 217.82064 219.87428 221.97993 224.07358
 226.14422 228.23887 230.34652 232.46317 234.60281 236.78546 239.05211 241.43275
 244.06440 246.32605 248.33869 250.11434 251.54199 252.67563 253.50828 253.83493
 253.88257 253.66722 253.03787 251.99652 250.61316 248.78481 246.70446 244.54810
 242.34975 240.16440 237.99504 235.84469 233.71534 231.59298 229.62963 227.79728
 226.09092 224.57357 223.21422 221.99687 220.88951 219.86016 218.97481 218.12645
 217.37910 216.56975 215.67839 215.05304 214.51369 214.69902 215.12491 214.67694
 213.62375 212.18753 211.65703 212.84886 216.10815 220.59328 225.80898 230.13342
 233.80513 237.94099 242.26154 246.56567 250.66780 254.44698 257.87195 261.00204
 263.93106 266.73373 269.50226 272.21347 274.60001 276.37579 277.43280 277.94479
 278.20334 278.50372 279.04678 279.85562 280.89270 281.95743 282.94806 283.88876
 284.76385 285.54315 286.22394 287.09149
 366.78100 356.34712 345.79124 334.66936 323.08449 311.29061 299.17273 286.98785
 274.71197 262.62109 250.64221 239.95534 230.08946 221.20558 213.39970 206.41382
 200.25994 195.21007 191.80419 189.85831 188.90743 188.98355 189.83067 191.15079
 192.88792 194.99504 197.27016 199.64128 202.09840 204.59052 206.69064 208.54477
 210.18289 211.34001 211.58113 211.82125 211.77037 211.48749 211.13262 210.77474
 210.40386 210.12598 209.94610 209.82222 209.76235 210.10547 210.50359 210.90471
 211.70983 212.89995 214.16207 215.95720 217.89732 219.95244 222.05956 224.15468
 226.22680 228.32292 230.43205 232.55017 234.69129 236.87541 239.14353 241.52565
 244.15877 246.42190 248.43602 250.21314 251.64226 252.77738 253.61150 253.93963
 253.98875 253.77487 253.14699 252.10711 250.72523 248.89835 246.81948 244.66460
 242.46772 240.28384 238.11596 235.96708 233.83920 231.71833 229.75645 227.92557
 226.22069 224.70481 223.34693 222.13105 221.02518 219.99730 219.11342 218.26654
 217.52066 216.71278 215.82291 215.19903 214.66115 214.77022 215.02415 214.79202
 213.61728 212.16035 211.63272 212.76634 216.05598 220.55714 225.78345 230.10690
 233.79828 237.92554 242.24252 246.55133 250.65402 254.43654 257.87332 261.01819
 263.95218 266.75507 269.51755 272.21640 274.56696 276.27313 277.27600 277.80646
 278.16885 278.60318 279.24216 280.07794 281.04099 282.07718 283.03549 283.94107
 284.81479 285.59286 286.27258 287.13879
 366.78100 356.34697 345.79094 334.66890 323.08387 311.28984 299.17181 286.98678
 274.71075 262.61971 250.64068 239.95365 230.08762 221.20359 213.39755 206.41152
 200.25749 195.20746 191.80143 189.85539 188.90436 188.98033 189.82730 191.14727
 192.88424 194.99120 197.26617 199.63714 202.09411 204.58608 206.68604 208.54001
 210.17798 211.33495 211.57592 211.81588 211.76485 211.48182 211.12679 210.76876
 210.39773 210.11969 209.93966 209.81563 209.75560 210.09857 210.49653 210.89750
 211.70247 212.89244 214.15441 215.94937 217.88934 219.94431 222.05128 224.14625
 226.21822 228.31418 230.42315 232.54112 234.68209 236.86606 239.13402 241.51599
 244.14896 246.41193 248.42590 250.20286 251.63183 252.76680 253.60077 253.92874
 253.97771 253.76367 253.13564 252.09561 250.71358 248.88655 246.80751 244.65248
 242.45545 240.27142 238.10339 235.95435 233.82632 231.70529 229.74326 227.91223
 226.20720 224.69116 223.33313 222.11710 221.01107 219.98304 219.09900 218.25197
 217.50594 216.69791 215.80788 215.18384 214.64581 214.76550 215.04170 214.75899
 213.69487 212.05992 211.54718 212.74954 216.03862 220.52461 225.74863 230.11150
 233.79462 237.91632 242.22827 246.53729 250.63493 254.41875 257.87320 261.03934
 263.98383 266.78537 269.54672 272.22931 274.54547 276.18991 277.13647 277.67694
 278.14325 278.69910 279.41006 280.28946 281.32449 282.23566 283.15375 284.07950
 284.95068 285.72647 286.40417 287.26782
 366.78100 356.34515 345.78731 334.66346 323.07661 311.28077 299.16092 286.97407
 274.69623 262.60338 250.62254 239.93369 230.06584 221.18000 213.37215 206.38430
 200.22846 195.17661 191.76876 189.82092 188.86807 188.94222 189.78738 191.10553
 192.84069 194.94584 197.21899 199.58815 202.04330 204.53345 206.63161 208.48376
 210.11991 211.27507 211.51422 211.75237 211.69953 211.41468 211.05784 210.69799
 210.32514 210.04530 209.86345 209.73760 209.67576 210.01691 210.41306 210.81222
 211.61537 212.80352 214.06368 215.85683 217.79498 219.84814 221.95329 224.04645
 226.11660 228.21075 230.31791 232.43406 234.57321 236.75537 239.02152 241.40167
 244.03283 246.29398 248.30613 250.08129 251.50844 252.64160 253.47375 253.79990
 253.84706 253.63121 253.00136 251.95952 250.57567 248.74682 246.66598 244.50913
 242.31028 240.12444 237.95459 235.80375 233.67390 231.55105 229.58721 227.75436
 226.04751 224.52967 223.16982 221.95197 220.84413 219.81428 218.92843 218.07959
 217.33174 216.52189 215.63005 215.00420 214.46436 214.68001 215.16656 214.64583
 213.70885 212.03510 211.47691 212.69194 216.01514 220.49313 225.69420 230.09950
 233.77521 237.89189 242.20128 246.51271 250.61057 254.40144 257.87891 261.06818
 264.02759 266.83139 269.59637 272.27066 274.56744 276.16632 277.04050 277.61139
 278.16232 278.81436 279.63089 280.54083 281.54138 282.52228 283.51260 284.48538
 285.36029 286.13943 286.82004 287.68741
 366.78100 356.34433 345.78567 334.66100 323.07333 311.27666 299.15600 286.96833
 274.68966 262.59600 250.61433 239.92466 230.05600 221.16933 213.36066 206.37199
 200.21533 195.16266 191.75399 189.80533 188.85166 188.92499 189.76932 191.08666
 192.82099 194.92532 197.19766 199.56599 202.02032 204.50966 206.60699 208.45832
 210.09365 211.24799 211.48632 211.72365 211.66999 211.38432 211.02665 210.66598
 210.29232 210.01165 209.82898 209.70232 209.63965 209.97998 210.37532 210.77365
 211.57598 212.76331 214.02265 215.81498 217.75231 219.80465 221.90898 224.00131
 226.07064 228.16398 230.27031 232.38564 234.52398 236.70531 238.97064 241.34998
 243.98031 246.24064 248.25197 250.02631 251.45264 252.58497 253.41631 253.74164
 253.78797 253.57130 252.94064 251.89797 250.51330 248.68364 246.60197 244.44430
 242.24463 240.05797 237.88730 235.73563 233.60497 231.48130 229.51663 227.68297
 225.97530 224.45663 223.09596 221.87730 220.76863 219.73796 218.85130 218.00163
 217.25296 216.44229 215.54963 214.92296 214.38229 214.63510 215.20862 214.66397
 213.66129 212.06749 211.47601 212.58984 215.94679 220.44165 225.65706 230.08415
 233.76408 237.86795 242.16959 246.48161 250.57552 254.37444 257.88110 261.10303
 264.07745 266.88376 269.63770 272.28961 274.55579 276.13013 276.97101 277.55981
 278.20212 278.98575 279.91232 280.83484 281.79987 282.82498 283.81015 284.77411
 285.64111 286.41315 287.08762 287.94711
 366.78100 356.34553 345.78805 334.66458 323.07811 311.28263 299.16316 286.97669
 274.69921 262.60674 250.62626 239.93779 230.07032 221.18484 213.37737 206.38990
 200.23442 195.18295 191.77548 189.82800 188.87553 188.95006 189.79558 191.11411
 192.84964 194.95516 197.22869 199.59821 202.05374 204.54427 206.64279 208.49532
 210.13185 211.28737 211.52690 211.76543 211.71295 211.42848 211.07201 210.71253
 210.34006 210.06059 209.87911 209.75364 209.69217 210.03369 210.43022 210.82974
 211.63327 212.82180 214.08232 215.87585 217.81438 219.86790 221.97343 224.06696
 226.13748 228.23201 230.33954 232.45606 234.59559 236.77812 239.04464 241.42517
 244.05669 246.31822 248.33075 250.10627 251.53380 252.66733 253.49985 253.82638
 253.87391 253.65843 253.02896 251.98749 250.60401 248.77554 246.69507 244.53859
 242.34012 240.15464 237.98517 235.83470 233.70522 231.58275 229.61928 227.78680
 226.08033 224.56286 223.20338 221.98591 220.87844 219.84896 218.96349 218.11502
 217.36754 216.55807 215.66659 215.04112 214.50165 214.68849 215.12068 214.75282
 213.75143 212.10265 211.39165 212.45621 215.86414 220.38937 225.62596 230.04575
 233.75095 237.84460 242.13739 246.45552 250.56041 254.37450 257.89700 261.12842
 264.09918 266.89774 269.63812 272.26669 274.48245 275.99030 276.83658 277.41858
 278.20471 279.19748 280.28201 281.26559 282.12170 283.03766 283.97113 284.87875
 285.72189 286.47272 287.12863 287.96451
 366.78100 356.34485 345.78670 334.66256 323.07541 311.27926 299.15911 286.97196
 274.69381 262.60067 250.61952 239.93037 230.06222 221.17607 213.36792 206.37978
 200.22363 195.17148 191.76333 189.81518 188.86203 188.93589 189.78074 191.09859
 192.83344 194.93829 197.21115 199.58000 202.03485 204.52470 206.62255 208.47440
 210.11026 211.26511 211.50396 211.74181 211.68866 211.40351 211.04637 210.68622
 210.31307 210.03292 209.85077 209.72462 209.66248 210.00333 210.39918 210.79803
 211.60088 212.78874 214.04859 215.84144 217.77929 219.83214 221.93699 224.02985
 226.09970 228.19355 230.30040 232.41625 234.55510 236.73696 239.00281 241.38266
 244.01351 246.27436 248.28621 250.06107 251.48792 252.62077 253.45262 253.77847
 253.82532 253.60918 252.97903 251.93688 250.55273 248.72358 246.64244 244.48529
 242.28614 240.09999 237.92984 235.77869 233.64855 231.52540 229.56125 227.72810
 226.02095 224.50280 223.14266 221.92451 220.81636 219.78621 218.90006 218.05091
 217.30277 216.49262 215.60047 214.97432 214.43417 214.66272 215.17725 214.66875
 213.76010 212.07666 211.34904 212.45512 215.82480 220.31168 225.54349 230.03802
 233.72473 237.81163 242.11316 246.43333 250.52414 254.34276 257.90936 261.18951
 264.17230 266.94348 269.64212 272.21930 274.41077 275.92542 276.73520 277.39688
 278.25262 279.35300 280.60980 281.83740 282.81329 283.72009 284.62949 285.50171
 286.28616 286.98474 287.59500 288.37268
 366.78100 356.34365 345.78430 334.65895 323.07061 311.27326 299.15191 286.96356
 274.68421 262.58986 250.60751 239.91717 230.04782 221.16047 213.35112 206.36177
 200.20442 195.15108 191.74173 189.79238 188.83803 188.91068 189.75433 191.07098
 192.80464 194.90829 197.17994 199.54759 202.00124 204.48989 206.58654 208.43720
 210.07185 211.22550 211.46315 211.69980 211.64545 211.35910 211.00076 210.63941
 210.26506 209.98371 209.80036 209.67301 209.60967 209.94932 210.34397 210.74162
 211.54327 212.72992 213.98857 215.78023 217.71688 219.76853 221.87218 223.96383
 226.03248 228.12513 230.23079 232.34544 234.48309 236.66374 238.92839 241.30704
 243.93669 246.19635 248.20700 249.98065 251.40630 252.53795 253.36860 253.69326
 253.73891 253.52156 252.89021 251.84686 250.46151 248.63116 246.54882 244.39047
 242.19012 240.00277 237.83142 235.67907 233.54772 231.42338 229.45803 227.62368
 225.91533 224.39598 223.03463 221.81528 220.70594 219.67459 218.78724 217.93689
 217.18754 216.37619 215.48284 214.85550 214.31415 214.58537 215.16533 214.60854
 213.75365 212.21841 211.43509 212.49829 215.83037 220.26126 225.48906 230.04665
 233.73274 237.79582 242.11046 246.43416 250.49983 254.30962 257.91898 261.27417
 264.27457 267.02472 269.66718 272.17712 274.29178 275.83151 276.73657 277.45859
 278.38287 279.55435 280.90921 282.23965 283.36127 284.44150 285.43173 286.32883
 287.13568 287.85416 288.48181 289.28171
 354.97500 345.04800 334.58700 324.11500 313.32600 302.53700 291.65000 280.76700
 269.93100 259.19300 248.62200 238.61700 229.08700 220.35500 212.54000 205.53500
 199.46400 194.49300 191.14300 189.19000 188.08900 188.01400 188.72400 189.90600
 191.46900 193.38200 195.40300 197.55600 199.80700 202.06000 204.28800 206.47900
 208.55200 210.37800 212.02500 213.65900 214.99800 216.11800 217.17200 218.25900
 219.49400 220.64500 221.67900 222.61400 223.54500 224.98200 226.57100 228.19000
 229.79700 231.81100 233.86500 235.97200 238.24200 240.55300 242.89900 245.25300
 247.48800 249.53500 251.36600 252.84800 254.09800 255.16700 256.02700 256.25300
 256.09500 255.54300 253.93500 252.56600 251.38400 250.24500 249.05200 247.70100
 246.01600 243.99600 241.78400 239.39300 236.81300 234.22300 231.65800 229.14400
 226.74000 224.47300 222.33500 220.32500 218.44000 216.67700 214.96200 213.47200
 212.20000 211.10800 210.26000 209.63900 209.24400 209.03100 209.05800 209.33300
 209.78400 210.62600 211.33100 212.39100 213.62500 214.84668 217.72949 219.47640
 220.32566 220.86828 220.88710 220.27371 219.43733 218.84250 219.04934 220.86203
 222.60583 225.72206 229.03064 232.61777 236.12270 239.51333 242.70767 245.68587
 248.41061 250.90679 253.19353 254.91714 256.48655 257.94920 259.39966 260.69384
 261.81714 262.77997 263.71679 264.54570 265.26305 265.89772 266.47676 267.00133
 267.47312 267.89325 268.26027 268.72800
