|-------------------------------------------------------------------------|
|   File Name : in_temp.dat
|   Subject   : temperature profiles used for initial guess atmosphere
|   File Type : input of gmtr
|   Data Type : atmospherical data
|   Author/s  : WRF-Chem
|   Date      : Fri Jul 26 15:39:24 2024
|-------------------------------------------------------------------------|

 WRF-Chem temperature
#
 values of T (K)    (8f10.5)
#
 354.97500 345.04800 334.58700 324.11500 313.32600 302.53700 291.65000 280.76700
 269.93100 259.19300 248.62200 238.61700 229.08700 220.35500 212.54000 205.53500
 199.46400 194.49300 191.14300 189.19000 188.08900 188.01400 188.72400 189.90600
 191.46900 193.38200 195.40300 197.55600 199.80700 202.06000 204.28800 206.47900
 208.55200 210.37800 212.02500 213.65900 214.99800 216.11800 217.17200 218.25900
 219.49400 220.64500 221.67900 222.61400 223.54500 224.98200 226.57100 228.19000
 229.79700 231.81100 233.86500 235.97200 238.24200 240.55300 242.89900 245.25300
 247.48800 249.53500 251.36600 252.84800 254.09800 255.16700 256.02700 256.25300
 256.09500 255.54300 253.93500 252.56600 251.38400 250.24500 249.05200 247.70100
 246.01600 243.99600 241.78400 239.39300 236.81300 234.22300 231.65800 229.14400
 226.74000 224.47300 222.33500 220.32500 218.44000 216.67700 214.96200 213.47200
 212.20000 211.10800 210.26000 209.63900 209.24400 209.03100 209.05800 209.33300
 209.78400 210.62600 211.33100 212.39100 213.62500 214.84668 217.72949 219.47640
 220.32566 220.86828 220.88710 220.27371 219.43733 218.84250 219.04934 220.86203
 222.60583 225.72206 229.03064 232.61777 236.12270 239.51333 242.70767 245.68587
 248.41061 250.90679 253.19353 254.91714 256.48655 257.94920 259.39966 260.69384
 261.81714 262.77997 263.71679 264.54570 265.26305 265.89772 266.47676 267.00133
 267.47312 267.89325 268.26027 268.72800
 366.78100 356.33500 345.76700 334.63300 323.03600 311.23000 299.10000 286.90300
 274.61500 262.51200 250.52100 239.82200 229.94400 221.04800 213.23000 206.23200
 200.06600 195.00400 191.58600 189.62800 188.66500 188.72900 189.56400 190.87200
 192.59700 194.69200 196.95500 199.31400 201.75900 204.23900 206.32700 208.16900
 209.79500 210.94000 211.16900 211.39700 211.33400 211.03900 210.67200 210.30200
 209.91900 209.62900 209.43700 209.30100 209.22900 209.56000 209.94600 210.33500
 211.12800 212.30600 213.55600 215.33900 217.26700 219.31000 221.40500 223.48800
 225.54800 227.63200 229.72900 231.83500 233.96400 236.13600 238.39200 240.76200
 243.38300 245.63400 247.63600 249.40100 250.81800 251.94100 252.76300 253.07900
 253.11600 252.89000 252.25000 251.19800 249.80400 247.96500 245.87400 243.70700
 241.49800 239.30200 237.12200 234.96100 232.82100 230.68800 228.71400 226.87100
 225.15400 223.62600 222.25600 221.02800 219.91000 218.87000 217.97400 217.11500
 216.35700 215.53700 214.63500 213.99900 213.44900 212.85855 212.01316 212.61654
 214.26826 216.08686 218.14273 220.53346 223.40855 226.78828 231.49734 235.90155
 239.42278 243.28576 247.23140 251.11907 254.80144 258.23331 261.38913 264.27520
 266.89312 269.26852 271.44504 273.08845 274.58484 275.98591 277.39845 278.65879
 279.75272 280.69038 281.56708 282.34086 283.01050 283.60295 284.14348 284.63317
 285.07358 285.46577 285.80838 286.24500
 381.81900 372.39900 361.20600 349.77600 337.62200 324.85300 311.81000 298.35300
 284.86000 271.32400 258.56100 246.30400 236.08700 226.79600 218.44800 211.29000
 205.52200 200.89400 197.38100 194.84800 193.01500 192.31500 192.25000 192.43100
 192.91200 193.53700 194.13600 194.71200 195.26200 195.83100 196.39300 196.97600
 197.60400 198.14900 198.58400 199.05700 199.69500 200.37800 201.05400 201.70800
 202.31300 202.85700 203.35500 203.86200 204.56900 205.29700 206.02600 206.98700
 208.19300 209.44100 210.96900 212.57600 214.46200 216.51300 218.63000 220.85300
 223.34100 225.96200 228.73900 231.69700 234.70600 237.70600 240.69200 243.65700
 246.73700 249.69900 252.52100 255.06300 257.29000 259.23300 260.63300 261.68000
 262.46100 262.79800 262.69100 262.22400 261.06900 259.52500 257.70700 255.50700
 253.00100 250.30200 247.39800 244.45200 241.65400 239.05400 236.73300 234.59000
 232.59500 230.72500 228.83400 226.82600 224.66600 222.38700 220.10400 217.71500
 215.45900 213.06600 210.54600 208.09300 205.35400 202.08130 196.05959 200.71215
 209.01611 216.90438 223.84126 229.78593 235.00632 240.20838 245.98943 250.68668
 254.32982 257.93487 261.55666 264.96801 268.15192 271.06452 273.76717 276.25691
 278.57680 280.74479 282.77456 284.60533 286.27232 287.81705 289.31715 290.65561
 291.81734 292.81312 293.70701 294.49387 295.17482 295.77730 296.32696 296.82492
 297.27278 297.67160 298.02000 298.46400
 399.33000 389.90700 379.81300 368.66800 357.52200 345.30100 333.07400 320.22700
 307.21600 293.84800 280.37600 267.29600 254.61000 242.98700 232.15100 221.97700
 212.67200 204.28600 197.66900 192.82100 189.48600 187.45200 186.81400 187.08900
 187.78100 189.05400 190.64800 192.54200 194.63000 196.75200 198.67100 200.15800
 201.53500 202.48700 202.97500 203.34000 203.53900 203.49700 203.38500 203.24700
 203.00500 202.78600 202.60300 202.43700 202.42600 202.88800 203.42000 203.95100
 204.89500 205.99200 207.30100 208.95800 210.73800 213.10000 215.56400 218.18000
 220.96600 223.91800 226.96100 230.09200 233.29300 236.55700 239.95500 243.53700
 246.84500 249.39000 251.54200 253.47400 255.19500 256.48400 257.43100 258.05900
 258.21200 258.04000 257.58200 256.64300 255.23900 253.50700 251.40800 249.05600
 246.57600 243.99400 241.38900 238.83000 236.34400 233.98600 231.96900 230.11800
 228.42300 226.89900 225.54800 224.29700 223.10500 221.96500 220.95800 220.11300
 219.49000 218.92000 218.32500 217.88100 217.42300 216.96366 216.35568 216.80261
 217.73415 218.28582 218.64258 219.10077 220.44626 222.53987 226.38451 230.35736
 233.59734 237.39164 241.29814 245.22796 248.98002 252.51130 255.78595 258.80109
 261.54781 264.05210 266.34239 268.04198 269.58951 271.01303 272.35754 273.55718
 274.59842 275.49092 276.28989 276.99307 277.60161 278.14001 278.63122 279.07623
 279.47646 279.83287 280.14422 280.54100
 399.73800 389.78500 379.66200 368.15100 356.64100 344.35000 331.79200 318.88800
 305.72600 292.49300 279.20900 266.73800 254.69600 244.21100 234.45700 225.43300
 217.56900 210.45100 204.30000 199.30600 195.45800 192.57600 191.02700 190.38600
 190.23900 190.53400 191.16600 191.92500 192.79500 193.76600 194.73200 195.31200
 195.80000 196.05200 196.11500 196.11500 196.03900 195.72300 195.34000 194.98900
 194.75100 194.79200 195.13300 195.59800 196.50600 198.13600 199.85800 201.56600
 204.17900 206.82300 209.89300 213.28400 216.82800 220.60500 224.38700 228.20900
 232.03200 235.82500 239.56000 243.25800 246.84500 250.20100 253.70900 257.46800
 261.53000 264.22100 266.60100 268.68100 270.32900 271.74100 272.83600 273.47400
 273.89800 274.00200 273.75700 273.28800 272.37100 271.10000 269.58900 267.77900
 265.81600 263.72100 261.39300 258.91600 256.29800 253.42300 250.33100 247.11400
 243.83700 240.52900 237.24900 233.99900 230.72800 227.51500 224.25400 220.95200
 217.62700 213.65600 210.12100 206.78900 204.01000 201.99491 199.07309 198.76551
 199.40006 200.48994 201.46112 202.31912 203.45100 204.96110 207.47502 210.85391
 213.70530 217.29629 220.99574 224.72316 228.28753 231.64854 234.68024 237.40893
 239.70644 241.60899 243.46854 245.67368 247.68154 249.52395 251.24767 252.78566
 254.12057 255.26479 256.23740 257.09036 257.82852 258.48160 259.07744 259.61723
 260.10271 260.53504 260.91270 261.39400
 399.73800 389.78500 379.66200 368.15100 356.64100 344.35000 331.79200 318.88800
 305.72600 292.49300 279.20900 266.73800 254.69600 244.21100 234.45700 225.43300
 217.56900 210.45100 204.30000 199.30600 195.45800 192.57600 191.02700 190.38600
 190.23900 190.53400 191.16600 191.92500 192.79500 193.76600 194.73200 195.31200
 195.80000 196.05200 196.11500 196.11500 196.03900 195.72300 195.34000 194.98900
 194.75100 194.79200 195.13300 195.59800 196.50600 198.13600 199.85800 201.56600
 204.17900 206.82300 209.89300 213.28400 216.82800 220.60500 224.38700 228.20900
 232.03200 235.82500 239.56000 243.25800 246.84500 250.20100 253.70900 257.46800
 261.53000 264.22100 266.60100 268.68100 270.32900 271.74100 272.83600 273.47400
 273.89800 274.00200 273.75700 273.28800 272.37100 271.10000 269.58900 267.77900
 265.81600 263.72100 261.39300 258.91600 256.29800 253.42300 250.33100 247.11400
 243.83700 240.52900 237.24900 233.99900 230.72800 227.51500 224.25400 220.95200
 217.62700 213.65600 210.12100 206.78900 204.01000 201.99491 199.07309 198.76551
 199.40006 200.48994 201.46112 202.31912 203.45100 204.96110 207.47502 210.85391
 213.70530 217.29629 220.99574 224.72316 228.28753 231.64854 234.68024 237.40893
 239.70644 241.60899 243.46854 245.67368 247.68154 249.52395 251.24767 252.78566
 254.12057 255.26479 256.23740 257.09036 257.82852 258.48160 259.07744 259.61723
 260.10271 260.53504 260.91270 261.39400
 399.33000 389.90700 379.81300 368.66800 357.52200 345.30100 333.07400 320.22700
 307.21600 293.84800 280.37600 267.29600 254.61000 242.98700 232.15100 221.97700
 212.67200 204.28600 197.66900 192.82100 189.48600 187.45200 186.81400 187.08900
 187.78100 189.05400 190.64800 192.54200 194.63000 196.75200 198.67100 200.15800
 201.53500 202.48700 202.97500 203.34000 203.53900 203.49700 203.38500 203.24700
 203.00500 202.78600 202.60300 202.43700 202.42600 202.88800 203.42000 203.95100
 204.89500 205.99200 207.30100 208.95800 210.73800 213.10000 215.56400 218.18000
 220.96600 223.91800 226.96100 230.09200 233.29300 236.55700 239.95500 243.53700
 246.84500 249.39000 251.54200 253.47400 255.19500 256.48400 257.43100 258.05900
 258.21200 258.04000 257.58200 256.64300 255.23900 253.50700 251.40800 249.05600
 246.57600 243.99400 241.38900 238.83000 236.34400 233.98600 231.96900 230.11800
 228.42300 226.89900 225.54800 224.29700 223.10500 221.96500 220.95800 220.11300
 219.49000 218.92000 218.32500 217.88100 217.42300 216.96366 216.35568 216.80261
 217.73415 218.28582 218.64258 219.10077 220.44626 222.53987 226.38451 230.35736
 233.59734 237.39164 241.29814 245.22796 248.98002 252.51130 255.78595 258.80109
 261.54781 264.05210 266.34239 268.04198 269.58951 271.01303 272.35754 273.55718
 274.59842 275.49092 276.28989 276.99307 277.60161 278.14001 278.63122 279.07623
 279.47646 279.83287 280.14422 280.54100
 381.81900 372.39900 361.20600 349.77600 337.62200 324.85300 311.81000 298.35300
 284.86000 271.32400 258.56100 246.30400 236.08700 226.79600 218.44800 211.29000
 205.52200 200.89400 197.38100 194.84800 193.01500 192.31500 192.25000 192.43100
 192.91200 193.53700 194.13600 194.71200 195.26200 195.83100 196.39300 196.97600
 197.60400 198.14900 198.58400 199.05700 199.69500 200.37800 201.05400 201.70800
 202.31300 202.85700 203.35500 203.86200 204.56900 205.29700 206.02600 206.98700
 208.19300 209.44100 210.96900 212.57600 214.46200 216.51300 218.63000 220.85300
 223.34100 225.96200 228.73900 231.69700 234.70600 237.70600 240.69200 243.65700
 246.73700 249.69900 252.52100 255.06300 257.29000 259.23300 260.63300 261.68000
 262.46100 262.79800 262.69100 262.22400 261.06900 259.52500 257.70700 255.50700
 253.00100 250.30200 247.39800 244.45200 241.65400 239.05400 236.73300 234.59000
 232.59500 230.72500 228.83400 226.82600 224.66600 222.38700 220.10400 217.71500
 215.45900 213.06600 210.54600 208.09300 205.35400 202.08130 196.05959 200.71215
 209.01611 216.90438 223.84126 229.78593 235.00632 240.20838 245.98943 250.68668
 254.32982 257.93487 261.55666 264.96801 268.15192 271.06452 273.76717 276.25691
 278.57680 280.74479 282.77456 284.60533 286.27232 287.81705 289.31715 290.65561
 291.81734 292.81312 293.70701 294.49387 295.17482 295.77730 296.32696 296.82492
 297.27278 297.67160 298.02000 298.46400
 366.78100 356.34648 345.78997 334.66745 323.08193 311.28742 299.16890 286.98338
 274.70687 262.61535 250.63583 239.94832 230.08180 221.19728 213.39076 206.40425
 200.24973 195.19921 191.79270 189.84618 188.89466 188.97015 189.81663 191.13611
 192.87260 194.97908 197.25356 199.62405 202.08053 204.57201 206.67150 208.52498
 210.16246 211.31895 211.55943 211.79891 211.74740 211.46388 211.10836 210.74985
 210.37833 210.09981 209.91929 209.79478 209.73426 210.07674 210.47423 210.87471
 211.67919 212.86868 214.13016 215.92464 217.86413 219.91861 222.02509 224.11958
 226.19106 228.28654 230.39503 232.51251 234.65299 236.83648 239.10396 241.48544
 244.11793 246.38041 248.39389 250.17037 251.59886 252.73334 253.56682 253.89431
 253.94279 253.72827 253.09976 252.05924 250.67672 248.84921 246.76969 244.61417
 242.41666 240.23214 238.06362 235.91411 233.78559 231.66407 229.70156 227.87004
 226.16452 224.64801 223.28949 222.07297 220.96645 219.93794 219.05342 218.20590
 217.45939 216.65087 215.76035 215.13584 214.59732 213.61075 211.28256 210.42154
 211.37927 213.19719 215.33322 216.98367 219.29716 223.36063 229.16327 234.27205
 238.12366 241.85890 245.55644 249.39185 253.44365 256.85867 259.51859 261.74713
 264.60709 267.38113 269.72058 271.70508 273.48978 275.19208 276.81439 278.48990
 280.23038 281.85483 283.33676 284.68881 285.86749 286.91498 287.87390 288.74582
 289.53580 290.24576 290.87140 291.70166
 366.78100 356.34567 345.78833 334.66500 323.07867 311.28333 299.16400 286.97766
 274.70033 262.60800 250.62766 239.93933 230.07200 221.18666 213.37933 206.39200
 200.23666 195.18533 191.77800 189.83066 188.87833 188.95299 189.79866 191.11733
 192.85299 194.95866 197.23233 199.60199 202.05766 204.54833 206.64699 208.49966
 210.13632 211.29199 211.53166 211.77032 211.71799 211.43366 211.07732 210.71799
 210.34566 210.06632 209.88499 209.75966 209.69832 210.03999 210.43665 210.83632
 211.63999 212.82865 214.08932 215.88299 217.82165 219.87532 221.98099 224.07465
 226.14532 228.23998 230.34765 232.46432 234.60398 236.78665 239.05332 241.43398
 244.06565 246.32732 248.33998 250.11565 251.54332 252.67698 253.50965 253.83631
 253.88398 253.66865 253.03931 251.99798 250.61465 248.78631 246.70598 244.54965
 242.35131 240.16598 237.99665 235.84631 233.71698 231.59464 229.63131 227.79898
 226.09264 224.57531 223.21598 221.99864 220.89131 219.86198 218.97664 218.12831
 217.38097 216.57164 215.68031 215.05497 214.51564 213.58257 211.38029 210.56796
 211.45747 213.30779 215.44373 216.98267 219.21880 223.27441 229.09845 234.18394
 238.02048 241.75438 245.46545 249.32854 253.42090 256.78482 259.38440 261.63354
 264.50153 267.29453 269.65649 271.62827 273.37308 275.04263 276.68478 278.38220
 280.12436 281.74869 283.23346 284.58737 285.76733 286.81528 287.77377 288.64703
 289.43802 290.14783 290.77493 291.60492
 366.78100 356.34486 345.78672 334.66259 323.07545 311.27931 299.15917 286.97203
 274.69390 262.60076 250.61962 239.93048 230.06235 221.17621 213.36807 206.37993
 200.22379 195.17166 191.76352 189.81538 188.86224 188.93610 189.78097 191.09883
 192.83369 194.93855 197.21141 199.58028 202.03514 204.52500 206.62286 208.47473
 210.11059 211.26545 211.50431 211.74217 211.68904 211.40390 211.04676 210.68662
 210.31348 210.03335 209.85121 209.72507 209.66293 210.00380 210.39966 210.79852
 211.60138 212.78924 214.04911 215.84197 217.77983 219.83269 221.93755 224.03042
 226.10028 228.19414 230.30100 232.41686 234.55573 236.73759 239.00345 241.38331
 244.01418 246.27504 248.28690 250.06176 251.48862 252.62149 253.45335 253.77921
 253.82607 253.60993 252.97980 251.93766 250.55352 248.72438 246.64324 244.48611
 242.28697 240.10083 237.93069 235.77956 233.64942 231.52628 229.56214 227.72900
 226.02187 224.50373 223.14359 221.92545 220.81731 219.78718 218.90104 218.05190
 217.30376 216.49362 215.60149 214.97535 214.43521 213.55299 211.47049 210.71538
 211.53806 213.42245 215.54933 217.01321 219.14136 223.19034 229.03197 234.09624
 237.91687 241.64844 245.37259 249.26379 253.39249 256.70163 259.24106 261.51334
 264.38870 267.20273 269.59003 271.55496 273.26343 274.90173 276.55966 278.27908
 280.02341 281.64511 283.13412 284.48969 285.67059 286.71762 287.67706 288.55087
 289.34265 290.05310 290.68057 291.51178
 366.78100 356.34377 345.78453 334.65930 323.07107 311.27383 299.15260 286.96437
 274.68513 262.59090 250.60867 239.91843 230.04920 221.16197 213.35273 206.36350
 200.20627 195.15303 191.74380 189.79457 188.84033 188.91310 189.75687 191.07363
 192.80740 194.91117 197.18293 199.55070 202.00447 204.49323 206.59000 208.44077
 210.07553 211.22930 211.46707 211.70383 211.64960 211.36337 211.00513 210.64390
 210.26967 209.98843 209.80520 209.67797 209.61473 209.95450 210.34927 210.74703
 211.54880 212.73557 213.99433 215.78610 217.72287 219.77463 221.87840 223.97017
 226.03893 228.13170 230.23747 232.35223 234.49000 236.67077 238.93553 241.31430
 243.94407 246.20383 248.21460 249.98837 251.41413 252.54590 253.37667 253.70143
 253.74720 253.52997 252.89873 251.85550 250.47027 248.64003 246.55780 244.39957
 242.19933 240.01210 237.84087 235.68863 233.55740 231.43317 229.46793 227.63370
 225.92547 224.40623 223.04500 221.82577 220.71653 219.68530 218.79807 217.94783
 217.19860 216.38737 215.49413 214.86690 214.32567 213.50713 211.57458 210.84830
 211.62308 213.53737 215.63965 217.07825 219.08154 223.11093 228.96867 234.00650
 237.81029 241.53590 245.27554 249.19690 253.35701 256.61337 259.09845 261.39444
 264.27271 267.10410 269.51813 271.47849 273.15646 274.76813 276.44250 278.18063
 279.92615 281.54834 283.03976 284.39548 285.57599 286.62576 287.58383 288.45883
 289.25110 289.96240 290.58929 291.41940
 366.78100 356.34254 345.78208 334.65562 323.06616 311.26770 299.14525 286.95579
 274.67533 262.57987 250.59641 239.90495 230.03449 221.14603 213.33557 206.34511
 200.18666 195.13220 191.72174 189.77128 188.81582 188.88736 189.72990 191.04544
 192.77798 194.88052 197.15106 199.51761 201.97015 204.45769 206.55323 208.40277
 210.03631 211.18885 211.42539 211.66093 211.60547 211.31801 210.95856 210.59610
 210.22064 209.93818 209.75372 209.62526 209.56080 209.89934 210.29288 210.68942
 211.48997 212.67551 213.93305 215.72359 217.65913 219.70967 221.81221 223.90275
 225.97029 228.06183 230.16637 232.27992 234.41646 236.59600 238.85954 241.23708
 243.86562 246.12416 248.13370 249.90624 251.33078 252.46133 253.29087 253.61441
 253.65895 253.44049 252.80803 251.76357 250.37711 248.54565 246.46219 244.30273
 242.10128 239.91282 237.74036 235.58690 233.45444 231.32898 229.36252 227.52706
 225.81760 224.29714 222.93469 221.71423 220.60377 219.57131 218.68285 217.83139
 217.08093 216.26847 215.37401 214.74555 214.20309 213.45352 211.68346 210.97321
 211.71111 213.65048 215.72282 217.14812 219.04604 223.04044 228.91118 233.91704
 237.70157 241.42090 245.17928 249.13185 253.31261 256.51956 258.95538 261.27548
 264.15167 266.99686 269.43576 271.39328 273.04977 274.64267 276.33368 278.09064
 279.83502 281.45554 282.95078 284.30719 285.48807 286.53726 287.49677 288.37210
 289.16595 289.87448 290.50311 291.34055
 366.78100 356.34140 345.77981 334.65221 323.06162 311.26202 299.13843 286.94783
 274.66623 262.56964 250.58504 239.89245 230.02085 221.13126 213.31966 206.32806
 200.16847 195.11287 191.70128 189.74968 188.79309 188.86349 189.70489 191.01930
 192.75070 194.85211 197.12151 199.48692 201.93832 204.42473 206.51913 208.36753
 209.99994 211.15134 211.38675 211.62115 211.56456 211.27596 210.91536 210.55177
 210.17517 209.89158 209.70598 209.57639 209.51079 209.84819 210.24060 210.63600
 211.43541 212.61981 213.87622 215.66562 217.60002 219.64943 221.75083 223.84024
 225.90664 227.99705 230.10045 232.21285 234.34826 236.52666 238.78907 241.16547
 243.79288 246.05028 248.05868 249.83009 251.25349 252.38290 253.21130 253.53371
 253.57711 253.35752 252.72392 251.67832 250.29073 248.45813 246.37354 244.21294
 242.01035 239.82075 237.64715 235.49256 233.35896 231.23237 229.26477 227.42818
 225.71758 224.19598 222.83239 221.61079 220.49920 219.46560 218.57601 217.72341
 216.97181 216.15822 215.26262 214.63303 214.08943 213.40372 211.78419 211.09399
 211.80644 213.76379 215.80316 217.21172 219.02463 222.98198 228.85855 233.82799
 237.59389 241.31088 245.09084 249.07159 253.25963 256.41855 258.81033 261.15347
 264.02408 266.87744 269.33847 271.29794 272.94440 274.52905 276.23532 278.00677
 279.74826 281.36871 282.86755 284.22449 285.40607 286.45566 287.41550 288.29141
 289.08380 289.79510 290.42474 291.25861
 366.78100 356.34051 345.77803 334.64954 323.05805 311.25756 299.13308 286.94159
 274.65910 262.56161 250.57613 239.88264 230.01015 221.11967 213.30718 206.31469
 200.15420 195.09772 191.68523 189.73274 188.77525 188.84477 189.68528 190.99879
 192.72931 194.82982 197.09833 199.46284 201.91336 204.39887 206.49238 208.33990
 209.97141 211.12192 211.35643 211.58995 211.53246 211.24297 210.88148 210.51700
 210.13951 209.85502 209.66854 209.53805 209.47156 209.80807 210.19959 210.59410
 211.39261 212.57612 213.83164 215.62015 217.55366 219.60218 221.70269 223.79120
 225.85671 227.94623 230.04874 232.16025 234.29476 236.47228 238.73379 241.10930
 243.73582 245.99233 247.99984 249.77035 251.19287 252.32138 253.14889 253.47041
 253.51292 253.29243 252.65794 251.61146 250.22297 248.38948 246.30399 244.14251
 241.93902 239.74853 237.57405 235.41856 233.28407 231.15658 229.18810 227.35061
 225.63912 224.11663 222.75215 221.52966 220.41717 219.38269 218.49220 217.63871
 216.88622 216.07174 215.17525 214.54476 214.00027 213.36658 211.86971 211.21362
 211.90936 213.87636 215.88899 217.26845 219.01538 222.93356 228.80490 233.73889
 237.49146 241.21043 245.01234 249.01541 253.19734 256.31064 258.66483 261.02921
 263.88873 266.74420 269.22260 271.18808 272.83878 274.42880 276.14948 277.93124
 279.66806 281.28748 282.78854 284.14618 285.32812 286.37701 287.33801 288.21323
 289.00635 289.72128 290.34805 291.18582
 366.78100 356.33983 345.77665 334.64748 323.05531 311.25414 299.12896 286.93679
 274.65362 262.55544 250.56927 239.87510 230.00192 221.11075 213.29758 206.30441
 200.14323 195.08606 191.67289 189.71971 188.76154 188.83037 189.67019 190.98302
 192.71285 194.81268 197.08050 199.44433 201.89416 204.37898 206.47181 208.31864
 209.94946 211.09929 211.33312 211.56595 211.50777 211.21760 210.85543 210.49025
 210.11208 209.82691 209.63973 209.50856 209.44139 209.77722 210.16804 210.56187
 211.35970 212.54252 213.79735 215.58518 217.51800 219.56583 221.66566 223.75349
 225.81831 227.90714 230.00897 232.11979 234.25362 236.43045 238.69128 241.06610
 243.69193 245.94776 247.95458 249.72441 251.14624 252.27406 253.10089 253.42172
 253.46355 253.24237 252.60720 251.56003 250.17085 248.33668 246.25051 244.08833
 241.88416 239.69299 237.51782 235.36164 233.22647 231.09830 229.12912 227.29095
 225.57878 224.05560 222.69043 221.46726 220.35409 219.31891 218.42774 217.57357
 216.82039 216.00522 215.10805 214.47687 213.93170 213.34041 211.94357 211.32452
 212.02090 213.98662 215.98347 217.32933 219.00819 222.89642 228.75185 233.64874
 237.38997 241.11368 244.94121 248.96199 253.12717 256.19824 258.52396 260.90820
 263.74893 266.59619 269.08789 271.06125 272.72913 274.34009 276.07620 277.86130
 279.59668 281.21002 282.71381 284.07227 285.25620 286.30499 287.26602 288.14227
 288.93643 289.64935 290.27844 291.11810
 366.78100 356.33935 345.77570 334.64604 323.05339 311.25174 299.12609 286.93343
 274.64978 262.55113 250.56448 239.86982 229.99617 221.10452 213.29087 206.29721
 200.13556 195.07791 191.66426 189.71060 188.75195 188.82030 189.65965 190.97199
 192.70134 194.80069 197.06804 199.43138 201.88073 204.36508 206.45743 208.30378
 209.93412 211.08347 211.31682 211.54917 211.49051 211.19986 210.83721 210.47156
 210.09290 209.80725 209.61960 209.48795 209.42029 209.75564 210.14599 210.53934
 211.33668 212.51903 213.77338 215.56073 217.49307 219.54042 221.63977 223.72712
 225.79146 227.87981 229.98116 232.09151 234.22486 236.40120 238.66155 241.03590
 243.66125 245.91659 247.92294 249.69229 251.11364 252.24098 253.06733 253.38768
 253.42903 253.20737 252.57172 251.52407 250.13442 248.29976 246.21311 244.05046
 241.84581 239.65415 237.47850 235.32185 233.18620 231.05754 229.08789 227.24924
 225.53659 224.01294 222.64728 221.42363 220.30998 219.27433 218.38267 217.52802
 216.77437 215.95872 215.06106 214.42941 213.88376 213.32564 212.00703 211.43034
 212.13168 214.10190 216.08290 217.38403 219.02626 222.86447 228.69205 233.55760
 237.29025 241.02498 244.87878 248.91336 253.04967 256.08014 258.38580 260.79010
 263.60434 266.43500 268.93280 270.91843 272.61725 274.26190 276.01300 277.79822
 279.52905 281.13547 282.64594 284.00516 285.18918 286.23871 287.20016 288.07529
 288.87143 289.58453 290.21411 291.05576
 366.78100 356.33899 345.77497 334.64496 323.05194 311.24993 299.12392 286.93090
 274.64689 262.54787 250.56086 239.86585 229.99183 221.09982 213.28581 206.29179
 200.12978 195.07176 191.65775 189.70374 188.74472 188.81271 189.65169 190.96368
 192.69267 194.79165 197.05864 199.42162 201.87061 204.35460 206.44658 208.29257
 209.92256 211.07154 211.30453 211.53651 211.47750 211.18649 210.82347 210.45746
 210.07844 209.79243 209.60442 209.47240 209.40439 209.73937 210.12936 210.52235
 211.31933 212.50132 213.75531 215.54229 217.47428 219.52126 221.62025 223.70724
 225.77122 227.85921 229.96019 232.07018 234.20317 236.37915 238.63914 241.01312
 243.63811 245.89310 247.89908 249.66807 251.08906 252.21604 253.04203 253.36201
 253.40300 253.18099 252.54497 251.49696 250.10694 248.27193 246.18492 244.02190
 241.81689 239.62487 237.44886 235.29185 233.15583 231.02682 229.05681 227.21779
 225.50478 223.98076 222.61475 221.39074 220.27672 219.24071 218.34869 217.49368
 216.73967 215.92365 215.02564 214.39362 213.84761 213.31789 212.06638 211.53011
 212.24390 214.20981 216.20155 217.44638 219.02742 222.84633 228.63901 233.47174
 237.19101 240.93657 244.81827 248.86456 252.95967 255.95226 258.24945 260.67688
 263.45853 266.26480 268.76468 270.76721 272.50760 274.19632 275.96027 277.74124
 279.46802 281.06662 282.58109 283.94217 285.12582 286.17532 287.13821 288.01453
 288.81049 289.52420 290.15491 290.99768
 366.78100 356.33908 345.77517 334.64525 323.05233 311.25042 299.12450 286.93158
 274.64767 262.54875 250.56183 239.86692 229.99300 221.10108 213.28717 206.29325
 200.13134 195.07342 191.65950 189.70559 188.74667 188.81475 189.65384 190.96592
 192.69500 194.79409 197.06117 199.42425 201.87334 204.35742 206.44950 208.29559
 209.92567 211.07475 211.30784 211.53992 211.48100 211.19009 210.82717 210.46125
 210.08234 209.79642 209.60851 209.47659 209.40867 209.74376 210.13384 210.52692
 211.32401 212.50609 213.76017 215.54726 217.47934 219.52642 221.62551 223.71259
 225.77667 227.86476 229.96584 232.07592 234.20901 236.38509 238.64517 241.01926
 243.64434 245.89942 247.90551 249.67459 251.09567 252.22276 253.04884 253.36893
 253.41001 253.18809 252.55218 251.50426 250.11434 248.27943 246.19251 244.02959
 241.82468 239.63276 237.45684 235.29993 233.16401 231.03509 229.06518 227.22626
 225.51334 223.98943 222.62351 221.39959 220.28568 219.24976 218.35784 217.50293
 216.74901 215.93310 215.03518 214.40326 213.85735 213.33501 212.10094 211.62248
 212.38112 214.35330 216.28261 217.47980 219.07259 222.81892 228.56972 233.37044
 237.08337 240.84592 244.76337 248.82057 252.86725 255.82809 258.12552 260.57422
 263.31573 266.08813 268.58633 270.60825 272.39969 274.13937 275.91431 277.68646
 279.40845 281.00055 282.52219 283.88477 285.06808 286.11902 287.08267 287.95932
 288.75436 289.46957 290.09900 290.94611
 366.78100 356.33860 345.77420 334.64381 323.05041 311.24801 299.12161 286.92822
 274.64382 262.54442 250.55702 239.86163 229.98723 221.09483 213.28043 206.28604
 200.12364 195.06524 191.65084 189.69645 188.73705 188.80465 189.64325 190.95486
 192.68346 194.78206 197.04866 199.41127 201.85987 204.34347 206.43507 208.28068
 209.91028 211.05888 211.29148 211.52309 211.46369 211.17229 210.80889 210.44250
 210.06310 209.77670 209.58830 209.45591 209.38751 209.72211 210.11171 210.50432
 211.30092 212.48252 213.73612 215.52273 217.45433 219.50093 221.59953 223.68614
 225.74974 227.83734 229.93794 232.04755 234.18015 236.35575 238.61535 240.98896
 243.61356 245.86816 247.87376 249.64237 251.06297 252.18957 253.01517 253.33478
 253.37538 253.15298 252.51658 251.46819 250.07779 248.24239 246.15499 243.99160
 241.78620 239.59380 237.41740 235.26001 233.12361 230.99421 229.02381 227.18442
 225.47102 223.94662 222.58022 221.35583 220.24143 219.20503 218.31263 217.45724
 216.70284 215.88644 214.98804 214.35565 213.80925 213.32449 212.17918 211.69185
 212.49913 214.48900 216.40398 217.50096 219.04169 222.80939 228.51682 233.28543
 236.99214 240.77359 244.72443 248.78636 252.77371 255.70253 258.00525 260.47339
 263.17035 265.90295 268.39432 270.43954 272.28885 274.08789 275.87415 277.63278
 279.34961 280.93942 282.46548 283.82718 285.01291 286.06366 287.02713 287.90469
 288.70032 289.41653 290.04617 290.89536
 366.78100 356.33693 345.77086 334.63879 323.04372 311.23965 299.11158 286.91651
 274.63043 262.52936 250.54029 239.84322 229.96715 221.07308 213.25701 206.26094
 200.09687 195.03680 191.62073 189.66466 188.70359 188.76952 189.60645 190.91638
 192.64330 194.74023 197.00516 199.36609 201.81302 204.29495 206.38488 208.22881
 209.85674 211.00367 211.23460 211.46453 211.40346 211.11039 210.74532 210.37725
 209.99617 209.70810 209.51803 209.38396 209.31389 209.64682 210.03475 210.42568
 211.22061 212.40054 213.65247 215.43740 217.36733 219.41226 221.50919 223.59412
 225.65604 227.74197 229.84090 231.94883 234.07976 236.25369 238.51162 240.88355
 243.50648 245.75941 247.76334 249.53027 250.94920 252.07413 252.89806 253.21599
 253.25491 253.03084 252.39277 251.34270 249.95063 248.11356 246.02449 243.85942
 241.65235 239.45828 237.28021 235.12114 232.98307 230.85200 228.87993 227.03886
 225.32378 223.79771 222.42964 221.20357 220.08750 219.04943 218.15536 217.29829
 216.54222 215.72415 214.82408 214.19001 213.64194 213.25201 212.33075 211.76309
 212.51987 214.59059 216.55455 217.60237 219.08899 222.80116 228.46220 233.19313
 236.89404 240.69795 244.68532 248.75067 252.66713 255.56534 257.88266 260.37396
 263.02588 265.71414 268.19580 270.26407 272.17410 274.03595 275.83307 277.57800
 279.28476 280.88339 282.41388 283.77679 284.96152 286.01376 286.97772 287.85556
 288.65253 289.36743 289.99768 290.85028
 366.78100 356.33545 345.76790 334.63436 323.03781 311.23226 299.10271 286.90616
 274.61861 262.51607 250.52552 239.82697 229.94942 221.05387 213.23632 206.23878
 200.07323 195.01168 191.59413 189.63658 188.67403 188.73849 189.57394 190.88239
 192.60784 194.70329 196.96674 199.32620 201.77165 204.25210 206.34055 208.18300
 209.80945 210.95491 211.18436 211.41281 211.35026 211.05571 210.68917 210.31962
 209.93707 209.64752 209.45597 209.32042 209.24888 209.58033 209.96678 210.35623
 211.14968 212.32813 213.57859 215.36204 217.29049 219.33394 221.42939 223.51284
 225.57330 227.65775 229.75520 231.86165 233.99110 236.16355 238.42001 240.79046
 243.41191 245.66336 247.66581 249.43126 250.84872 251.97217 252.79462 253.11107
 253.14852 252.92297 252.28343 251.23188 249.83833 247.99978 245.90923 243.74269
 241.53414 239.33859 237.15904 234.99849 232.85894 230.72640 228.75285 226.91030
 225.19375 223.66620 222.29665 221.06911 219.95156 218.91201 218.01646 217.15791
 216.40036 215.58082 214.67927 214.04372 213.49417 213.19118 212.47531 211.82364
 212.54047 214.73230 216.70572 217.71095 219.15672 222.74393 228.40172 233.09940
 236.79150 240.62259 244.64943 248.71715 252.55841 255.43042 257.77127 260.28427
 262.88904 265.52789 267.99396 270.08499 272.05637 273.98364 275.79230 277.52042
 279.21625 280.82922 282.36304 283.72845 284.91373 285.96655 286.93100 287.80957
 288.60617 289.32318 289.95291 290.80844
 366.78100 356.33465 345.76629 334.63194 323.03458 311.22823 299.09787 286.90052
 274.61217 262.50881 250.51746 239.81810 229.93975 221.04339 213.22504 206.22669
 200.06033 194.99798 191.57962 189.62127 188.65791 188.72156 189.55621 190.86385
 192.58850 194.68314 196.94579 199.30444 201.74908 204.22873 206.31637 208.15802
 209.78366 210.92831 211.15696 211.38460 211.32125 211.02589 210.65854 210.28818
 209.90483 209.61448 209.42212 209.28577 209.21341 209.54406 209.92970 210.31835
 211.11100 212.28864 213.53829 215.32093 217.24858 219.29122 221.38587 223.46852
 225.52816 227.61181 229.70845 231.81410 233.94274 236.11439 238.37004 240.73968
 243.36033 245.61097 247.61262 249.37726 250.79391 251.91656 252.73820 253.05385
 253.09049 252.86414 252.22378 251.17143 249.77708 247.93772 245.84637 243.67901
 241.46966 239.27331 237.09295 234.93160 232.79124 230.65789 228.68353 226.84018
 225.12283 223.59447 222.22412 220.99576 219.87741 218.83705 217.94070 217.08135
 216.32299 215.50264 214.60028 213.96393 213.41357 213.16429 212.57532 211.89108
 212.60562 214.86176 216.83000 217.80467 219.20850 222.70662 228.34088 233.00845
 236.69719 240.55826 244.62347 248.68994 252.45052 255.29652 257.66101 260.19308
 262.75119 265.33762 267.78583 269.90222 271.94009 273.93665 275.75687 277.46692
 279.15143 280.77640 282.31418 283.67874 284.86658 285.92068 286.88348 287.76407
 288.56091 289.27484 289.90820 290.76300
 366.78100 356.33404 345.76508 334.63013 323.03217 311.22521 299.09425 286.89629
 274.60733 262.50338 250.51142 239.81146 229.93250 221.03554 213.21659 206.21763
 200.05067 194.98771 191.56875 189.60979 188.64584 188.70888 189.54292 190.84996
 192.57400 194.66804 196.93009 199.28813 201.73217 204.21121 206.29825 208.13930
 209.76434 210.90838 211.13642 211.36346 211.29950 211.00355 210.63559 210.26463
 209.88067 209.58971 209.39676 209.25980 209.18684 209.51688 209.90192 210.28996
 211.08201 212.25905 213.50809 215.29013 217.21717 219.25922 221.35326 223.43530
 225.49434 227.57738 229.67342 231.77847 233.90651 236.07755 238.33259 240.70163
 243.32168 245.57172 247.57276 249.33680 250.75284 251.87488 252.69593 253.01097
 253.04701 252.82005 252.17909 251.12613 249.73118 247.89122 245.79926 243.63130
 241.42134 239.22439 237.04343 234.88147 232.74051 230.60655 228.63159 226.78764
 225.06968 223.54072 222.16976 220.94080 219.82185 218.78089 217.88393 217.02397
 216.26501 215.44405 214.54110 213.90414 213.35318 213.14908 212.66687 211.95174
 212.68866 214.98463 216.93814 217.88773 219.25581 222.68936 228.28702 232.92587
 236.61488 240.50522 244.60529 248.66576 252.33784 255.15128 257.53839 260.09042
 262.60773 265.14612 267.57935 269.72800 271.83432 273.90015 275.73151 277.42300
 279.09302 280.72443 282.26404 283.63040 284.81763 285.87289 286.83844 287.71729
 288.51404 289.23120 289.86441 290.72025
 366.78100 356.33358 345.76416 334.62873 323.03031 311.22289 299.09147 286.89305
 274.60362 262.49920 250.50678 239.80636 229.92694 221.02952 213.21009 206.21067
 200.04325 194.97983 191.56041 189.60098 188.63656 188.69914 189.53272 190.83930
 192.56287 194.65645 196.91803 199.27561 201.71919 204.19776 206.28434 208.12492
 209.74950 210.89308 211.12065 211.34723 211.28281 210.98639 210.61797 210.24655
 209.86212 209.57070 209.37728 209.23986 209.16644 209.49601 209.88059 210.26817
 211.05975 212.23633 213.48490 215.26648 217.19306 219.23464 221.32822 223.40979
 225.46837 227.55095 229.64653 231.75111 233.87869 236.04926 238.30384 240.67242
 243.29200 245.54158 247.54215 249.30573 250.72131 251.84289 252.66347 252.97804
 253.01362 252.78620 252.14478 251.09136 249.69593 247.85551 245.76309 243.59467
 241.38425 239.18682 237.00540 234.84298 232.70156 230.56714 228.59172 226.74729
 225.02887 223.49945 222.12803 220.89861 219.77918 218.73776 217.84034 216.97992
 216.22050 215.39907 214.49565 213.85823 213.30681 213.14162 212.75134 212.00999
 212.78528 215.10924 217.01900 217.96307 219.32469 222.68037 228.24028 232.84840
 236.53885 240.45703 244.58717 248.63550 252.21172 254.98814 257.40057 259.97781
 262.46539 264.96271 267.38614 269.57062 271.74109 273.86957 275.71085 277.38513
 279.03668 280.67285 282.21472 283.58237 284.77087 285.82465 286.79288 287.67191
 288.46976 289.18643 289.81784 290.68091
 366.78100 356.33308 345.76316 334.62724 323.02832 311.22040 299.08848 286.88956
 274.59964 262.49471 250.50179 239.80087 229.92095 221.02303 213.20311 206.20319
 200.03527 194.97135 191.55143 189.59151 188.62659 188.68867 189.52175 190.82783
 192.55091 194.64399 196.90507 199.26214 201.70522 204.18330 206.26938 208.10946
 209.73354 210.87662 211.10370 211.32978 211.26486 210.96794 210.59902 210.22710
 209.84218 209.55026 209.35634 209.21842 209.14449 209.47357 209.85765 210.24473
 211.03581 212.21189 213.45997 215.24105 217.16713 219.20821 221.30129 223.38237
 225.44045 227.52253 229.61761 231.72169 233.84877 236.01885 238.27292 240.64100
 243.26008 245.50916 247.50924 249.27232 250.68740 251.80848 252.62856 252.94264
 252.97772 252.74980 252.10788 251.05396 249.65804 247.81712 245.72420 243.55527
 241.34435 239.14643 236.96451 234.80159 232.65967 230.52475 228.54883 226.70391
 224.98499 223.45507 222.08315 220.85323 219.73331 218.69139 217.79347 216.93255
 216.17263 215.35070 214.44678 213.80886 213.25694 213.13290 212.83984 212.06384
 212.88751 215.23604 217.07625 218.03824 219.41988 222.67809 228.19858 232.77679
 236.46773 240.41190 244.56332 248.59172 252.06776 254.80835 257.25281 259.86172
 262.33008 264.79282 267.21063 269.43097 271.65817 273.84225 275.68964 277.35046
 278.98843 280.62204 282.16516 283.53275 284.72095 285.77756 286.74448 287.62506
 288.42325 289.13916 289.77448 290.63596
 366.78100 356.33245 345.76190 334.62535 323.02580 311.21725 299.08470 286.88515
 274.59460 262.48905 250.49550 239.79395 229.91340 221.01485 213.19430 206.19375
 200.02520 194.96064 191.54009 189.57954 188.61399 188.67544 189.50789 190.81334
 192.53579 194.62824 196.88869 199.24514 201.68759 204.16504 206.25049 208.08994
 209.71339 210.85584 211.08229 211.30774 211.24219 210.94464 210.57509 210.20254
 209.81699 209.52444 209.32989 209.19134 209.11679 209.44524 209.82869 210.21514
 211.00559 212.18104 213.42848 215.20893 217.13438 219.17483 221.26728 223.34773
 225.40518 227.48663 229.58108 231.68453 233.81098 235.98043 238.23388 240.60133
 243.21978 245.46823 247.46768 249.23013 250.64458 251.76503 252.58448 252.89793
 252.93238 252.70383 252.06128 251.00673 249.61018 247.76863 245.67508 243.50553
 241.29398 239.09543 236.91288 234.74932 232.60677 230.47122 228.49467 226.64912
 224.92957 223.39902 222.02647 220.79592 219.67537 218.63282 217.73427 216.87272
 216.11217 215.28962 214.38507 213.74652 213.19397 213.11754 212.93695 212.11514
 212.98584 215.35887 217.12579 218.12152 219.52711 222.68158 228.16071 232.71236
 236.40202 240.36636 244.53156 248.53186 251.90829 254.61636 257.09717 259.74078
 262.20004 264.63672 267.05121 269.30826 271.58667 273.81683 275.66840 277.31500
 278.93646 280.57413 282.11752 283.48538 284.67548 285.73132 286.70016 287.58072
 288.37967 289.09586 289.72882 290.59113
 366.78100 356.33176 345.76051 334.62327 323.02302 311.21378 299.08053 286.88029
 274.58904 262.48280 250.48856 239.78631 229.90507 221.00582 213.18458 206.18333
 200.01409 194.94884 191.52760 189.56636 188.60011 188.66087 189.49262 190.79738
 192.51913 194.61089 196.87064 199.22640 201.66816 204.14491 206.22967 208.06842
 209.69118 210.83293 211.05869 211.28345 211.21720 210.91896 210.54871 210.17547
 209.78922 209.49598 209.30073 209.16149 209.08625 209.41400 209.79676 210.18251
 210.97227 212.14702 213.39378 215.17353 217.09829 219.13805 221.22980 223.30956
 225.36631 227.44707 229.54082 231.64358 233.76933 235.93809 238.19085 240.55760
 243.17536 245.42311 247.42187 249.18362 250.59738 251.71713 252.53589 252.84865
 252.88240 252.65316 252.00991 250.95467 249.55742 247.71518 245.62093 243.45069
 241.23845 239.03920 236.85596 234.69171 232.54847 230.41222 228.43498 226.58874
 224.86849 223.33725 221.96400 220.73276 219.61151 218.56827 217.66902 216.80678
 216.04554 215.22229 214.31705 213.67780 213.12456 213.09860 213.03726 212.17357
 213.07657 215.46994 217.17534 218.21431 219.63689 222.68810 228.12944 232.65781
 236.34145 240.32140 244.49280 248.45915 251.73958 254.41722 256.93286 259.61014
 262.06882 264.48944 266.90878 269.20358 271.52753 273.79559 275.65131 277.28464
 278.89404 280.52621 282.06967 283.43896 284.62836 285.68594 286.65347 287.53424
 288.33466 289.04947 289.68390 290.54755
 366.78100 356.33102 345.75904 334.62106 323.02008 311.21009 299.07611 286.87513
 274.58315 262.47617 250.48119 239.77821 229.89623 220.99625 213.17426 206.17228
 200.00230 194.93632 191.51434 189.55236 188.58538 188.64540 189.47642 190.78043
 192.50145 194.59247 196.85149 199.20651 201.64753 204.12355 206.20757 208.04559
 209.66760 210.80862 211.03364 211.25766 211.19068 210.89170 210.52072 210.14674
 209.75976 209.46577 209.26979 209.12981 209.05383 209.38085 209.76287 210.14789
 210.93691 212.11093 213.35694 215.13596 217.05998 219.09900 221.19002 223.26904
 225.32506 227.40508 229.49810 231.60011 233.72513 235.89315 238.14517 240.51119
 243.12821 245.37523 247.37325 249.13427 250.54728 251.66630 252.48432 252.79634
 252.82936 252.59938 251.95540 250.89942 249.50143 247.65845 245.56347 243.39249
 241.17951 238.97953 236.79555 234.63057 232.48659 230.34960 228.37162 226.52464
 224.80366 223.27168 221.89770 220.66572 219.54374 218.49976 217.59977 216.73679
 215.97481 215.15083 214.24485 213.60487 213.05089 213.07664 213.13748 212.24425
 213.16536 215.56467 217.21399 218.31090 219.74994 222.70007 228.10712 232.61420
 236.28885 240.28151 244.45120 248.37833 251.56537 254.20996 256.75510 259.46280
 261.93060 264.34955 266.78235 269.11932 271.48364 273.78140 275.64178 277.26541
 278.87607 280.47833 282.02036 283.38965 284.58038 285.63708 286.60571 287.48773
 288.28586 289.00461 289.63760 290.50421
 366.78100 356.33024 345.75749 334.61873 323.01697 311.20622 299.07146 286.86970
 274.57695 262.46919 250.47343 239.76968 229.88692 220.98616 213.16341 206.16065
 199.98989 194.92314 191.50038 189.53762 188.56987 188.62911 189.45935 190.76260
 192.48284 194.57308 196.83133 199.18557 201.62581 204.10106 206.18430 208.02154
 209.64278 210.78303 211.00727 211.23051 211.16276 210.86300 210.49124 210.11649
 209.72873 209.43397 209.23722 209.09646 209.01970 209.34595 209.72719 210.11143
 210.89968 212.07292 213.31816 215.09641 217.01965 219.05789 221.14814 223.22638
 225.28162 227.36087 229.45311 231.55435 233.67860 235.84584 238.09708 240.46233
 243.07857 245.32481 247.32206 249.08230 250.49454 251.61279 252.43003 252.74127
 252.77352 252.54276 251.89800 250.84125 249.44249 247.59873 245.50298 243.33122
 241.11746 238.91671 236.73195 234.56619 232.42144 230.28368 228.30492 226.45717
 224.73541 223.20265 221.82789 220.59514 219.47238 218.42762 217.52687 216.66311
 215.90035 215.07560 214.16884 213.52808 212.97333 213.05156 213.23639 212.32787
 213.25763 215.64401 217.23387 218.39934 219.86850 222.71365 228.09285 232.57761
 236.24588 240.25093 244.41205 248.29221 251.38658 253.99567 256.56458 259.29822
 261.78543 264.21808 266.67508 269.05688 271.45673 273.77365 275.63071 277.24286
 278.85437 280.43680 281.97861 283.34790 284.53949 285.59732 286.56525 287.44623
 288.24503 288.96353 289.59735 290.46494
 366.78100 356.32937 345.75575 334.61612 323.01349 311.20187 299.06624 286.86361
 274.56999 262.46136 250.46474 239.76011 229.87648 220.97486 213.15123 206.14760
 199.97598 194.90835 191.48472 189.52110 188.55247 188.61084 189.44022 190.74259
 192.46196 194.55134 196.80871 199.16209 201.60146 204.07583 206.15821 207.99458
 209.61495 210.75433 210.97770 211.20007 211.13145 210.83082 210.45819 210.08257
 209.69394 209.39831 209.20069 209.05906 208.98144 209.30681 209.68718 210.07056
 210.85793 212.03030 213.27468 215.05205 216.97442 219.01180 221.10117 223.17854
 225.23292 227.31129 229.40266 231.50304 233.62641 235.79279 238.04316 240.40753
 243.02291 245.26828 247.26465 249.02403 250.43540 251.55277 252.36915 252.67952
 252.71089 252.47927 251.83364 250.77601 249.37639 247.53176 245.43513 243.26251
 241.04788 238.84626 236.66063 234.49400 232.34838 230.20975 228.23012 226.38150
 224.65887 223.12524 221.74962 220.51599 219.39236 218.34674 217.44511 216.58048
 215.81686 214.99123 214.08361 213.44198 212.88635 213.02060 213.33780 212.42186
 213.35460 215.71623 217.22844 218.46552 219.98412 222.74092 228.08830 232.55183
 236.21758 240.23477 244.37897 248.20082 251.20081 253.77037 256.35834 259.11581
 261.63297 264.09387 266.58737 269.01611 271.44559 273.77359 275.62219 277.21893
 278.82153 280.40472 281.94644 283.31668 284.50720 285.56677 286.53384 287.41562
 288.21396 288.93185 289.56479 290.43311
 366.78100 356.32854 345.75408 334.61363 323.01017 311.19771 299.06125 286.85779
 274.56333 262.45388 250.45642 239.75096 229.86650 220.96404 213.13958 206.13513
 199.96267 194.89421 191.46975 189.50529 188.53584 188.59338 189.42192 190.72346
 192.44200 194.53054 196.78709 199.13963 201.57817 204.05171 206.13325 207.96879
 209.58834 210.72688 210.94942 211.17096 211.10150 210.80005 210.42659 210.05013
 209.66067 209.36421 209.16575 209.02330 208.94484 209.26938 209.64892 210.03146
 210.81800 211.98955 213.23309 215.00963 216.93117 218.96771 221.05626 223.13280
 225.18634 227.26388 229.35442 231.45396 233.57651 235.74205 237.99159 240.35513
 242.96967 245.21421 247.20976 248.96830 250.37884 251.49538 252.31092 252.62047
 252.65101 252.41855 251.77209 250.71363 249.31317 247.46772 245.37026 243.19680
 240.98134 238.77888 236.59243 234.42497 232.27851 230.13905 228.15859 226.30913
 224.58568 223.05122 221.67476 220.44030 219.31584 218.26938 217.36693 216.50147
 215.73701 214.91055 214.00209 213.35964 212.80318 212.99049 213.43304 212.53087
 213.46507 215.77361 217.19743 218.52319 220.10732 222.76347 228.08510 232.53241
 236.19785 240.22830 244.34666 248.09927 251.00536 253.53848 256.14349 258.92404
 261.48068 263.98309 266.51978 268.99524 271.44772 273.77774 275.61432 277.19489
 278.78552 280.37848 281.92078 283.29044 284.48343 285.54034 286.50781 287.38977
 288.18884 288.90381 289.54007 290.40390
 366.78100 356.32741 345.75181 334.61022 323.00562 311.19203 299.05444 286.84984
 274.55425 262.44366 250.44506 239.73847 229.85287 220.94928 213.12369 206.11809
 199.94450 194.87491 191.44931 189.48372 188.51312 188.56953 189.39694 190.69734
 192.41475 194.50216 196.75756 199.10897 201.54637 204.01878 206.09919 207.93359
 209.55200 210.68940 210.91081 211.13122 211.06062 210.75803 210.38344 210.00584
 209.61525 209.31765 209.11806 208.97447 208.89487 209.21828 209.59669 209.97809
 210.76350 211.93390 213.17631 214.95172 216.87212 218.90753 220.99494 223.07034
 225.12275 227.19915 229.28856 231.38697 233.50837 235.67278 237.92119 240.28359
 242.89700 245.14040 247.13481 248.89222 250.30162 251.41703 252.23143 252.53984
 252.56925 252.33565 251.68806 250.62847 249.22687 247.38028 245.28168 243.10709
 240.89050 238.68690 236.49931 234.33072 232.18312 230.04253 228.06093 226.21034
 224.48575 222.95015 221.57256 220.33697 219.21137 218.16378 217.26018 216.39359
 215.62800 214.80040 213.89081 213.24721 212.68962 212.94427 213.54593 212.63307
 213.58737 215.85443 217.14909 218.51955 220.17664 222.80022 228.08234 232.52249
 236.19395 240.23889 244.32428 248.00237 250.82187 253.32050 255.93387 258.72952
 261.32742 263.87787 266.46051 268.97815 271.45078 273.77734 275.59821 277.16629
 278.75403 280.35458 281.89771 283.26758 284.45959 285.51825 286.48410 287.36490
 288.16324 288.88080 289.51260 290.37723
 366.78100 356.32673 345.75046 334.60819 323.00292 311.18865 299.05039 286.84512
 274.54885 262.43758 250.43831 239.73104 229.84477 220.94050 213.11423 206.10796
 199.93369 194.86342 191.43716 189.47089 188.49962 188.55535 189.38208 190.68181
 192.39854 194.48527 196.74000 199.09073 201.52746 203.99919 206.07893 207.91266
 209.53039 210.66712 210.88785 211.10758 211.03631 210.73304 210.35777 209.97950
 209.58823 209.28997 209.08970 208.94543 208.86516 209.18789 209.56562 209.94635
 210.73108 211.90081 213.14254 214.91727 216.83700 218.87174 220.95847 223.03320
 225.08493 227.16066 229.24939 231.34712 233.46785 235.63158 237.87931 240.24104
 242.85377 245.09651 247.09024 248.84697 250.25570 251.37043 252.18416 252.49189
 252.52062 252.28635 251.63808 250.57781 249.17555 247.32828 245.22901 243.05374
 240.83647 238.63220 236.44393 234.27466 232.12639 229.98512 228.00285 226.15158
 224.42632 222.89005 221.51178 220.27551 219.14924 218.10097 217.19670 216.32943
 215.56316 214.73489 213.82462 213.18035 212.62209 212.91736 213.61497 212.84650
 213.67772 215.83926 217.03090 218.52609 220.30269 222.83664 228.09819 232.55287
 236.21680 240.27229 244.31587 247.91104 250.64459 253.10118 255.71249 258.51599
 261.15643 263.76401 266.39896 268.96051 271.45325 273.77567 275.57916 277.13770
 278.72403 280.33102 281.87582 283.24576 284.43680 285.49374 286.46082 287.34088
 288.13788 288.85764 289.48895 290.34912
 366.78100 356.33026 345.75753 334.61879 323.01705 311.20631 299.07158 286.86984
 274.57710 262.46936 250.47363 239.76989 229.88715 220.98641 213.16368 206.16094
 199.99020 194.92346 191.50073 189.53799 188.57025 188.62951 189.45978 190.76304
 192.48330 194.57356 196.83183 199.18609 201.62635 204.10161 206.18488 208.02214
 209.64340 210.78366 211.00793 211.23119 211.16345 210.86371 210.49198 210.11724
 209.72950 209.43476 209.23803 209.09729 209.02055 209.34681 209.72808 210.11234
 210.90060 212.07386 213.31913 215.09739 217.02065 219.05891 221.14918 223.22744
 225.28270 227.36196 229.45423 231.55549 233.67975 235.84701 238.09828 240.46354
 243.07980 245.32606 247.32333 249.08359 250.49585 251.61411 252.43138 252.74264
 252.77490 252.54416 251.89943 250.84269 249.44395 247.60021 245.50448 243.33274
 241.11900 238.91826 236.73353 234.56779 232.42305 230.28531 228.30658 226.45884
 224.73710 223.20436 221.82963 220.59689 219.47415 218.42941 217.52868 216.66494
 215.90220 215.07746 214.17073 213.52999 212.97525 213.09814 213.38850 213.27797
 213.94116 215.56989 216.78690 218.54498 220.49484 223.00298 228.12692 232.59071
 236.24855 240.30899 244.30186 247.79967 250.44220 252.85526 255.46555 258.28146
 260.97537 263.65295 266.34872 268.95636 271.46729 273.78122 275.56754 277.11386
 278.68857 280.31549 281.85635 283.22485 284.41437 285.47165 286.43744 287.31714
 288.11469 288.83139 289.46359 290.32181
 366.78100 356.33105 345.75910 334.62115 323.02019 311.21024 299.07629 286.87534
 274.58339 262.47644 250.48149 239.77853 229.89658 220.99663 213.17468 206.17273
 200.00278 194.93683 191.51488 189.55292 188.58597 188.64602 189.47707 190.78112
 192.50217 194.59322 196.85226 199.20731 201.64836 204.12441 206.20846 208.04651
 209.66856 210.80960 211.03465 211.25870 211.19175 210.89280 210.52185 210.14790
 209.76095 209.46699 209.27104 209.13109 209.05514 209.38219 209.76424 210.14929
 210.93833 212.11238 213.35843 215.13748 217.06153 219.10058 221.19163 223.27067
 225.32672 227.40677 229.49982 231.60187 233.72692 235.89497 238.14702 240.51306
 243.13011 245.37716 247.37521 249.13626 250.54931 251.66836 252.48640 252.79845
 252.83150 252.60155 251.95760 250.90165 249.50370 247.66074 245.56579 243.39484
 241.18189 238.98194 236.79799 234.63304 232.48909 230.35213 228.37418 226.52723
 224.80628 223.27433 221.90038 220.66843 219.54647 218.50252 217.60257 216.73962
 215.97767 215.15372 214.24777 213.60781 213.05386 213.14845 213.37193 213.47444
 214.14877 215.43291 216.67303 218.57278 220.64444 223.17686 228.14624 232.61710
 236.27583 240.33852 244.27475 247.66632 250.22006 252.59695 255.21400 258.04843
 260.80664 263.56079 266.31757 268.96683 271.48792 273.78781 275.55319 277.08749
 278.65115 280.30219 281.83948 283.20462 284.39447 285.44922 286.41556 287.29355
 288.09021 288.80753 289.43921 290.29208
 366.78100 356.33084 345.75868 334.62053 323.01937 311.20921 299.07505 286.87390
 274.58174 262.47458 250.47942 239.77627 229.89411 220.99395 213.17179 206.16964
 199.99948 194.93332 191.51116 189.54900 188.58185 188.64169 189.47253 190.77637
 192.49722 194.58806 196.84690 199.20174 201.64259 204.11843 206.20227 208.04011
 209.66195 210.80280 211.02764 211.25148 211.18432 210.88517 210.51401 210.13985
 209.75269 209.45854 209.26238 209.12222 209.04606 209.37291 209.75475 210.13959
 210.92843 212.10227 213.34812 215.12696 217.05080 219.08964 221.18049 223.25933
 225.31517 227.39501 229.48786 231.58970 233.71454 235.88238 238.13422 240.50007
 243.11691 245.36375 247.36159 249.12244 250.53528 251.65412 252.47196 252.78381
 252.81665 252.58649 251.94233 250.88618 249.48802 247.64486 245.54970 243.37854
 241.16539 238.96523 236.78107 234.61591 232.47176 230.33460 228.35644 226.50928
 224.78813 223.25597 221.88181 220.64965 219.52749 218.48334 217.58318 216.72002
 215.95786 215.13371 214.22755 213.58739 213.03323 213.14865 213.42134 213.61690
 214.30078 215.40012 216.64839 218.56393 220.70905 223.31523 228.15805 232.63469
 236.30339 240.36681 244.24449 247.52843 250.00105 252.34886 254.97653 257.83115
 260.65366 263.48306 266.29446 268.97610 271.50259 273.78464 275.52750 277.05276
 278.59821 280.28326 281.82471 283.18860 284.37506 285.42871 286.39258 287.27173
 288.06671 288.78229 289.41394 290.26291
 366.78100 356.33101 345.75903 334.62104 323.02005 311.21007 299.07608 286.87509
 274.58311 262.47612 250.48113 239.77815 229.89616 220.99617 213.17419 206.17220
 200.00221 194.93622 191.51424 189.55225 188.58526 188.64528 189.47629 190.78030
 192.50132 194.59233 196.85134 199.20636 201.64737 204.12338 206.20740 208.04541
 209.66742 210.80844 211.03345 211.25746 211.19048 210.89149 210.52050 210.14652
 209.75953 209.46554 209.26956 209.12957 209.05358 209.38060 209.76261 210.14762
 210.93664 212.11065 213.35666 215.13567 217.05969 219.09870 221.18971 223.26873
 225.32474 227.40475 229.49777 231.59978 233.72479 235.89281 238.14482 240.51083
 243.12785 245.37486 247.37287 249.13389 250.54690 251.66591 252.48393 252.79594
 252.82895 252.59897 251.95498 250.89899 249.50101 247.65802 245.56303 243.39205
 241.17906 238.97907 236.79509 234.63010 232.48611 230.34912 228.37114 226.52415
 224.80316 223.27118 221.89719 220.66520 219.54322 218.49923 217.59924 216.73626
 215.97427 215.15028 214.24430 213.60431 213.05032 213.16884 213.44884 213.78838
 214.43365 215.37698 216.64450 218.54538 220.73784 223.42778 228.17024 232.64914
 236.33261 240.39565 244.21255 247.38904 249.78693 252.11200 254.75137 257.62561
 260.51019 263.40918 266.26865 268.97815 271.50952 273.77448 275.49686 277.01883
 278.56137 280.26193 281.80148 283.16504 284.35019 285.40372 286.36649 287.24411
 288.03870 288.75482 289.38654 290.22980
 366.78100 356.33138 345.75975 334.62213 323.02151 311.21189 299.07826 286.87764
 274.58602 262.47940 250.48477 239.78215 229.90053 221.00091 213.17928 206.17766
 200.00804 194.94241 191.52079 189.55917 188.59255 188.65292 189.48430 190.78868
 192.51006 194.60143 196.86081 199.21619 201.65756 204.13394 206.21832 208.05670
 209.67907 210.82045 211.04583 211.27021 211.20358 210.90496 210.53434 210.16072
 209.77409 209.48047 209.28485 209.14522 209.06960 209.39698 209.77936 210.16473
 210.95411 212.12849 213.37487 215.15424 217.07862 219.11800 221.20937 223.28875
 225.34513 227.42551 229.51888 231.62126 233.74664 235.91502 238.16739 240.53377
 243.15115 245.39853 247.39690 249.15828 250.57166 251.69103 252.50941 252.82179
 252.85517 252.62554 251.98192 250.92630 249.52868 247.68605 245.59143 243.42081
 241.20818 239.00856 236.82494 234.66032 232.51669 230.38007 228.40245 226.55583
 224.83520 223.30358 221.92996 220.69834 219.57671 218.53309 217.63347 216.77084
 216.00922 215.18560 214.27998 213.64035 213.08673 213.20079 213.47028 213.96516
 214.57347 215.35599 216.63527 218.53722 220.76155 223.51942 228.18179 232.65813
 236.35899 240.41985 244.17435 247.24483 249.57199 251.87808 254.53137 257.42542
 260.37000 263.33420 266.23813 268.97504 271.51379 273.76651 275.47284 276.99374
 278.56808 280.22046 281.76187 283.12921 284.31863 285.37204 286.33585 287.21298
 288.00919 288.72464 289.35394 290.19568
 366.78100 356.33167 345.76035 334.62302 323.02269 311.21337 299.08004 286.87971
 274.58839 262.48206 250.48773 239.78541 229.90408 221.00475 213.18343 206.18210
 200.01277 194.94745 191.52612 189.56479 188.59847 188.65914 189.49081 190.79549
 192.51716 194.60883 196.86851 199.22418 201.66585 204.14253 206.22720 208.06587
 209.68855 210.83022 211.05589 211.28057 211.21424 210.91591 210.54559 210.17226
 209.78593 209.49261 209.29728 209.15795 209.08263 209.41030 209.79297 210.17865
 210.96832 212.14299 213.38967 215.16934 217.09401 219.13369 221.22536 223.30503
 225.36171 227.44238 229.53605 231.63873 233.76440 235.93307 238.18575 240.55242
 243.17009 245.41777 247.41644 249.17811 250.59179 251.71146 252.53013 252.84281
 252.87648 252.64715 252.00383 250.94850 249.55117 247.70885 245.61452 243.44419
 241.23187 239.03254 236.84921 234.68489 232.54156 230.40523 228.42791 226.58158
 224.86125 223.32993 221.95660 220.72527 219.60395 218.56062 217.66129 216.79897
 216.03764 215.21431 214.30899 213.66966 213.11633 213.23129 213.50293 214.12379
 214.72694 215.36136 216.61504 218.52953 220.77975 223.59514 228.19238 232.66405
 236.38126 240.43744 244.12663 247.08974 249.34669 251.63818 254.31215 257.23206
 260.23669 263.26343 266.20837 268.97247 271.51959 273.76105 275.45392 276.97116
 278.55374 280.18173 281.72467 283.09521 284.28372 285.33981 286.30350 287.17990
 287.97516 288.68945 289.31958 290.15787
 366.78100 356.33185 345.76070 334.62354 323.02339 311.21424 299.08109 286.88094
 274.58978 262.48363 250.48948 239.78733 229.90618 221.00702 213.18587 206.18472
 200.01557 194.95042 191.52926 189.56811 188.60196 188.66281 189.49466 190.79950
 192.52135 194.61320 196.87305 199.22890 201.67075 204.14759 206.23244 208.07129
 209.69414 210.83599 211.06183 211.28668 211.22053 210.92238 210.55223 210.17907
 209.79292 209.49977 209.30462 209.16547 209.09031 209.41816 209.80101 210.18686
 210.97671 212.15155 213.39840 215.17825 217.10310 219.14295 221.23479 223.31464
 225.37149 227.45234 229.54619 231.64903 233.77488 235.94373 238.19658 240.56343
 243.18127 245.42912 247.42797 249.18982 250.60367 251.72351 252.54236 252.85521
 252.88906 252.65991 252.01676 250.96160 249.56445 247.72230 245.62815 243.45800
 241.24584 239.04669 236.86354 234.69939 232.55624 230.42008 228.44293 226.59678
 224.87663 223.34548 221.97232 220.74117 219.62002 218.57687 217.67772 216.81556
 216.05441 215.23126 214.32611 213.68696 213.13380 213.25737 213.54932 214.26245
 214.88266 215.40410 216.59863 218.51646 220.79150 223.66357 228.20261 232.66896
 236.39589 240.44118 244.05734 246.91071 249.10124 251.38954 254.09657 257.05215
 260.11945 263.20432 266.18430 268.97049 271.52292 273.75507 275.44049 276.95673
 278.53378 280.14151 281.68387 283.05368 284.24371 285.29715 286.26028 287.13556
 287.93118 288.64371 289.27438 290.10977
 366.78100 356.33198 345.76097 334.62395 323.02393 311.21492 299.08190 286.88188
 274.59087 262.48485 250.49083 239.78882 229.90780 221.00878 213.18777 206.18675
 200.01773 194.95272 191.53170 189.57068 188.60466 188.66565 189.49763 190.80261
 192.52460 194.61658 196.87656 199.23255 201.67453 204.15151 206.23650 208.07548
 209.69846 210.84045 211.06643 211.29141 211.22540 210.92738 210.55736 210.18435
 209.79833 209.50531 209.31030 209.17128 209.09626 209.42425 209.80723 210.19321
 210.98320 212.15818 213.40516 215.18515 217.11013 219.15011 221.24209 223.32208
 225.37906 227.46004 229.55403 231.65701 233.78299 235.95198 238.20496 240.57194
 243.18993 245.43791 247.43689 249.19888 250.61286 251.73284 252.55183 252.86481
 252.89879 252.66978 252.02676 250.97174 249.57473 247.73271 245.63869 243.46868
 241.25666 239.05764 236.87463 234.71061 232.56759 230.43158 228.45456 226.60854
 224.88852 223.35751 221.98449 220.75347 219.63246 218.58944 217.69042 216.82841
 216.06739 215.24437 214.33936 213.70034 213.14732 213.28336 213.60477 214.39006
 215.03101 215.47198 216.60928 218.51393 220.80229 223.72374 228.20979 232.66812
 236.39812 240.41890 243.95340 246.69803 248.83595 251.13927 253.89363 256.89536
 260.02466 263.15802 266.16360 268.96423 271.51883 273.73935 275.41824 276.93509
 278.50659 280.10699 281.64865 283.01923 284.20941 285.26627 286.23001 287.10904
 287.91040 288.62958 289.26385 290.09692
 366.78100 356.33217 345.76135 334.62452 323.02470 311.21587 299.08305 286.88322
 274.59240 262.48657 250.49275 239.79092 229.91010 221.01127 213.19045 206.18962
 200.02080 194.95597 191.53515 189.57432 188.60849 188.66967 189.50184 190.80702
 192.52919 194.62137 196.88154 199.23772 201.67989 204.15707 206.24224 208.08142
 209.70459 210.84677 211.07294 211.29812 211.23229 210.93447 210.56464 210.19181
 209.80599 209.51316 209.31834 209.17951 209.10469 209.43286 209.81604 210.20221
 210.99239 212.16756 213.41474 215.19491 217.12009 219.16026 221.25244 223.33261
 225.38979 227.47096 229.56513 231.66831 233.79448 235.96366 238.21683 240.58401
 243.20218 245.45036 247.44953 249.21171 250.62588 251.74606 252.56523 252.87841
 252.91258 252.68376 252.04093 250.98611 249.58928 247.74745 245.65363 243.48380
 241.27198 239.07315 236.89033 234.72650 232.58368 230.44785 228.47103 226.62520
 224.90538 223.37455 222.00173 220.77090 219.65008 218.60725 217.70842 216.84660
 216.08577 215.26295 214.35812 213.71930 213.16647 213.31377 213.66176 214.51744
 215.16936 215.54346 216.65063 218.53833 220.81712 223.76595 228.21095 232.66133
 236.38692 240.36903 243.81444 246.45757 248.56123 250.89581 253.70718 256.76086
 259.94666 263.11832 266.13907 268.95007 271.51257 273.73105 275.40857 276.91281
 278.46683 280.06100 281.60193 282.97229 284.16196 285.21878 286.18411 287.06485
 287.86600 288.58521 289.21893 290.05655
 366.78100 356.33226 345.76153 334.62479 323.02506 311.21632 299.08359 286.88385
 274.59311 262.48738 250.49364 239.79191 229.91117 221.01244 213.19170 206.19096
 200.02223 194.95749 191.53676 189.57602 188.61029 188.67155 189.50381 190.80908
 192.53134 194.62361 196.88387 199.24014 201.68240 204.15966 206.24493 208.08419
 209.70746 210.84972 211.07599 211.30125 211.23551 210.93778 210.56804 210.19531
 209.80957 209.51684 209.32210 209.18337 209.10863 209.43689 209.82016 210.20642
 210.99669 212.17195 213.41922 215.19948 217.12474 219.16501 221.25727 223.33754
 225.39480 227.47607 229.57033 231.67359 233.79986 235.96912 238.22239 240.58965
 243.20792 245.45618 247.45544 249.21771 250.63197 251.75224 252.57150 252.88477
 252.91903 252.69029 252.04756 250.99282 249.59609 247.75435 245.66062 243.49088
 241.27914 239.08041 236.89767 234.73394 232.59120 230.45547 228.47873 226.63299
 224.91326 223.38252 222.00979 220.77905 219.65832 218.61558 217.71684 216.85511
 216.09437 215.27164 214.36690 213.72817 213.17543 213.34053 213.73059 214.63934
 215.30077 215.61282 216.71233 218.58878 220.83412 223.79543 228.21074 232.65434
 236.36778 240.29787 243.64729 246.19502 248.28036 250.65778 253.53186 256.64124
 259.87778 263.07697 266.10544 268.92795 271.50571 273.73712 275.42667 276.91568
 278.43311 279.99579 281.53217 282.90222 284.09235 285.14859 286.11407 286.99362
 287.79654 288.51736 289.15274 289.98376
 366.78100 356.33216 345.76131 334.62447 323.02463 311.21579 299.08294 286.88310
 274.59226 262.48641 250.49257 239.79073 229.90988 221.01104 213.19020 206.18936
 200.02051 194.95567 191.53483 189.57398 188.60814 188.66930 189.50145 190.80661
 192.52877 194.62093 196.88108 199.23724 201.67940 204.15655 206.24171 208.08087
 209.70403 210.84618 211.07234 211.29750 211.23165 210.93381 210.56397 210.19112
 209.80528 209.51244 209.31760 209.17875 209.10391 209.43207 209.81522 210.20138
 210.99154 212.16669 213.41385 215.19401 217.11917 219.15932 221.25148 223.33164
 225.38879 227.46995 229.56411 231.66726 233.79342 235.96258 238.21574 240.58289
 243.20105 245.44921 247.44836 249.21052 250.62468 251.74484 252.56399 252.87715
 252.91131 252.68246 252.03962 250.98478 249.58793 247.74609 245.65225 243.48241
 241.27056 239.07172 236.88888 234.72503 232.58219 230.44635 228.46950 226.62366
 224.90382 223.37298 222.00013 220.76929 219.64845 218.60560 217.70676 216.84492
 216.08408 215.26123 214.35639 213.71755 213.16470 213.35852 213.81641 214.74541
 215.43658 215.68234 216.77863 218.64680 220.84773 223.81964 228.21837 232.65799
 236.34711 240.20911 243.45677 245.91484 247.99217 250.41974 253.36137 256.53140
 259.81668 263.03577 266.06866 268.90302 271.49677 273.74503 275.46027 276.95190
 278.43015 279.91666 281.44583 282.81543 284.00507 285.06036 286.02670 286.90683
 287.70969 288.43076 289.06512 289.90326
 366.78100 356.33211 345.76121 334.62432 323.02442 311.21553 299.08263 286.88274
 274.59184 262.48595 250.49205 239.79016 229.90926 221.01037 213.18947 206.18858
 200.01968 194.95479 191.53389 189.57300 188.60710 188.66821 189.50031 190.80542
 192.52752 194.61963 196.87973 199.23584 201.67794 204.15505 206.24015 208.07926
 209.70236 210.84447 211.07057 211.29568 211.22978 210.93189 210.56199 210.18910
 209.80320 209.51031 209.31541 209.17652 209.10162 209.42973 209.81283 210.19894
 210.98904 212.16415 213.41125 215.19136 217.11646 219.15657 221.24867 223.32878
 225.38588 227.46699 229.56109 231.66420 233.79030 235.95941 238.21251 240.57962
 243.19772 245.44583 247.44493 249.20704 250.62114 251.74125 252.56035 252.87346
 252.90756 252.67867 252.03577 250.98088 249.58398 247.74209 245.64819 243.47830
 241.26640 239.06751 236.88461 234.72072 232.57782 230.44193 228.46503 226.61914
 224.89924 223.36835 221.99545 220.76456 219.64366 218.60077 217.70187 216.83998
 216.07908 215.25619 214.35129 213.71240 213.15950 213.38065 213.90311 214.86172
 215.56044 215.75177 216.83156 218.70508 220.88536 223.86015 228.24071 232.66850
 236.31664 240.09341 243.23299 245.60880 247.68988 250.17857 253.19757 256.43909
 259.77267 263.00772 266.04095 268.88034 271.48517 273.74539 275.48453 276.99222
 278.45337 279.84970 281.36002 282.72556 283.91312 284.96814 285.93292 286.81360
 287.61618 288.33853 288.97415 289.81271
 366.78100 356.33266 345.76232 334.62598 323.02664 311.21830 299.08596 286.88662
 274.59628 262.49094 250.49760 239.79626 229.91592 221.01758 213.19724 206.19690
 200.02856 194.96422 191.54388 189.58354 188.61820 188.67986 189.51252 190.81818
 192.54084 194.63350 196.89416 199.25082 201.69348 204.17114 206.25680 208.09646
 209.72012 210.86278 211.08944 211.31510 211.24976 210.95242 210.58308 210.21074
 209.82540 209.53306 209.33872 209.20038 209.12604 209.45470 209.83836 210.22502
 211.01568 212.19134 213.43900 215.21966 217.14532 219.18598 221.27864 223.35930
 225.41696 227.49862 229.59328 231.69694 233.82360 235.99326 238.24692 240.61458
 243.23324 245.48190 247.48156 249.24422 250.65888 251.77954 252.59920 252.91286
 252.94752 252.71918 252.07684 251.02250 249.62616 247.78482 245.69148 243.52214
 241.31080 239.11246 236.93012 234.76678 232.62444 230.48910 228.51276 226.66742
 224.94808 223.41774 222.04540 220.81506 219.69472 218.65238 217.75404 216.89270
 216.13236 215.31002 214.40568 213.76734 213.21500 213.43343 213.94948 215.02707
 215.66948 215.79890 216.93755 218.77943 220.89827 223.86774 228.25793 232.66348
 236.26448 239.95067 242.97952 245.28671 247.38924 249.95076 253.05731 256.37717
 259.75632 263.00183 266.02673 268.86322 271.47504 273.73962 275.48895 277.00470
 278.45154 279.82980 281.26926 282.62881 283.81747 284.87347 285.83887 286.72119
 287.52380 288.24673 288.88333 289.71927
 366.78100 356.33283 345.76266 334.62649 323.02732 311.21915 299.08698 286.88781
 274.59764 262.49247 250.49930 239.79813 229.91796 221.01979 213.19962 206.19945
 200.03128 194.96711 191.54694 189.58677 188.62160 188.68343 189.51626 190.82209
 192.54492 194.63775 196.89858 199.25541 201.69824 204.17607 206.26190 208.10173
 209.72556 210.86839 211.09522 211.32105 211.25588 210.95871 210.58954 210.21737
 209.83220 209.54003 209.34586 209.20769 209.13352 209.46235 209.84618 210.23301
 211.02384 212.19967 213.44750 215.22834 217.15417 219.19500 221.28783 223.36866
 225.42649 227.50832 229.60315 231.70698 233.83381 236.00364 238.25747 240.62530
 243.24413 245.49296 247.49279 249.25562 250.67045 251.79128 252.61111 252.92494
 252.95977 252.73160 252.08943 251.03526 249.63909 247.79792 245.70475 243.53558
 241.32441 239.12624 236.94407 234.78090 232.63873 230.50356 228.52739 226.68222
 224.96305 223.43288 222.06071 220.83054 219.71037 218.66820 217.77003 216.90886
 216.14869 215.32652 214.42235 213.78418 213.23201 213.46812 214.02594 215.11728
 215.91571 215.87805 216.90773 218.77379 220.94135 223.90114 228.28421 232.63644
 236.20435 239.79794 242.71460 244.95988 247.09546 249.73640 252.93370 256.33334
 259.75348 263.00351 266.01590 268.85013 271.47162 273.74911 275.50723 277.00992
 278.40622 279.74640 281.17404 282.53238 283.72079 284.77625 285.74384 286.62564
 287.42859 288.15152 288.78815 289.62466
 366.78100 356.33242 345.76185 334.62527 323.02570 311.21712 299.08454 286.88497
 274.59439 262.48882 250.49524 239.79366 229.91309 221.01451 213.19394 206.19336
 200.02479 194.96021 191.53963 189.57906 188.61348 188.67491 189.50733 190.81275
 192.53518 194.62760 196.88803 199.24445 201.68687 204.16430 206.24972 208.08915
 209.71257 210.85499 211.08142 211.30684 211.24127 210.94369 210.57411 210.20154
 209.81596 209.52339 209.32881 209.19023 209.11566 209.44408 209.82751 210.21393
 211.00435 212.17978 213.42720 215.20763 217.13305 219.17348 221.26590 223.34632
 225.40375 227.48517 229.57960 231.68302 233.80944 235.97887 238.23229 240.59972
 243.21814 245.46656 247.46599 249.22841 250.64284 251.76326 252.58268 252.89611
 252.93053 252.70196 252.05938 251.00480 249.60823 247.76665 245.67308 243.50350
 241.29192 239.09335 236.91077 234.74720 232.60462 230.46905 228.49247 226.64689
 224.92732 223.39674 222.02417 220.79359 219.67301 218.63044 217.73186 216.87029
 216.10971 215.28713 214.38256 213.74398 213.19141 213.47684 214.15120 215.15942
 216.11644 215.87234 216.89731 218.97736 221.05319 223.92679 228.30598 232.58043
 236.13698 239.63123 242.43697 244.62166 246.79587 249.52084 252.80936 256.28900
 259.74561 262.99652 265.99936 268.83713 271.47501 273.77859 275.55807 277.04816
 278.39664 279.68576 281.04837 282.40176 283.59048 284.64725 285.61362 286.49753
 287.29999 288.02399 288.66177 289.49985
 366.78100 356.33294 345.76287 334.62681 323.02774 311.21968 299.08762 286.88855
 274.59849 262.49342 250.50036 239.79929 229.91923 221.02117 213.20110 206.20104
 200.03297 194.96891 191.54885 189.58878 188.62372 188.68565 189.51859 190.82452
 192.54746 194.64040 196.90133 199.25827 201.70120 204.17914 206.26508 208.10501
 209.72895 210.87188 211.09882 211.32475 211.25969 210.96263 210.59356 210.22150
 209.83643 209.54437 209.35031 209.21224 209.13818 209.46711 209.85105 210.23798
 211.02892 212.20486 213.45279 215.23373 217.15966 219.20060 221.29354 223.37447
 225.43241 227.51434 229.60928 231.71321 233.84015 236.01009 238.26402 240.63196
 243.25089 245.49983 247.49977 249.26270 250.67764 251.79857 252.61851 252.93244
 252.96738 252.73932 252.09725 251.04319 249.64712 247.80606 245.71300 243.54393
 241.33287 239.13480 236.95274 234.78967 232.64761 230.51255 228.53648 226.69142
 224.97235 223.44229 222.07023 220.84016 219.72010 218.67803 217.77997 216.91891
 216.15884 215.33678 214.43271 213.79465 213.24258 213.53140 214.21376 215.28600
 216.23457 215.90611 216.94727 219.12761 221.09738 223.94699 228.33975 232.53323
 236.06923 239.45970 242.16022 244.28413 246.49663 249.30695 252.68562 256.24582
 259.73550 262.98593 265.98364 268.82693 271.48407 273.81668 275.61752 277.10165
 278.42609 279.68451 280.92203 282.26212 283.45084 284.50589 285.47479 286.35733
 287.16223 287.88815 288.52704 289.37100
 366.78100 356.33392 345.76484 334.62977 323.03169 311.22461 299.09353 286.89546
 274.60638 262.50230 250.51022 239.81015 229.93107 221.03399 213.21491 206.21583
 200.04876 194.98568 191.56660 189.60752 188.64345 188.70637 189.54029 190.84721
 192.57114 194.66506 196.92698 199.28490 201.72883 204.20775 206.29467 208.13559
 209.76051 210.90444 211.13236 211.35928 211.29520 210.99913 210.63105 210.25997
 209.87589 209.58482 209.39174 209.25466 209.18158 209.51150 209.89643 210.28435
 211.07627 212.25319 213.50212 215.28404 217.21096 219.25288 221.34681 223.42873
 225.48765 227.57057 229.66649 231.77142 233.89934 236.07026 238.32518 240.69411
 243.31403 245.56395 247.56487 249.32880 250.74472 251.86664 252.68756 253.00248
 253.03841 252.81133 252.17025 251.11717 249.72210 247.88202 245.78994 243.62186
 241.41179 239.21471 237.03363 234.87155 232.73048 230.59640 228.62132 226.77724
 225.05916 223.53009 222.15901 220.92993 219.81085 218.76978 217.87270 217.01262
 216.25354 215.43247 214.52939 213.89231 213.34123 213.60875 214.24077 215.46808
 216.29738 215.96416 217.02824 219.17973 221.11745 223.99817 228.39763 232.51268
 235.99792 239.28609 241.88574 243.95012 246.19878 249.09676 252.56735 256.20850
 259.72937 262.98068 265.97681 268.82373 271.49570 273.84793 275.66135 277.15070
 278.45880 279.68488 280.82956 282.14996 283.33383 284.38834 285.35376 286.23959
 287.04254 287.77100 288.41168 289.25842
 366.78100 356.33489 345.76678 334.63267 323.03556 311.22945 299.09934 286.90223
 274.61412 262.51101 250.51990 239.82079 229.94268 221.04657 213.22846 206.23035
 200.06424 195.00213 191.58402 189.62591 188.66280 188.72669 189.56158 190.86947
 192.59436 194.68925 196.95214 199.31103 201.75592 204.23581 206.32370 208.16559
 209.79148 210.93637 211.16526 211.39315 211.33004 211.03493 210.66782 210.29771
 209.91460 209.62449 209.43238 209.29626 209.22415 209.55504 209.94093 210.32982
 211.12271 212.30060 213.55049 215.33338 217.26127 219.30416 221.39905 223.48194
 225.54183 227.62572 229.72261 231.82850 233.95739 236.12928 238.38517 240.75506
 243.37595 245.62684 247.62873 249.39362 250.81051 251.93340 252.75529 253.07118
 253.10807 252.88196 252.24185 251.18974 249.79563 247.95652 245.86541 243.69830
 241.48919 239.29308 237.11297 234.95186 232.81175 230.67864 228.70453 226.86142
 225.14431 223.61620 222.24609 221.01798 219.89987 218.85976 217.96365 217.10454
 216.34643 215.52632 214.62421 213.98810 213.43799 213.68454 214.26706 215.62537
 216.36546 216.07133 217.12155 219.19582 221.17790 224.07314 228.45151 232.48323
 235.89847 239.08476 241.58949 243.60948 245.90121 248.89043 252.45378 256.17297
 259.72360 262.97729 265.97473 268.82480 271.50641 273.87634 275.71759 277.22589
 278.51144 279.69458 280.80142 282.04727 283.22238 284.27704 285.24377 286.13022
 286.93536 287.66431 288.30750 289.15765
 366.78100 356.33593 345.76886 334.63579 323.03972 311.23465 299.10559 286.90952
 274.62245 262.52038 250.53031 239.83224 229.95517 221.06010 213.24303 206.24596
 200.08089 195.01982 191.60276 189.64569 188.68362 188.74855 189.58448 190.89341
 192.61934 194.71527 196.97920 199.33913 201.78506 204.26599 206.35493 208.19786
 209.82479 210.97072 211.20065 211.42958 211.36751 211.07344 210.70737 210.33830
 209.95623 209.66716 209.47610 209.34103 209.26996 209.60189 209.98882 210.37875
 211.17268 212.35161 213.60254 215.38647 217.31540 219.35933 221.45527 223.53920
 225.60013 227.68506 229.78299 231.88992 234.01985 236.19278 238.44971 240.82064
 243.44257 245.69450 247.69744 249.46337 250.88130 252.00523 252.82816 253.14509
 253.18302 252.95795 252.31888 251.26781 249.87474 248.03667 245.94661 243.78054
 241.57247 239.37740 237.19833 235.03826 232.89919 230.76712 228.79405 226.95198
 225.23591 223.70884 222.33978 221.11271 219.99564 218.95657 218.06150 217.20343
 216.44636 215.62729 214.72622 214.09115 213.54208 213.76680 214.29771 215.69254
 216.49814 216.29985 217.25017 219.21449 221.24794 224.12988 228.46959 232.41962
 235.76427 238.83798 241.24908 243.24287 245.59003 248.67616 252.33470 256.12909
 259.70752 262.96811 265.97314 268.82849 271.52399 273.92636 275.81619 277.35544
 278.62509 279.76630 280.84610 281.95212 283.11554 284.17334 285.14377 286.03079
 286.84061 287.57141 288.21524 289.07248
 366.78100 356.33679 345.77059 334.63838 323.04318 311.23897 299.11077 286.91556
 274.62936 262.52815 250.53894 239.84174 229.96553 221.07133 213.25512 206.25892
 200.09471 195.03451 191.61830 189.66210 188.70089 188.76668 189.60348 190.91327
 192.64007 194.73686 197.00166 199.36245 201.80925 204.29104 206.38083 208.22463
 209.85242 210.99922 211.23001 211.45981 211.39860 211.10540 210.74019 210.37198
 209.99078 209.70257 209.51237 209.37816 209.30796 209.64075 210.02855 210.41934
 211.21414 212.39393 213.64572 215.43052 217.36031 219.40511 221.50190 223.58670
 225.64849 227.73429 229.83308 231.94087 234.07167 236.24546 238.50326 240.87505
 243.49785 245.75064 247.75444 249.52123 250.94002 252.06482 252.88861 253.20641
 253.24520 253.02100 252.38279 251.33259 249.94038 248.10318 246.01397 243.84876
 241.64156 239.44735 237.26915 235.10994 232.97174 230.84053 228.86833 227.02712
 225.31191 223.78571 222.41750 221.19130 220.07509 219.03689 218.14268 217.28548
 216.52927 215.71107 214.81086 214.17665 213.62845 213.84312 214.35033 215.70201
 216.64169 216.59502 217.40811 219.23468 221.30528 224.18240 228.48380 232.36536
 235.62650 238.57915 240.88779 242.85297 245.26010 248.44783 252.20442 256.06812
 259.67142 262.94153 265.95850 268.82379 271.53513 273.96844 275.91803 277.50662
 278.78915 279.91824 280.94965 281.94257 283.09769 284.15451 285.12494 286.01291
 286.82648 287.55698 288.20645 289.05862
 366.78100 356.33697 345.77094 334.63891 323.04389 311.23986 299.11183 286.91680
 274.63077 262.52974 250.54072 239.84369 229.96766 221.07363 213.25760 206.26157
 200.09755 195.03752 191.62149 189.66546 188.70443 188.77040 189.60738 190.91735
 192.64432 194.74129 197.00626 199.36723 201.81421 204.29618 206.38615 208.23012
 209.85809 211.00506 211.23604 211.46601 211.40498 211.11195 210.74692 210.37889
 209.99787 209.70984 209.51981 209.38578 209.31575 209.64872 210.03670 210.42767
 211.22264 212.40261 213.65458 215.43955 217.36953 219.41450 221.51147 223.59644
 225.65841 227.74438 229.84336 231.95133 234.08230 236.25627 238.51424 240.88621
 243.50918 245.76216 247.76613 249.53310 250.95207 252.07704 252.90101 253.21899
 253.25796 253.03393 252.39590 251.34587 249.95384 248.11682 246.02779 243.86276
 241.65573 239.46170 237.28367 235.12465 232.98662 230.85559 228.88356 227.04253
 225.32750 223.80148 222.43345 221.20742 220.09139 219.05336 218.15933 217.30231
 216.54628 215.72825 214.82822 214.19419 213.64616 213.88190 214.43881 215.76556
 216.69221 216.80315 217.54822 219.28558 221.40166 224.27669 228.52113 232.34862
 235.51195 238.33302 240.52937 242.46855 244.94386 248.23065 252.07895 255.99947
 259.61844 262.89224 265.91663 268.79623 271.52469 273.97662 275.97693 277.60364
 278.90466 280.03632 281.04947 282.03287 283.18243 284.23444 285.20193 286.09143
 286.90463 287.64270 288.29504 289.15381
 366.78100 356.33790 345.77280 334.64171 323.04761 311.24451 299.11741 286.92331
 274.63822 262.53812 250.55002 239.85392 229.97883 221.08573 213.27063 206.27553
 200.11243 195.05334 191.63824 189.68314 188.72304 188.78994 189.62785 190.93875
 192.66665 194.76455 197.03046 199.39236 201.84026 204.32316 206.41406 208.25897
 209.88787 211.03577 211.26767 211.49857 211.43848 211.14638 210.78228 210.41518
 210.03508 209.74799 209.55889 209.42579 209.35669 209.69060 210.07950 210.47140
 211.26730 212.44820 213.70111 215.48701 217.41791 219.46381 221.56171 223.64762
 225.71052 227.79742 229.89732 232.00623 234.13813 236.31303 238.57193 240.94483
 243.56874 245.82264 247.82754 249.59544 251.01534 252.14125 252.96615 253.28505
 253.32495 253.10185 252.46476 251.41566 250.02456 248.18846 246.10037 243.93627
 241.73017 239.53707 237.35997 235.20188 233.06478 230.93468 228.96358 227.12348
 225.40939 223.88429 222.51719 221.29209 220.17700 219.13990 218.24680 217.39070
 216.63560 215.81851 214.91941 214.28631 213.73921 213.95909 214.47861 215.86189
 216.73129 216.93784 217.69963 219.40244 221.53386 224.37949 228.54781 232.33189
 235.37845 238.05917 240.15997 242.10831 244.67108 248.05235 251.97520 255.93875
 259.56909 262.84412 265.87903 268.77478 271.51831 273.97699 275.99228 277.62048
 278.92096 280.06305 281.10880 282.12402 283.26688 284.31573 285.27963 286.16357
 286.96915 287.69867 288.34418 289.18884
 366.78100 356.33997 345.77695 334.64792 323.05589 311.25486 299.12984 286.93781
 274.65478 262.55675 250.57073 239.87670 230.00367 221.11264 213.29962 206.30659
 200.14556 195.08853 191.67551 189.72248 188.76445 188.83342 189.67340 190.98637
 192.71634 194.81631 197.08429 199.44826 201.89823 204.38320 206.47618 208.32315
 209.95412 211.10410 211.33807 211.57104 211.51301 211.22299 210.86096 210.49593
 210.11790 209.83288 209.64585 209.51482 209.44779 209.78377 210.17474 210.56871
 211.36668 212.54966 213.80463 215.59260 217.52557 219.57355 221.67352 223.76149
 225.82646 227.91544 230.01741 232.12838 234.26236 236.43933 238.70030 241.07527
 243.70125 245.95722 247.96419 249.73416 251.15614 252.28411 253.11108 253.43205
 253.47403 253.25300 252.61797 251.57094 250.18192 248.34789 246.26186 244.09983
 241.89581 239.70478 237.52975 235.37372 233.23870 231.11067 229.14164 227.30361
 225.59159 224.06856 222.70353 221.48051 220.36748 219.33245 218.44142 217.58740
 216.83437 216.01934 215.12231 214.49129 213.94626 214.10245 214.47150 215.86427
 216.84550 217.10938 217.91109 219.53479 221.62914 224.44426 228.54791 232.29424
 235.21606 237.76642 239.80229 241.78508 244.43869 247.90250 251.88382 255.88158
 259.52444 262.81174 265.86679 268.77661 271.52502 273.98383 275.99222 277.60794
 278.87595 279.99521 281.05872 282.18933 283.35190 284.40436 285.36780 286.24899
 287.05298 287.77631 288.41547 289.24841
 366.78100 356.34025 345.77749 334.64874 323.05698 311.25623 299.13147 286.93972
 274.65697 262.55921 250.57346 239.87970 230.00695 221.11619 213.30344 206.31069
 200.14993 195.09318 191.68042 189.72767 188.76991 188.83916 189.67941 190.99265
 192.72290 194.82314 197.09139 199.45563 201.90588 204.39113 206.48437 208.33162
 209.96286 211.11311 211.34735 211.58060 211.52285 211.23309 210.87134 210.50658
 210.12883 209.84407 209.65732 209.52657 209.45981 209.79606 210.18730 210.58155
 211.37979 212.56304 213.81829 215.60653 217.53978 219.58802 221.68827 223.77651
 225.84176 227.93101 230.03325 232.14450 234.27874 236.45599 238.71723 241.09248
 243.71873 245.97497 247.98222 249.75246 251.17471 252.30295 253.13020 253.45145
 253.49369 253.27294 252.63818 251.59143 250.20267 248.36892 246.28317 244.12141
 241.91766 239.72690 237.55215 235.39639 233.26164 231.13389 229.16513 227.32738
 225.61562 224.09287 222.72811 221.50536 220.39261 219.35785 218.46710 217.61334
 216.86059 216.04583 215.14908 214.51833 213.97357 214.15508 214.58389 215.78735
 216.89093 217.30959 218.14131 219.62114 221.67596 224.50081 228.57541 232.26546
 235.07768 237.52092 239.50883 241.52274 244.24272 247.77002 251.79564 255.81572
 259.46811 262.76965 265.84534 268.76212 271.50577 273.95328 275.95947 277.57138
 278.82150 279.93002 281.00873 282.22742 283.40088 284.45132 285.41537 286.29486
 287.09695 287.81653 288.44897 289.28122
 366.78100 356.33886 345.77472 334.64458 323.05143 311.24929 299.12315 286.93001
 274.64587 262.54673 250.55959 239.86444 229.99030 221.09816 213.28402 206.28988
 200.12774 195.06960 191.65545 189.70131 188.74217 188.81003 189.64889 190.96075
 192.68960 194.78846 197.05532 199.41818 201.86704 204.35090 206.44276 208.28861
 209.91847 211.06733 211.30019 211.53205 211.47291 211.18177 210.81862 210.45248
 210.07334 209.78720 209.59906 209.46692 209.39878 209.73363 210.12349 210.51635
 211.31321 212.49507 213.74893 215.53579 217.46764 219.51450 221.61336 223.70022
 225.76408 227.85194 229.95280 232.06265 234.19551 236.37137 238.63123 241.00509
 243.62995 245.88481 247.89066 249.65952 251.08038 252.20724 253.03310 253.35296
 253.39381 253.17167 252.53553 251.48739 250.09725 248.26211 246.17497 244.01182
 241.80668 239.61454 237.43840 235.28126 233.14512 231.01598 229.04583 227.20669
 225.49355 223.96941 222.60327 221.37913 220.26499 219.22884 218.33670 217.48156
 216.72742 215.91128 215.01314 214.38100 213.83485 214.11525 214.77771 215.76640
 216.77130 217.47333 218.37486 219.69815 221.74054 224.59550 228.63568 232.21146
 234.94746 237.29930 239.24425 241.28571 244.06241 247.64799 251.71030 255.74582
 259.40854 262.72284 265.80978 268.72406 271.45074 273.87787 275.88943 277.51587
 278.77551 279.88345 280.97696 282.24557 283.42105 284.47202 285.43582 286.31268
 287.11401 287.83447 288.46738 289.29391
 366.78100 356.33836 345.77372 334.64308 323.04944 311.24680 299.12016 286.92652
 274.64188 262.54224 250.55460 239.85896 229.98432 221.09168 213.27704 206.28240
 200.11976 195.06112 191.64648 189.69184 188.73220 188.79956 189.63792 190.94928
 192.67764 194.77600 197.04236 199.40473 201.85309 204.33645 206.42781 208.27317
 209.90253 211.05089 211.28325 211.51461 211.45497 211.16333 210.79969 210.43305
 210.05341 209.76677 209.57813 209.44549 209.37685 209.71121 210.10057 210.49293
 211.28929 212.47065 213.72401 215.51037 217.44173 219.48809 221.58645 223.67281
 225.73617 227.82353 229.92389 232.03325 234.16561 236.34097 238.60033 240.97369
 243.59805 245.85241 247.85777 249.62613 251.04649 252.17285 252.99821 253.31757
 253.35793 253.13529 252.49865 251.45001 250.05937 248.22373 246.13609 243.97245
 241.76682 239.57418 237.39754 235.23990 233.10326 230.97362 229.00298 227.16334
 225.44970 223.92506 222.55842 221.33378 220.21914 219.18250 218.28986 217.43422
 216.67958 215.86294 214.96430 214.33166 213.78502 214.11848 214.90633 215.76006
 216.68349 217.65828 218.62708 219.82320 221.82097 224.67230 228.68733 232.11340
 234.79547 237.05939 238.95605 241.02599 243.86771 247.52002 251.62135 255.67072
 259.34412 262.67087 265.77008 268.68527 271.40579 273.83463 275.86490 277.48273
 278.68451 279.75821 280.92551 282.25247 283.43631 284.48886 285.45135 286.33292
 287.13419 287.85263 288.48438 289.30573
 366.78100 356.33941 345.77583 334.64624 323.05366 311.25207 299.12649 286.93390
 274.65032 262.55173 250.56515 239.87056 229.99698 221.10539 213.29181 206.29822
 200.13664 195.07905 191.66547 189.71188 188.75329 188.82171 189.66112 190.97354
 192.70295 194.80237 197.06978 199.43320 201.88261 204.36703 206.45944 208.30586
 209.93627 211.08569 211.31910 211.55152 211.49293 211.20234 210.83976 210.47417
 210.09559 209.81000 209.62242 209.49083 209.42325 209.75866 210.14908 210.54249
 211.33991 212.52232 213.77674 215.56415 217.49657 219.54398 221.64340 223.73081
 225.79522 227.88364 229.98505 232.09547 234.22888 236.40530 238.66571 241.04013
 243.66554 245.92096 247.92737 249.69679 251.11820 252.24562 253.07203 253.39245
 253.43386 253.21227 252.57669 251.52910 250.13952 248.30493 246.21835 244.05576
 241.85118 239.65959 237.48401 235.32742 233.19184 231.06325 229.09367 227.25508
 225.54250 224.01891 222.65333 221.42974 220.31615 219.28057 218.38898 217.53440
 216.78081 215.96523 215.06764 214.43606 213.89047 214.19917 214.92854 215.77373
 216.62979 217.92039 218.96010 219.90337 221.86700 224.78534 228.73534 231.99210
 234.61375 236.77974 238.62491 240.73436 243.66069 247.39043 251.53233 255.59175
 259.27158 262.60916 265.72656 268.65302 271.38385 273.83173 275.88760 277.49780
 278.64426 279.67856 280.83978 282.16824 283.35370 284.40509 285.37076 286.24866
 287.04953 287.77045 288.40317 289.22202
 366.78100 356.34131 345.77962 334.65193 323.06124 311.26155 299.13785 286.94716
 274.66547 262.56878 250.58409 239.89140 230.01971 221.13002 213.31833 206.32664
 200.16695 195.11125 191.69956 189.74787 188.79118 188.86149 189.70280 191.01711
 192.74842 194.84973 197.11904 199.48435 201.93565 204.42196 206.51627 208.36458
 209.99689 211.14820 211.38351 211.61782 211.56113 211.27244 210.91175 210.54806
 210.17136 209.88767 209.70198 209.57229 209.50660 209.84391 210.23622 210.63153
 211.43084 212.61515 213.87146 215.66076 217.59507 219.64438 221.74569 223.83500
 225.90131 227.99162 230.09493 232.20724 234.34255 236.52086 238.78316 241.15947
 243.78678 246.04409 248.05240 249.82371 251.24702 252.37633 253.20464 253.52695
 253.57026 253.35056 252.71687 251.67118 250.28349 248.45080 246.36611 244.20542
 242.00273 239.81304 237.63935 235.48466 233.35096 231.22427 229.25658 227.41989
 225.70920 224.18751 222.82382 221.60213 220.49044 219.45675 218.56706 217.71436
 216.96267 216.14898 215.25329 214.62360 214.07991 214.31816 214.88104 215.85623
 216.64348 218.03059 219.21420 220.21077 222.05136 224.80464 228.70937 231.83350
 234.37730 236.45056 238.26511 240.44392 243.47617 247.28421 251.45920 255.52548
 259.21051 262.56326 265.70349 268.64474 271.38272 273.83221 275.88821 277.48749
 278.60751 279.62814 280.74091 282.04999 283.23129 284.28253 285.24530 286.12592
 286.92645 287.64786 288.28030 289.10333
 366.78100 356.34278 345.78256 334.65633 323.06711 311.26889 299.14667 286.95744
 274.67722 262.58200 250.59878 239.90755 230.03733 221.14911 213.33889 206.34866
 200.19044 195.13622 191.72600 189.77577 188.82055 188.89233 189.73511 191.05088
 192.78366 194.88644 197.15722 199.52400 201.97677 204.46455 206.56033 208.41011
 210.04388 211.19666 211.43344 211.66922 211.61399 211.32677 210.96755 210.60533
 210.23010 209.94788 209.76366 209.63544 209.57121 209.90999 210.30377 210.70055
 211.50133 212.68710 213.94488 215.73566 217.67144 219.72221 221.82499 223.91577
 225.98355 228.07532 230.18010 232.29388 234.43066 236.61043 238.87421 241.25199
 243.88077 246.13954 248.14932 249.92210 251.34688 252.47765 253.30743 253.63121
 253.67599 253.45777 252.82554 251.78132 250.39510 248.56388 246.48065 244.32143
 242.12021 239.93199 237.75976 235.60654 233.47432 231.34910 229.38287 227.54765
 225.83843 224.31821 222.95598 221.73576 220.62554 219.59332 218.70510 217.85387
 217.10365 216.29143 215.39721 214.76898 214.22676 214.41263 214.85175 215.92903
 216.71182 218.10721 219.40933 220.52455 222.22672 224.79353 228.64986 231.66774
 234.12387 236.11954 237.92516 240.19144 243.33142 247.20584 251.40337 255.47214
 259.16287 262.53806 265.70688 268.65717 271.38855 273.82043 275.86484 277.45566
 278.56003 279.57889 280.66446 281.94559 283.12347 284.17291 285.13678 286.01855
 286.82080 287.54486 288.17871 289.00681
 366.78100 356.34337 345.78374 334.65811 323.06948 311.27185 299.15022 286.96159
 274.68196 262.58733 250.60469 239.91406 230.04443 221.15680 213.34717 206.35754
 200.19991 195.14628 191.73665 189.78702 188.83239 188.90476 189.74813 191.06450
 192.79787 194.90124 197.17261 199.53998 201.99335 204.48172 206.57808 208.42845
 210.06282 211.21619 211.45356 211.68993 211.63530 211.34867 210.99004 210.62841
 210.25378 209.97215 209.78852 209.66089 209.59726 209.93663 210.33100 210.72837
 211.52974 212.71611 213.97447 215.76584 217.70221 219.75358 221.85695 223.94832
 226.01669 228.10906 230.21443 232.32880 234.46617 236.64654 238.91091 241.28928
 243.91865 246.17802 248.18839 249.96176 251.38713 252.51850 253.34886 253.67323
 253.71860 253.50097 252.86934 251.82571 250.44008 248.60945 246.52682 244.36819
 242.16756 239.97993 237.80830 235.65567 233.52404 231.39941 229.43378 227.59915
 225.89052 224.37089 223.00925 221.78962 220.67999 219.64836 218.76073 217.91010
 217.16047 216.34884 215.45521 214.82758 214.28595 214.46202 214.87799 215.94266
 216.79823 218.18671 219.59016 220.80766 222.37927 224.79968 228.60258 231.52608
 233.88901 235.80968 237.61182 239.96664 243.20599 247.13692 251.34969 255.41449
 259.10870 262.51102 265.70795 268.66486 271.38223 273.80020 275.84851 277.44296
 278.52591 279.52893 280.59857 281.86557 283.04150 284.09158 285.05408 285.93826
 286.74207 287.46887 288.10489 288.93478
 366.78100 356.34314 345.78328 334.65742 323.06856 311.27069 299.14883 286.95997
 274.68011 262.58525 250.60239 239.91153 230.04167 221.15380 213.34394 206.35408
 200.19622 195.14236 191.73250 189.78264 188.82778 188.89991 189.74305 191.05919
 192.79233 194.89547 197.16661 199.53375 201.98689 204.47502 206.57116 208.42130
 210.05544 211.20858 211.44572 211.68186 211.62700 211.34014 210.98127 210.61941
 210.24455 209.96269 209.77883 209.65097 209.58711 209.92625 210.32038 210.71752
 211.51866 212.70480 213.96294 215.75408 217.69022 219.74136 221.84449 223.93563
 226.00377 228.09591 230.20105 232.31519 234.45233 236.63247 238.89660 241.27474
 243.90388 246.16302 248.17316 249.94630 251.37144 252.50258 253.33271 253.65685
 253.70199 253.48413 252.85227 251.80841 250.42255 248.59169 246.50883 244.34996
 242.14910 239.96124 237.78938 235.63652 233.50466 231.37980 229.41394 227.57907
 225.87021 224.35035 222.98849 221.76863 220.65877 219.62691 218.73905 217.88818
 217.13832 216.32646 215.43260 214.80474 214.26288 214.46806 214.95287 215.91911
 216.87836 218.26306 219.76241 221.06323 222.52257 224.82932 228.57733 231.41647
 233.68042 235.51918 237.31410 239.75337 243.08466 247.06641 251.29118 255.34758
 259.04346 262.47253 265.69318 268.65442 271.36288 273.77847 275.84756 277.45868
 278.52045 279.49597 280.54938 281.81036 282.98520 284.03561 285.00073 285.88229
 286.68854 287.41461 288.05331 288.88187
 366.78100 356.34235 345.78170 334.65505 323.06540 311.26675 299.14410 286.95445
 274.67380 262.57815 250.59451 239.90286 230.03221 221.14356 213.33291 206.34226
 200.18361 195.12896 191.71831 189.76766 188.81201 188.88336 189.72571 191.04106
 192.77341 194.87576 197.14611 199.51246 201.96481 204.45216 206.54752 208.39687
 210.03022 211.18257 211.41892 211.65427 211.59862 211.31097 210.95132 210.58867
 210.21302 209.93037 209.74572 209.61707 209.55242 209.89077 210.28412 210.68047
 211.48082 212.66618 213.92353 215.71388 217.64923 219.69958 221.80193 223.89228
 225.95963 228.05098 230.15533 232.26868 234.40503 236.58438 238.84773 241.22508
 243.85343 246.11178 248.12113 249.89348 251.31784 252.44819 253.27754 253.60089
 253.64524 253.42659 252.79394 251.74929 250.36264 248.53099 246.44734 244.28769
 242.08604 239.89739 237.72474 235.57109 233.43844 231.31279 229.34614 227.51049
 225.80085 224.28020 222.91755 221.69690 220.58625 219.55360 218.66495 217.81330
 217.06265 216.25000 215.35535 214.72670 214.18405 214.44353 215.05656 215.88478
 216.93961 218.34837 219.92647 221.29291 222.67357 224.88344 228.55998 231.32640
 233.48944 235.23784 237.02008 239.54173 242.96202 246.99237 251.22751 255.27374
 258.97372 262.42697 265.66739 268.63138 271.33801 273.75980 275.85327 277.48569
 278.53278 279.47916 280.51660 281.78430 282.95975 284.01083 284.97488 285.85788
 286.66391 287.39108 288.03049 288.86157
 366.78100 356.34179 345.78058 334.65337 323.06316 311.26395 299.14074 286.95053
 274.66932 262.57311 250.58890 239.89669 230.02548 221.13627 213.32506 206.33385
 200.17464 195.11943 191.70822 189.75701 188.80080 188.87158 189.71337 191.02816
 192.75995 194.86174 197.13153 199.49732 201.94911 204.43590 206.53069 208.37948
 210.01227 211.16406 211.39985 211.63464 211.57843 211.29022 210.93001 210.56680
 210.19059 209.90738 209.72217 209.59296 209.52775 209.86554 210.25833 210.65412
 211.45391 212.63870 213.89549 215.68528 217.62007 219.66986 221.77165 223.86144
 225.92823 228.01902 230.12281 232.23560 234.37139 236.55018 238.81296 241.18975
 243.81754 246.07533 248.08412 249.85591 251.27970 252.40949 253.23828 253.56107
 253.60486 253.38565 252.75244 251.70723 250.32002 248.48781 246.40360 244.24339
 242.04118 239.85197 237.67876 235.52455 233.39134 231.26513 229.29792 227.46171
 225.75150 224.23029 222.86708 221.64587 220.53466 219.50145 218.61224 217.76003
 217.00882 216.19561 215.30040 214.67119 214.12798 214.42781 215.13620 215.87857
 216.98853 218.44107 220.06662 221.48808 222.83899 224.96353 228.54187 231.24405
 233.30560 234.96141 236.73030 239.33455 242.84244 246.91869 251.16365 255.20158
 258.90707 262.38141 265.63693 268.60437 271.31250 273.74088 275.85574 277.51157
 278.55807 279.48746 280.51556 281.77472 282.95087 284.00171 284.96622 285.84955
 286.65417 287.38251 288.02127 288.85315
 366.78100 356.34192 345.78084 334.65376 323.06369 311.26461 299.14153 286.95145
 274.67037 262.57429 250.59021 239.89813 230.02706 221.13798 213.32690 206.33582
 200.17674 195.12166 191.71058 189.75950 188.80343 188.87435 189.71627 191.03119
 192.76311 194.86503 197.13495 199.50087 201.95280 204.43972 206.53464 208.38356
 210.01648 211.16840 211.40432 211.63924 211.58317 211.29509 210.93501 210.57193
 210.19585 209.91277 209.72769 209.59862 209.53354 209.87146 210.26438 210.66030
 211.46022 212.64514 213.90206 215.69199 217.62691 219.67683 221.77875 223.86867
 225.93559 228.02651 230.13043 232.24336 234.37928 236.55820 238.82112 241.19804
 243.82596 246.08388 248.09280 249.86473 251.28865 252.41857 253.24749 253.57041
 253.61433 253.39525 252.76218 251.71710 250.33002 248.49794 246.41386 244.25378
 242.05170 239.86262 237.68955 235.53547 233.40239 231.27631 229.30923 227.47315
 225.76307 224.24199 222.87892 221.65784 220.54676 219.51368 218.62460 217.77252
 217.02144 216.20836 215.31329 214.68421 214.14113 214.44414 215.16003 215.93279
 217.03529 218.51535 220.17731 221.62991 223.00592 225.07578 228.52138 231.15887
 233.12096 234.69153 236.45604 239.14607 242.73640 246.85324 251.10628 255.13759
 258.84930 262.33871 265.60678 268.57941 271.28802 273.72034 275.85129 277.52997
 278.58575 279.51370 280.54773 281.76144 282.93494 283.98425 284.94882 285.83115
 286.63382 287.35684 287.99533 288.82474
 366.78100 356.34222 345.78144 334.65466 323.06488 311.26610 299.14332 286.95354
 274.67276 262.57698 250.59320 239.90142 230.03064 221.14186 213.33108 206.34030
 200.18152 195.12674 191.71596 189.76518 188.80940 188.88062 189.72284 191.03806
 192.77028 194.87250 197.14272 199.50894 201.96116 204.44838 206.54360 208.39282
 210.02604 211.17826 211.41448 211.64970 211.59392 211.30614 210.94636 210.58358
 210.20780 209.92502 209.74024 209.61146 209.54668 209.88490 210.27812 210.67434
 211.47456 212.65978 213.91700 215.70722 217.64244 219.69266 221.79488 223.88510
 225.95232 228.04354 230.14776 232.26098 234.39720 236.57642 238.83964 241.21686
 243.84508 246.10330 248.11252 249.88474 251.30896 252.43918 253.26840 253.59162
 253.63584 253.41706 252.78428 251.73950 250.35272 248.52094 246.43716 244.27738
 242.07560 239.88682 237.71404 235.56026 233.42748 231.30170 229.33492 227.49914
 225.78936 224.26858 222.90580 221.68502 220.57424 219.54146 218.65268 217.80090
 217.05013 216.23735 215.34257 214.71379 214.17101 214.46649 215.16461 216.01254
 217.09674 218.56499 220.25888 221.73926 223.15697 225.19507 228.49605 231.06104
 232.93004 234.43590 236.21338 238.99088 242.65253 246.80060 251.05846 255.08318
 258.79855 262.29865 265.57635 268.55350 271.26068 273.69159 275.83081 277.52023
 278.58798 279.52866 280.57642 281.77612 282.94833 283.99893 284.96552 285.84686
 286.65131 287.37753 288.01587 288.84637
 366.78100 356.34196 345.78092 334.65388 323.06383 311.26479 299.14175 286.95171
 274.67067 262.57463 250.59058 239.89854 230.02750 221.13846 213.32742 206.33638
 200.17733 195.12229 191.71125 189.76021 188.80417 188.87513 189.71708 191.03204
 192.76400 194.86596 197.13592 199.50188 201.95383 204.44079 206.53575 208.38471
 210.01767 211.16963 211.40558 211.64054 211.58450 211.29646 210.93642 210.57338
 210.19733 209.91429 209.72925 209.60021 209.53517 209.87313 210.26608 210.66204
 211.46200 212.64696 213.90392 215.69388 217.62883 219.67879 221.78075 223.87071
 225.93767 228.02863 230.13259 232.24554 234.38150 236.56046 238.82342 241.20038
 243.82834 246.08629 248.09525 249.86721 251.29117 252.42113 253.25009 253.57304
 253.61700 253.39796 252.76492 251.71988 250.33284 248.50079 246.41675 244.25671
 242.05467 239.86563 237.69259 235.53854 233.40550 231.27946 229.31242 227.47638
 225.76634 224.24529 222.88225 221.66121 220.55017 219.51713 218.62809 217.77604
 217.02500 216.21196 215.31692 214.68788 214.14484 214.45984 215.20406 216.06537
 217.17447 218.62357 220.32471 221.83665 223.28728 225.29605 228.46021 230.95439
 232.74367 234.20166 236.00252 238.86464 242.58629 246.75768 251.01642 255.03365
 258.74954 262.25677 265.54248 268.52255 271.22781 273.65646 275.79581 277.48758
 278.56839 279.53009 280.59790 281.81946 282.99292 284.04584 285.00952 285.89346
 286.69861 287.42645 288.06631 288.89194
 366.78100 356.34145 345.77991 334.65236 323.06181 311.26227 299.13872 286.94817
 274.66663 262.57008 250.58553 239.89299 230.02144 221.13189 213.32035 206.32880
 200.16925 195.11371 191.70216 189.75061 188.79407 188.86452 189.70597 191.02043
 192.75188 194.85333 197.12279 199.48824 201.93969 204.42615 206.52060 208.36905
 210.00151 211.15296 211.38841 211.62287 211.56632 211.27777 210.91723 210.55368
 210.17713 209.89359 209.70804 209.57849 209.51295 209.85040 210.24285 210.63831
 211.43776 212.62221 213.87866 215.66812 217.60257 219.65202 221.75348 223.84293
 225.90938 227.99984 230.10329 232.21574 234.35120 236.52965 238.79210 241.16856
 243.79601 246.05346 248.06192 249.83337 251.25682 252.38628 253.21473 253.53718
 253.58064 253.36109 252.72754 251.68200 250.29445 248.46190 246.37736 244.21681
 242.01426 239.82472 237.65117 235.49662 233.36308 231.23653 229.26898 227.43244
 225.72189 224.20034 222.83680 221.61525 220.50370 219.47016 218.58061 217.72806
 216.97652 216.16297 215.26742 214.63788 214.09433 214.44055 215.25854 216.10706
 217.24739 218.69583 220.40103 221.92404 223.36475 225.37302 228.44591 230.85956
 232.56076 233.97733 235.81023 238.75638 242.52936 246.71748 250.97307 254.98073
 258.69638 262.20908 265.49979 268.48264 271.18951 273.61859 275.75397 277.44504
 278.54068 279.52795 280.60577 281.88187 283.05728 284.10684 285.07010 285.95456
 286.75861 287.48370 288.12231 288.95087
 366.78100 356.34128 345.77956 334.65185 323.06113 311.26141 299.13769 286.94697
 274.66526 262.56854 250.58382 239.89110 230.01939 221.12967 213.31795 206.32623
 200.16651 195.11080 191.69908 189.74736 188.79064 188.86092 189.70221 191.01649
 192.74777 194.84905 197.11833 199.48362 201.93490 204.42118 206.51546 208.36374
 209.99603 211.14731 211.38259 211.61687 211.56016 211.27144 210.91072 210.54700
 210.17028 209.88657 209.70085 209.57113 209.50541 209.84269 210.23498 210.63026
 211.42954 212.61382 213.87010 215.65939 217.59367 219.64295 221.74423 223.83352
 225.89980 227.99008 230.09336 232.20564 234.34093 236.51921 238.78149 241.15777
 243.78505 246.04234 248.05062 249.82190 251.24518 252.37446 253.20275 253.52503
 253.56831 253.34859 252.71488 251.66916 250.28144 248.44872 246.36400 244.20329
 242.00057 239.81085 237.63713 235.48241 233.34870 231.22198 229.25426 227.41754
 225.70682 224.18511 222.82139 221.59967 220.48795 219.45423 218.56452 217.71180
 216.96008 216.14636 215.25065 214.62093 214.07721 214.43779 215.28969 216.18126
 217.29869 218.76782 220.47951 221.98578 223.42899 225.45284 228.44336 230.77138
 232.39154 233.77042 235.63438 238.65913 242.47786 246.67676 250.92499 254.92290
 258.63730 262.15195 265.44440 268.43161 271.14362 273.57516 275.70422 277.39197
 278.50858 279.52560 280.62973 281.94077 283.12155 284.17145 285.13580 286.01859
 286.82324 287.54865 288.18552 289.01215
 366.78100 356.34102 345.77903 334.65105 323.06006 311.26008 299.13610 286.94511
 274.66313 262.56615 250.58116 239.88818 230.01619 221.12621 213.31423 206.32224
 200.16226 195.10627 191.69429 189.74231 188.78532 188.85534 189.69635 191.01037
 192.74139 194.84240 197.11142 199.47644 201.92745 204.41347 206.50748 208.35550
 209.98752 211.13853 211.37355 211.60756 211.55058 211.26160 210.90061 210.53663
 210.15965 209.87566 209.68968 209.55969 209.49371 209.83073 210.22274 210.61776
 211.41677 212.60079 213.85681 215.64582 217.57984 219.62886 221.72987 223.81889
 225.88490 227.97492 230.07794 232.18995 234.32497 236.50298 238.76500 241.14102
 243.76803 246.02505 248.03306 249.80408 251.22710 252.35611 253.18413 253.50615
 253.54916 253.32918 252.69519 251.64921 250.26123 248.42824 246.34326 244.18227
 241.97929 239.78931 237.61532 235.46034 233.32636 231.19937 229.23139 227.39440
 225.68342 224.16144 222.79745 221.57547 220.46348 219.42950 218.53952 217.68653
 216.93455 216.12057 215.22458 214.59460 214.05061 214.42949 215.32463 216.28085
 217.31494 218.82469 220.57094 222.00319 223.43416 225.53322 228.49211 230.71439
 232.22488 233.55966 235.46834 238.58080 242.43585 246.64064 250.88028 254.86690
 258.57666 262.08752 265.37723 268.37009 271.09015 273.52567 275.64276 277.32156
 278.45517 279.50522 280.65384 281.99319 283.17706 284.22797 285.19400 286.07651
 286.88065 287.60513 288.24268 289.06451
 366.78100 356.34022 345.77744 334.64866 323.05688 311.25611 299.13133 286.93955
 274.65677 262.55899 250.57321 239.87943 230.00665 221.11587 213.30310 206.31032
 200.14954 195.09276 191.67998 189.72720 188.76942 188.83864 189.67887 190.99209
 192.72231 194.82253 197.09075 199.45497 201.90519 204.39041 206.48363 208.33086
 209.96208 211.11230 211.34652 211.57974 211.52196 211.23218 210.87040 210.50562
 210.12785 209.84307 209.65629 209.52551 209.45873 209.79495 210.18617 210.58039
 211.37862 212.56184 213.81706 215.60528 217.53850 219.58672 221.68694 223.77516
 225.84038 227.92961 230.03183 232.14305 234.27727 236.45449 238.71571 241.09093
 243.71715 245.97337 247.98060 249.75082 251.17304 252.30126 253.12848 253.44970
 253.49192 253.27114 252.63637 251.58959 250.20081 248.36703 246.28125 244.11947
 241.91569 239.72491 237.55013 235.39436 233.25958 231.13180 229.16302 227.32524
 225.61346 224.09068 222.72590 221.50312 220.39035 219.35557 218.46479 217.61101
 216.85823 216.04345 215.14667 214.51589 213.97112 214.39253 215.38820 216.39079
 217.32831 218.84088 220.61926 222.01488 223.48473 225.61687 228.49445 230.62004
 232.07285 233.39473 235.34666 238.53773 242.41837 246.61975 250.84361 254.81821
 258.51996 262.02203 265.30679 268.30634 271.03461 273.47205 275.57251 277.23782
 278.39319 279.48471 280.68973 282.05304 283.23947 284.29428 285.26050 286.14597
 286.94791 287.67297 288.32028 289.19669
 366.78100 356.33922 345.77544 334.64567 323.05289 311.25111 299.12533 286.93256
 274.64878 262.55000 250.56322 239.86845 229.99467 221.10289 213.28911 206.29533
 200.13356 195.07578 191.66200 189.70822 188.74945 188.81767 189.65689 190.96911
 192.69834 194.79756 197.06478 199.42800 201.87722 204.36145 206.45367 208.29989
 209.93011 211.07934 211.31256 211.54478 211.48600 211.19523 210.83245 210.46667
 210.08789 209.80211 209.61434 209.48256 209.41478 209.75000 210.14023 210.53345
 211.33067 212.51289 213.76712 215.55434 217.48656 219.53378 221.63300 223.72023
 225.78445 227.87267 229.97389 232.08412 234.21734 236.39356 238.65378 241.02801
 243.65323 245.90845 247.91467 249.68389 251.10512 252.23234 253.05856 253.37878
 253.42001 253.19823 252.56245 251.51467 250.12490 248.29012 246.20334 244.04056
 241.83578 239.64401 237.46823 235.31145 233.17567 231.04690 229.07712 227.23834
 225.52556 224.00179 222.63601 221.41223 220.29845 219.26267 218.37090 217.51612
 216.76234 215.94656 215.04879 214.41701 213.87123 214.34477 215.46355 216.48056
 217.41257 218.88512 220.63567 221.94269 223.40994 225.63814 228.51758 230.55843
 231.92014 233.22069 235.22681 238.51288 242.41418 246.60707 250.82240 254.79037
 258.48581 261.98193 265.26804 268.27182 271.01242 273.44629 275.51425 277.15894
 278.33563 279.47021 280.74307 282.10706 283.29297 284.34686 285.31293 286.19629
 286.99939 287.72388 288.38565 289.25058
 366.78100 356.33739 345.77177 334.64016 323.04555 311.24193 299.11432 286.91971
 274.63410 262.53348 250.54487 239.84826 229.97264 221.07903 213.26342 206.26780
 200.10419 195.04458 191.62897 189.67335 188.71274 188.77913 189.61651 190.92690
 192.65429 194.75167 197.01706 199.37845 201.82584 204.30822 206.39861 208.24300
 209.87138 211.01877 211.25016 211.48054 211.41993 211.12732 210.76271 210.39509
 210.01448 209.72687 209.53725 209.40364 209.33403 209.66741 210.05580 210.44719
 211.24258 212.42296 213.67535 215.46074 217.39112 219.43651 221.53390 223.61928
 225.68167 227.76806 229.86745 231.97583 234.10722 236.28161 238.53999 240.91238
 243.53577 245.78915 247.79354 249.56093 250.98031 252.10570 252.93009 253.24848
 253.28786 253.06425 252.42664 251.37702 249.98541 248.14880 246.06018 243.89557
 241.68896 239.49535 237.31773 235.15912 233.02151 230.89089 228.91928 227.07867
 225.36405 223.83844 222.47083 221.24522 220.12960 219.09199 218.19838 217.34176
 216.58615 215.76854 214.86892 214.23531 213.68770 214.25977 215.61037 216.48524
 217.46089 218.94211 220.64832 221.80899 223.25555 225.60129 228.44237 230.50206
 231.72453 233.00638 235.05997 238.46800 242.42825 246.62152 250.82753 254.80545
 258.50851 261.99765 265.27289 268.28384 271.01550 273.43271 275.47098 277.05887
 278.28064 279.42438 280.76767 282.13815 283.32886 284.38934 285.36517 286.25931
 287.09445 287.86942 288.54639 289.40912
 366.78100 356.33688 345.77076 334.63865 323.04353 311.23941 299.11129 286.91618
 274.63006 262.52894 250.53982 239.84271 229.96659 221.07247 213.25635 206.26024
 200.09612 195.03600 191.61988 189.66377 188.70265 188.76853 189.60541 190.91529
 192.64218 194.73906 197.00394 199.36482 201.81171 204.29359 206.38347 208.22735
 209.85524 211.00212 211.23300 211.46288 211.40177 211.10865 210.74353 210.37541
 209.99430 209.70618 209.51606 209.38194 209.31182 209.64471 210.03259 210.42347
 211.21835 212.39824 213.65012 215.43500 217.36488 219.40977 221.50665 223.59153
 225.65341 227.73930 229.83818 231.94606 234.07694 236.25082 238.50871 240.88059
 243.50347 245.75635 247.76024 249.52712 250.94600 252.07088 252.89477 253.21265
 253.25153 253.02741 252.38930 251.33918 249.94706 248.10994 246.02083 243.85571
 241.64859 239.45447 237.27635 235.11724 232.97912 230.84800 228.87588 227.03477
 225.31965 223.79353 222.42541 221.19930 220.08318 219.04506 218.15094 217.29383
 216.53771 215.71959 214.81947 214.18536 213.63724 214.24377 215.67009 216.55922
 217.49214 218.88013 220.56914 221.74454 223.20912 225.56674 228.30562 230.43559
 231.52293 232.89275 235.08237 238.52441 242.51830 246.68652 250.85721 254.83643
 258.55463 262.04559 265.31464 268.32870 271.07297 273.49774 275.51456 277.07587
 278.29004 279.46902 280.83420 282.20251 283.39908 284.47299 285.49799 286.49530
 287.39230 288.19107 288.88885 289.77811
 366.78100 356.33867 345.77434 334.64401 323.05068 311.24835 299.12202 286.92869
 274.64436 262.54503 250.55770 239.86237 229.98804 221.09571 213.28138 206.28705
 200.12472 195.06639 191.65206 189.69773 188.73840 188.80607 189.64474 190.95641
 192.68507 194.78374 197.05041 199.41308 201.86175 204.34542 206.43709 208.28276
 209.91243 211.06110 211.29377 211.52544 211.46611 211.17478 210.81145 210.44512
 210.06579 209.77946 209.59113 209.45880 209.39047 209.72514 210.11481 210.50748
 211.30415 212.48582 213.73949 215.52616 217.45783 219.50450 221.60317 223.68984
 225.75351 227.84118 229.94185 232.05152 234.18419 236.35986 238.61953 240.99320
 243.61787 245.87254 247.87821 249.64688 251.06755 252.19422 253.01989 253.33956
 253.38022 253.15789 252.52156 251.47323 250.08290 248.24757 246.16024 243.99691
 241.79158 239.59925 237.42292 235.26559 233.12926 230.99993 229.02960 227.19027
 225.47694 223.95261 222.58628 221.36195 220.24762 219.21129 218.31896 217.46363
 216.70930 215.89297 214.99464 214.36231 213.81598 214.33821 215.58386 216.69142
 217.62709 218.91891 220.59560 221.78554 223.21721 225.51405 228.20430 230.25089
 231.32831 232.72636 234.99008 238.50888 242.54530 246.70471 250.85950 254.84537
 258.57401 262.07092 265.34622 268.37610 271.14478 273.60056 275.67328 277.31244
 278.54443 279.65814 280.92084 282.28720 283.49002 284.59100 285.68137 286.68637
 287.59027 288.39520 289.09839 289.99448
 366.78100 356.33967 345.77633 334.64700 323.05467 311.25333 299.12800 286.93567
 274.65233 262.55400 250.56767 239.87333 230.00000 221.10867 213.29534 206.30200
 200.14067 195.08334 191.67000 189.71667 188.75834 188.82700 189.66667 190.97934
 192.70900 194.80867 197.07634 199.44000 201.88967 204.37434 206.46700 208.31367
 209.94434 211.09400 211.32767 211.56034 211.50200 211.21167 210.84934 210.48401
 210.10567 209.82034 209.63301 209.50167 209.43434 209.77001 210.16067 210.55434
 211.35201 212.53467 213.78934 215.57701 217.50967 219.55734 221.65701 223.74467
 225.80934 227.89801 229.99967 232.11034 234.24401 236.42067 238.68134 241.05601
 243.68168 245.93734 247.94401 249.71368 251.13534 252.26301 253.08968 253.41034
 253.45201 253.23068 252.59534 251.54801 250.15868 248.32434 246.23801 244.07568
 241.87134 239.68001 237.50468 235.34834 233.21301 231.08468 229.11534 227.27701
 225.56468 224.04135 222.67601 221.45268 220.33935 219.30401 218.41268 217.55835
 216.80501 215.98968 215.09235 214.46101 213.91568 214.38768 215.52098 216.81979
 217.76338 219.03578 220.74435 221.91370 223.21516 225.45082 228.20778 230.04562
 231.12704 232.46548 234.75929 238.40773 242.49934 246.64601 250.78357 254.76468
 258.49225 261.99200 265.28159 268.34073 271.14447 273.65958 275.81003 277.53021
 278.86758 279.95932 281.03595 282.36060 283.55090 284.61996 285.62430 286.61124
 287.50873 288.30795 289.00616 289.89594
 366.78100 356.33925 345.77550 334.64574 323.05299 311.25124 299.12549 286.93273
 274.64898 262.55023 250.56348 239.86873 229.99497 221.10322 213.28947 206.29572
 200.13396 195.07621 191.66246 189.70871 188.74996 188.81820 189.65745 190.96970
 192.69895 194.79819 197.06544 199.42869 201.87794 204.36219 206.45443 208.30068
 209.93093 211.08018 211.31342 211.54567 211.48692 211.19617 210.83342 210.46766
 210.08891 209.80316 209.61541 209.48366 209.41590 209.75115 210.14140 210.53465
 211.33189 212.51414 213.76839 215.55564 217.48789 219.53513 221.63438 223.72163
 225.78588 227.87412 229.97537 232.08562 234.21887 236.39512 238.65536 241.02961
 243.65486 245.91011 247.91635 249.68560 251.10685 252.23410 253.06035 253.38059
 253.42184 253.20009 252.56434 251.51658 250.12683 248.29208 246.20533 244.04258
 241.83782 239.64607 237.47032 235.31357 233.17781 231.04906 229.07931 227.24056
 225.52781 224.00405 222.63830 221.41455 220.30080 219.26504 218.37329 217.51854
 216.76479 215.94904 215.05128 214.41953 213.87378 214.36009 215.51086 216.96103
 217.87830 219.18971 220.91734 222.10030 223.33846 225.45938 228.25436 229.85550
 230.98637 232.31015 234.63185 238.32594 242.43665 246.54678 250.66307 254.62727
 258.33936 261.83026 265.12579 268.20343 271.02289 273.53790 275.69769 277.48224
 278.94055 280.16400 281.27368 282.40173 283.57291 284.62628 285.59491 286.48557
 287.30133 288.07071 288.74680 289.60834
 366.78100 356.33804 345.77307 334.64211 323.04814 311.24518 299.11821 286.92425
 274.63928 262.53932 250.55135 239.85539 229.98043 221.08746 213.27250 206.27753
 200.11457 195.05560 191.64064 189.68567 188.72571 188.79275 189.63078 190.94182
 192.66985 194.76789 197.03392 199.39596 201.84399 204.32703 206.41806 208.26310
 209.89214 211.04017 211.27221 211.50324 211.44328 211.15131 210.78735 210.42038
 210.04042 209.75345 209.56449 209.43153 209.36256 209.69660 210.08563 210.47767
 211.27370 212.45474 213.70777 215.49381 217.42485 219.47088 221.56892 223.65495
 225.71799 227.80502 229.90506 232.01409 234.14613 236.32116 238.58020 240.95324
 243.57727 245.83131 247.83634 249.60438 251.02441 252.15045 252.97548 253.29452
 253.33455 253.11159 252.47463 251.42566 250.03470 248.19873 246.11077 243.94680
 241.74084 239.54787 237.37091 235.21295 233.07598 230.94602 228.97505 227.13509
 225.42112 223.89616 222.52919 221.30423 220.18926 219.15230 218.25934 217.40337
 216.64841 215.83144 214.93248 214.29951 213.75255 214.29066 215.56204 217.08861
 217.98692 219.29362 220.97359 222.17377 223.39221 225.44354 228.23137 229.75916
 230.84932 232.24429 234.63371 238.33694 242.44879 246.53333 250.60858 254.54747
 258.24472 261.72064 265.00491 268.08572 270.90771 273.40924 275.53867 277.31171
 278.80838 280.10840 281.29239 282.42133 283.57745 284.62262 285.58441 286.46146
 287.25992 287.97482 288.60535 289.41312
 366.78100 356.33727 345.77154 334.63982 323.04509 311.24136 299.11363 286.91890
 274.63318 262.53245 250.54372 239.84699 229.97126 221.07754 213.26181 206.26608
 200.10235 195.04262 191.62689 189.67117 188.71044 188.77671 189.61398 190.92425
 192.65153 194.74880 197.01407 199.37534 201.82261 204.30489 206.39516 208.23943
 209.86770 211.01497 211.24625 211.47652 211.41579 211.12306 210.75833 210.39061
 210.00988 209.72215 209.53242 209.39869 209.32897 209.66224 210.05051 210.44178
 211.23705 212.41732 213.66960 215.45487 217.38514 219.43041 221.52768 223.61296
 225.67523 227.76150 229.86077 231.96904 234.10032 236.27459 238.53286 240.90513
 243.52840 245.78168 247.78595 249.55322 250.97249 252.09776 252.92204 253.24031
 253.27958 253.05585 252.41812 251.36839 249.97667 248.13994 246.05121 243.88648
 241.67975 239.48603 237.30830 235.14957 233.01184 230.88111 228.90939 227.06866
 225.35393 223.82820 222.46047 221.23475 220.11902 219.08129 218.18756 217.33083
 216.57511 215.75738 214.85765 214.22392 213.67619 214.24706 215.59581 217.17894
 218.09215 219.35738 220.97334 222.14011 223.32698 225.37532 228.16756 229.65057
 230.71138 232.14459 234.60641 238.38112 242.51614 246.57664 250.61534 254.54225
 258.23541 261.70160 264.96780 268.03940 270.85611 273.34311 275.42911 277.17130
 278.67050 280.00635 281.23730 282.40176 283.56271 284.61176 285.57162 286.44858
 287.24551 287.96030 288.57779 289.37717
 366.78100 356.33762 345.77224 334.64086 323.04648 311.24310 299.11572 286.92133
 274.63595 262.53557 250.54719 239.85081 229.97543 221.08205 213.26667 206.27129
 200.10791 195.04853 191.63315 189.67777 188.71738 188.78400 189.62162 190.93224
 192.65986 194.75748 197.02310 199.38472 201.83234 204.31496 206.40558 208.25020
 209.87882 211.02643 211.25805 211.48867 211.42829 211.13591 210.77153 210.40415
 210.02377 209.73639 209.54701 209.41363 209.34425 209.67787 210.06648 210.45810
 211.25372 212.43434 213.68696 215.47258 217.40320 219.44882 221.54644 223.63206
 225.69468 227.78130 229.88091 231.98953 234.12115 236.29577 238.55439 240.92701
 243.55063 245.80425 247.80887 249.57649 250.99611 252.12173 252.94635 253.26496
 253.30458 253.08120 252.44382 251.39444 250.00306 248.16668 246.07830 243.91392
 241.70754 239.51416 237.33678 235.17840 233.04101 230.91063 228.93925 227.09887
 225.38449 223.85911 222.49173 221.26635 220.15097 219.11359 218.22021 217.36383
 216.60845 215.79106 214.89168 214.25830 213.71092 214.26277 215.56659 217.24362
 218.25262 219.48021 220.98354 222.08714 223.24429 225.29182 228.07938 229.51767
 230.56723 232.04144 234.58127 238.42656 242.58234 246.62682 250.63239 254.54948
 258.24283 261.70078 264.95065 268.00934 270.82211 273.30237 275.35516 277.07211
 278.57300 279.93271 281.19479 282.38000 283.54498 284.59235 285.55194 286.42810
 287.22336 287.93628 288.55310 289.35602
 366.78100 356.33862 345.77425 334.64387 323.05050 311.24812 299.12175 286.92837
 274.64399 262.54462 250.55724 239.86187 229.98749 221.09512 213.28074 206.28636
 200.12399 195.06561 191.65124 189.69686 188.73749 188.80511 189.64374 190.95536
 192.68398 194.78261 197.04923 199.41186 201.86048 204.34411 206.43573 208.28135
 209.91098 211.05960 211.29223 211.52385 211.46448 211.17310 210.80972 210.44335
 210.06397 209.77760 209.58922 209.45685 209.38847 209.72309 210.11272 210.50534
 211.30197 212.48359 213.73722 215.52384 217.45546 219.50209 221.60071 223.68734
 225.75096 227.83859 229.93921 232.04883 234.18146 236.35708 238.61671 240.99033
 243.61496 245.86958 247.87521 249.64383 251.06445 252.19108 253.01670 253.33633
 253.37695 253.15458 252.51820 251.46982 250.07945 248.24407 246.15670 243.99332
 241.78795 239.59557 237.41919 235.26182 233.12544 230.99607 229.02569 227.18632
 225.47294 223.94856 222.58219 221.35781 220.24344 219.20706 218.31469 217.45931
 216.70493 215.88856 214.99018 214.35781 213.81143 214.31418 215.50197 217.28508
 218.45549 219.65527 221.02206 222.04221 223.15987 225.19171 227.95813 229.34518
 230.39119 231.91849 234.54109 238.46187 242.63593 246.66077 250.63432 254.53979
 258.23117 261.68237 264.91806 267.96762 270.77615 273.25095 275.27924 276.98221
 278.48904 279.86777 281.15536 282.35086 283.51633 284.56488 285.52399 286.39923
 287.19550 287.90375 288.52469 289.32867
 366.78100 356.33976 345.77651 334.64727 323.05502 311.25378 299.12854 286.93629
 274.65305 262.55481 250.56856 239.87432 230.00107 221.10983 213.29659 206.30334
 200.14210 195.08486 191.67161 189.71837 188.76012 188.82888 189.66864 190.98139
 192.71115 194.81091 197.07866 199.44242 201.89217 204.37693 206.46969 208.31644
 209.94720 211.09696 211.33071 211.56347 211.50522 211.21498 210.85274 210.48749
 210.10925 209.82400 209.63676 209.50552 209.43827 209.77403 210.16479 210.55854
 211.35630 212.53905 213.79381 215.58157 217.51432 219.56208 221.66184 223.74959
 225.81435 227.90310 230.00486 232.11562 234.24937 236.42613 238.68689 241.06164
 243.68740 245.94315 247.94991 249.71967 251.14142 252.26918 253.09594 253.41669
 253.45845 253.23720 252.60196 251.55472 250.16547 248.33123 246.24498 244.08274
 241.87850 239.68725 237.51201 235.35577 233.22052 231.09228 229.12303 227.28479
 225.57255 224.04930 222.68406 221.46082 220.34757 219.31233 218.42108 217.56684
 216.81360 215.99835 215.10111 214.46987 213.92462 214.37337 215.43356 217.29619
 218.65929 219.84158 221.07552 222.01500 223.09590 225.09421 227.82825 229.17708
 230.23030 231.81233 234.51114 238.49944 242.69029 246.69043 250.63136 254.52213
 258.21094 261.65735 264.88062 267.91995 270.72415 273.19315 275.20630 276.90628
 278.41959 279.80963 281.11545 282.32080 283.48642 284.53436 285.49454 286.37054
 287.16409 287.87585 288.49582 289.30237
 366.78100 356.34059 345.77817 334.64976 323.05834 311.25793 299.13351 286.94210
 274.65968 262.56227 250.57686 239.88344 230.01103 221.12061 213.30820 206.31578
 200.15537 195.09895 191.68654 189.73413 188.77671 188.84630 189.68688 191.00047
 192.73105 194.83164 197.10022 199.46481 201.91539 204.40098 206.49457 208.34215
 209.97374 211.12432 211.35891 211.59249 211.53508 211.24566 210.88425 210.51984
 210.14242 209.85801 209.67159 209.54118 209.47476 209.81135 210.20293 210.59752
 211.39611 212.57969 213.83528 215.62386 217.55745 219.60603 221.70662 223.79520
 225.86079 227.95038 230.05296 232.16455 234.29913 236.47672 238.73830 241.11389
 243.74047 245.99706 248.00465 249.77523 251.19782 252.32640 253.15399 253.47557
 253.51816 253.29774 252.66333 251.61691 250.22850 248.39509 246.30967 244.14826
 241.94484 239.75443 237.58001 235.42460 233.29018 231.16277 229.19436 227.35694
 225.64553 224.12311 222.75870 221.53628 220.42387 219.38945 218.49904 217.64563
 216.89321 216.07880 215.18238 214.55197 214.00755 214.41714 215.38486 217.29210
 218.84169 220.01761 221.13382 221.98843 223.02342 224.99536 227.70384 229.02519
 230.09203 231.73074 234.49812 238.54063 242.74025 246.72487 250.63138 254.50449
 258.18976 261.63037 264.84137 267.86899 270.66553 273.12503 275.12802 276.83026
 278.35031 279.74976 281.07001 282.28989 283.45703 284.50702 285.46689 286.34518
 287.14014 287.85339 288.47845 289.28229
 366.78100 356.34130 345.77960 334.65190 323.06120 311.26150 299.13780 286.94710
 274.66541 262.56871 250.58401 239.89131 230.01961 221.12991 213.31821 206.32651
 200.16681 195.11111 191.69941 189.74771 188.79101 188.86131 189.70262 191.01692
 192.74822 194.84952 197.11882 199.48412 201.93542 204.42172 206.51602 208.36432
 209.99662 211.14792 211.38322 211.61752 211.56083 211.27213 210.91143 210.54773
 210.17103 209.88733 209.70163 209.57193 209.50623 209.84353 210.23583 210.63113
 211.43043 212.61473 213.87104 215.66034 217.59464 219.64394 221.74524 223.83454
 225.90084 227.99114 230.09444 232.20674 234.34204 236.52034 238.78264 241.15894
 243.78625 246.04355 248.05185 249.82315 251.24645 252.37575 253.20405 253.52635
 253.56965 253.34995 252.71625 251.67055 250.28285 248.45015 246.36546 244.20476
 242.00206 239.81236 237.63866 235.48396 233.35026 231.22356 229.25586 227.41916
 225.70846 224.18676 222.82306 221.60136 220.48967 219.45597 218.56627 217.71357
 216.96187 216.14817 215.25247 214.62277 214.07907 214.45389 215.33945 217.28726
 219.00639 220.18712 221.19846 221.97168 222.95729 224.88008 227.55853 228.87151
 229.96938 231.67104 234.50397 238.59082 242.79637 246.76289 250.63550 254.48875
 258.16809 261.60187 264.80060 267.81448 270.60205 273.05167 275.04892 276.75757
 278.28455 279.68900 281.02148 282.25290 283.42426 284.47360 285.43637 286.31583
 287.11139 287.82574 288.45428 289.25632
 366.78100 356.34217 345.78134 334.65452 323.06469 311.26586 299.14303 286.95320
 274.67237 262.57655 250.59272 239.90089 230.03006 221.14123 213.33041 206.33958
 200.18075 195.12592 191.71509 189.76426 188.80844 188.87961 189.72178 191.03695
 192.76912 194.87130 197.14147 199.50764 201.95981 204.44698 206.54216 208.39133
 210.02450 211.17667 211.41284 211.64801 211.59219 211.30436 210.94453 210.58170
 210.20587 209.92305 209.73822 209.60939 209.54456 209.88273 210.27590 210.67208
 211.47225 212.65742 213.91459 215.70476 217.63994 219.69011 221.79228 223.88245
 225.94962 228.04079 230.14497 232.25814 234.39431 236.57348 238.83665 241.21383
 243.84200 246.10017 248.10934 249.88151 251.30568 252.43586 253.26503 253.58820
 253.63237 253.41354 252.78072 251.73589 250.34906 248.51723 246.43340 244.27357
 242.07175 239.88292 237.71009 235.55626 233.42343 231.29761 229.33078 227.49495
 225.78512 224.26429 222.90147 221.68064 220.56981 219.53698 218.64815 217.79632
 217.04550 216.23267 215.33784 214.70901 214.16618 214.49789 215.28160 217.28229
 219.16600 220.35980 221.26961 221.93948 222.86034 224.76060 227.42268 228.72943
 229.85919 231.62421 234.51718 238.64554 242.85434 246.80072 250.64331 254.47688
 258.14786 261.57370 264.75949 267.75830 270.53345 272.96924 274.96487 276.68307
 278.21552 279.62756 280.97235 282.21509 283.38919 284.44263 285.40897 286.29123
 287.09195 287.81107 288.44366 289.25754
 366.78100 356.34311 345.78321 334.65732 323.06843 311.27053 299.14864 286.95975
 274.67985 262.58496 250.60206 239.91117 230.04128 221.15338 213.34349 206.35360
 200.19570 195.14181 191.73192 189.78202 188.82713 188.89924 189.74234 191.05845
 192.79155 194.89466 197.16577 199.53287 201.98598 204.47409 206.57019 208.42030
 210.05441 211.20751 211.44462 211.68073 211.62583 211.33894 210.98004 210.61815
 210.24326 209.96136 209.77747 209.64958 209.58568 209.92479 210.31890 210.71600
 211.51711 212.70322 213.96132 215.75243 217.68853 219.73964 221.84275 223.93385
 226.00196 228.09407 230.19917 232.31328 234.45039 236.63049 238.89460 241.27271
 243.90181 246.16092 248.17102 249.94413 251.36924 252.50034 253.33045 253.65456
 253.69966 253.48177 252.84988 251.80598 250.42009 248.58920 246.50630 244.34741
 242.14651 239.95862 237.78673 235.63383 233.50194 231.37705 229.41115 227.57626
 225.86737 224.34747 222.98558 221.76569 220.65579 219.62390 218.73600 217.88511
 217.13522 216.32332 215.42943 214.80154 214.25964 214.54568 215.22148 217.26752
 219.31905 220.53600 221.35689 221.92097 222.75969 224.60881 227.27278 228.59189
 229.75787 231.58806 234.54112 238.70770 242.91748 246.84467 250.65471 254.46516
 258.12491 261.54172 264.71533 267.69806 270.46011 272.88199 274.88013 276.60944
 278.14557 279.56601 280.87119 282.19803 283.37698 284.42554 285.38846 286.27039
 287.07294 287.79166 288.42639 289.24161
 366.78100 356.34398 345.78495 334.65993 323.07190 311.27488 299.15385 286.96583
 274.68680 262.59278 250.61075 239.92073 230.05170 221.16468 213.35565 206.36663
 200.20960 195.15658 191.74755 189.79853 188.84451 188.91748 189.76146 191.07843
 192.81241 194.91638 197.18836 199.55633 202.01031 204.49928 206.59626 208.44723
 210.08221 211.23618 211.47416 211.71113 211.65711 211.37109 211.01306 210.65204
 210.27801 209.99699 209.81396 209.68694 209.62391 209.96389 210.35886 210.75684
 211.55881 212.74579 214.00476 215.79674 217.73371 219.78569 221.88966 223.98164
 226.05062 228.14359 230.24957 232.36454 234.50252 236.68349 238.94847 241.32744
 243.95742 246.21739 248.22837 250.00234 251.42832 252.56029 253.39127 253.71624
 253.76222 253.54519 252.91417 251.87115 250.48612 248.65610 246.57407 244.41605
 242.21602 240.02900 237.85797 235.70595 233.57492 231.45090 229.48587 227.65185
 225.94382 224.42480 223.06377 221.84475 220.73572 219.70470 218.81768 217.96765
 217.21863 216.40760 215.51458 214.88755 214.34653 214.59120 215.16928 217.24352
 219.45863 220.70178 221.44336 221.91704 222.67528 224.45622 227.10898 228.44954
 229.66531 231.56567 234.57503 238.77550 242.98085 246.88857 250.66830 254.45265
 258.10062 261.50699 264.66898 267.63644 270.38257 272.79437 274.79919 276.54083
 278.08069 279.50378 280.81049 282.15411 283.34109 284.39554 285.36264 286.24612
 287.04861 287.77032 288.40097 289.22186
 366.78100 356.34474 345.78648 334.66223 323.07497 311.27871 299.15845 286.97120
 274.69294 262.59968 250.61842 239.92917 230.06091 221.17465 213.36639 206.37813
 200.22188 195.16962 191.76136 189.81310 188.85985 188.93359 189.77833 191.09607
 192.83082 194.93556 197.20830 199.57704 202.03179 204.52153 206.61927 208.47101
 210.10675 211.26150 211.50024 211.73798 211.68472 211.39947 211.04221 210.68195
 210.30869 210.02844 209.84618 209.71992 209.65766 209.99840 210.39415 210.79289
 211.59563 212.78337 214.04312 215.83586 217.77360 219.82634 221.93109 224.02383
 226.09357 228.18731 230.29406 232.40980 234.54854 236.73028 238.99602 241.37577
 244.00651 246.26725 248.27899 250.05374 251.48048 252.61322 253.44496 253.77071
 253.81745 253.60119 252.97093 251.92867 250.54442 248.71516 246.63390 244.47664
 242.27739 240.09113 237.92087 235.76961 233.63936 231.51610 229.55184 227.71858
 226.01133 224.49307 223.13281 221.91455 220.80629 219.77604 218.88978 218.04052
 217.29226 216.48201 215.58975 214.96349 214.42323 214.63268 215.12755 217.21185
 219.58614 220.86046 221.53203 221.92433 222.60701 224.31093 226.93979 228.30409
 229.57646 231.54778 234.61078 238.84401 243.04384 246.93246 250.68079 254.43851
 258.07568 261.47086 264.62259 267.57385 270.30484 272.70956 274.72519 276.47919
 278.02158 279.44250 280.76120 282.11032 283.30087 284.36020 285.33026 286.21613
 287.01788 287.74011 288.37515 289.19211
 366.78100 356.34535 345.78771 334.66406 323.07742 311.28177 299.16213 286.97548
 274.69784 262.60519 250.62455 239.93590 230.06826 221.18261 213.37497 206.38732
 200.23167 195.18003 191.77238 189.82474 188.87209 188.94645 189.79180 191.11016
 192.84551 194.95087 197.22422 199.59358 202.04893 204.53929 206.63764 208.48999
 210.12635 211.28170 211.52106 211.75941 211.70677 211.42212 211.06548 210.70583
 210.33319 210.05354 209.87190 209.74625 209.68461 210.02596 210.42231 210.82167
 211.62502 212.81338 214.07373 215.86709 217.80544 219.85880 221.96415 224.05751
 226.12786 228.22222 230.32957 232.44593 234.58528 236.76763 239.03399 241.41434
 244.04570 246.30705 248.31941 250.09476 251.52212 252.65547 253.48783 253.81418
 253.86154 253.64589 253.01625 251.97460 250.59095 248.76231 246.68166 244.52502
 242.32637 240.14073 237.97108 235.82044 233.69079 231.56815 229.60450 227.77186
 226.06521 224.54757 223.18792 221.97027 220.86263 219.83298 218.94734 218.09869
 217.35105 216.54140 215.64976 215.02411 214.48447 214.66730 215.09927 217.17120
 219.69638 221.01219 221.62859 221.93523 222.54414 224.17873 226.76917 228.15321
 229.48608 231.53009 234.64728 238.91342 243.10936 246.97874 250.69727 254.42885
 258.05368 261.43747 264.57803 267.51254 270.22900 272.62778 274.65414 276.41913
 277.96317 279.37732 280.71732 282.06937 283.26205 284.32117 285.29239 286.17816
 286.98199 287.70551 288.33771 289.15842
 366.78100 356.34578 345.78856 334.66534 323.07912 311.28390 299.16468 286.97846
 274.70123 262.60901 250.62879 239.94057 230.07335 221.18813 213.38091 206.39369
 200.23847 195.18725 191.78003 189.83281 188.88059 188.95537 189.80114 191.11992
 192.85570 194.96148 197.23526 199.60504 202.06082 204.55160 206.65038 208.50316
 210.13994 211.29572 211.53550 211.77428 211.72206 211.43783 211.08161 210.72239
 210.35017 210.07095 209.88973 209.76451 209.70329 210.04507 210.44185 210.84163
 211.64541 212.83419 214.09497 215.88875 217.82752 219.88130 221.98708 224.08086
 226.15164 228.24642 230.35420 232.47098 234.61076 236.79354 239.06032 241.44110
 244.07288 246.33466 248.34743 250.12321 251.55099 252.68477 253.51755 253.84433
 253.89211 253.67689 253.04767 252.00645 250.62323 248.79501 246.71479 244.55857
 242.36035 240.17512 238.00590 235.85568 233.72646 231.60424 229.64102 227.80880
 226.10258 224.58536 223.22614 222.00892 220.90170 219.87248 218.98726 218.13904
 217.39181 216.58259 215.69137 215.06615 214.52693 214.69293 215.08510 217.12595
 219.78610 221.15048 221.72681 221.94371 222.47679 224.05414 226.59813 228.00111
 229.40021 231.51768 234.68881 238.98640 243.18030 247.03189 250.72276 254.42628
 258.03510 261.40594 264.53381 267.44971 270.14938 272.54361 274.58014 276.35474
 277.89886 279.30841 280.67609 282.03091 283.22385 284.28439 285.25519 286.14014
 286.94485 287.66632 288.29840 289.11920
 366.78100 356.34608 345.78916 334.66624 323.08031 311.28539 299.16647 286.98055
 274.70363 262.61171 250.63179 239.94386 230.07694 221.19202 213.38510 206.39818
 200.24326 195.19234 191.78541 189.83849 188.88657 188.96165 189.80773 191.12681
 192.86289 194.96896 197.24304 199.61312 202.06920 204.56028 206.65936 208.51243
 210.14951 211.30559 211.54567 211.78475 211.73283 211.44891 211.09298 210.73406
 210.36214 210.08322 209.90230 209.77738 209.71646 210.05853 210.45561 210.85569
 211.65977 212.84885 214.10993 215.90401 217.84308 219.89716 222.00324 224.09732
 226.16840 228.26348 230.37156 232.48863 234.62871 236.81179 239.07887 241.45995
 244.09203 246.35411 248.36718 250.14326 251.57134 252.70542 253.53850 253.86558
 253.91366 253.69873 253.06981 252.02889 250.64597 248.81805 246.73813 244.58220
 242.38428 240.19936 238.03044 235.88052 233.75160 231.62968 229.66675 227.83483
 226.12891 224.61199 223.25307 222.03615 220.92923 219.90030 219.01538 218.16746
 217.42054 216.61162 215.72070 215.09578 214.55685 214.71185 215.07805 217.08604
 219.85449 221.26991 221.81793 221.94804 222.40378 223.93370 226.43028 227.85713
 229.32599 231.51411 234.73645 239.06335 243.25665 247.09227 250.75621 254.42950
 258.01767 261.37170 264.48654 267.38354 270.06708 272.45691 274.50342 276.28546
 277.83063 279.23874 280.63776 281.99557 283.18762 284.24707 285.21732 286.10129
 286.90485 287.62567 288.25836 289.07532
 366.78100 356.34635 345.78970 334.66706 323.08141 311.28676 299.16811 286.98247
 274.70582 262.61417 250.63452 239.94688 230.08023 221.19558 213.38893 206.40228
 200.24764 195.19699 191.79034 189.84369 188.89205 188.96740 189.81375 191.13310
 192.86945 194.97581 197.25016 199.62051 202.07686 204.56822 206.66757 208.52092
 210.15827 211.31463 211.55498 211.79433 211.74268 211.45903 211.10339 210.74474
 210.37309 210.09444 209.91380 209.78915 209.72850 210.07085 210.46821 210.86856
 211.67291 212.86226 214.12361 215.91797 217.85732 219.91167 222.01802 224.11238
 226.18373 228.27908 230.38743 232.50478 234.64514 236.82849 239.09584 241.47719
 244.10955 246.37190 248.38525 250.16160 251.58996 252.72431 253.55766 253.88501
 253.93336 253.71872 253.09007 252.04942 250.66677 248.83913 246.75948 244.60383
 242.40618 240.22154 238.05289 235.90324 233.77459 231.65294 229.69030 227.85865
 226.15300 224.63635 223.27771 222.06106 220.95441 219.92576 219.04111 218.19347
 217.44682 216.63817 215.74752 215.12288 214.58423 214.72972 215.07346 217.06047
 219.89673 221.36690 221.90236 221.95755 222.33356 223.82050 226.27011 227.72417
 229.26183 231.51541 234.78726 239.14282 243.33601 247.15671 250.79277 254.43402
 257.99759 261.33475 264.43481 267.31479 269.98581 272.37405 274.42911 276.21802
 277.76312 279.16583 280.60327 281.96310 283.15268 284.20859 285.17706 286.06140
 286.86197 287.58078 288.20917 289.02771
 366.78100 356.34666 345.79033 334.66799 323.08266 311.28832 299.16998 286.98465
 274.70831 262.61697 250.63764 239.95030 230.08397 221.19963 213.39329 206.40696
 200.25262 195.20229 191.79595 189.84961 188.89828 188.97394 189.82061 191.14027
 192.87693 194.98360 197.25826 199.62892 202.08559 204.57725 206.67692 208.53058
 210.16824 211.32491 211.56557 211.80524 211.75390 211.47056 211.11523 210.75689
 210.38555 210.10722 209.92688 209.80255 209.74221 210.08487 210.48254 210.88320
 211.68787 212.87753 214.13919 215.93386 217.87352 219.92819 222.03485 224.12951
 226.20118 228.29684 230.40550 232.52317 234.66383 236.84750 239.11516 241.49682
 244.12949 246.39215 248.40582 250.18248 251.61114 252.74581 253.57947 253.90713
 253.95580 253.74146 253.11313 252.07279 250.69045 248.86312 246.78378 244.62845
 242.43111 240.24677 238.07844 235.92910 233.80077 231.67943 229.71709 227.88576
 226.18042 224.66408 223.30575 222.08941 220.98308 219.95474 219.07040 218.22307
 217.47673 216.66840 215.77806 215.15372 214.61539 214.75188 215.07434 217.05101
 219.90417 221.44019 221.98695 221.98170 222.27512 223.71805 226.11723 227.59946
 229.20204 231.51476 234.83914 239.22163 243.41418 247.22105 250.82916 254.43810
 257.97513 261.29321 264.38007 267.24551 269.90695 272.29581 274.35947 276.15543
 277.70340 279.09583 280.57550 281.93396 283.12125 284.17523 285.14209 286.02292
 286.82541 287.54373 288.17249 288.99011
 366.78100 356.34693 345.79087 334.66880 323.08373 311.28966 299.17160 286.98653
 274.71046 262.61939 250.64033 239.95326 230.08719 221.20313 213.39706 206.41099
 200.25692 195.20686 191.80079 189.85472 188.90365 188.97959 189.82652 191.14645
 192.88339 194.99032 197.26525 199.63618 202.09312 204.58505 206.68498 208.53891
 210.17685 211.33378 211.57471 211.81465 211.76358 211.48051 211.12544 210.76738
 210.39631 210.11824 209.93817 209.81411 209.75404 210.09697 210.49491 210.89584
 211.70077 212.89070 214.15264 215.94757 217.88750 219.94243 222.04937 224.14430
 226.21623 228.31217 230.42110 232.53903 234.67996 236.86390 239.13183 241.51376
 244.14669 246.40963 248.42356 250.20049 251.62943 252.76436 253.59829 253.92622
 253.97516 253.76109 253.13302 252.09295 250.71089 248.88382 246.80475 244.64969
 242.45262 240.26855 238.10048 235.95142 233.82335 231.70228 229.74021 227.90915
 226.20408 224.68801 223.32995 222.11388 221.00781 219.97974 219.09568 218.24861
 217.50254 216.69447 215.80441 215.18034 214.64227 214.77454 215.08705 217.05508
 219.87654 221.48752 222.07329 222.02112 222.22853 223.62529 225.97160 227.47870
 229.14061 231.51015 234.89262 239.30093 243.49219 247.28571 250.86662 254.44177
 257.94971 261.24789 264.32181 267.17581 269.83023 272.21973 274.29059 276.09189
 277.64597 279.04391 280.54614 281.90967 283.09613 284.14957 285.11612 285.99783
 286.79926 287.51880 288.15186 288.97058
 366.78100 356.34696 345.79091 334.66887 323.08382 311.28978 299.17173 286.98669
 274.71064 262.61960 250.64055 239.95351 230.08746 221.20342 213.39737 206.41133
 200.25728 195.20724 191.80119 189.85515 188.90410 188.98006 189.82701 191.14697
 192.88392 194.99088 197.26583 199.63679 202.09374 204.58570 206.68565 208.53961
 210.17757 211.33452 211.57548 211.81543 211.76439 211.48134 211.12630 210.76825
 210.39721 210.11916 209.93912 209.81507 209.75503 210.09798 210.49594 210.89689
 211.70185 212.89180 214.15376 215.94871 217.88867 219.94362 222.05058 224.14553
 226.21749 228.31344 230.42240 232.54035 234.68131 236.86526 239.13322 241.51518
 244.14813 246.41109 248.42504 250.20200 251.63095 252.76591 253.59986 253.92782
 253.97677 253.76273 253.13468 252.09464 250.71259 248.88555 246.80650 244.65146
 242.45441 240.27037 238.10232 235.95328 233.82523 231.70419 229.74214 227.91110
 226.20605 224.69001 223.33196 222.11592 221.00987 219.98183 219.09779 218.25074
 217.50470 216.69665 215.80661 215.18256 214.64452 214.78578 215.11952 217.06308
 219.83052 221.51114 222.15144 222.06125 222.18544 223.53911 225.82910 227.36360
 229.08287 231.50925 234.95323 239.38387 243.57378 247.35501 250.90948 254.44888
 257.92529 261.20215 264.26312 267.10742 269.75504 272.14395 274.21765 276.02426
 277.58810 279.00931 280.52188 281.89005 283.07706 284.13190 285.09799 285.98065
 286.78461 287.50830 288.14163 288.96027
 366.78100 356.34666 345.79031 334.66797 323.08263 311.28828 299.16994 286.98459
 274.70825 262.61691 250.63756 239.95022 230.08388 221.19953 213.39319 206.40685
 200.25250 195.20216 191.79582 189.84947 188.89813 188.97378 189.82044 191.14010
 192.87675 194.98341 197.25807 199.62872 202.08538 204.57704 206.67669 208.53035
 210.16800 211.32466 211.56532 211.80497 211.75363 211.47029 211.11494 210.75660
 210.38526 210.10691 209.92657 209.80222 209.74188 210.08454 210.48219 210.88285
 211.68751 212.87716 214.13882 215.93348 217.87313 219.92779 222.03445 224.12910
 226.20076 228.29641 230.40507 232.52273 234.66338 236.84704 239.11470 241.49635
 244.12901 246.39167 248.40532 250.18198 251.61063 252.74529 253.57895 253.90660
 253.95526 253.74092 253.11257 252.07223 250.68989 248.86254 246.78320 244.62786
 242.43051 240.24617 238.07782 235.92848 233.80014 231.67879 229.71645 227.88511
 226.17976 224.66342 223.30508 222.08873 220.98239 219.95404 219.06970 218.22236
 217.47601 216.66767 215.77733 215.15298 214.61464 214.78032 215.17175 217.06819
 219.77783 221.51108 222.21353 222.09558 222.13924 223.45387 225.69545 227.25822
 229.02890 231.51509 235.02460 239.47278 243.66107 247.43187 250.96028 254.46107
 257.90335 261.15698 264.20468 267.04095 269.68216 272.06906 274.14291 275.95139
 277.52701 278.97971 280.49979 281.86743 283.05591 284.10995 285.07382 285.95575
 286.75946 287.48431 288.11395 288.91489
 366.78100 356.34611 345.78922 334.66633 323.08044 311.28555 299.16666 286.98078
 274.70389 262.61200 250.63211 239.94422 230.07733 221.19244 213.38555 206.39866
 200.24377 195.19288 191.78599 189.83910 188.88721 188.96233 189.80844 191.12755
 192.86366 194.96977 197.24388 199.61399 202.07010 204.56121 206.66032 208.51343
 210.15054 211.30665 211.54677 211.78588 211.73399 211.45010 211.09421 210.73532
 210.36343 210.08454 209.90365 209.77876 209.71787 210.05998 210.45709 210.85720
 211.66132 212.85043 214.11154 215.90565 217.84476 219.89887 222.00498 224.09909
 226.17020 228.26531 230.37342 232.49053 234.63064 236.81376 239.08087 241.46198
 244.09409 246.35620 248.36931 250.14542 251.57353 252.70764 253.54075 253.86786
 253.91597 253.70108 253.07219 252.03131 250.64842 248.82053 246.74064 244.58475
 242.38686 240.20197 238.03308 235.88319 233.75430 231.63241 229.66952 227.83763
 226.13174 224.61486 223.25597 222.03908 220.93219 219.90330 219.01841 218.17052
 217.42363 216.61474 215.72385 215.09896 214.56007 214.76129 215.23671 217.07195
 219.71942 221.49042 222.25674 222.11913 222.09419 223.38120 225.56377 227.15721
 228.98337 231.53488 235.10904 239.56741 243.75330 247.51561 251.01898 254.47990
 257.88556 261.11429 264.14706 266.97513 269.61002 271.99197 274.06427 275.87784
 277.47324 278.95578 280.47849 281.84644 283.03262 284.08459 285.04755 285.92838
 286.73282 287.45734 288.08905 288.87860
 366.78100 356.34556 345.78813 334.66469 323.07825 311.28281 299.16338 286.97694
 274.69950 262.60706 250.62663 239.93819 230.07075 221.18531 213.37788 206.39044
 200.23500 195.18356 191.77613 189.82869 188.87625 188.95082 189.79638 191.11494
 192.85050 194.95607 197.22963 199.59919 202.05475 204.54532 206.64388 208.49644
 210.13300 211.28857 211.52813 211.76669 211.71426 211.42982 211.07338 210.71394
 210.34151 210.06207 209.88063 209.75519 209.69376 210.03532 210.43188 210.83144
 211.63501 212.82357 214.08413 215.87769 217.81626 219.86982 221.97538 224.06895
 226.13951 228.23407 230.34163 232.45820 234.59776 236.78032 239.04688 241.42745
 244.05901 246.32057 248.33313 250.10870 251.53626 252.66982 253.50238 253.82895
 253.87651 253.66107 253.03164 251.99020 250.60676 248.77832 246.69789 244.54145
 242.34301 240.15757 237.98814 235.83770 233.70826 231.58582 229.62239 227.78995
 226.08351 224.56608 223.20664 221.98920 220.88176 219.85233 218.96689 218.11845
 217.37101 216.56158 215.67014 215.04470 214.50526 214.74303 215.30476 217.07312
 219.65512 221.46188 222.29083 222.13515 222.03729 223.29051 225.43817 227.07019
 228.94196 231.56290 235.20294 239.66455 243.84612 247.60059 251.08014 254.50053
 257.86813 261.07123 264.08969 266.91119 269.53934 271.91379 273.97977 275.79285
 277.40607 278.92825 280.45499 281.82190 283.00592 284.05859 285.01791 285.89755
 286.70355 287.43021 288.05142 288.84772
 366.78100 356.34486 345.78671 334.66257 323.07542 311.27928 299.15913 286.97199
 274.69384 262.60070 250.61955 239.93041 230.06226 221.17612 213.36797 206.37983
 200.22368 195.17154 191.76339 189.81525 188.86210 188.93596 189.78081 191.09867
 192.83352 194.93838 197.21123 199.58009 202.03494 204.52480 206.62265 208.47451
 210.11036 211.26522 211.50407 211.74193 211.68878 211.40364 211.04649 210.68635
 210.31320 210.03306 209.85091 209.72477 209.66262 210.00348 210.39933 210.79819
 211.60104 212.78890 214.04875 215.84161 217.77946 219.83232 221.93718 224.03003
 226.09989 228.19374 230.30060 232.41645 234.55531 236.73716 239.00302 241.38287
 244.01373 246.27458 248.28644 250.06129 251.48815 252.62100 253.45286 253.77871
 253.82557 253.60942 252.97928 251.93713 250.55299 248.72384 246.64270 244.48555
 242.28641 240.10026 237.93012 235.77897 233.64883 231.52568 229.56154 227.72839
 226.02125 224.50310 223.14296 221.92481 220.81667 219.78652 218.90038 218.05123
 217.30309 216.49294 215.60080 214.97465 214.43451 214.71504 215.37782 217.09280
 219.58420 221.44218 222.31845 222.13339 221.97318 223.21689 225.29094 226.94466
 228.87912 231.59166 235.30089 239.76299 243.93950 247.68880 251.14737 254.52769
 257.85623 261.03091 264.03101 266.84592 269.46707 271.83395 273.90009 275.72391
 277.36362 278.90002 280.42395 281.78906 282.97162 284.01874 284.97522 285.85233
 286.66205 287.39362 288.00830 288.79828
 366.78100 356.34374 345.78448 334.65923 323.07097 311.27371 299.15245 286.96419
 274.68494 262.59068 250.60842 239.91816 230.04890 221.16165 213.35239 206.36313
 200.20587 195.15261 191.74336 189.79410 188.83984 188.91258 189.75632 191.07307
 192.80681 194.91055 197.18229 199.55003 202.00377 204.49252 206.58926 208.44000
 210.07474 211.22848 211.46623 211.70297 211.64871 211.36245 211.00419 210.64294
 210.26868 209.98742 209.80416 209.67690 209.61365 209.95339 210.34813 210.74587
 211.54761 212.73436 213.99310 215.78484 217.72158 219.77332 221.87707 223.96881
 226.03755 228.13029 230.23603 232.35078 234.48852 236.66926 238.93400 241.31274
 243.94249 246.20223 248.21297 249.98671 251.41245 252.54420 253.37494 253.69968
 253.74542 253.52816 252.89691 251.85365 250.46839 248.63813 246.55587 244.39762
 242.19736 240.01010 237.83884 235.68658 233.55532 231.43107 229.46581 227.63155
 225.92329 224.40403 223.04278 221.82352 220.71426 219.68300 218.79574 217.94549
 217.19623 216.38497 215.49171 214.86445 214.32320 214.66335 215.46698 217.14854
 219.46785 221.39694 222.36282 222.16666 221.92575 223.07491 225.13313 226.85345
 228.83041 231.62677 235.40175 239.85428 244.02287 247.77060 251.21390 254.55705
 257.84814 260.99658 263.98080 266.79080 269.40353 271.75824 273.81342 275.63593
 277.29489 278.85962 280.38577 281.74759 282.92892 283.97409 284.92825 285.80612
 286.61710 287.35342 287.96414 288.75275
 366.78100 356.34322 345.78345 334.65767 323.06889 311.27112 299.14934 286.96056
 274.68079 262.58601 250.60323 239.91246 230.04268 221.15491 213.34513 206.35535
 200.19758 195.14380 191.73402 189.78425 188.82947 188.90169 189.74492 191.06114
 192.79436 194.89759 197.16881 199.53603 201.98926 204.47748 206.57370 208.42393
 210.05815 211.21137 211.44860 211.68482 211.63004 211.34327 210.98449 210.62272
 210.24794 209.96616 209.78239 209.65461 209.59083 209.93006 210.32428 210.72150
 211.52273 212.70895 213.96717 215.75840 217.69462 219.74584 221.84907 223.94029
 226.00851 228.10074 230.20596 232.32018 234.45741 236.63763 238.90186 241.28008
 243.90930 246.16853 248.17875 249.95197 251.37720 252.50842 253.33864 253.66287
 253.70809 253.49031 252.85854 251.81476 250.42898 248.59821 246.51543 244.35665
 242.15588 239.96810 237.79632 235.64355 233.51177 231.38699 229.42122 227.58644
 225.87767 224.35789 222.99611 221.77634 220.66656 219.63478 218.74701 217.89623
 217.14645 216.33468 215.44090 214.81312 214.27135 214.65302 215.55472 217.19716
 219.33578 221.31093 222.37050 222.18062 221.87788 222.92632 224.98497 226.79213
 228.81825 231.69836 235.52678 239.96802 244.13058 247.87396 251.29573 254.59573
 257.84534 260.95981 263.92310 266.72556 269.33081 271.67599 273.72977 275.56567
 277.25421 278.83606 280.33127 281.67807 282.84875 283.88882 284.83786 285.71368
 286.52811 287.25797 287.86517 288.66132
 366.78100 356.34454 345.78609 334.66163 323.07418 311.27772 299.15726 286.96981
 274.69135 262.59790 250.61644 239.92698 230.05853 221.17207 213.36362 206.37516
 200.21870 195.16625 191.75779 189.80934 188.85588 188.92942 189.77397 191.09151
 192.82606 194.93060 197.20314 199.57169 202.02623 204.51578 206.61332 208.46486
 210.10041 211.25495 211.49349 211.73104 211.67758 211.39213 211.03467 210.67421
 210.30076 210.02030 209.83785 209.71139 209.64893 209.98948 210.38502 210.78357
 211.58611 212.77365 214.03320 215.82574 217.76329 219.81583 221.92037 224.01292
 226.08246 228.17601 230.28255 232.39809 234.53664 236.71818 238.98373 241.36327
 243.99381 246.25436 248.26590 250.04045 251.46699 252.59953 253.43108 253.75662
 253.80317 253.58671 252.95625 251.91380 250.52934 248.69989 246.61843 244.46097
 242.26152 240.07506 237.90461 235.75315 233.62269 231.49924 229.53478 227.70133
 225.99387 224.47541 223.11496 221.89650 220.78804 219.75759 218.87113 218.02168
 217.27322 216.46276 215.57031 214.94385 214.40340 214.74333 215.54643 217.21071
 219.34225 221.27299 222.33115 222.10934 221.74733 222.70583 224.76562 226.67250
 228.79059 231.79022 235.68791 240.11827 244.29697 248.06230 251.47874 254.72638
 257.91223 260.97354 263.88986 266.66110 269.23273 271.53909 273.57697 275.43756
 277.18231 278.80759 280.28235 281.59631 282.73752 283.76505 284.70599 285.58105
 286.39682 287.12442 287.73709 288.52884
 366.78100 356.34648 345.78996 334.66744 323.08192 311.28740 299.16888 286.98336
 274.70684 262.61532 250.63580 239.94829 230.08177 221.19725 213.39073 206.40421
 200.24969 195.19917 191.79265 189.84613 188.89461 188.97009 189.81657 191.13605
 192.87253 194.97901 197.25349 199.62397 202.08045 204.57193 206.67141 208.52489
 210.16237 211.31886 211.55934 211.79882 211.74730 211.46378 211.10826 210.74974
 210.37822 210.09970 209.91918 209.79466 209.73414 210.07662 210.47410 210.87458
 211.67906 212.86854 214.13002 215.92450 217.86398 219.91846 222.02494 224.11943
 226.19091 228.28639 230.39487 232.51235 234.65283 236.83631 239.10379 241.48527
 244.11775 246.38023 248.39371 250.17019 251.59867 252.73315 253.56663 253.89411
 253.94259 253.72807 253.09955 252.05903 250.67651 248.84900 246.76948 244.61396
 242.41644 240.23192 238.06340 235.91388 233.78536 231.66384 229.70132 227.86980
 226.16428 224.64776 223.28924 222.07272 220.96620 219.93768 219.05316 218.20564
 217.45912 216.65060 215.76008 215.13557 214.59705 214.86740 215.50613 217.15701
 219.41043 221.33521 222.35759 222.06232 221.60524 222.44547 224.45174 226.42249
 228.65678 231.79810 235.80399 240.25485 244.44539 248.24490 251.67204 254.88956
 258.03223 261.05374 263.92850 266.66718 269.20352 271.46246 273.44421 275.27811
 277.02530 278.62808 280.10349 281.43195 282.60284 283.65155 284.61938 285.50168
 286.29269 286.99200 287.61539 288.41592
 366.78100 356.34533 345.78765 334.66398 323.07730 311.28163 299.16195 286.97528
 274.69761 262.60493 250.62426 239.93558 230.06791 221.18223 213.37456 206.38689
 200.23121 195.17954 191.77186 189.82419 188.87151 188.94584 189.79116 191.10949
 192.84482 194.95014 197.22347 199.59279 202.04812 204.53844 206.63677 208.48910
 210.12542 211.28075 211.52007 211.75840 211.70572 211.42105 211.06438 210.70470
 210.33203 210.05235 209.87068 209.74500 209.68333 210.02466 210.42098 210.82031
 211.62363 212.81196 214.07228 215.86561 217.80394 219.85726 221.96259 224.05591
 226.12624 228.22056 230.32789 232.44421 234.58354 236.76587 239.03219 241.41252
 244.04384 246.30517 248.31749 250.09282 251.52015 252.65347 253.48580 253.81212
 253.85945 253.64377 253.01410 251.97243 250.58875 248.76008 246.67940 244.52273
 242.32405 240.13838 237.96871 235.81803 233.68836 231.56568 229.60201 227.76933
 226.06266 224.54498 223.18531 221.96764 220.85996 219.83029 218.94461 218.09594
 217.34826 216.53859 215.64692 215.02124 214.48157 214.83432 215.66772 217.06265
 219.22397 221.37672 222.51517 222.19014 221.62679 222.29509 224.18318 226.15717
 228.46915 231.73079 235.84261 240.30699 244.50230 248.30470 251.75070 254.97427
 258.11151 261.12820 263.99500 266.72867 269.25659 271.51440 273.50082 275.32520
 277.04318 278.60980 280.01184 281.25018 282.36478 283.40048 284.37061 285.25482
 286.04916 286.76102 287.39465 288.20215
 366.78100 356.34376 345.78452 334.65927 323.07103 311.27379 299.15255 286.96431
 274.68507 262.59082 250.60858 239.91834 230.04910 221.16186 213.35262 206.36337
 200.20613 195.15289 191.74365 189.79441 188.84017 188.91292 189.75668 191.07344
 192.80720 194.91096 197.18272 199.55047 202.00423 204.49299 206.58975 208.44051
 210.07527 211.22902 211.46678 211.70354 211.64930 211.36306 211.00482 210.64357
 210.26933 209.98809 209.80485 209.67761 209.61436 209.95412 210.34888 210.74664
 211.54840 212.73516 213.99391 215.78567 217.72243 219.77419 221.87795 223.96971
 226.03846 228.13122 230.23698 232.35174 234.48950 236.67026 238.93501 241.31377
 243.94353 246.20329 248.21405 249.98781 251.41356 252.54532 253.37608 253.70084
 253.74660 253.52936 252.89811 251.85487 250.46963 248.63939 246.55715 244.39890
 242.19866 240.01142 237.84018 235.68794 233.55670 231.43245 229.46721 227.63297
 225.92473 224.40549 223.04425 221.82500 220.71576 219.68452 218.79728 217.94704
 217.19780 216.38655 215.49331 214.86607 214.32483 214.77930 215.85303 217.04509
 218.94769 221.27838 222.65402 222.40962 221.78897 222.24649 224.04128 225.98735
 228.33589 231.71765 235.88843 240.31706 244.49626 248.31216 251.77010 255.00226
 258.14255 261.15640 264.01904 266.76202 269.30484 271.58109 273.58597 275.40680
 277.10980 278.65515 280.01825 281.19241 282.21509 283.20609 284.16690 285.04303
 285.82745 286.52701 287.15485 287.95529
 366.78100 356.34424 345.78549 334.66073 323.07298 311.27622 299.15546 286.96771
 274.68895 262.59520 250.61344 239.92368 230.05493 221.16817 213.35942 206.37066
 200.21390 195.16115 191.75239 189.80364 188.84988 188.92312 189.76737 191.08461
 192.81886 194.92310 197.19534 199.56359 202.01783 204.50708 206.60432 208.45556
 210.09081 211.24505 211.48330 211.72054 211.66678 211.38103 211.02327 210.66252
 210.28876 210.00800 209.82525 209.69849 209.63574 209.97598 210.37122 210.76947
 211.57171 212.75895 214.01820 215.81044 217.74769 219.79993 221.90417 223.99642
 226.06566 228.15891 230.26515 232.38039 234.51864 236.69988 238.96513 241.34437
 243.97461 246.23486 248.24610 250.02035 251.44659 252.57883 253.41008 253.73532
 253.78157 253.56481 252.93405 251.89130 250.50654 248.67679 246.59503 244.43727
 242.23752 240.05076 237.88001 235.72825 233.59749 231.47374 229.50898 227.67523
 225.96747 224.44871 223.08796 221.86920 220.76045 219.72969 218.84293 217.99318
 217.24442 216.43367 215.54091 214.91415 214.37340 214.83057 215.91069 217.07484
 218.79210 221.08879 222.62717 222.52020 221.91051 222.21828 223.91737 225.84267
 228.23979 231.73123 235.94878 240.34273 244.50085 248.29536 251.79939 255.04848
 258.15652 261.15283 264.00946 266.75644 269.30475 271.59933 273.61639 275.44214
 277.13962 278.67557 280.03369 281.20953 282.16415 283.05585 284.00470 284.87207
 285.49591 286.04376 286.62015 287.37067
 366.78100 356.34337 345.78373 334.65810 323.06946 311.27183 299.15019 286.96156
 274.68192 262.58729 250.60465 239.91402 230.04438 221.15675 213.34711 206.35748
 200.19984 195.14621 191.73657 189.78694 188.83230 188.90467 189.74803 191.06440
 192.79776 194.90113 197.17249 199.53986 201.99322 204.48159 206.57795 208.42832
 210.06268 211.21605 211.45341 211.68978 211.63514 211.34851 210.98987 210.62824
 210.25360 209.97197 209.78833 209.66070 209.59706 209.93643 210.33079 210.72816
 211.52952 212.71589 213.97425 215.76562 217.70198 219.75335 221.85671 223.94808
 226.01644 228.10881 230.21417 232.32854 234.46590 236.64627 238.91063 241.28900
 243.91836 246.17773 248.18809 249.96146 251.38682 252.51819 253.34856 253.67292
 253.71829 253.50065 252.86902 251.82538 250.43975 248.60911 246.52648 244.36784
 242.16721 239.97957 237.80794 235.65530 233.52367 231.39903 229.43340 227.59876
 225.89013 224.37049 223.00886 221.78922 220.67959 219.64795 218.76032 217.90968
 217.16005 216.34841 215.45478 214.82714 214.28551 214.80122 216.01965 217.13391
 218.57280 220.78786 222.45160 222.44780 221.93585 222.23149 223.84528 225.81744
 228.22961 231.77272 236.02322 240.38785 244.54131 248.36003 251.89128 255.11678
 258.19482 261.17297 264.02991 266.77121 269.32635 271.63339 273.67950 275.52655
 277.20654 278.70621 280.03760 281.21619 282.10281 282.98816 283.95380 284.70294
 285.24725 285.94406 286.57285 287.37415
 366.78100 356.34293 345.78287 334.65680 323.06774 311.26967 299.14760 286.95854
 274.67847 262.58341 250.60034 239.90928 230.03921 221.15114 213.34108 206.35101
 200.19295 195.13888 191.72881 189.77875 188.82368 188.89562 189.73855 191.05449
 192.78742 194.89035 197.16129 199.52822 201.98116 204.46909 206.56502 208.41496
 210.04889 211.20183 211.43876 211.67470 211.61963 211.33256 210.97350 210.61143
 210.23637 209.95430 209.77023 209.64217 209.57810 209.91704 210.31097 210.70791
 211.50884 212.69477 213.95271 215.74364 217.67958 219.73051 221.83344 223.92438
 225.99231 228.08425 230.18918 232.30312 234.44005 236.61998 238.88392 241.26185
 243.89079 246.14972 248.15965 249.93259 251.35752 252.48846 253.31839 253.64233
 253.68726 253.46919 252.83713 251.79306 250.40700 248.57593 246.49286 244.33380
 242.13273 239.94467 237.77260 235.61954 233.48747 231.36240 229.39634 227.56127
 225.85221 224.33214 222.97007 221.75001 220.63994 219.60788 218.71981 217.86875
 217.11868 216.30661 215.41255 214.78448 214.24242 214.79623 216.10472 217.17828
 218.47646 220.55959 222.17679 222.20280 221.80844 222.17068 223.79970 225.84030
 228.28633 231.88791 236.15244 240.49693 244.64211 248.49496 252.07785 255.35382
 258.40335 261.34183 264.15613 266.86688 269.37482 271.63977 273.65244 275.47882
 277.16656 278.66840 279.98596 281.09891 281.99881 283.03784 283.94522 284.51004
 285.13736 285.85663 286.48853 287.29379
 366.78100 356.34488 345.78676 334.66264 323.07552 311.27940 299.15928 286.97216
 274.69404 262.60092 250.61980 239.93068 230.06256 221.17644 213.36832 206.38020
 200.22408 195.17196 191.76384 189.81572 188.86260 188.93648 189.78136 191.09924
 192.83412 194.93900 197.21188 199.58075 202.03563 204.52551 206.62339 208.47527
 210.11115 211.26603 211.50491 211.74279 211.68967 211.40455 211.04743 210.68731
 210.31419 210.03407 209.85195 209.72583 209.66371 210.00459 210.40047 210.79935
 211.60223 212.79011 214.04999 215.84287 217.78075 219.83363 221.93851 224.03139
 226.10127 228.19515 230.30203 232.41791 234.55679 236.73867 239.00455 241.38443
 244.01531 246.27619 248.28807 250.06295 251.48983 252.62271 253.45459 253.78047
 253.82735 253.61123 252.98111 251.93899 250.55487 248.72575 246.64463 244.48751
 242.28838 240.10226 237.93214 235.78102 233.65090 231.52778 229.56366 227.73054
 226.02342 224.50530 223.14518 221.92706 220.81894 219.78882 218.90270 218.05358
 217.30546 216.49534 215.60322 214.97710 214.43698 214.93271 216.10393 217.13429
 218.50465 220.44469 222.01778 222.00217 221.59917 221.95993 223.59775 225.71935
 228.24013 231.91319 236.20688 240.54724 244.78151 248.69913 252.37944 255.70065
 258.72739 261.61227 264.34921 266.93567 269.35721 271.52448 273.47751 275.28049
 276.87576 278.30826 279.55267 280.67737 281.79846 282.78223 283.42886 283.91821
 284.61542 285.30624 285.90973 286.67880
 366.78100 356.34557 345.78814 334.66471 323.07829 311.28286 299.16343 286.97700
 274.69957 262.60714 250.62672 239.93829 230.07086 221.18543 213.37800 206.39057
 200.23515 195.18372 191.77629 189.82886 188.87643 188.95100 189.79658 191.11515
 192.85072 194.95629 197.22986 199.59943 202.05501 204.54558 206.64415 208.49672
 210.13329 211.28886 211.52844 211.76701 211.71458 211.43015 211.07372 210.71429
 210.34187 210.06244 209.88101 209.75558 209.69415 210.03572 210.43230 210.83187
 211.63544 212.82401 214.08458 215.87815 217.81673 219.87030 221.97587 224.06944
 226.14001 228.23458 230.34216 232.45873 234.59830 236.78087 239.04744 241.42801
 244.05959 246.32116 248.33373 250.10930 251.53687 252.67044 253.50302 253.82959
 253.87716 253.66173 253.03230 251.99087 250.60745 248.77902 246.69859 244.54216
 242.34373 240.15830 237.98887 235.83845 233.70902 231.58659 229.62316 227.79073
 226.08430 224.56688 223.20745 221.99002 220.88259 219.85316 218.96773 218.11931
 217.37188 216.56245 215.67102 215.04559 214.50616 215.00375 216.18135 217.13773
 218.37132 220.16638 221.92320 222.02426 221.60570 221.89517 223.39743 225.64471
 228.16167 231.92905 236.23746 240.51151 244.74553 248.82401 252.55717 255.88289
 258.85944 261.70599 264.39590 266.90485 269.23065 271.34308 273.28238 275.12421
 276.62805 278.08304 279.30960 280.49319 281.63403 282.48672 283.10229 283.90613
 284.67621 285.36197 285.96103 286.72446
 366.78100 356.34426 345.78552 334.66077 323.07303 311.27629 299.15555 286.96781
 274.68906 262.59532 250.61358 239.92384 230.05509 221.16835 213.35961 206.37087
 200.21413 195.16138 191.75264 189.80390 188.85016 188.92342 189.76767 191.08493
 192.81919 194.92345 197.19570 199.56396 202.01822 204.50748 206.60474 208.45599
 210.09125 211.24551 211.48377 211.72103 211.66728 211.38154 211.02380 210.66306
 210.28931 210.00857 209.82583 209.69909 209.63635 209.97660 210.37186 210.77012
 211.57238 212.75964 214.01889 215.81115 217.74841 219.80067 221.90492 223.99718
 226.06644 228.15970 230.26596 232.38121 234.51947 236.70073 238.96599 241.34525
 243.97550 246.23576 248.24702 250.02128 251.44753 252.57979 253.41105 253.73631
 253.78257 253.56582 252.93508 251.89234 250.50760 248.67786 246.59611 244.43837
 242.23863 240.05189 237.88114 235.72940 233.59866 231.47492 229.51018 227.67643
 225.96869 224.44995 223.08921 221.87047 220.76172 219.73098 218.84424 217.99450
 217.24575 216.43501 215.54227 214.91553 214.37479 214.96222 216.33974 217.20949
 218.22885 219.86516 221.75731 222.22363 221.94502 222.07362 223.40056 225.69643
 228.19099 231.96408 236.25121 240.49272 244.68390 248.77463 252.56583 255.94753
 258.93732 261.73276 264.39575 266.86566 269.13065 271.20892 273.20837 274.94540
 276.55093 277.98090 279.24130 280.37927 281.46506 282.52347 283.49127 284.36801
 285.15652 285.85870 286.47214 287.25388
 366.78100 356.34327 345.78355 334.65782 323.06909 311.27136 299.14964 286.96091
 274.68118 262.58646 250.60373 239.91300 230.04327 221.15555 213.34582 206.35609
 200.19837 195.14464 191.73491 189.78519 188.83046 188.90273 189.74600 191.06228
 192.79555 194.89882 197.17010 199.53737 201.99064 204.47891 206.57519 208.42546
 210.05973 211.21301 211.45028 211.68655 211.63182 211.34510 210.98637 210.62464
 210.24992 209.96819 209.78446 209.65674 209.59301 209.93228 210.32655 210.72383
 211.52510 212.71137 213.96965 215.76092 217.69719 219.74846 221.85174 223.94301
 226.01128 228.10356 230.20883 232.32310 234.46037 236.64065 238.90492 241.28319
 243.91247 246.17174 248.18201 249.95528 251.38056 252.51183 253.34210 253.66638
 253.71165 253.49392 252.86220 251.81847 250.43274 248.60201 246.51929 244.36056
 242.15983 239.97211 237.80038 235.64765 233.51592 231.39120 229.42547 227.59074
 225.88202 224.36229 223.00056 221.78083 220.67111 219.63938 218.75165 217.90093
 217.15120 216.33947 215.44575 214.81802 214.27629 214.94301 216.46138 217.24553
 218.21857 219.90338 221.73959 222.35080 222.20558 222.16272 223.49667 225.47379
 228.13110 231.99362 236.32068 240.51700 244.69408 248.74318 252.49269 255.84807
 258.90695 261.75592 264.42142 266.88153 269.09842 271.15555 273.06268 274.76761
 276.37772 277.81259 279.39587 280.83322 282.07712 283.17764 284.18170 285.09131
 285.90942 286.63794 287.27435 288.08539
 366.78100 356.34374 345.78447 334.65921 323.07095 311.27368 299.15242 286.96416
 274.68489 262.59063 250.60837 239.91810 230.04884 221.16158 213.35231 206.36305
 200.20579 195.15253 191.74326 189.79400 188.83974 188.91247 189.75621 191.07295
 192.80668 194.91042 197.18216 199.54989 202.00363 204.49237 206.58910 208.43984
 210.07458 211.22831 211.46605 211.70279 211.64852 211.36226 211.00400 210.64273
 210.26847 209.98721 209.80394 209.67668 209.61342 209.95315 210.34789 210.74563
 211.54737 212.73410 213.99284 215.78458 217.72131 219.77305 221.87679 223.96852
 226.03726 228.13000 230.23573 232.35047 234.48821 236.66894 238.93368 241.31242
 243.94215 246.20189 248.21263 249.98636 251.41210 252.54384 253.37457 253.69931
 253.74505 253.52778 252.89652 251.85326 250.46799 248.63773 246.55547 244.39721
 242.19694 240.00968 237.83842 235.68615 233.55489 231.43063 229.46536 227.63110
 225.92284 224.40357 223.04231 221.82305 220.71378 219.68252 218.79526 217.94499
 217.19573 216.38447 215.49120 214.86394 214.32268 214.99918 216.50769 217.26961
 218.17984 219.89757 221.61217 222.21802 222.17055 221.90019 223.60240 225.56786
 228.25333 232.10010 236.41925 240.67688 244.82820 248.89694 252.61433 255.96930
 258.98526 261.79050 264.39853 266.78009 268.92755 271.00842 273.10471 274.89523
 276.71423 278.61224 280.25467 281.69681 282.94489 284.04910 285.05652 285.96918
 286.79004 287.52100 288.15955 288.97330
 366.78100 356.34465 345.78631 334.66196 323.07462 311.27827 299.15793 286.97058
 274.69224 262.59889 250.61755 239.92820 230.05986 221.17351 213.36517 206.37682
 200.22048 195.16813 191.75979 189.81144 188.85809 188.93175 189.77640 191.09406
 192.82871 194.93337 197.20602 199.57468 202.02933 204.51899 206.61664 208.46830
 210.10395 211.25861 211.49726 211.73492 211.68157 211.39623 211.03888 210.67854
 210.30519 210.02484 209.84250 209.71615 209.65381 209.99446 210.39012 210.78877
 211.59143 212.77908 214.03874 215.83139 217.76905 219.82170 221.92636 224.01901
 226.08867 228.18232 230.28898 232.40463 234.54328 236.72494 238.99059 241.37025
 244.00090 246.26156 248.27321 250.04787 251.47452 252.60718 253.43883 253.76449
 253.81114 253.59480 252.96445 251.92211 250.53776 248.70842 246.62707 244.46972
 242.27038 240.08403 237.91369 235.76234 233.63200 231.50865 229.54431 227.71096
 226.00362 224.48527 223.12493 221.90658 220.79824 219.76789 218.88155 218.03220
 217.28386 216.47351 215.58116 214.95482 214.41447 215.07312 216.53873 217.30559
 218.08218 219.74171 221.40715 221.90753 221.91989 221.68352 223.46480 225.54240
 228.31743 232.20973 236.55183 240.83871 245.00806 249.06964 252.84488 256.24530
 259.29050 262.09695 264.67175 266.99084 269.02939 271.03125 273.23111 275.20648
 277.28824 279.07263 280.61673 281.97253 283.14587 284.18399 285.13110 285.98914
 286.76083 287.44806 288.04837 288.81342
 366.78100 356.34643 345.78985 334.66728 323.08170 311.28713 299.16856 286.98298
 274.70641 262.61484 250.63526 239.94769 230.08111 221.19654 213.38997 206.40339
 200.24882 195.19824 191.79167 189.84510 188.89352 188.96895 189.81538 191.13480
 192.87123 194.97765 197.25208 199.62251 202.07893 204.57036 206.66978 208.52321
 210.16064 211.31706 211.55749 211.79691 211.74534 211.46177 211.10619 210.74762
 210.37605 210.09747 209.91690 209.79232 209.73175 210.07418 210.47160 210.87203
 211.67645 212.86588 214.12731 215.92173 217.86116 219.91559 222.02201 224.11644
 226.18786 228.28329 230.39172 232.50914 234.64957 236.83299 239.10042 241.48185
 244.11427 246.37670 248.39013 250.16655 251.59498 252.72940 253.56283 253.89026
 253.93868 253.72411 253.09553 252.05496 250.67239 248.84481 246.76524 244.60966
 242.41209 240.22752 238.05894 235.90937 233.78080 231.65922 229.69665 227.86507
 226.15950 224.64293 223.28435 222.06778 220.96120 219.93263 219.04806 218.20048
 217.45391 216.64534 215.75476 215.13019 214.59161 215.16862 216.50327 217.38899
 218.06013 219.49759 221.17725 221.71375 221.75090 221.69167 223.35010 225.50406
 228.31989 232.29904 236.69542 240.96257 245.10744 249.17712 253.00040 256.45377
 259.54544 262.42020 265.06628 267.45901 269.35498 271.20963 273.25916 275.42523
 277.50998 279.29691 280.84323 282.20099 283.37604 284.41562 285.36411 286.22336
 286.99619 287.68436 288.28555 289.05170
 366.78100 356.34717 345.79133 334.66950 323.08466 311.29083 299.17299 286.98816
 274.71232 262.62149 250.64266 239.95582 230.08999 221.20615 213.40032 206.41448
 200.26065 195.21081 191.80498 189.85915 188.90831 188.98448 189.83164 191.15181
 192.88897 194.99614 197.27131 199.64247 202.09964 204.59180 206.69197 208.54613
 210.18430 211.34146 211.58263 211.82280 211.77196 211.48913 211.13429 210.77646
 210.40562 210.12779 209.94795 209.82412 209.76429 210.10745 210.50562 210.90678
 211.71195 212.90211 214.16428 215.95944 217.89961 219.95478 222.06194 224.15711
 226.22927 228.32544 230.43460 232.55277 234.69393 236.87810 239.14627 241.52843
 244.16160 246.42476 248.43893 250.21609 251.64526 252.78042 253.61459 253.94276
 253.99192 253.77809 253.15025 252.11042 250.72858 248.90175 246.82292 244.66808
 242.47125 240.28741 238.11958 235.97074 233.84291 231.72207 229.76024 227.92941
 226.22457 224.70874 223.35090 222.13507 221.02923 220.00140 219.11756 218.27073
 217.52490 216.71706 215.82723 215.20339 214.66556 215.20212 216.46327 217.38670
 218.23242 219.48335 220.87747 221.42355 221.55133 221.88847 223.20863 225.67035
 228.44862 232.36665 236.74237 241.01317 245.14020 249.17456 252.93797 256.30624
 259.39288 262.31067 265.04114 267.50830 269.64658 271.51453 273.48563 275.57071
 277.68491 279.64279 281.33704 282.82471 284.11215 285.25122 286.29044 287.23190
 288.07864 288.83267 289.49139 290.33081
 366.78100 356.34658 345.79017 334.66775 323.08233 311.28791 299.16950 286.98408
 274.70766 262.61625 250.63683 239.94941 230.08300 221.19858 213.39216 206.40574
 200.25133 195.20091 191.79449 189.84808 188.89666 188.97224 189.81883 191.13841
 192.87499 194.98157 197.25616 199.62674 202.08332 204.57491 206.67449 208.52807
 210.16566 211.32224 211.56282 211.80240 211.75099 211.46757 211.11215 210.75374
 210.38232 210.10390 209.92349 209.79907 209.73865 210.08123 210.47882 210.87940
 211.68398 212.87357 214.13515 215.92973 217.86932 219.92390 222.03048 224.12506
 226.19665 228.29223 230.40081 232.51840 234.65898 236.84256 239.11015 241.49173
 244.12431 246.38689 248.40048 250.17706 251.60564 252.74023 253.57381 253.90139
 253.94998 253.73556 253.10714 252.06672 250.68431 248.85689 246.77747 244.62206
 242.42464 240.24022 238.07181 235.92239 233.79397 231.67255 229.71014 227.87872
 226.17330 224.65689 223.29847 222.08205 220.97564 219.94722 219.06280 218.21538
 217.46897 216.66055 215.77013 215.14572 214.60730 215.17274 216.49031 217.35039
 218.18036 219.48967 220.84009 221.27446 221.32593 221.82083 223.03598 225.56804
 228.35480 232.39729 236.83464 241.09529 245.22151 249.26982 253.07870 256.47501
 259.43686 262.23361 264.94476 267.42728 269.57639 271.47266 273.49612 275.35895
 277.11728 278.93814 280.59167 282.04358 283.30011 284.41180 285.42606 286.34491
 287.17130 287.90720 288.55008 289.36935
 366.78100 356.34680 345.79061 334.66841 323.08321 311.28902 299.17082 286.98562
 274.70943 262.61823 250.63903 239.95184 230.08564 221.20144 213.39524 206.40905
 200.25485 195.20465 191.79846 189.85226 188.90106 188.97687 189.82367 191.14347
 192.88028 194.98708 197.26188 199.63269 202.08949 204.58129 206.68110 208.53490
 210.17270 211.32951 211.57031 211.81011 211.75891 211.47572 211.12052 210.76232
 210.39113 210.11293 209.93273 209.80854 209.74834 210.09114 210.48895 210.88975
 211.69455 212.88436 214.14616 215.94096 217.88077 219.93557 222.04237 224.13718
 226.20898 228.30478 230.41358 232.53139 234.67219 236.85599 239.12380 241.50560
 244.13840 246.40121 248.41501 250.19181 251.62062 252.75542 253.58922 253.91703
 253.96583 253.75163 253.12344 252.08324 250.70104 248.87385 246.79465 244.63945
 242.44225 240.25806 238.08986 235.94066 233.81247 231.69127 229.72907 227.89788
 226.19268 224.67648 223.31829 222.10209 220.99589 219.96770 219.08350 218.23630
 217.49011 216.68191 215.79171 215.16752 214.62932 215.18738 216.48849 217.34534
 218.15695 219.40225 220.68774 221.03221 221.04268 221.56871 222.92796 225.56076
 228.42667 232.51772 236.99278 241.27211 245.41127 249.47897 253.34045 256.81732
 259.83252 262.56937 265.19928 267.63565 269.77219 271.64264 273.58405 275.38641
 276.91580 278.76498 280.46924 281.96570 283.26077 284.40656 285.45190 286.39896
 287.25070 288.00919 288.67178 289.51617
 366.78100 356.34602 345.78904 334.66606 323.08008 311.28510 299.16611 286.98013
 274.70315 262.61117 250.63119 239.94321 230.07623 221.19125 213.38427 206.39729
 200.24230 195.19132 191.78434 189.83736 188.88538 188.96040 189.80642 191.12544
 192.86146 194.96748 197.24149 199.61151 202.06753 204.55855 206.65757 208.51059
 210.14761 211.30363 211.54365 211.78267 211.73069 211.44670 211.09072 210.73174
 210.35976 210.08078 209.89980 209.77482 209.71384 210.05586 210.45288 210.85289
 211.65691 212.84593 214.10695 215.90097 217.83999 219.89401 222.00003 224.09405
 226.16507 228.26008 230.36810 232.48512 234.62514 236.80816 239.07518 241.45620
 244.08822 246.35024 248.36326 250.13928 251.56729 252.70131 253.53433 253.86135
 253.90937 253.69439 253.06541 252.02443 250.64145 248.81347 246.73348 244.57750
 242.37952 240.19454 238.02556 235.87558 233.74660 231.62462 229.66164 227.82966
 226.12367 224.60669 223.24771 222.03073 220.92375 219.89477 219.00979 218.16181
 217.41483 216.60585 215.71487 215.08988 214.55090 215.15341 216.52344 217.27217
 218.20367 219.46046 220.50317 220.64560 220.63736 221.29727 222.87740 225.62209
 228.54083 232.66306 237.15788 241.44368 245.58247 249.65530 253.55746 257.09442
 260.15430 262.84491 265.40030 267.79703 269.95993 271.88947 273.79495 275.59924
 277.03320 278.75589 280.60260 282.22418 283.62750 284.86908 286.00183 287.02802
 287.95096 288.77286 289.49084 290.40585
 366.78100 356.34495 345.78689 334.66284 323.07579 311.27973 299.15968 286.97263
 274.69457 262.60152 250.62046 239.93141 230.06336 221.17730 213.36925 206.38120
 200.22514 195.17309 191.76504 189.81698 188.86393 188.93788 189.78282 191.10077
 192.83572 194.94066 197.21361 199.58256 202.03750 204.52745 206.62539 208.47734
 210.11329 211.26823 211.50718 211.74513 211.69207 211.40702 211.04997 210.68991
 210.31686 210.03681 209.85475 209.72870 209.66665 210.00759 210.40354 210.80249
 211.60543 212.79338 214.05332 215.84627 217.78422 219.83716 221.94211 224.03506
 226.10500 228.19895 230.30590 232.42184 234.56079 236.74274 239.00868 241.38863
 244.01958 246.28052 248.29247 250.06742 251.49436 252.62731 253.45925 253.78520
 253.83215 253.61609 252.98604 251.94399 250.55993 248.73088 246.64983 244.49277
 242.29372 240.10767 237.93761 235.78656 233.65651 231.53345 229.56940 227.73634
 226.02929 224.51124 223.15118 221.93313 220.82508 219.79502 218.90897 218.05992
 217.31186 216.50181 215.60976 214.98370 214.44365 215.10028 216.57680 217.23264
 218.13327 219.52737 220.59619 220.58702 220.42065 221.07127 222.77180 225.55038
 228.58926 232.71701 237.20233 241.46062 245.59166 249.68552 253.62463 257.16180
 260.19540 262.86365 265.38202 267.75195 269.92789 271.94485 273.89212 275.72150
 277.16663 278.73746 280.44336 281.98932 283.32724 284.51093 285.59088 286.56924
 287.44919 288.23276 288.91727 289.78961
 366.78100 356.34569 345.78837 334.66506 323.07874 311.28343 299.16411 286.97780
 274.70049 262.60817 250.62786 239.93954 230.07223 221.18691 213.37960 206.39228
 200.23697 195.18566 191.77834 189.83103 188.87871 188.95340 189.79908 191.11777
 192.85346 194.95914 197.23283 199.60251 202.05820 204.54888 206.64757 208.50025
 210.13694 211.29263 211.53231 211.77100 211.71868 211.43437 211.07805 210.71874
 210.34643 210.06711 209.88580 209.76048 209.69917 210.04085 210.43754 210.83722
 211.64091 212.82960 214.09028 215.88397 217.82265 219.87634 221.98202 224.07571
 226.14640 228.24108 230.34877 232.46545 234.60514 236.78782 239.05451 241.43519
 244.06688 246.32857 248.34125 250.11694 251.54462 252.67831 253.51099 253.83768
 253.88537 253.67005 253.04074 251.99942 250.61611 248.78779 246.70748 244.55116
 242.35285 240.16754 237.99822 235.84791 233.71859 231.59628 229.63296 227.80065
 226.09434 224.57702 223.21771 222.00039 220.89308 219.86376 218.97845 218.13013
 217.38282 216.57351 215.68219 215.05688 214.51756 215.13170 216.53862 217.30011
 218.11302 219.37822 220.52808 220.60687 220.43192 221.02557 222.70248 225.51949
 228.59991 232.77090 237.24277 241.48621 245.63316 249.73445 253.61885 257.09848
 260.15115 262.89120 265.44485 267.80249 269.97107 272.03534 274.02264 275.83112
 277.16617 278.63052 280.26633 281.72769 282.99240 284.11133 285.13220 286.05704
 286.88879 287.62952 288.27658 289.10120
 366.78100 356.34658 345.79017 334.66775 323.08234 311.28792 299.16951 286.98409
 274.70768 262.61626 250.63685 239.94943 230.08302 221.19860 213.39219 206.40577
 200.25136 195.20094 191.79453 189.84811 188.89670 188.97228 189.81887 191.13845
 192.87504 194.98162 197.25621 199.62679 202.08338 204.57496 206.67455 208.52813
 210.16572 211.32230 211.56289 211.80247 211.75106 211.46764 211.11223 210.75381
 210.38240 210.10398 209.92357 209.79915 209.73874 210.08132 210.47891 210.87949
 211.68408 212.87366 214.13525 215.92983 217.86942 219.92400 222.03059 224.12517
 226.19676 228.29234 230.40093 232.51851 234.65910 236.84268 239.11027 241.49185
 244.12444 246.38702 248.40061 250.17719 251.60578 252.74036 253.57395 253.90153
 253.95012 253.73570 253.10729 252.06687 250.68446 248.85704 246.77763 244.62221
 242.42480 240.24038 238.07197 235.92255 233.79414 231.67272 229.71031 227.87889
 226.17348 224.65706 223.29865 222.08223 220.97582 219.94740 219.06299 218.21557
 217.46916 216.66074 215.77033 215.14591 214.60750 215.17700 216.49570 217.34480
 218.22653 219.31190 220.32765 220.38419 220.25053 220.87161 222.59340 225.43709
 228.62778 232.85306 237.35175 241.63814 245.80800 249.90587 253.77609 257.24231
 260.28308 263.02347 265.58850 267.94580 270.09781 272.13077 274.10507 275.88083
 277.04517 278.52585 280.22546 281.71786 283.00940 284.15207 285.19458 286.13904
 286.98846 287.74490 288.40570 289.24780
 366.78100 356.34616 345.78932 334.66648 323.08064 311.28580 299.16696 286.98111
 274.70427 262.61243 250.63259 239.94475 230.07791 221.19307 213.38623 206.39939
 200.24455 195.19371 191.78687 189.84003 188.88819 188.96334 189.80950 191.12866
 192.86482 194.97098 197.24514 199.61530 202.07146 204.56262 206.66178 208.51494
 210.15210 211.30826 211.54841 211.78757 211.73573 211.45189 211.09605 210.73721
 210.36537 210.08653 209.90569 209.78085 209.72001 210.06217 210.45933 210.85949
 211.66364 212.85280 214.11396 215.90812 217.84728 219.90144 222.00760 224.10176
 226.17292 228.26808 230.37624 232.49340 234.63356 236.81671 239.08387 241.46503
 244.09719 246.35935 248.37251 250.14867 251.57683 252.71099 253.54415 253.87131
 253.91947 253.70463 253.07579 252.03494 250.65210 248.82426 246.74442 244.58858
 242.39074 240.20590 238.03706 235.88722 233.75838 231.63654 229.67370 227.84186
 226.13602 224.61917 223.26033 222.04349 220.93665 219.90781 219.02297 218.17513
 217.42829 216.61945 215.72861 215.10377 214.56493 215.16959 216.52260 217.30852
 218.30142 219.43793 220.32350 220.07973 219.84317 220.40454 222.34233 225.38495
 228.72629 232.96529 237.45509 241.79965 246.03543 250.18829 254.10800 257.60773
 260.67404 263.40662 265.89731 268.15762 270.23160 272.20605 274.11145 275.68329
 277.32584 279.38043 281.15833 282.71948 284.07050 285.26581 286.35635 287.34430
 288.23285 289.02414 289.71536 290.59625
 366.78100 356.34609 345.78919 334.66628 323.08038 311.28547 299.16657 286.98066
 274.70376 262.61185 250.63195 239.94404 230.07714 221.19223 213.38533 206.39842
 200.24352 195.19261 191.78570 189.83880 188.88689 188.96199 189.80808 191.12718
 192.86327 194.96937 197.24346 199.61356 202.06965 204.56075 206.65984 208.51294
 210.15003 211.30613 211.54622 211.78532 211.73341 211.44950 211.09360 210.73469
 210.36279 210.08388 209.90298 209.77807 209.71717 210.05926 210.45636 210.85645
 211.66055 212.84964 214.11074 215.90483 217.84393 219.89802 222.00411 224.09821
 226.16930 228.26440 230.37249 232.48959 234.62968 236.81278 239.07987 241.46097
 244.09306 246.35516 248.36825 250.14435 251.57244 252.70654 253.53963 253.86672
 253.91482 253.69991 253.07101 252.03010 250.64720 248.81929 246.73939 244.58348
 242.38558 240.20067 238.03177 235.88186 233.75296 231.63105 229.66815 227.83624
 226.13034 224.61343 223.25452 222.03762 220.93071 219.90181 219.01690 218.16900
 217.42209 216.61319 215.72228 215.09738 214.55847 215.16991 216.52116 217.26807
 218.31081 219.54433 220.37666 219.87421 219.47321 220.06287 222.11137 225.30934
 228.76718 233.07181 237.59297 241.96172 246.19882 250.38379 254.37962 257.94498
 261.01752 263.71616 266.18295 268.42807 270.48566 272.44568 274.34653 275.98734
 278.17630 280.27084 282.08334 283.67484 285.05215 286.27072 287.38248 288.38965
 289.29547 290.10214 290.80682 291.70483
 366.78100 356.34641 345.78981 334.66722 323.08162 311.28703 299.16844 286.98284
 274.70625 262.61465 250.63506 239.94746 230.08087 221.19628 213.38968 206.40309
 200.24849 195.19790 191.79131 189.84471 188.89312 188.96852 189.81493 191.13433
 192.87074 194.97715 197.25155 199.62196 202.07836 204.56977 206.66918 208.52258
 210.15999 211.31639 211.55680 211.79620 211.74461 211.46102 211.10542 210.74683
 210.37523 210.09664 209.91605 209.79145 209.73086 210.07326 210.47067 210.87107
 211.67548 212.86489 214.12629 215.92070 217.86010 219.91451 222.02092 224.11532
 226.18673 228.28213 230.39054 232.50794 234.64835 236.83176 239.09916 241.48057
 244.11297 246.37538 248.38879 250.16519 251.59360 252.72800 253.56141 253.88881
 253.93722 253.72263 253.09403 252.05344 250.67084 248.84325 246.76366 244.60806
 242.41047 240.22587 238.05728 235.90769 233.77909 231.65750 229.69490 227.86331
 226.15771 224.64112 223.28253 222.06593 220.95934 219.93074 219.04615 218.19856
 217.45196 216.64337 215.75277 215.12818 214.58958 215.17302 216.49464 217.25394
 218.32742 219.62051 220.30301 219.73149 219.26816 220.02710 221.93843 225.26558
 228.77946 233.13710 237.67691 242.03294 246.23256 250.35992 254.29382 257.81885
 260.89233 263.65411 266.22067 268.57300 270.73227 272.77536 274.72699 276.49890
 278.19339 280.00653 281.67184 283.13409 284.39957 285.51917 286.54065 287.46603
 288.29831 289.03949 289.68692 290.51202
 366.78100 356.34590 345.78881 334.66571 323.07961 311.28451 299.16542 286.97932
 274.70222 262.61012 250.63003 239.94193 230.07483 221.18974 213.38264 206.39554
 200.24044 195.18935 191.78225 189.83515 188.88306 188.95796 189.80386 191.12276
 192.85867 194.96457 197.23847 199.60837 202.06428 204.55518 206.65408 208.50699
 210.14389 211.29979 211.53969 211.77860 211.72650 211.44240 211.08630 210.72721
 210.35511 210.07601 209.89492 209.76982 209.70872 210.05062 210.44753 210.84743
 211.65133 212.84024 214.10114 215.89504 217.83394 219.88785 221.99375 224.08765
 226.15855 228.25346 230.36136 232.47826 234.61817 236.80107 239.06797 241.44887
 244.08078 246.34268 248.35558 250.13149 251.55939 252.69329 253.52619 253.85310
 253.90100 253.68590 253.05680 252.01571 250.63261 248.80451 246.72442 244.56832
 242.37022 240.18512 238.01603 235.86593 233.73683 231.61473 229.65164 227.81954
 226.11344 224.59635 223.23725 222.02015 220.91305 219.88396 218.99886 218.15076
 217.40367 216.59457 215.70347 215.07837 214.53928 215.13849 216.50697 217.23170
 218.25853 219.64447 220.31929 219.69475 219.08040 219.83369 221.84743 225.16951
 228.79953 233.20511 237.76593 242.11473 246.30428 250.39406 254.26730 257.72284
 260.76837 263.55197 266.17078 268.59512 270.83710 272.95642 274.96411 276.77530
 278.29205 279.58777 280.84381 282.11157 283.20871 284.17941 285.06500 285.86731
 286.58890 287.23148 287.79282 288.50818
 366.78100 356.34506 345.78712 334.66319 323.07625 311.28031 299.16037 286.97343
 274.69549 262.60256 250.62162 239.93268 230.06474 221.17880 213.37087 206.38293
 200.22699 195.17505 191.76711 189.81918 188.86624 188.94030 189.78536 191.10342
 192.83848 194.94355 197.21661 199.58567 202.04073 204.53079 206.62886 208.48092
 210.11698 211.27204 211.51110 211.74916 211.69623 211.41129 211.05435 210.69441
 210.32147 210.04154 209.85960 209.73366 209.67172 210.01278 210.40885 210.80791
 211.61097 212.79903 214.05909 215.85215 217.79022 219.84328 221.94834 224.04140
 226.11146 228.20553 230.31259 232.42865 234.56771 236.74977 239.01583 241.39590
 244.02696 246.28802 248.30008 250.07514 251.50221 252.63527 253.46733 253.79339
 253.84045 253.62452 252.99458 251.95264 250.56870 248.73976 246.65882 244.50189
 242.30295 240.11701 237.94707 235.79613 233.66620 231.54326 229.57932 227.74638
 226.03944 224.52150 223.16157 221.94363 220.83569 219.80575 218.91981 218.07088
 217.32294 216.51300 215.62106 214.99512 214.45518 215.08760 216.53848 217.22275
 218.15546 219.56044 220.25357 219.62863 218.88251 219.54529 221.76817 225.12430
 228.87627 233.30394 237.87134 242.24429 246.46240 250.56490 254.42792 257.85391
 260.85791 263.61053 266.20529 268.62662 270.89832 273.07809 275.14569 277.02017
 278.56335 279.70575 280.30121 281.11020 282.27374 283.30319 284.24240 285.09326
 285.85852 286.53998 287.13528 287.89395
 366.78100 356.34476 345.78652 334.66229 323.07505 311.27881 299.15857 286.97133
 274.69309 262.59986 250.61862 239.92938 230.06114 221.17490 213.36667 206.37843
 200.22219 195.16995 191.76171 189.81348 188.86024 188.93400 189.77876 191.09652
 192.83128 194.93605 197.20881 199.57757 202.03233 204.52209 206.61986 208.47162
 210.10738 211.26214 211.50090 211.73867 211.68543 211.40019 211.04295 210.68271
 210.30947 210.02924 209.84700 209.72076 209.65852 209.99928 210.39505 210.79381
 211.59657 212.78433 214.04409 215.83685 217.77462 219.82738 221.93214 224.02490
 226.09466 228.18843 230.29519 232.41095 234.54971 236.73147 238.99724 241.37700
 244.00776 246.26852 248.28028 250.05504 251.48181 252.61457 253.44633 253.77209
 253.81885 253.60262 252.97238 251.93014 250.54590 248.71666 246.63543 244.47819
 242.27895 240.09271 237.92247 235.77123 233.64100 231.51776 229.55352 227.72028
 226.01304 224.49481 223.13457 221.91633 220.80809 219.77785 218.89161 218.04238
 217.29414 216.48390 215.59166 214.96542 214.42519 215.05846 216.53271 217.27496
 218.06946 219.40143 220.05333 219.39909 218.60481 219.22563 221.75256 225.05528
 228.95779 233.40706 238.00381 242.39755 246.62631 250.71582 254.53792 257.94537
 260.95248 263.69962 266.27017 268.67853 270.96240 273.16422 275.26105 277.13861
 278.66486 279.73199 280.28952 280.35645 280.79099 281.85599 282.85364 283.75748
 284.57034 285.29422 285.92661 286.73245
 366.78100 356.34546 345.78793 334.66439 323.07786 311.28232 299.16279 286.97625
 274.69872 262.60618 250.62565 239.93711 230.06958 221.18404 213.37651 206.38897
 200.23343 195.18190 191.77436 189.82683 188.87429 188.94876 189.79422 191.11269
 192.84815 194.95362 197.22708 199.59655 202.05201 204.54248 206.64094 208.49341
 210.12987 211.28533 211.52480 211.76326 211.71073 211.42619 211.06966 210.71012
 210.33759 210.05805 209.87652 209.75098 209.68945 210.03091 210.42738 210.82684
 211.63030 212.81877 214.07923 215.87270 217.81116 219.86463 221.97009 224.06356
 226.13402 228.22849 230.33595 232.45242 234.59188 236.77435 239.04081 241.42127
 244.05274 246.31420 248.32667 250.10213 251.52960 252.66306 253.49553 253.82199
 253.86946 253.65392 253.02439 251.98285 250.59932 248.77078 246.69025 244.53371
 242.33517 240.14964 237.98010 235.82957 233.70003 231.57750 229.61396 227.78143
 226.07489 224.55736 223.19782 221.98029 220.87275 219.84322 218.95768 218.10914
 217.36161 216.55207 215.66054 215.03500 214.49547 215.08015 216.46013 217.40460
 218.05144 219.20975 219.91116 219.20747 218.30875 218.85089 221.67006 224.95721
 229.01534 233.49712 238.12990 242.53168 246.76570 250.84785 254.63614 258.01437
 261.02481 263.78851 266.36258 268.75510 271.02673 273.24249 275.34995 277.21811
 278.71207 279.73947 280.20761 280.26031 280.32593 280.85806 281.82556 282.76019
 283.60080 284.34937 285.00330 285.83667
 366.78100 356.34567 345.78834 334.66500 323.07867 311.28334 299.16401 286.97767
 274.70034 262.60801 250.62768 239.93935 230.07201 221.18668 213.37935 206.39202
 200.23668 195.18535 191.77802 189.83069 188.87836 188.95302 189.79869 191.11736
 192.85303 194.95869 197.23236 199.60203 202.05770 204.54837 206.64703 208.49970
 210.13637 211.29204 211.53170 211.77037 211.71804 211.43371 211.07738 210.71804
 210.34571 210.06638 209.88505 209.75971 209.69838 210.04005 210.43672 210.83639
 211.64005 212.82872 214.08939 215.88306 217.82172 219.87539 221.98106 224.07473
 226.14540 228.24006 230.34773 232.46440 234.60407 236.78673 239.05340 241.43407
 244.06574 246.32741 248.34007 250.11574 251.54341 252.67708 253.50974 253.83641
 253.88408 253.66875 253.03942 251.99808 250.61475 248.78642 246.70609 244.54975
 242.35142 240.16609 237.99676 235.84643 233.71709 231.59476 229.63143 227.79910
 226.09276 224.57543 223.21610 221.99877 220.89144 219.86210 218.97677 218.12844
 217.38111 216.57177 215.68044 215.05511 214.51578 215.08359 216.42636 217.47104
 218.14075 219.18808 219.87813 219.10788 218.07109 218.49500 221.52487 224.89313
 229.06544 233.58704 238.24571 242.65160 246.89923 250.98424 254.75563 258.10510
 261.10260 263.87692 266.46478 268.86319 271.13919 273.35236 275.46768 277.34320
 278.78171 279.68262 280.02216 279.97208 280.04684 280.59671 281.49911 282.39014
 283.19788 283.91714 284.54547 285.34622
 366.78100 356.34553 345.78805 334.66458 323.07811 311.28264 299.16316 286.97669
 274.69922 262.60675 250.62627 239.93780 230.07033 221.18486 213.37738 206.38991
 200.23444 195.18297 191.77549 189.82802 188.87555 188.95008 189.79560 191.11413
 192.84966 194.95518 197.22871 199.59824 202.05377 204.54429 206.64282 208.49535
 210.13188 211.28740 211.52693 211.76546 211.71299 211.42851 211.07204 210.71257
 210.34010 210.06062 209.87915 209.75368 209.69221 210.03373 210.43026 210.82979
 211.63331 212.82184 214.08237 215.87590 217.81442 219.86795 221.97348 224.06701
 226.13753 228.23206 230.33959 232.45612 234.59564 236.77817 239.04470 241.42523
 244.05675 246.31828 248.33081 250.10634 251.53386 252.66739 253.49992 253.82645
 253.87397 253.65850 253.02903 251.98755 250.60408 248.77561 246.69514 244.53866
 242.34019 240.15472 237.98525 235.83477 233.70530 231.58283 229.61936 227.78688
 226.08041 224.56294 223.20347 221.98599 220.87852 219.84905 218.96358 218.11510
 217.36763 216.55816 215.66668 215.04121 214.50174 215.07382 216.42624 217.50552
 218.20589 219.14061 219.76553 218.99747 217.91125 218.25551 221.32487 224.86520
 229.12599 233.68607 238.35718 242.77264 247.04149 251.12529 254.86610 258.18839
 261.18704 263.97537 266.57550 268.98135 271.26547 273.48810 275.60266 277.44620
 278.86145 279.64880 279.83337 279.67587 279.79443 280.37741 281.30814 282.19073
 283.02005 283.75934 284.40515 285.22818
 354.97500 345.04800 334.58700 324.11500 313.32600 302.53700 291.65000 280.76700
 269.93100 259.19300 248.62200 238.61700 229.08700 220.35500 212.54000 205.53500
 199.46400 194.49300 191.14300 189.19000 188.08900 188.01400 188.72400 189.90600
 191.46900 193.38200 195.40300 197.55600 199.80700 202.06000 204.28800 206.47900
 208.55200 210.37800 212.02500 213.65900 214.99800 216.11800 217.17200 218.25900
 219.49400 220.64500 221.67900 222.61400 223.54500 224.98200 226.57100 228.19000
 229.79700 231.81100 233.86500 235.97200 238.24200 240.55300 242.89900 245.25300
 247.48800 249.53500 251.36600 252.84800 254.09800 255.16700 256.02700 256.25300
 256.09500 255.54300 253.93500 252.56600 251.38400 250.24500 249.05200 247.70100
 246.01600 243.99600 241.78400 239.39300 236.81300 234.22300 231.65800 229.14400
 226.74000 224.47300 222.33500 220.32500 218.44000 216.67700 214.96200 213.47200
 212.20000 211.10800 210.26000 209.63900 209.24400 209.03100 209.05800 209.33300
 209.78400 210.62600 211.33100 212.39100 213.62500 214.84668 217.72949 219.47640
 220.32566 220.86828 220.88710 220.27371 219.43733 218.84250 219.04934 220.86203
 222.60583 225.72206 229.03064 232.61777 236.12270 239.51333 242.70767 245.68587
 248.41061 250.90679 253.19353 254.91714 256.48655 257.94920 259.39966 260.69384
 261.81714 262.77997 263.71679 264.54570 265.26305 265.89772 266.47676 267.00133
 267.47312 267.89325 268.26027 268.72800
