|-------------------------------------------------------------------------|
|   File Name : in_temp.dat
|   Subject   : temperature profiles used for initial guess atmosphere
|   File Type : input of gmtr
|   Data Type : atmospherical data
|   Author/s  : WRF-Chem
|   Date      : Fri Jul 26 15:39:24 2024
|-------------------------------------------------------------------------|

 WRF-Chem temperature
#
 values of T (K)    (8f10.5)
#
 354.97500 345.04800 334.58700 324.11500 313.32600 302.53700 291.65000 280.76700
 269.93100 259.19300 248.62200 238.61700 229.08700 220.35500 212.54000 205.53500
 199.46400 194.49300 191.14300 189.19000 188.08900 188.01400 188.72400 189.90600
 191.46900 193.38200 195.40300 197.55600 199.80700 202.06000 204.28800 206.47900
 208.55200 210.37800 212.02500 213.65900 214.99800 216.11800 217.17200 218.25900
 219.49400 220.64500 221.67900 222.61400 223.54500 224.98200 226.57100 228.19000
 229.79700 231.81100 233.86500 235.97200 238.24200 240.55300 242.89900 245.25300
 247.48800 249.53500 251.36600 252.84800 254.09800 255.16700 256.02700 256.25300
 256.09500 255.54300 253.93500 252.56600 251.38400 250.24500 249.05200 247.70100
 246.01600 243.99600 241.78400 239.39300 236.81300 234.22300 231.65800 229.14400
 226.74000 224.47300 222.33500 220.32500 218.44000 216.67700 214.96200 213.47200
 212.20000 211.10800 210.26000 209.63900 209.24400 209.03100 209.05800 209.33300
 209.78400 210.62600 211.33100 212.39100 213.62500 214.84668 217.72949 219.47640
 220.32566 220.86828 220.88710 220.27371 219.43733 218.84250 219.04934 220.86203
 222.60583 225.72206 229.03064 232.61777 236.12270 239.51333 242.70767 245.68587
 248.41061 250.90679 253.19353 254.91714 256.48655 257.94920 259.39966 260.69384
 261.81714 262.77997 263.71679 264.54570 265.26305 265.89772 266.47676 267.00133
 267.47312 267.89325 268.26027 268.72800
 366.78100 356.33500 345.76700 334.63300 323.03600 311.23000 299.10000 286.90300
 274.61500 262.51200 250.52100 239.82200 229.94400 221.04800 213.23000 206.23200
 200.06600 195.00400 191.58600 189.62800 188.66500 188.72900 189.56400 190.87200
 192.59700 194.69200 196.95500 199.31400 201.75900 204.23900 206.32700 208.16900
 209.79500 210.94000 211.16900 211.39700 211.33400 211.03900 210.67200 210.30200
 209.91900 209.62900 209.43700 209.30100 209.22900 209.56000 209.94600 210.33500
 211.12800 212.30600 213.55600 215.33900 217.26700 219.31000 221.40500 223.48800
 225.54800 227.63200 229.72900 231.83500 233.96400 236.13600 238.39200 240.76200
 243.38300 245.63400 247.63600 249.40100 250.81800 251.94100 252.76300 253.07900
 253.11600 252.89000 252.25000 251.19800 249.80400 247.96500 245.87400 243.70700
 241.49800 239.30200 237.12200 234.96100 232.82100 230.68800 228.71400 226.87100
 225.15400 223.62600 222.25600 221.02800 219.91000 218.87000 217.97400 217.11500
 216.35700 215.53700 214.63500 213.99900 213.44900 212.85855 212.01316 212.61654
 214.26826 216.08686 218.14273 220.53346 223.40855 226.78828 231.49734 235.90155
 239.42278 243.28576 247.23140 251.11907 254.80144 258.23331 261.38913 264.27520
 266.89312 269.26852 271.44504 273.08845 274.58484 275.98591 277.39845 278.65879
 279.75272 280.69038 281.56708 282.34086 283.01050 283.60295 284.14348 284.63317
 285.07358 285.46577 285.80838 286.24500
 381.81900 372.39900 361.20600 349.77600 337.62200 324.85300 311.81000 298.35300
 284.86000 271.32400 258.56100 246.30400 236.08700 226.79600 218.44800 211.29000
 205.52200 200.89400 197.38100 194.84800 193.01500 192.31500 192.25000 192.43100
 192.91200 193.53700 194.13600 194.71200 195.26200 195.83100 196.39300 196.97600
 197.60400 198.14900 198.58400 199.05700 199.69500 200.37800 201.05400 201.70800
 202.31300 202.85700 203.35500 203.86200 204.56900 205.29700 206.02600 206.98700
 208.19300 209.44100 210.96900 212.57600 214.46200 216.51300 218.63000 220.85300
 223.34100 225.96200 228.73900 231.69700 234.70600 237.70600 240.69200 243.65700
 246.73700 249.69900 252.52100 255.06300 257.29000 259.23300 260.63300 261.68000
 262.46100 262.79800 262.69100 262.22400 261.06900 259.52500 257.70700 255.50700
 253.00100 250.30200 247.39800 244.45200 241.65400 239.05400 236.73300 234.59000
 232.59500 230.72500 228.83400 226.82600 224.66600 222.38700 220.10400 217.71500
 215.45900 213.06600 210.54600 208.09300 205.35400 202.08130 196.05959 200.71215
 209.01611 216.90438 223.84126 229.78593 235.00632 240.20838 245.98943 250.68668
 254.32982 257.93487 261.55666 264.96801 268.15192 271.06452 273.76717 276.25691
 278.57680 280.74479 282.77456 284.60533 286.27232 287.81705 289.31715 290.65561
 291.81734 292.81312 293.70701 294.49387 295.17482 295.77730 296.32696 296.82492
 297.27278 297.67160 298.02000 298.46400
 399.33000 389.90700 379.81300 368.66800 357.52200 345.30100 333.07400 320.22700
 307.21600 293.84800 280.37600 267.29600 254.61000 242.98700 232.15100 221.97700
 212.67200 204.28600 197.66900 192.82100 189.48600 187.45200 186.81400 187.08900
 187.78100 189.05400 190.64800 192.54200 194.63000 196.75200 198.67100 200.15800
 201.53500 202.48700 202.97500 203.34000 203.53900 203.49700 203.38500 203.24700
 203.00500 202.78600 202.60300 202.43700 202.42600 202.88800 203.42000 203.95100
 204.89500 205.99200 207.30100 208.95800 210.73800 213.10000 215.56400 218.18000
 220.96600 223.91800 226.96100 230.09200 233.29300 236.55700 239.95500 243.53700
 246.84500 249.39000 251.54200 253.47400 255.19500 256.48400 257.43100 258.05900
 258.21200 258.04000 257.58200 256.64300 255.23900 253.50700 251.40800 249.05600
 246.57600 243.99400 241.38900 238.83000 236.34400 233.98600 231.96900 230.11800
 228.42300 226.89900 225.54800 224.29700 223.10500 221.96500 220.95800 220.11300
 219.49000 218.92000 218.32500 217.88100 217.42300 216.96366 216.35568 216.80261
 217.73415 218.28582 218.64258 219.10077 220.44626 222.53987 226.38451 230.35736
 233.59734 237.39164 241.29814 245.22796 248.98002 252.51130 255.78595 258.80109
 261.54781 264.05210 266.34239 268.04198 269.58951 271.01303 272.35754 273.55718
 274.59842 275.49092 276.28989 276.99307 277.60161 278.14001 278.63122 279.07623
 279.47646 279.83287 280.14422 280.54100
 399.73800 389.78500 379.66200 368.15100 356.64100 344.35000 331.79200 318.88800
 305.72600 292.49300 279.20900 266.73800 254.69600 244.21100 234.45700 225.43300
 217.56900 210.45100 204.30000 199.30600 195.45800 192.57600 191.02700 190.38600
 190.23900 190.53400 191.16600 191.92500 192.79500 193.76600 194.73200 195.31200
 195.80000 196.05200 196.11500 196.11500 196.03900 195.72300 195.34000 194.98900
 194.75100 194.79200 195.13300 195.59800 196.50600 198.13600 199.85800 201.56600
 204.17900 206.82300 209.89300 213.28400 216.82800 220.60500 224.38700 228.20900
 232.03200 235.82500 239.56000 243.25800 246.84500 250.20100 253.70900 257.46800
 261.53000 264.22100 266.60100 268.68100 270.32900 271.74100 272.83600 273.47400
 273.89800 274.00200 273.75700 273.28800 272.37100 271.10000 269.58900 267.77900
 265.81600 263.72100 261.39300 258.91600 256.29800 253.42300 250.33100 247.11400
 243.83700 240.52900 237.24900 233.99900 230.72800 227.51500 224.25400 220.95200
 217.62700 213.65600 210.12100 206.78900 204.01000 201.99491 199.07309 198.76551
 199.40006 200.48994 201.46112 202.31912 203.45100 204.96110 207.47502 210.85391
 213.70530 217.29629 220.99574 224.72316 228.28753 231.64854 234.68024 237.40893
 239.70644 241.60899 243.46854 245.67368 247.68154 249.52395 251.24767 252.78566
 254.12057 255.26479 256.23740 257.09036 257.82852 258.48160 259.07744 259.61723
 260.10271 260.53504 260.91270 261.39400
 399.73800 389.78500 379.66200 368.15100 356.64100 344.35000 331.79200 318.88800
 305.72600 292.49300 279.20900 266.73800 254.69600 244.21100 234.45700 225.43300
 217.56900 210.45100 204.30000 199.30600 195.45800 192.57600 191.02700 190.38600
 190.23900 190.53400 191.16600 191.92500 192.79500 193.76600 194.73200 195.31200
 195.80000 196.05200 196.11500 196.11500 196.03900 195.72300 195.34000 194.98900
 194.75100 194.79200 195.13300 195.59800 196.50600 198.13600 199.85800 201.56600
 204.17900 206.82300 209.89300 213.28400 216.82800 220.60500 224.38700 228.20900
 232.03200 235.82500 239.56000 243.25800 246.84500 250.20100 253.70900 257.46800
 261.53000 264.22100 266.60100 268.68100 270.32900 271.74100 272.83600 273.47400
 273.89800 274.00200 273.75700 273.28800 272.37100 271.10000 269.58900 267.77900
 265.81600 263.72100 261.39300 258.91600 256.29800 253.42300 250.33100 247.11400
 243.83700 240.52900 237.24900 233.99900 230.72800 227.51500 224.25400 220.95200
 217.62700 213.65600 210.12100 206.78900 204.01000 201.99491 199.07309 198.76551
 199.40006 200.48994 201.46112 202.31912 203.45100 204.96110 207.47502 210.85391
 213.70530 217.29629 220.99574 224.72316 228.28753 231.64854 234.68024 237.40893
 239.70644 241.60899 243.46854 245.67368 247.68154 249.52395 251.24767 252.78566
 254.12057 255.26479 256.23740 257.09036 257.82852 258.48160 259.07744 259.61723
 260.10271 260.53504 260.91270 261.39400
 399.33000 389.90700 379.81300 368.66800 357.52200 345.30100 333.07400 320.22700
 307.21600 293.84800 280.37600 267.29600 254.61000 242.98700 232.15100 221.97700
 212.67200 204.28600 197.66900 192.82100 189.48600 187.45200 186.81400 187.08900
 187.78100 189.05400 190.64800 192.54200 194.63000 196.75200 198.67100 200.15800
 201.53500 202.48700 202.97500 203.34000 203.53900 203.49700 203.38500 203.24700
 203.00500 202.78600 202.60300 202.43700 202.42600 202.88800 203.42000 203.95100
 204.89500 205.99200 207.30100 208.95800 210.73800 213.10000 215.56400 218.18000
 220.96600 223.91800 226.96100 230.09200 233.29300 236.55700 239.95500 243.53700
 246.84500 249.39000 251.54200 253.47400 255.19500 256.48400 257.43100 258.05900
 258.21200 258.04000 257.58200 256.64300 255.23900 253.50700 251.40800 249.05600
 246.57600 243.99400 241.38900 238.83000 236.34400 233.98600 231.96900 230.11800
 228.42300 226.89900 225.54800 224.29700 223.10500 221.96500 220.95800 220.11300
 219.49000 218.92000 218.32500 217.88100 217.42300 216.96366 216.35568 216.80261
 217.73415 218.28582 218.64258 219.10077 220.44626 222.53987 226.38451 230.35736
 233.59734 237.39164 241.29814 245.22796 248.98002 252.51130 255.78595 258.80109
 261.54781 264.05210 266.34239 268.04198 269.58951 271.01303 272.35754 273.55718
 274.59842 275.49092 276.28989 276.99307 277.60161 278.14001 278.63122 279.07623
 279.47646 279.83287 280.14422 280.54100
 381.81900 372.39900 361.20600 349.77600 337.62200 324.85300 311.81000 298.35300
 284.86000 271.32400 258.56100 246.30400 236.08700 226.79600 218.44800 211.29000
 205.52200 200.89400 197.38100 194.84800 193.01500 192.31500 192.25000 192.43100
 192.91200 193.53700 194.13600 194.71200 195.26200 195.83100 196.39300 196.97600
 197.60400 198.14900 198.58400 199.05700 199.69500 200.37800 201.05400 201.70800
 202.31300 202.85700 203.35500 203.86200 204.56900 205.29700 206.02600 206.98700
 208.19300 209.44100 210.96900 212.57600 214.46200 216.51300 218.63000 220.85300
 223.34100 225.96200 228.73900 231.69700 234.70600 237.70600 240.69200 243.65700
 246.73700 249.69900 252.52100 255.06300 257.29000 259.23300 260.63300 261.68000
 262.46100 262.79800 262.69100 262.22400 261.06900 259.52500 257.70700 255.50700
 253.00100 250.30200 247.39800 244.45200 241.65400 239.05400 236.73300 234.59000
 232.59500 230.72500 228.83400 226.82600 224.66600 222.38700 220.10400 217.71500
 215.45900 213.06600 210.54600 208.09300 205.35400 202.08130 196.05959 200.71215
 209.01611 216.90438 223.84126 229.78593 235.00632 240.20838 245.98943 250.68668
 254.32982 257.93487 261.55666 264.96801 268.15192 271.06452 273.76717 276.25691
 278.57680 280.74479 282.77456 284.60533 286.27232 287.81705 289.31715 290.65561
 291.81734 292.81312 293.70701 294.49387 295.17482 295.77730 296.32696 296.82492
 297.27278 297.67160 298.02000 298.46400
 366.78100 356.33714 345.77128 334.63942 323.04457 311.24071 299.11285 286.91799
 274.63213 262.53127 250.54242 239.84556 229.96970 221.07584 213.25998 206.26412
 200.10027 195.04041 191.62455 189.66869 188.70783 188.77397 189.61112 190.92126
 192.64840 194.74554 197.01068 199.37182 201.81897 204.30111 206.39125 208.23539
 209.86353 211.01067 211.24182 211.47196 211.41110 211.11824 210.75338 210.38552
 210.00466 209.71681 209.52695 209.39309 209.32323 209.65637 210.04451 210.43566
 211.23080 212.41094 213.66308 215.44822 217.37836 219.42351 221.52065 223.60579
 225.66793 227.75407 229.85321 231.96136 234.09250 236.26664 238.52478 240.89692
 243.52006 245.77321 247.77735 249.54449 250.96363 252.08877 252.91291 253.23106
 253.27020 253.04634 252.40848 251.35862 249.96676 248.12990 246.04105 243.87619
 241.66933 239.47547 237.29761 235.13875 233.00090 230.87004 228.89818 227.05732
 225.34246 223.81660 222.44875 221.22289 220.10703 219.06917 218.17531 217.31845
 216.56260 215.74474 214.84488 214.21102 213.66316 213.09064 211.74712 212.43123
 214.05878 215.93765 217.20108 217.59001 218.63190 222.75894 228.52531 233.36456
 237.14537 240.91597 244.68065 248.37714 251.90846 254.95316 257.54779 260.03241
 262.62924 265.18488 267.59869 269.72495 271.76257 273.72299 275.35776 276.94675
 278.61356 280.27927 281.80640 283.16553 284.34860 285.39859 286.36053 287.23532
 288.02734 288.73758 289.36368 290.19916
 366.78100 356.33641 345.76981 334.63722 323.04162 311.23703 299.10844 286.91284
 274.62625 262.52465 250.53506 239.83747 229.96087 221.06628 213.24968 206.25309
 200.08850 195.02790 191.61131 189.65471 188.69312 188.75853 189.59493 190.90434
 192.63074 194.72715 196.99156 199.35196 201.79837 204.27977 206.36918 208.21259
 209.83999 210.98640 211.21680 211.44621 211.38462 211.09102 210.72543 210.35683
 209.97524 209.68665 209.49605 209.36146 209.29086 209.62327 210.01068 210.40108
 211.19549 212.37489 213.62630 215.41071 217.34011 219.38452 221.48092 223.56533
 225.62674 227.71214 229.81055 231.91795 234.04836 236.22177 238.47917 240.85058
 243.47298 245.72539 247.72880 249.49520 250.91361 252.03801 252.86142 253.17883
 253.21723 252.99264 252.35404 251.30345 249.91086 248.07326 245.98367 243.81807
 241.61048 239.41589 237.23729 235.07770 232.93910 230.80751 228.83492 226.99332
 225.27773 223.75113 222.38254 221.15595 220.03935 219.00076 218.10616 217.24857
 216.49198 215.67338 214.77279 214.13819 213.58960 213.05998 211.81653 212.55934
 214.18916 216.05672 217.22562 217.68750 218.65764 222.79776 228.46313 233.27092
 237.04486 240.82048 244.59622 248.27194 251.72057 254.73431 257.38364 259.93466
 262.47266 264.98660 267.44064 269.60391 271.64853 273.59836 275.22955 276.82629
 278.49619 280.16202 281.69080 283.05182 284.23572 285.28500 286.24701 287.12247
 287.91501 288.62573 289.25253 290.08881
 366.78100 356.33566 345.76831 334.63497 323.03863 311.23329 299.10394 286.90760
 274.62026 262.51791 250.52757 239.82923 229.95189 221.05654 213.23920 206.24186
 200.07651 195.01517 191.59783 189.64048 188.67814 188.74280 189.57846 190.88711
 192.61277 194.70843 196.97208 199.33174 201.77740 204.25806 206.34671 208.18937
 209.81603 210.96168 211.19134 211.42000 211.35766 211.06331 210.69697 210.32763
 209.94528 209.65594 209.46460 209.32926 209.25791 209.58957 209.97623 210.36588
 211.15954 212.33820 213.58885 215.37251 217.30117 219.34483 221.44048 223.52414
 225.58480 227.66945 229.76711 231.87377 234.00343 236.17608 238.43274 240.80340
 243.42505 245.67671 247.67937 249.44503 250.86268 251.98634 252.80900 253.12565
 253.16331 252.93797 252.29863 251.24728 249.85394 248.01560 245.92525 243.75891
 241.55057 239.35522 237.17588 235.01554 232.87620 230.74385 228.77051 226.92817
 225.21182 223.68448 222.31514 221.08780 219.97045 218.93111 218.03577 217.17742
 216.42008 215.60074 214.69940 214.06405 213.51471 213.02898 211.88786 212.68434
 214.31126 216.15187 217.28349 217.77097 218.73802 222.82411 228.41261 233.18309
 236.94339 240.71895 244.50166 248.15787 251.52486 254.51085 257.21994 259.83813
 262.31448 264.79086 267.27118 269.47379 271.53137 273.46933 275.09357 276.69363
 278.37735 280.05682 281.58887 282.95132 284.13437 285.18555 286.14725 287.02359
 287.81641 288.52722 289.15460 289.99081
 366.78100 356.33529 345.76759 334.63388 323.03717 311.23147 299.10176 286.90505
 274.61735 262.51464 250.52393 239.82522 229.94752 221.05181 213.23410 206.23640
 200.07069 195.00898 191.59128 189.63357 188.67086 188.73516 189.57045 190.87874
 192.60404 194.69933 196.96262 199.32192 201.76721 204.24750 206.33580 208.17809
 209.80438 210.94967 211.17897 211.40726 211.34455 211.04985 210.68314 210.31343
 209.93073 209.64102 209.44931 209.31361 209.24190 209.57319 209.95949 210.34878
 211.14207 212.32037 213.57066 215.35395 217.28224 219.32554 221.42083 223.50412
 225.56442 227.64871 229.74600 231.85230 233.98159 236.15388 238.41018 240.78047
 243.40176 245.65306 247.65535 249.42064 250.83794 251.96123 252.78352 253.09982
 253.13711 252.91140 252.27169 251.21999 249.82628 247.98757 245.89687 243.73016
 241.52145 239.32575 237.14604 234.98533 232.84563 230.71292 228.73921 226.89651
 225.17980 223.65209 222.28239 221.05468 219.93697 218.89727 218.00156 217.14285
 216.38514 215.56544 214.66373 214.02802 213.47832 213.01938 211.94043 212.80898
 214.42111 216.21683 217.36569 217.86246 218.87074 222.83212 228.37219 233.10645
 236.84357 240.62135 244.40753 248.04561 251.33253 254.29123 257.06146 259.74255
 262.16434 264.57706 267.09567 269.34216 271.41928 273.35040 274.98169 276.58365
 278.27652 279.94525 281.47772 282.84171 284.02481 285.07571 286.03873 286.91409
 287.70715 288.41724 289.04535 289.88144
 366.78100 356.33495 345.76690 334.63284 323.03579 311.22974 299.09969 286.90264
 274.61459 262.51153 250.52048 239.82143 229.94338 221.04733 213.22927 206.23122
 200.06517 195.00312 191.58507 189.62702 188.66396 188.72791 189.56286 190.87081
 192.59576 194.69070 196.95365 199.31260 201.75755 204.23750 206.32545 208.16739
 209.79334 210.93829 211.16724 211.39519 211.33213 211.03708 210.67003 210.29998
 209.91693 209.62688 209.43482 209.29877 209.22672 209.55767 209.94362 210.33256
 211.12551 212.30346 213.55341 215.33636 217.26430 219.30725 221.40220 223.48515
 225.54510 227.62905 229.72599 231.83194 233.96089 236.13284 238.38879 240.75873
 243.37968 245.63063 247.63258 249.39753 250.81448 251.93742 252.75937 253.07532
 253.11227 252.88622 252.24616 251.19411 249.80006 247.96101 245.86996 243.70291
 241.49385 239.29780 237.11775 234.95670 232.81665 230.68359 228.70954 226.86649
 225.14944 223.62139 222.25134 221.02328 219.90523 218.86518 217.96913 217.11008
 216.35202 215.53197 214.62992 213.99387 213.44382 213.01376 212.00169 212.91756
 214.52057 216.28151 217.44119 217.95430 219.01105 222.83768 228.33925 233.03769
 236.74953 240.52635 244.31329 247.93106 251.14256 254.07776 256.90863 259.64914
 262.02316 264.37598 266.92209 269.20282 271.29672 273.22552 274.87451 276.48907
 278.18304 279.83981 281.37186 282.73486 283.91888 284.97009 285.93335 286.80884
 287.60019 288.31293 288.93851 289.77847
 366.78100 356.33442 345.76585 334.63127 323.03369 311.22712 299.09654 286.89897
 274.61039 262.50681 250.51524 239.81566 229.93708 221.04051 213.22193 206.22336
 200.05678 194.99420 191.57563 189.61705 188.65347 188.71690 189.55132 190.85875
 192.58317 194.67759 196.94002 199.29844 201.74286 204.22229 206.30971 208.15114
 209.77656 210.92098 211.14941 211.37683 211.31325 211.01768 210.65010 210.27953
 209.89595 209.60537 209.41280 209.27622 209.20364 209.53407 209.91949 210.30792
 211.10034 212.27776 213.52719 215.30961 217.23703 219.27946 221.37388 223.45630
 225.51573 227.59915 229.69558 231.80100 233.92942 236.10085 238.35627 240.72569
 243.34612 245.59654 247.59797 249.36239 250.77881 251.90124 252.72266 253.03808
 253.07451 252.84793 252.20736 251.15478 249.76020 247.92063 245.82905 243.66147
 241.45190 239.25532 237.07475 234.91317 232.77259 230.63902 228.66444 226.82086
 225.10329 223.57471 222.20414 220.97556 219.85698 218.81641 217.91983 217.06025
 216.30168 215.48110 214.57853 213.94195 213.39137 212.99971 212.07693 213.02547
 214.61421 216.35023 217.51178 218.03423 219.12935 222.84904 228.31221 232.96976
 236.65918 240.42883 244.21570 247.80962 250.94882 253.86086 256.74768 259.54953
 261.87967 264.19437 266.74637 269.05011 271.15979 273.09125 274.74988 276.37820
 278.08176 279.75052 281.28610 282.65039 283.83347 284.88544 285.84827 286.72461
 287.51764 288.22931 288.85712 289.69608
 366.78100 356.33385 345.76470 334.62955 323.03140 311.22424 299.09309 286.89494
 274.60579 262.50164 250.50949 239.80934 229.93019 221.03304 213.21388 206.21473
 200.04758 194.98443 191.56528 189.60613 188.64198 188.70483 189.53868 190.84553
 192.56937 194.66322 196.92507 199.28292 201.72677 204.20562 206.29247 208.13332
 209.75817 210.90201 211.12986 211.35671 211.29256 210.99641 210.62826 210.25711
 209.87296 209.58181 209.38865 209.25150 209.17835 209.50820 209.89305 210.28090
 211.07275 212.24960 213.49845 215.28030 217.20714 219.24899 221.34284 223.42469
 225.48354 227.56639 229.66224 231.76709 233.89494 236.06578 238.32063 240.68948
 243.30933 245.55918 247.56003 249.32388 250.73973 251.86158 252.68242 252.99727
 253.03312 252.80597 252.16482 251.11167 249.71652 247.87637 245.78422 243.61607
 241.40591 239.20876 237.02761 234.86546 232.72431 230.59016 228.61501 226.77086
 225.05271 223.52355 222.15240 220.92325 219.80410 218.76295 217.86580 217.00565
 216.24650 215.42535 214.52219 213.88504 213.33389 212.98187 212.15150 213.14497
 214.70001 216.41808 217.59163 218.11232 219.24182 222.86298 228.28798 232.90158
 236.57057 240.33492 244.11990 247.68546 250.75423 253.63728 256.57211 259.43582
 261.73157 264.01443 266.55862 268.88474 271.01733 272.96228 274.62933 276.27417
 277.98590 279.68283 281.22430 282.58954 283.77603 284.82950 285.79517 286.67657
 287.47867 288.19714 288.83252 289.67044
 366.78100 356.33318 345.76336 334.62754 323.02872 311.22091 299.08909 286.89027
 274.60045 262.49563 250.50281 239.80199 229.92217 221.02435 213.20453 206.20472
 200.03690 194.97308 191.55326 189.59344 188.62862 188.69080 189.52398 190.83016
 192.55335 194.64653 196.90771 199.26489 201.70807 204.18625 206.27243 208.11261
 209.73679 210.87997 211.10716 211.33334 211.26852 210.97170 210.60288 210.23106
 209.84624 209.55442 209.36060 209.22279 209.14897 209.47815 209.86233 210.24951
 211.04069 212.21687 213.46505 215.24623 217.17241 219.21360 221.30678 223.38796
 225.44614 227.52832 229.62350 231.72768 233.85486 236.02504 238.27923 240.64741
 243.26659 245.51577 247.51595 249.27913 250.69431 251.81549 252.63567 252.94985
 252.98504 252.75722 252.11540 251.06158 249.66576 247.82494 245.73212 243.56330
 241.35248 239.15467 236.97285 234.81003 232.66821 230.53339 228.55757 226.71275
 224.99393 223.46411 222.09229 220.86248 219.74266 218.70084 217.80302 216.94220
 216.18238 215.36056 214.45674 213.81892 213.26711 212.95929 212.23213 213.26759
 214.77803 216.48288 217.67445 218.18675 219.37062 222.87340 228.26892 232.83701
 236.48314 240.24719 244.02866 247.56264 250.56293 253.41451 256.39053 259.31357
 261.58777 263.83908 266.37079 268.71652 270.87482 272.83478 274.51385 276.17285
 277.89929 279.62732 281.17282 282.53882 283.72549 284.78128 285.74738 286.62949
 287.43381 288.15540 288.78873 289.62872
 366.78100 356.33247 345.76195 334.62542 323.02590 311.21737 299.08485 286.88532
 274.59480 262.48927 250.49575 239.79422 229.91369 221.01517 213.19464 206.19412
 200.02559 194.96107 191.54054 189.58002 188.61449 188.67597 189.50844 190.81392
 192.53639 194.62886 196.88934 199.24581 201.68829 204.16576 206.25124 208.09071
 209.71419 210.85666 211.08314 211.30861 211.24308 210.94556 210.57603 210.20351
 209.81798 209.52546 209.33093 209.19241 209.11788 209.44636 209.82983 210.21630
 211.00678 212.18225 213.42973 215.21020 217.13568 219.17615 221.26863 223.34910
 225.40658 227.48805 229.58253 231.68600 233.81247 235.98195 238.23542 240.60290
 243.22137 245.46985 247.46932 249.23180 250.64627 251.76675 252.58622 252.89969
 252.93417 252.70564 252.06312 251.00859 249.61207 247.77054 245.67702 243.50749
 241.29597 239.09744 236.91491 234.75139 232.60886 230.47334 228.49681 226.65129
 224.93176 223.40124 222.02871 220.79819 219.67766 218.63513 217.73661 216.87508
 216.11456 215.29203 214.38751 213.74898 213.19646 212.93484 212.31673 213.39769
 214.85289 216.54042 217.74953 218.25949 219.50456 222.88678 228.24458 232.77385
 236.40094 240.16757 243.94130 247.43803 250.37091 253.19164 256.20392 259.17883
 261.44620 263.67175 266.19186 268.55481 270.74026 272.71844 274.41254 276.07849
 277.82758 279.56897 281.11679 282.48349 283.67120 284.72754 285.69299 286.57794
 287.38348 288.10574 288.74313 289.58490
 366.78100 356.33178 345.76056 334.62334 323.02312 311.21391 299.08069 286.88047
 274.58925 262.48303 250.48881 239.78659 229.90537 221.00615 213.18493 206.18372
 200.01450 194.94928 191.52806 189.56684 188.60062 188.66140 189.49318 190.79796
 192.51975 194.61153 196.87131 199.22709 201.66887 204.14565 206.23043 208.06921
 209.69199 210.83377 211.05956 211.28434 211.21812 210.91990 210.54968 210.17646
 209.79024 209.49702 209.30180 209.16259 209.08737 209.41515 209.79793 210.18371
 210.97349 212.14827 213.39505 215.17483 217.09961 219.13940 221.23118 223.31096
 225.36774 227.44852 229.54230 231.64508 233.77086 235.93964 238.19243 240.55921
 243.17699 245.42477 247.42355 249.18533 250.59911 251.71889 252.53767 252.85046
 252.88424 252.65502 252.01180 250.95658 249.55936 247.71714 245.62292 243.45270
 241.24048 239.04127 236.85805 234.69383 232.55061 230.41439 228.43717 226.59095
 224.87073 223.33951 221.96630 220.73508 219.61386 218.57064 217.67142 216.80920
 216.04798 215.22476 214.31954 213.68032 213.12711 212.91139 212.40173 213.53113
 214.93089 216.59303 217.82674 218.31740 219.66031 222.88336 228.22682 232.71606
 236.32030 240.08876 243.85254 247.31035 250.17888 252.96927 256.00980 259.02664
 261.29843 263.50830 266.01935 268.40015 270.61755 272.62250 274.33435 276.00577
 277.75836 279.50388 281.05328 282.42023 283.60864 284.66473 285.63388 286.51843
 287.32477 288.05084 288.68671 289.53296
 366.78100 356.33124 345.75947 334.62171 323.02094 311.21118 299.07742 286.87665
 274.58489 262.47812 250.48336 239.78059 229.89883 220.99907 213.17730 206.17554
 200.00577 194.94001 191.51825 189.55648 188.58972 188.64995 189.48119 190.78542
 192.50666 194.59790 196.85713 199.21237 201.65360 204.12984 206.21408 208.05231
 209.67455 210.81578 211.04102 211.26526 211.19849 210.89973 210.52896 210.15520
 209.76843 209.47467 209.27891 209.13914 209.06338 209.39061 209.77285 210.15809
 210.94732 212.12156 213.36779 215.14703 217.07126 219.11050 221.20174 223.28097
 225.33721 227.41744 229.51068 231.61292 233.73815 235.90639 238.15862 240.52486
 243.14210 245.38933 247.38757 249.14880 250.56204 251.68127 252.49951 252.81175
 252.84498 252.61522 251.97145 250.91569 249.51793 247.67516 245.58040 243.40963
 241.19687 238.99710 236.81334 234.64858 232.50481 230.36805 228.39028 226.54352
 224.82276 223.29099 221.91723 220.68546 219.56370 218.51994 217.62017 216.75741
 215.99564 215.17188 214.26611 213.62635 213.07259 212.89671 212.48120 213.66437
 215.00668 216.64821 217.89957 218.39665 219.81345 222.89880 228.19624 232.64986
 236.24063 240.01611 243.76894 247.18402 249.98662 252.74289 255.80252 258.85129
 261.14108 263.35281 265.85553 268.25537 270.50485 272.53989 274.27274 275.95230
 277.69086 279.43741 280.98703 282.35559 283.54388 284.60046 285.56946 286.45578
 287.26517 287.99158 288.62769 289.47491
 366.78100 356.33131 345.75962 334.62193 323.02124 311.21155 299.07786 286.87717
 274.58548 262.47878 250.48409 239.78140 229.89971 221.00002 213.17833 206.17664
 200.00695 194.94126 191.51957 189.55788 188.59119 188.65150 189.48281 190.78712
 192.50843 194.59974 196.85904 199.21435 201.65566 204.13197 206.21628 208.05459
 209.67690 210.81821 211.04352 211.26783 211.20114 210.90245 210.53176 210.15807
 209.77138 209.47769 209.28200 209.14230 209.06661 209.39392 209.77623 210.16154
 210.95085 212.12516 213.37147 215.15078 217.07509 219.11440 221.20571 223.28502
 225.34133 227.42164 229.51495 231.61726 233.74256 235.91087 238.16318 240.52949
 243.14680 245.39411 247.39242 249.15373 250.56704 251.68635 252.50466 252.81697
 252.85028 252.62059 251.97690 250.92121 249.52352 247.68082 245.58613 243.41544
 241.20275 239.00306 236.81937 234.65468 232.51099 230.37430 228.39661 226.54992
 224.82923 223.29754 221.92385 220.69216 219.57047 218.52677 217.62708 216.76439
 216.00270 215.17901 214.27332 213.63363 213.07994 212.91603 212.52875 213.80682
 215.08253 216.68245 218.02103 218.47105 220.00575 222.89407 228.17265 232.59662
 236.16586 239.94691 243.68080 247.04068 249.77591 252.50403 255.58188 258.65979
 260.98776 263.21646 265.70746 268.12155 270.40082 272.46518 274.21518 275.89719
 277.62631 279.37302 280.92380 282.29175 283.47931 284.53391 285.50256 286.38812
 287.19534 287.91678 288.53976 289.37643
 366.78100 356.33096 345.75893 334.62089 323.01985 311.20981 299.07578 286.87474
 274.58270 262.47567 250.48063 239.77759 229.89555 220.99552 213.17348 206.17144
 200.00141 194.93537 191.51333 189.55129 188.58426 188.64422 189.47518 190.77915
 192.50011 194.59107 196.85003 199.20500 201.64596 204.12192 206.20589 208.04385
 209.66581 210.80678 211.03174 211.25570 211.18866 210.88963 210.51859 210.14455
 209.75752 209.46348 209.26744 209.12740 209.05137 209.37833 209.76029 210.14526
 210.93422 212.10818 213.35414 215.13311 217.05707 219.09603 221.18700 223.26596
 225.32192 227.40188 229.49485 231.59681 233.72177 235.88974 238.14170 240.50766
 243.12462 245.37159 247.36955 249.13051 250.54348 251.66244 252.48040 252.79236
 252.82533 252.59529 251.95125 250.89522 249.49718 247.65414 245.55910 243.38807
 241.17503 238.97499 236.79096 234.62592 232.48188 230.34484 228.36681 226.51977
 224.79873 223.26670 221.89266 220.66062 219.53859 218.49455 217.59451 216.73147
 215.96944 215.14540 214.23936 213.59933 213.04529 212.91753 212.61565 213.90321
 215.16914 216.69559 218.07823 218.67627 220.24031 222.88245 228.14909 232.54053
 236.07957 239.86420 243.57681 246.88046 249.55775 252.26744 255.36134 258.46625
 260.84720 263.09741 265.57266 267.99612 270.30447 272.39987 274.16901 275.85135
 277.56738 279.30273 280.85150 282.21884 283.40628 284.46082 285.42728 286.31253
 287.11783 287.84207 288.46054 289.29688
 366.78100 356.33060 345.75821 334.61981 323.01842 311.20802 299.07362 286.87223
 274.57983 262.47244 250.47704 239.77365 229.89125 220.99085 213.16846 206.16606
 199.99567 194.92927 191.50687 189.54448 188.57708 188.63669 189.46729 190.77090
 192.49150 194.58210 196.84071 199.19531 201.63592 204.11152 206.19512 208.03273
 209.65433 210.79494 211.01954 211.24315 211.17575 210.87635 210.50496 210.13056
 209.74317 209.44877 209.25237 209.11198 209.03558 209.36219 209.74379 210.12839
 210.91700 212.09060 213.33621 215.11481 217.03842 219.07702 221.16762 223.24623
 225.30183 227.38144 229.47404 231.57564 233.70025 235.86785 238.11946 240.48506
 243.10167 245.34827 247.34587 249.10648 250.51908 251.63769 252.45529 252.76689
 252.79950 252.56910 251.92471 250.86831 249.46992 247.62652 245.53112 243.35973
 241.14633 238.94594 236.76154 234.59614 232.45175 230.31435 228.33596 226.48856
 224.76716 223.23477 221.86037 220.62798 219.50558 218.46119 217.56079 216.69739
 215.93500 215.11060 214.20421 213.56381 213.00941 212.92110 212.71246 213.97975
 215.28905 216.75839 218.07483 218.83434 220.41504 222.96849 228.11429 232.45683
 235.97687 239.76930 243.46643 246.72171 249.35106 252.04233 255.14389 258.26862
 260.70731 262.98721 265.44604 267.88034 270.21628 272.34662 274.13501 275.81866
 277.51807 279.23294 280.77878 282.14484 283.33252 284.38644 285.35321 286.23737
 287.04755 287.76874 288.38550 289.22458
 366.78100 356.33065 345.75830 334.61995 323.01861 311.20826 299.07391 286.87256
 274.58021 262.47286 250.47751 239.77417 229.89182 220.99147 213.16912 206.16677
 199.99642 194.93007 191.50773 189.54538 188.57803 188.63768 189.46833 190.77198
 192.49263 194.58329 196.84194 199.19659 201.63724 204.11289 206.19654 208.03419
 209.65585 210.79650 211.02115 211.24480 211.17745 210.87810 210.50676 210.13241
 209.74506 209.45071 209.25436 209.11401 209.03766 209.36432 209.74597 210.13062
 210.91927 212.09292 213.33857 215.11722 217.04088 219.07953 221.17018 223.24883
 225.30448 227.38413 229.47678 231.57844 233.70309 235.87074 238.12239 240.48804
 243.10469 245.35134 247.34900 249.10965 250.52230 251.64095 252.45860 252.77025
 252.80290 252.57256 251.92821 250.87186 249.47351 247.63016 245.53481 243.36346
 241.15012 238.94977 236.76542 234.60007 232.45572 230.31837 228.34002 226.49268
 224.77133 223.23898 221.86463 220.63228 219.50993 218.46558 217.56524 216.70189
 215.93954 215.11519 214.20884 213.56849 213.01414 212.94807 212.79199 214.06454
 215.37936 216.83841 218.13280 218.97282 220.52521 223.10963 228.06859 232.36092
 235.87096 239.67555 243.35951 246.57008 249.15738 251.83138 254.93402 258.07233
 260.57465 262.88168 265.33417 267.77859 270.13992 272.30429 274.11353 275.79504
 277.47961 279.15750 280.70126 282.06778 283.25446 284.30804 285.27344 286.15833
 286.96866 287.68640 288.30621 289.14685
 366.78100 356.33135 345.75970 334.62205 323.02140 311.21175 299.07811 286.87746
 274.58581 262.47916 250.48451 239.78186 229.90021 221.00056 213.17891 206.17726
 200.00761 194.94197 191.52032 189.55867 188.59202 188.65237 189.48372 190.78807
 192.50942 194.60077 196.86012 199.21547 201.65683 204.13318 206.21753 208.05588
 209.67823 210.81958 211.04493 211.26928 211.20263 210.90398 210.53333 210.15969
 209.77304 209.47939 209.28374 209.14409 209.06844 209.39579 209.77814 210.16349
 210.95284 212.12719 213.37355 215.15290 217.07725 219.11660 221.20795 223.28730
 225.34365 227.42400 229.51735 231.61970 233.74505 235.91341 238.16576 240.53211
 243.14946 245.39681 247.39516 249.15651 250.56986 251.68921 252.50756 252.81991
 252.85327 252.62362 251.97997 250.92432 249.52667 247.68402 245.58937 243.41872
 241.20607 239.00642 236.82277 234.65813 232.51448 230.37783 228.40018 226.55353
 224.83288 223.30123 221.92758 220.69593 219.57428 218.53063 217.63099 216.76834
 216.00669 215.18304 214.27739 213.63774 213.08409 213.01830 212.88510 214.09061
 215.44193 216.90514 218.20589 219.05969 220.54832 223.14964 227.95468 232.26599
 235.73766 239.57779 243.25259 246.42014 248.93213 251.57773 254.69939 257.87717
 260.50235 262.87482 265.28989 267.73193 270.10440 272.28143 274.14508 275.83026
 277.47092 279.09558 280.62534 281.99130 283.17551 284.22842 285.19339 286.07703
 286.88885 287.65115 288.32776 289.19000
 366.78100 356.33168 345.76035 334.62303 323.02271 311.21338 299.08006 286.87974
 274.58842 262.48209 250.48777 239.78545 229.90412 221.00480 213.18348 206.18215
 200.01283 194.94751 191.52619 189.56486 188.59854 188.65922 189.49089 190.79557
 192.51725 194.60892 196.86860 199.22428 201.66596 204.14263 206.22731 208.06599
 209.68866 210.83034 211.05602 211.28069 211.21437 210.91605 210.54573 210.17240
 209.78608 209.49276 209.29743 209.15811 209.08279 209.41046 209.79314 210.17882
 210.96850 212.14317 213.38985 215.16953 217.09420 219.13388 221.22556 223.30523
 225.36191 227.44259 229.53627 231.63894 233.76462 235.93330 238.18597 240.55265
 243.17033 245.41800 247.41668 249.17836 250.59204 251.71171 252.53039 252.84307
 252.87674 252.64742 252.00410 250.94877 249.55145 247.70913 245.61481 243.44448
 241.23216 239.03284 236.84951 234.68519 232.54187 230.40554 228.42822 226.58190
 224.86158 223.33025 221.95693 220.72561 219.60428 218.56096 217.66164 216.79931
 216.03799 215.21467 214.30935 213.67002 213.11670 213.07831 213.04904 214.11703
 215.40208 216.82706 218.18529 219.20882 220.73735 223.39153 227.88161 232.19386
 235.63477 239.44633 243.06927 246.16997 248.77066 251.46645 254.55453 257.67178
 260.41602 262.90689 265.34369 267.75146 270.10440 272.27332 274.16245 275.85547
 277.45947 279.05228 280.59677 281.97079 283.16821 284.24469 285.26819 286.29941
 287.22690 288.05280 288.77429 289.69379
 366.78100 356.33246 345.76191 334.62537 323.02583 311.21729 299.08474 286.88520
 274.59466 262.48911 250.49557 239.79403 229.91349 221.01494 213.19440 206.19386
 200.02531 194.96077 191.54023 189.57969 188.61414 188.67560 189.50806 190.81352
 192.53597 194.62843 196.88889 199.24534 201.68780 204.16526 206.25072 208.09017
 209.71363 210.85609 211.08254 211.30800 211.24246 210.94492 210.57537 210.20283
 209.81729 209.52474 209.33020 209.19166 209.11712 209.44557 209.82903 210.21549
 211.00594 212.18140 213.42886 215.20932 217.13477 219.17523 221.26769 223.34814
 225.40560 227.48706 229.58152 231.68497 233.81143 235.98089 238.23434 240.60180
 243.22026 245.46872 247.46817 249.23063 250.64509 251.76555 252.58500 252.89846
 252.93292 252.70437 252.06183 251.00729 249.61075 247.76920 245.67566 243.50612
 241.29457 239.09603 236.91349 234.74995 232.60740 230.47186 228.49532 226.64977
 224.93023 223.39969 222.02715 220.79660 219.67606 218.63352 217.73497 216.87343
 216.11289 215.29035 214.38580 213.74726 213.19472 213.15459 213.15144 214.20883
 215.47957 216.91177 218.29147 219.39441 220.94568 223.57797 227.87804 232.11801
 235.56241 239.34712 242.92883 245.97273 248.57201 251.28586 254.38583 257.53571
 260.31677 262.80692 265.32971 267.77640 270.12524 272.28333 274.16669 275.81845
 277.36948 279.00757 280.56870 281.96405 283.20859 284.42172 285.58502 286.63889
 287.58673 288.43079 289.16812 290.10779
 366.78100 356.33208 345.76115 334.62423 323.02431 311.21538 299.08246 286.88253
 274.59161 262.48569 250.49176 239.78984 229.90892 221.00999 213.18907 206.18814
 200.01922 194.95430 191.53337 189.57245 188.60653 188.66760 189.49968 190.80476
 192.52683 194.61891 196.87898 199.23506 201.67714 204.15421 206.23929 208.07837
 209.70144 210.84352 211.06959 211.29467 211.22875 210.93082 210.56090 210.18798
 209.80205 209.50913 209.31421 209.17528 209.10036 209.42843 209.81151 210.19759
 210.98766 212.16274 213.40982 215.18989 217.11497 219.15504 221.24712 223.32720
 225.38427 227.46535 229.55943 231.66250 233.78858 235.95766 238.21073 240.57781
 243.19588 245.44396 247.44304 249.20511 250.61919 251.73927 252.55834 252.87142
 252.90549 252.67657 252.03365 250.97872 249.58180 247.73988 245.64595 243.47603
 241.26411 239.06518 236.88226 234.71833 232.57541 230.43949 228.46256 226.61664
 224.89672 223.36579 221.99287 220.76194 219.64102 218.59810 217.69917 216.83725
 216.07633 215.25340 214.34848 213.70956 213.15663 213.16338 213.27867 214.35239
 215.60553 217.01228 218.38329 219.52777 221.10291 223.68623 227.85901 232.02948
 235.46057 239.20551 242.73116 245.72507 248.31636 251.04945 254.16100 257.35468
 260.00568 262.79645 265.36188 267.76138 270.06781 272.21179 274.05771 275.68768
 277.26141 278.91589 280.48398 281.89203 283.19107 284.47021 285.63727 286.69452
 287.64539 288.49216 289.23187 290.17456
 366.78100 356.33001 345.75701 334.61802 323.01603 311.20504 299.07004 286.86805
 274.57506 262.46707 250.47107 239.76708 229.88409 220.98310 213.16010 206.15711
 199.98612 194.91913 191.49613 189.53314 188.56515 188.62415 189.45416 190.75717
 192.47718 194.56718 196.82519 199.17920 201.61921 204.09421 206.17722 208.01423
 209.63524 210.77524 210.99925 211.22226 211.15427 210.85427 210.48228 210.10729
 209.71930 209.42430 209.22731 209.08632 209.00932 209.33533 209.71634 210.10035
 210.88835 212.06136 213.30637 215.08438 217.00738 219.04539 221.13540 223.21341
 225.26841 227.34742 229.43943 231.54044 233.66444 235.83145 238.08246 240.44746
 243.06347 245.30948 247.30649 249.06649 250.47850 251.59651 252.41352 252.72452
 252.75653 252.52554 251.88055 250.82355 249.42456 247.58057 245.48458 243.31258
 241.09859 238.89760 236.71260 234.54661 232.40162 230.26363 228.28463 226.43664
 224.71465 223.18166 221.80666 220.57367 219.45068 218.40569 217.50469 216.64070
 215.87771 215.05272 214.14572 213.50473 212.94974 213.08548 213.48721 214.51471
 215.70296 217.06036 218.43488 219.63496 221.23299 223.76103 227.83461 231.93105
 235.34193 239.03511 242.49373 245.43457 248.02837 250.79401 253.92825 257.15067
 259.95438 262.59222 265.37918 267.80740 270.06134 272.16156 273.96942 275.57935
 277.19019 278.91379 280.48691 281.89948 283.28314 284.56940 285.74289 286.80603
 287.76218 288.61365 289.35748 290.30539
 366.78100 356.32886 345.75471 334.61457 323.01142 311.19928 299.06313 286.85999
 274.56584 262.45670 250.45955 239.75441 229.87026 220.96812 213.14397 206.13983
 199.96768 194.89954 191.47539 189.51125 188.54210 188.59996 189.42881 190.73067
 192.44952 194.53838 196.79523 199.14809 201.58695 204.06080 206.14266 207.97851
 209.59837 210.73722 210.96008 211.18193 211.11279 210.81164 210.43850 210.06235
 209.67321 209.37706 209.17892 209.03677 208.95863 209.28348 209.66334 210.04619
 210.83305 212.00490 213.24876 215.02561 216.94747 218.98432 221.07318 223.15004
 225.20389 227.28175 229.37260 231.47246 233.59531 235.76117 238.01102 240.37488
 242.98973 245.23459 247.23044 248.98930 250.40015 251.51701 252.33286 252.64272
 252.67357 252.44143 251.79528 250.73714 249.33699 247.49185 245.39470 243.22156
 241.00641 238.80427 236.61813 234.45098 232.30484 230.16569 228.18555 226.33640
 224.61326 223.07911 221.70297 220.46882 219.34468 218.29853 217.39639 216.53124
 215.76710 214.94095 214.03281 213.39066 212.83452 213.04980 213.62828 214.66267
 215.77814 217.08130 218.48158 219.75850 221.39774 223.86714 227.83214 231.86943
 235.24689 238.88513 242.26932 245.15608 247.75145 250.55531 253.73163 256.98331
 259.97437 262.68607 265.29053 267.70593 269.98730 272.11215 273.96262 275.62689
 277.28778 279.04636 280.62701 282.06659 283.47913 284.77100 285.94962 287.01740
 287.97772 288.83292 289.57999 290.53204
 366.78100 356.33014 345.75728 334.61842 323.01656 311.20570 299.07084 286.86898
 274.57612 262.46827 250.47241 239.76855 229.88569 220.98483 213.16197 206.15911
 199.98825 194.92139 191.49853 189.53567 188.56781 188.62695 189.45709 190.76023
 192.48037 194.57051 196.82866 199.18280 201.62294 204.09808 206.18122 208.01836
 209.63950 210.77964 211.00378 211.22692 211.15906 210.85920 210.48734 210.11248
 209.72462 209.42976 209.23290 209.09205 209.01519 209.34133 209.72247 210.10661
 210.89475 212.06789 213.31303 215.09117 217.01431 219.05245 221.14259 223.22073
 225.27587 227.35501 229.44715 231.54829 233.67244 235.83958 238.09072 240.45586
 243.07200 245.31814 247.31528 249.07542 250.48756 251.60570 252.42284 252.73398
 252.76612 252.53526 251.89040 250.83354 249.43468 247.59083 245.49497 243.32311
 241.10925 238.90839 236.72353 234.55767 232.41281 230.27495 228.29609 226.44823
 224.72637 223.19351 221.81865 220.58579 219.46293 218.41807 217.51721 216.65336
 215.89050 215.06564 214.15878 213.51792 212.96306 213.13551 213.62611 214.80249
 215.89572 217.12349 218.55678 219.87312 221.54704 223.95491 227.78551 231.80386
 235.12578 238.69345 241.97229 244.78709 247.38457 250.25323 253.50179 256.80945
 259.91016 262.70862 265.27859 267.72025 270.04932 272.22717 274.15527 275.87357
 277.44400 279.11526 280.68573 282.08698 283.35785 284.63895 285.80780 286.86667
 287.81900 288.66708 289.40793 290.35208
 366.78100 356.33086 345.75871 334.62057 323.01943 311.20929 299.07514 286.87400
 274.58186 262.47472 250.47957 239.77643 229.89429 220.99414 213.17200 206.16986
 199.99972 194.93357 191.51143 189.54929 188.58215 188.64200 189.47286 190.77672
 192.49757 194.58843 196.84729 199.20215 201.64300 204.11886 206.20272 208.04058
 209.66243 210.80329 211.02815 211.25201 211.18486 210.88572 210.51458 210.14043
 209.75329 209.45915 209.26301 209.12286 209.04672 209.37358 209.75544 210.14029
 210.92915 212.10301 213.34886 215.12772 217.05158 219.09044 221.18129 223.26015
 225.31601 227.39587 229.48872 231.59058 233.71544 235.88329 238.13515 240.50101
 243.11787 245.36472 247.36258 249.12344 250.53630 251.65515 252.47301 252.78487
 252.81772 252.58758 251.94344 250.88730 249.48915 247.64601 245.55087 243.37973
 241.16658 238.96644 236.78230 234.61716 232.47301 230.33587 228.35773 226.51058
 224.78944 223.25730 221.88316 220.65101 219.52887 218.48473 217.58459 216.72144
 215.95930 215.13516 214.22901 213.58887 213.03473 213.18874 213.62090 215.01976
 215.94250 217.08330 218.63797 219.97754 221.66225 224.01100 227.75682 231.72502
 235.00166 238.48260 241.62582 244.36333 246.97614 249.90767 253.21765 256.56625
 259.70773 262.57663 265.21497 267.70786 270.07852 272.30417 274.29645 276.06909
 277.71173 279.14435 280.69250 282.06192 283.25644 284.33075 285.39026 286.40347
 287.31476 288.12625 288.83514 289.73856
 366.78100 356.33105 345.75909 334.62114 323.02019 311.21023 299.07628 286.87533
 274.58337 262.47642 250.48147 239.77851 229.89656 220.99661 213.17466 206.17270
 200.00275 194.93680 191.51484 189.55289 188.58594 188.64598 189.47703 190.78108
 192.50212 194.59317 196.85222 199.20726 201.64831 204.12436 206.20840 208.04645
 209.66850 210.80954 211.03459 211.25864 211.19168 210.89273 210.52178 210.14783
 209.76087 209.46692 209.27097 209.13101 209.05506 209.38211 209.76415 210.14920
 210.93825 212.11229 213.35834 215.13739 217.06143 219.10048 221.19153 223.27057
 225.32662 227.40667 229.49971 231.60176 233.72681 235.89486 238.14690 240.51295
 243.13000 245.37704 247.37509 249.13614 250.54918 251.66823 252.48628 252.79832
 252.83137 252.60142 251.95746 250.90151 249.50356 247.66060 245.56565 243.39470
 241.18174 238.98179 236.79784 234.63288 232.48893 230.35198 228.37403 226.52707
 224.80612 223.27417 221.90021 220.66826 219.54631 218.50235 217.60240 216.73945
 215.97749 215.15354 214.24759 213.60763 213.05368 213.21712 213.62959 215.19531
 216.16512 217.34959 218.88957 220.15526 221.80176 224.03241 227.80144 231.62648
 234.92708 238.31451 241.31430 243.94388 246.55695 249.54750 252.93291 256.32791
 259.51053 262.43381 265.12015 267.64499 270.02957 272.26004 274.30569 276.14963
 277.83487 279.35400 280.68695 282.03494 283.21356 284.26541 285.23282 286.09979
 286.89761 287.64587 288.29956 289.13260
 366.78100 356.33149 345.75998 334.62248 323.02197 311.21246 299.07895 286.87845
 274.58694 262.48043 250.48592 239.78342 229.90191 221.00240 213.18089 206.17939
 200.00988 194.94437 191.52286 189.56135 188.59485 188.65534 189.48683 190.79132
 192.51282 194.60431 196.86380 199.21929 201.66079 204.13728 206.22177 208.06026
 209.68276 210.82425 211.04974 211.27423 211.20772 210.90922 210.53871 210.16520
 209.77869 209.48519 209.28968 209.15017 209.07466 209.40216 209.78465 210.17014
 210.95963 212.13413 213.38062 215.16011 217.08460 219.12410 221.21559 223.29508
 225.35157 227.43206 229.52556 231.62805 233.75354 235.92203 238.17453 240.54102
 243.15851 245.40600 247.40450 249.16599 250.57948 251.69897 252.51747 252.82996
 252.86345 252.63394 251.99043 250.93493 249.53742 247.69491 245.60040 243.42990
 241.21739 239.01788 236.83437 234.66987 232.52636 230.38985 228.41234 226.56584
 224.84533 223.31382 221.94031 220.70880 219.58730 218.54379 217.64428 216.78177
 216.02027 215.19676 214.29125 213.65174 213.09824 213.26750 213.67592 215.29832
 216.28200 217.56313 219.06430 220.32651 221.98370 224.18626 227.91771 231.60330
 234.85309 238.10828 240.97449 243.53239 246.19450 249.26541 252.70715 256.14413
 259.36282 262.31512 265.03165 267.57529 269.96378 272.19058 274.25803 276.15359
 277.88287 279.43289 280.81158 282.09888 283.26752 284.30975 285.26321 286.11237
 286.88440 287.59152 288.23618 289.05771
 366.78100 356.33150 345.76001 334.62251 323.02202 311.21252 299.07903 286.87853
 274.58704 262.48054 250.48605 239.78355 229.90206 221.00256 213.18107 206.17957
 200.01008 194.94458 191.52308 189.56159 188.59509 188.65560 189.48710 190.79161
 192.51311 194.60462 196.86412 199.21963 201.66113 204.13764 206.22214 208.06065
 209.68315 210.82466 211.05016 211.27467 211.20817 210.90967 210.53918 210.16568
 209.77919 209.48569 209.29020 209.15070 209.07521 209.40271 209.78522 210.17072
 210.96023 212.13473 213.38124 215.16074 217.08525 219.12475 221.21625 223.29576
 225.35226 227.43277 229.52627 231.62878 233.75428 235.92279 238.17529 240.54180
 243.15930 245.40681 247.40531 249.16682 250.58032 251.69983 252.51833 252.83084
 252.86434 252.63484 251.99135 250.93585 249.53836 247.69586 245.60137 243.43087
 241.21838 239.01888 236.83539 234.67089 232.52740 230.39090 228.41341 226.56691
 224.84642 223.31492 221.94142 220.70993 219.58843 218.54494 217.64544 216.78295
 216.02145 215.19796 214.29246 213.65297 213.09947 213.30037 213.79433 215.37016
 216.32693 217.71378 219.22142 220.40298 222.09161 224.30162 227.98785 231.61174
 234.81320 237.93051 240.64110 243.09074 245.77802 248.95847 252.47702 255.94949
 259.19208 262.17706 264.94073 267.52048 269.91998 272.14764 274.22705 276.14722
 277.89554 279.45953 280.86346 282.17505 283.33707 284.38470 285.34329 286.20444
 286.98984 287.72537 288.37051 289.19263
 366.78100 356.33212 345.76124 334.62436 323.02448 311.21560 299.08272 286.88284
 274.59196 262.48608 250.49220 239.79032 229.90944 221.01056 213.18968 206.18880
 200.01992 194.95504 191.53416 189.57328 188.60740 188.66852 189.50064 190.80576
 192.52788 194.62000 196.88011 199.23623 201.67835 204.15547 206.24059 208.07971
 209.70283 210.84495 211.07107 211.29619 211.23031 210.93243 210.56255 210.18967
 209.80379 209.51091 209.31603 209.17715 209.10227 209.43039 209.81351 210.19963
 210.98975 212.16487 213.41199 215.19211 217.11723 219.15735 221.24947 223.32959
 225.38671 227.46783 229.56195 231.66507 233.79119 235.96031 238.21343 240.58055
 243.19867 245.44679 247.44591 249.20803 250.62215 251.74227 252.56139 252.87451
 252.90863 252.67975 252.03687 250.98199 249.58510 247.74322 245.64934 243.47946
 241.26758 239.06870 236.88582 234.72194 232.57906 230.44318 228.46630 226.62042
 224.90054 223.36966 221.99678 220.76590 219.64502 218.60214 217.70326 216.84138
 216.08050 215.25762 214.35274 213.71386 213.16098 213.36523 213.88774 215.44818
 216.55571 217.71100 219.15279 220.60353 222.32413 224.50630 228.02881 231.59761
 234.73065 237.67470 240.22476 242.61784 245.38249 248.67336 252.24976 255.75519
 259.01971 262.04535 264.86722 267.48444 269.88281 272.09641 274.17267 276.10422
 277.89270 279.48853 280.89474 282.21426 283.39151 284.43652 285.39462 286.27478
 287.12460 287.88138 288.54251 289.38501
 366.78100 356.33049 345.75799 334.61948 323.01798 311.20747 299.07297 286.87146
 274.57896 262.47145 250.47594 239.77244 229.88993 220.98943 213.16692 206.16442
 199.99391 194.92741 191.50490 189.54239 188.57489 188.63438 189.46488 190.76837
 192.48887 194.57936 196.83786 199.19235 201.63284 204.10834 206.19183 208.02933
 209.65082 210.79132 211.01581 211.23931 211.17180 210.87229 210.50079 210.12628
 209.73878 209.44427 209.24777 209.10726 209.03076 209.35725 209.73874 210.12324
 210.91173 212.08523 213.33072 215.10922 217.03271 219.07121 221.16170 223.24019
 225.29569 227.37518 229.46768 231.56917 233.69367 235.86116 238.11266 240.47815
 243.09464 245.34114 247.33863 249.09913 250.51162 251.63012 252.44761 252.75910
 252.79160 252.56109 251.91659 250.86008 249.46158 247.61807 245.52257 243.35106
 241.13755 238.93705 236.75254 234.58704 232.44253 230.30503 228.32652 226.47902
 224.75751 223.22500 221.85050 220.61799 219.49549 218.45098 217.55048 216.68697
 215.92447 215.09996 214.19345 213.55295 212.99844 213.31134 214.10739 215.62570
 216.53690 217.55701 219.12917 220.78398 222.58905 224.76686 228.09894 231.67477
 234.63577 237.44485 239.83858 242.19421 245.03619 248.42752 252.05099 255.58566
 258.88177 261.95706 264.82452 267.45187 269.81219 271.97171 274.04193 276.01248
 277.83893 279.44525 280.95111 282.30762 283.49719 284.56192 285.57086 286.52295
 287.37927 288.14185 288.80798 289.65692
 366.78100 356.32913 345.75526 334.61539 323.01252 311.20064 299.06477 286.86190
 274.56803 262.45916 250.46229 239.75742 229.87355 220.97167 213.14780 206.14393
 199.97206 194.90419 191.48032 189.51645 188.54758 188.60570 189.43483 190.73696
 192.45609 194.54522 196.80235 199.15548 201.59461 204.06873 206.15086 207.98699
 209.60712 210.74625 210.96938 211.19151 211.12264 210.82176 210.44889 210.07302
 209.68415 209.38828 209.19041 209.04854 208.97067 209.29579 209.67592 210.05905
 210.84618 212.01831 213.26244 215.03957 216.96170 218.99883 221.08795 223.16508
 225.21921 227.29734 229.38847 231.48860 233.61173 235.77786 238.02798 240.39211
 243.00724 245.25237 247.24850 249.00763 250.41876 251.53589 252.35201 252.66214
 252.69327 252.46140 251.81553 250.75766 249.35779 247.51292 245.41604 243.24317
 241.02830 238.82643 236.64056 234.47369 232.32782 230.18895 228.20907 226.36020
 224.63733 223.10346 221.72759 220.49372 219.36985 218.32398 217.42210 216.55723
 215.79336 214.96749 214.05962 213.41775 212.86188 213.26549 214.30138 215.80554
 216.58559 217.62367 219.28886 220.96179 222.77881 224.97086 228.22658 231.80482
 234.62328 237.28062 239.48952 241.73346 244.61136 248.17113 251.91751 255.49136
 258.81265 261.92596 264.82925 267.45895 269.79724 271.91162 273.94809 275.92822
 277.81339 279.61203 281.17572 282.56281 283.80884 284.97861 286.04587 287.01273
 287.88229 288.65668 289.33313 290.19522
 366.78100 356.32993 345.75686 334.61780 323.01573 311.20466 299.06959 286.86752
 274.57445 262.46639 250.47032 239.76625 229.88318 220.98211 213.15904 206.15598
 199.98491 194.91784 191.49477 189.53170 188.56363 188.62257 189.45250 190.75543
 192.47536 194.56529 196.82322 199.17716 201.61709 204.09202 206.17495 208.01188
 209.63281 210.77275 210.99668 211.21961 211.15154 210.85147 210.47940 210.10434
 209.71627 209.42120 209.22413 209.08306 209.00599 209.33193 209.71286 210.09679
 210.88472 212.05765 213.30258 215.08052 217.00345 219.04138 221.13131 223.20924
 225.26417 227.34311 229.43504 231.53597 233.65990 235.82683 238.07776 240.44270
 243.05863 245.30456 247.30149 249.06142 250.47336 251.59129 252.40822 252.71915
 252.75108 252.52001 251.87495 250.81788 249.41881 247.57474 245.47867 243.30660
 241.09254 238.89147 236.70640 234.54033 232.39526 230.25719 228.27813 226.43006
 224.70799 223.17492 221.79985 220.56678 219.44372 218.39865 217.49758 216.63351
 215.87044 215.04537 214.13831 213.49724 212.94217 213.32706 214.36859 215.89423
 216.72343 217.89923 219.53088 221.12846 222.91310 225.03685 228.32294 231.85324
 234.62764 237.09496 239.10776 241.24016 244.21518 247.90878 251.83792 255.44656
 258.78394 261.92032 264.85498 267.51257 269.83890 271.89243 273.87875 275.91644
 278.00143 279.81812 281.42810 282.94373 284.28833 285.47797 286.56332 287.54657
 288.43091 289.21841 289.90637 290.78308
 366.78100 356.33343 345.76386 334.62829 323.02972 311.22215 299.09058 286.89201
 274.60244 262.49787 250.50530 239.80473 229.92516 221.02759 213.20802 206.20845
 200.04088 194.97731 191.55774 189.59817 188.63360 188.69603 189.52946 190.83589
 192.55932 194.65275 196.91418 199.27161 201.71504 204.19347 206.27990 208.12033
 209.74476 210.88819 211.11562 211.34205 211.27748 210.98091 210.61234 210.24077
 209.85620 209.56463 209.37106 209.23349 209.15992 209.48935 209.87378 210.26121
 211.05264 212.22907 213.47750 215.25893 217.18536 219.22679 221.32022 223.40165
 225.46008 227.54251 229.63794 231.74237 233.86980 236.04023 238.29466 240.66309
 243.28251 245.53194 247.53237 249.29580 250.71123 251.83266 252.65309 252.96752
 253.00295 252.77538 252.13381 251.08024 249.68467 247.84410 245.75153 243.58296
 241.37239 239.17482 236.99325 234.83068 232.68911 230.55454 228.57897 226.73440
 225.01583 223.48626 222.11469 220.88512 219.76555 218.72398 217.82641 216.96584
 216.20627 215.38470 214.48113 213.84356 213.29199 213.52335 214.34238 215.96397
 216.94682 218.23927 219.72610 221.27600 223.04828 224.95512 228.37460 231.69963
 234.39003 236.75475 238.73065 240.94359 243.99915 247.81305 251.77797 255.45021
 258.84500 261.96997 264.88040 267.48758 269.73352 271.76132 273.87195 276.28067
 278.42340 280.40308 282.18201 283.74402 285.09583 286.29181 287.38300 288.37152
 289.26056 290.05228 290.74390 291.62531
 366.78100 356.33616 345.76932 334.63648 323.04064 311.23580 299.10696 286.91112
 274.62428 262.52244 250.53260 239.83477 229.95793 221.06309 213.24625 206.24941
 200.08457 195.02373 191.60689 189.65005 188.68821 188.75337 189.58953 190.89869
 192.62485 194.72101 196.98517 199.34533 201.79149 204.27265 206.36181 208.20497
 209.83214 210.97830 211.20846 211.43762 211.37578 211.08194 210.71610 210.34726
 209.96542 209.67658 209.48574 209.35090 209.28006 209.61222 209.99938 210.38954
 211.18370 212.36286 213.61402 215.39818 217.32735 219.37151 221.46767 223.55183
 225.61299 227.69815 229.79631 231.90347 234.03363 236.20679 238.46395 240.83511
 243.45727 245.70943 247.71259 249.47875 250.89691 252.02107 252.84423 253.16139
 253.19955 252.97472 252.33588 251.28504 249.89220 248.05436 245.96452 243.79868
 241.59084 239.39600 237.21716 235.05732 232.91848 230.78664 228.81380 226.97196
 225.25612 223.72928 222.36044 221.13360 220.01676 218.97792 218.08309 217.22525
 216.46841 215.64957 214.74873 214.11389 213.56505 213.67554 214.34850 216.03719
 217.12009 218.44920 219.84607 221.40494 222.99411 224.82076 228.33806 231.68486
 234.29001 236.52261 238.39282 240.57298 243.61061 247.68849 251.67355 255.40187
 258.82883 262.00970 264.96509 267.56247 269.68161 271.55228 274.13434 276.60266
 279.09592 281.37082 283.33939 285.06790 286.56381 287.88727 289.09476 290.18866
 291.17249 292.04858 292.81396 293.78931
 366.78100 356.33684 345.77067 334.63851 323.04334 311.23918 299.11101 286.91585
 274.62968 262.52852 250.53936 239.84219 229.96603 221.07186 213.25570 206.25953
 200.09537 195.03520 191.61904 189.66288 188.70171 188.76755 189.60438 190.91422
 192.64105 194.73789 197.00272 199.36356 201.81039 204.29223 206.38207 208.22590
 209.85374 211.00057 211.23141 211.46124 211.40008 211.10691 210.74175 210.37359
 209.99242 209.70426 209.51409 209.37993 209.30976 209.64260 210.03043 210.42127
 211.21611 212.39594 213.64778 215.43261 217.36245 219.40728 221.50412 223.58895
 225.65079 227.73663 229.83546 231.94330 234.07413 236.24797 238.50580 240.87764
 243.50047 245.75331 247.75715 249.52398 250.94282 252.06765 252.89149 253.20932
 253.24816 253.02399 252.38583 251.33566 249.94350 248.10634 246.01717 243.85201
 241.64484 239.45068 237.27251 235.11335 232.97518 230.84402 228.87186 227.03069
 225.31553 223.78936 222.42120 221.19503 220.07887 219.04070 218.14654 217.28938
 216.53321 215.71505 214.81488 214.18072 213.63255 213.71497 214.25652 216.22322
 217.27000 218.51430 220.17331 221.54015 222.93927 225.07257 228.28709 231.58551
 234.11861 236.17079 237.99223 240.26254 243.50917 247.52953 251.58607 255.38280
 258.81421 262.02148 264.96429 267.52817 269.74719 271.76862 273.80975 276.06491
 278.18573 280.05435 281.82578 283.38300 284.73065 285.92297 287.01077 287.99628
 288.88260 289.67188 290.36139 291.24008
 366.78100 356.33235 345.76170 334.62505 323.02540 311.21675 299.08410 286.88445
 274.59380 262.48815 250.49450 239.79285 229.91220 221.01355 213.19290 206.19225
 200.02360 194.95895 191.53830 189.57765 188.61200 188.67334 189.50569 190.81104
 192.53339 194.62574 196.88609 199.24244 201.68479 204.16214 206.24749 208.08684
 209.71019 210.85254 211.07889 211.30424 211.23859 210.94094 210.57129 210.19864
 209.81299 209.52034 209.32569 209.18704 209.11239 209.44074 209.82409 210.21044
 211.00079 212.17614 213.42349 215.20384 217.12919 219.16954 221.26189 223.34224
 225.39959 227.48094 229.57529 231.67864 233.80499 235.97433 238.22768 240.59503
 243.21338 245.46173 247.46108 249.22343 250.63778 251.75813 252.57748 252.89083
 252.92518 252.69653 252.05388 250.99923 249.60258 247.76093 245.66728 243.49763
 241.28598 239.08733 236.90468 234.74103 232.59838 230.46273 228.48608 226.64043
 224.92078 223.39013 222.01748 220.78683 219.66618 218.62353 217.72488 216.86323
 216.10258 215.27993 214.37528 213.73663 213.18398 213.49701 214.33769 216.31662
 217.44931 218.05457 220.08362 221.62543 223.04306 225.04996 228.32033 231.33620
 233.82220 235.83810 237.69690 240.06108 243.33049 247.29997 251.41141 255.26352
 258.76758 261.98233 264.94028 267.55637 269.81445 271.90527 273.96912 275.96643
 277.83057 279.47437 280.89233 282.16791 283.33142 284.39883 285.49765 286.49380
 287.38974 288.18756 288.88452 289.77274
 366.78100 356.33046 345.75793 334.61939 323.01786 311.20732 299.07279 286.87125
 274.57872 262.47118 250.47565 239.77211 229.88957 220.98904 213.16650 206.16397
 199.99343 194.92690 191.50436 189.54183 188.57429 188.63376 189.46422 190.76768
 192.48815 194.57861 196.83708 199.19154 201.63201 204.10747 206.19094 208.02840
 209.64986 210.79033 211.01479 211.23826 211.17072 210.87119 210.49965 210.12512
 209.73758 209.44305 209.24651 209.10597 209.02944 209.35590 209.73737 210.12183
 210.91030 212.08376 213.32923 215.10769 217.03116 219.06962 221.16008 223.23855
 225.29401 227.37348 229.46594 231.56741 233.69187 235.85934 238.11080 240.47627
 243.09273 245.33919 247.33666 249.09712 250.50959 251.62805 252.44552 252.75698
 252.78945 252.55891 251.91438 250.85784 249.45930 247.61577 245.52023 243.34870
 241.13516 238.93463 236.75009 234.58456 232.44002 230.30248 228.32395 226.47641
 224.75488 223.22234 221.84781 220.61527 219.49274 218.44820 217.54767 216.68413
 215.92159 215.09706 214.19052 213.54999 212.99545 213.40359 214.37701 216.46300
 217.81062 218.38423 220.09622 221.69604 223.10091 225.08507 228.37389 231.25043
 233.70615 235.58975 237.27393 239.57832 243.00810 247.13860 251.30768 255.22902
 258.76682 261.99435 264.97015 267.59061 269.84552 271.88184 273.89526 275.89148
 277.77609 279.44211 280.85287 282.10986 283.27075 284.06015 284.63382 285.49115
 286.28030 287.02917 287.71460 288.58813
 366.78100 356.33040 345.75780 334.61920 323.01760 311.20701 299.07241 286.87081
 274.57821 262.47061 250.47501 239.77141 229.88881 220.98822 213.16562 206.16302
 199.99242 194.92582 191.50322 189.54062 188.57302 188.63243 189.46283 190.76623
 192.48663 194.57703 196.83543 199.18983 201.63023 204.10563 206.18904 208.02644
 209.64784 210.78824 211.01264 211.23604 211.16844 210.86884 210.49725 210.12265
 209.73505 209.44045 209.24385 209.10325 209.02665 209.35305 209.73446 210.11886
 210.90726 212.08066 213.32606 215.10446 217.02786 219.06626 221.15667 223.23507
 225.29047 227.36987 229.46227 231.56367 233.68807 235.85547 238.10687 240.47228
 243.08868 245.33508 247.33248 249.09288 250.50528 251.62368 252.44108 252.75249
 252.78489 252.55429 251.90969 250.85309 249.45449 247.61089 245.51529 243.34370
 241.13010 238.92950 236.74490 234.57930 232.43470 230.29710 228.31850 226.47090
 224.74931 223.21671 221.84211 220.60951 219.48691 218.44231 217.54171 216.67811
 215.91552 215.09092 214.18432 213.54372 212.98912 213.40909 214.40131 216.59908
 217.95239 218.66150 220.22090 221.84061 223.26923 225.21921 228.38876 231.25339
 233.50723 235.30307 236.92947 239.26408 242.82187 247.02757 251.21597 255.14957
 258.71158 261.97348 264.96429 267.59192 269.83807 271.85147 273.85287 275.82416
 277.71622 279.40259 280.83710 282.06183 283.19244 284.17560 284.88586 285.40463
 286.15649 286.85681 287.49081 288.36542
 366.78100 356.33056 345.75812 334.61967 323.01823 311.20779 299.07335 286.87191
 274.57946 262.47202 250.47658 239.77314 229.89069 220.99025 213.16781 206.16537
 199.99493 194.92848 191.50604 189.54360 188.57616 188.63572 189.46627 190.76983
 192.49039 194.58095 196.83951 199.19406 201.63462 204.11018 206.19374 208.03130
 209.65285 210.79341 211.01797 211.24153 211.17408 210.87464 210.50320 210.12876
 209.74132 209.44687 209.25043 209.10999 209.03355 209.36011 209.74166 210.12622
 210.91478 212.08834 213.33390 215.11245 217.03601 219.07457 221.16513 223.24369
 225.29924 227.37880 229.47136 231.57292 233.69747 235.86503 238.11659 240.48215
 243.09871 245.34526 247.34282 249.10338 250.51594 251.63450 252.45205 252.76361
 252.79617 252.56573 251.92129 250.86484 249.46640 247.62296 245.52752 243.35608
 241.14263 238.94219 236.75775 234.59231 232.44786 230.31042 228.33198 226.48454
 224.76310 223.23065 221.85621 220.62377 219.50133 218.45689 217.55644 216.69300
 215.93056 215.10612 214.19968 213.55923 213.00479 213.42825 214.42874 216.73485
 218.09825 218.75450 220.35811 222.03056 223.41235 225.32607 228.40221 231.17157
 233.25780 234.89896 236.51651 238.94623 242.63022 246.89787 251.11775 255.09177
 258.68582 261.96237 264.94937 267.57434 269.82428 271.84171 273.81940 275.75391
 277.63245 279.31866 280.77161 282.00360 282.95929 283.98373 284.94556 285.49045
 286.23813 286.93842 287.57242 288.44266
 366.78100 356.33122 345.75944 334.62166 323.02088 311.21110 299.07731 286.87653
 274.58475 262.47797 250.48319 239.78041 229.89863 220.99885 213.17707 206.17529
 200.00551 194.93972 191.51794 189.55616 188.58938 188.64960 189.48082 190.78504
 192.50626 194.59748 196.85670 199.21192 201.65313 204.12935 206.21357 208.05179
 209.67401 210.81523 211.04045 211.26467 211.19789 210.89911 210.52832 210.15454
 209.76776 209.47398 209.27820 209.13842 209.06264 209.38986 209.77208 210.15730
 210.94652 212.12073 213.36695 215.14617 217.07039 219.10961 221.20083 223.28005
 225.33627 227.41649 229.50971 231.61193 233.73714 235.90536 238.15758 240.52380
 243.14102 245.38824 247.38646 249.14768 250.56090 251.68012 252.49834 252.81055
 252.84377 252.61399 251.97021 250.91443 249.51665 247.67387 245.57909 243.40831
 241.19553 238.99575 236.81196 234.64718 232.50340 230.36662 228.38884 226.54206
 224.82128 223.28950 221.91572 220.68394 219.56215 218.51837 217.61859 216.75581
 215.99403 215.17025 214.26447 213.62469 213.07091 213.47444 214.42783 216.86154
 218.25739 218.83583 220.50517 222.23152 223.61011 225.43622 228.39398 231.03569
 232.98045 234.50401 236.14136 238.69070 242.46664 246.77577 251.03076 255.04581
 258.67072 261.95633 264.93799 267.55692 269.81274 271.83078 273.77094 275.66293
 277.52942 279.22079 280.68570 281.91989 282.91391 283.94385 284.91400 285.54568
 286.30191 287.00241 287.63443 288.50235
 366.78100 356.33079 345.75859 334.62038 323.01917 311.20897 299.07476 286.87355
 274.58134 262.47414 250.47893 239.77572 229.89352 220.99331 213.17110 206.16890
 199.99869 194.93248 191.51027 189.54807 188.58086 188.64065 189.47145 190.77524
 192.49603 194.58683 196.84562 199.20041 201.64121 204.11700 206.20079 208.03858
 209.66038 210.80117 211.02596 211.24976 211.18255 210.88334 210.51214 210.13793
 209.75072 209.45652 209.26031 209.12010 209.04389 209.37069 209.75248 210.13727
 210.92607 212.09986 213.34565 215.12445 217.04824 219.08703 221.17782 223.25662
 225.31241 227.39220 229.48500 231.58679 233.71158 235.87938 238.13117 240.49696
 243.11376 245.36055 247.35834 249.11913 250.53193 251.65072 252.46851 252.78031
 252.81310 252.58289 251.93869 250.88248 249.48427 247.64106 245.54586 243.37465
 241.16144 238.96124 236.77703 234.61182 232.46762 230.33041 228.35220 226.50500
 224.78379 223.25158 221.87737 220.64517 219.52296 218.47875 217.57855 216.71534
 215.95313 215.12893 214.22272 213.58251 213.02831 213.46964 214.51230 216.86974
 218.45589 218.99274 220.66745 222.40598 223.72321 225.50592 228.40062 230.91431
 232.70836 234.09929 235.75739 238.44084 242.31950 246.67081 250.96181 255.00684
 258.65677 261.95285 264.92804 267.54047 269.80145 271.81662 273.71317 275.55334
 277.41168 279.10672 280.55945 281.79956 282.88235 283.92398 284.89264 285.65717
 286.42044 287.11966 287.75568 288.61890
 366.78100 356.32979 345.75657 334.61736 323.01515 311.20393 299.06872 286.86651
 274.57329 262.46508 250.46887 239.76465 229.88144 220.98023 213.15701 206.15380
 199.98259 194.91537 191.49216 189.52895 188.56073 188.61952 189.44931 190.75209
 192.47188 194.56167 196.81946 199.17324 201.61303 204.08782 206.17060 208.00739
 209.62818 210.76796 210.99175 211.21454 211.14632 210.84611 210.47390 210.09868
 209.71047 209.41526 209.21804 209.07683 208.99962 209.32540 209.70619 210.08998
 210.87776 212.05055 213.29534 215.07312 216.99591 219.03370 221.12348 223.20127
 225.25606 227.33484 229.42663 231.52742 233.65120 235.81799 238.06878 240.43356
 243.04935 245.29514 247.29192 249.05171 250.46350 251.58128 252.39807 252.70886
 252.74064 252.50943 251.86422 250.80701 249.40779 247.56358 245.46737 243.29515
 241.08094 238.87973 236.69451 234.52830 232.38309 230.24487 228.26566 226.41745
 224.69523 223.16202 221.78681 220.55359 219.43038 218.38517 217.48395 216.61974
 215.85653 215.03131 214.12410 213.48289 212.92767 213.43761 214.64238 216.81589
 218.57310 219.34499 220.84242 222.46062 223.74313 225.58278 228.44777 230.80423
 232.39095 233.63855 235.33998 238.21048 242.20709 246.58716 250.90503 254.97406
 258.64642 261.95380 264.92340 267.52554 269.78510 271.79086 273.62366 275.42209
 277.27545 278.95523 280.41721 281.75259 282.92944 283.97879 284.95132 285.83060
 286.61133 287.30872 287.93689 288.77231
 366.78100 356.32994 345.75688 334.61782 323.01576 311.20470 299.06964 286.86758
 274.57452 262.46646 250.47039 239.76633 229.88327 220.98221 213.15915 206.15609
 199.98503 194.91797 191.49491 189.53185 188.56379 188.62273 189.45267 190.75561
 192.47555 194.56549 196.82343 199.17737 201.61731 204.09224 206.17518 208.01212
 209.63306 210.77300 210.99694 211.21988 211.15182 210.85176 210.47970 210.10464
 209.71658 209.42152 209.22446 209.08340 209.00634 209.33228 209.71322 210.09716
 210.88509 212.05803 213.30297 215.08091 217.00385 219.04179 221.13173 223.20967
 225.26461 227.34355 229.43549 231.53643 233.66037 235.82731 238.07825 240.44319
 243.05913 245.30507 247.30201 249.06194 250.47388 251.59182 252.40876 252.71970
 252.75164 252.52058 251.87552 250.81846 249.41940 247.57534 245.47928 243.30722
 241.09316 238.89210 236.70704 234.54098 232.39592 230.25786 228.27879 226.43073
 224.70867 223.17561 221.80055 220.56749 219.44443 218.39937 217.49831 216.63425
 215.87119 215.04613 214.13907 213.49801 212.94295 213.46227 214.68921 216.85446
 218.64738 219.63509 220.99956 222.52229 223.84279 225.71628 228.51613 230.71288
 232.03703 233.14284 234.96257 238.04141 242.11526 246.51285 250.84668 254.93661
 258.63239 261.94907 264.90884 267.49377 269.75232 271.76584 273.58728 275.33618
 277.17709 278.82687 280.37360 281.73901 282.92319 283.98154 284.96292 285.85184
 286.64398 287.34479 287.97153 288.81476
 366.78100 356.33068 345.75835 334.62003 323.01871 311.20839 299.07406 286.87274
 274.58042 262.47309 250.47777 239.77445 229.89213 220.99180 213.16948 206.16716
 199.99683 194.93051 191.50819 189.54586 188.57854 188.63822 189.46890 190.77257
 192.49325 194.58393 196.84260 199.19728 201.63796 204.11364 206.19731 208.03499
 209.65667 210.79734 211.02202 211.24570 211.17838 210.87905 210.50773 210.13341
 209.74608 209.45176 209.25544 209.11511 209.03879 209.36547 209.74715 210.13182
 210.92050 212.09418 213.33985 215.11853 217.04221 219.08089 221.17156 223.25024
 225.30592 227.38559 229.47827 231.57995 233.70463 235.87230 238.12398 240.48966
 243.10633 245.35301 247.35069 249.11136 250.52404 251.64272 252.46040 252.77207
 252.80475 252.57443 251.93010 250.87378 249.47546 247.63214 245.53681 243.36549
 241.15217 238.95184 236.76752 234.60220 232.45788 230.32055 228.34223 226.49491
 224.77358 223.24126 221.86694 220.63461 219.51229 218.46797 217.56765 216.70432
 215.94200 215.11768 214.21135 213.57103 213.01671 213.51573 214.69470 216.93222
 218.71159 219.87604 221.19519 222.63281 223.97832 225.81369 228.55627 230.63687
 231.69014 232.64479 234.64279 237.89931 242.01923 246.43759 250.78192 254.88843
 258.60370 261.92694 264.87943 267.46109 269.73593 271.77017 273.56729 275.32401
 277.09033 278.72806 280.25021 281.60822 282.78592 283.83066 284.78238 285.66855
 286.50629 287.22626 287.84933 288.70706
 366.78100 356.33128 345.75957 334.62185 323.02114 311.21142 299.07770 286.87699
 274.58527 262.47856 250.48384 239.78112 229.89941 220.99969 213.17798 206.17626
 200.00655 194.94083 191.51911 189.55740 188.59068 188.65097 189.48225 190.78653
 192.50782 194.59910 196.85839 199.21367 201.65495 204.13124 206.21552 208.05381
 209.67609 210.81737 211.04266 211.26694 211.20023 210.90151 210.53079 210.15708
 209.77036 209.47665 209.28093 209.14122 209.06550 209.39278 209.77507 210.16035
 210.94964 212.12392 213.37020 215.14949 217.07377 219.11306 221.20434 223.28362
 225.33991 227.42019 229.51348 231.61576 233.74104 235.90933 238.16161 240.52790
 243.14518 245.39247 247.39075 249.15203 250.56532 251.68460 252.50289 252.81517
 252.84845 252.61874 251.97502 250.91931 249.52159 247.67887 245.58416 243.41344
 241.20073 239.00101 236.81729 234.65258 232.50886 230.37215 228.39443 226.54771
 224.82700 223.29528 221.92157 220.68985 219.56814 218.52442 217.62470 216.76199
 216.00027 215.17656 214.27084 213.63112 213.07741 213.56389 214.71326 216.99246
 218.77220 220.08582 221.42633 222.79063 224.10892 225.85161 228.55479 230.55058
 231.36903 232.17720 234.35124 237.76068 241.93048 246.36894 250.72195 254.84044
 258.56711 261.88971 264.82974 267.40405 269.69269 271.74936 273.53433 275.21735
 276.96552 278.64182 280.18430 281.54886 282.73166 283.78076 284.73965 285.62494
 286.45209 287.19086 287.81668 288.67734
 366.78100 356.33166 345.76032 334.62298 323.02265 311.21331 299.07997 286.87963
 274.58829 262.48195 250.48761 239.78528 229.90394 221.00460 213.18326 206.18192
 200.01258 194.94724 191.52591 189.56457 188.59823 188.65889 189.49055 190.79521
 192.51687 194.60854 196.86820 199.22386 201.66552 204.14218 206.22684 208.06550
 209.68817 210.82983 211.05549 211.28015 211.21381 210.91547 210.54513 210.17180
 209.78546 209.49212 209.29678 209.15744 209.08210 209.40976 209.79243 210.17809
 210.96775 212.14241 213.38907 215.16873 217.09339 219.13306 221.22472 223.30438
 225.36104 227.44170 229.53536 231.63802 233.76369 235.93235 238.18501 240.55167
 243.16933 245.41699 247.41565 249.17732 250.59098 251.71064 252.52930 252.84196
 252.87562 252.64628 252.00295 250.94761 249.55027 247.70793 245.61359 243.44325
 241.23091 239.03158 236.84824 234.68390 232.54056 230.40422 228.42688 226.58054
 224.86021 223.32887 221.95553 220.72419 219.60285 218.55951 217.66017 216.79784
 216.03650 215.21316 214.30782 213.66848 213.11514 213.60168 214.75119 217.02573
 218.83171 220.26189 221.66304 222.99248 224.26253 225.88216 228.52902 230.42505
 231.06146 231.76775 234.07796 237.62447 241.85219 246.30321 250.66124 254.78549
 258.51962 261.84262 264.77774 267.35010 269.65192 271.73532 273.51840 274.88998
 276.85901 278.61658 280.16467 281.53128 282.71521 283.76529 284.72729 285.61148
 286.42535 287.16208 287.79303 288.66006
 366.78100 356.33199 345.76098 334.62397 323.02396 311.21495 299.08194 286.88193
 274.59092 262.48492 250.49091 239.78890 229.90789 221.00888 213.18787 206.18686
 200.01785 194.95284 191.53183 189.57082 188.60481 188.66580 189.49779 190.80278
 192.52477 194.61676 196.87675 199.23275 201.67474 204.15173 206.23672 208.07571
 209.69870 210.84069 211.06668 211.29167 211.22566 210.92765 210.55764 210.18463
 209.79862 209.50561 209.31060 209.17159 209.09658 209.42458 209.80757 210.19356
 210.98355 212.15854 213.40553 215.18552 217.11051 219.15050 221.24249 223.32248
 225.37947 227.46046 229.55445 231.65744 233.78343 235.95242 238.20541 240.57241
 243.19040 245.43839 247.43738 249.19937 250.61336 251.73335 252.55234 252.86533
 252.89932 252.67031 252.02730 250.97229 249.57528 247.73327 245.63926 243.46925
 241.25724 239.05824 236.87523 234.71122 232.56821 230.43220 228.45519 226.60918
 224.88917 223.35816 221.98515 220.75414 219.63313 218.59012 217.69111 216.82910
 216.06809 215.24508 214.34007 213.70107 213.14806 213.63835 214.79672 217.04057
 218.90012 220.41713 221.88193 223.20935 224.43822 225.93431 228.48431 230.25299
 230.75999 231.41220 233.82121 237.49734 241.78174 246.23924 250.59641 254.72009
 258.45648 261.77988 264.71295 267.28296 269.59000 271.67221 273.39688 274.86710
 276.74142 278.53168 280.09473 281.46912 282.66071 283.71790 284.68607 285.57300
 286.38391 287.11774 287.76236 288.65714
 366.78100 356.33236 345.76172 334.62508 323.02544 311.21680 299.08416 286.88452
 274.59388 262.48824 250.49460 239.79296 229.91232 221.01368 213.19304 206.19240
 200.02376 194.95912 191.53848 189.57784 188.61220 188.67356 189.50592 190.81128
 192.53364 194.62600 196.88636 199.24272 201.68508 204.16243 206.24779 208.08715
 209.71051 210.85287 211.07923 211.30459 211.23895 210.94131 210.57167 210.19903
 209.81339 209.52075 209.32611 209.18747 209.11283 209.44119 209.82455 210.21091
 211.00127 212.17663 213.42399 215.20435 217.12971 219.17007 221.26243 223.34279
 225.40015 227.48151 229.57587 231.67923 233.80559 235.97495 238.22831 240.59567
 243.21403 245.46239 247.46175 249.22411 250.63847 251.75883 252.57819 252.89155
 252.92591 252.69727 252.05463 250.99999 249.60335 247.76171 245.66807 243.49843
 241.28679 239.08815 236.90551 234.74187 232.59923 230.46358 228.48694 226.64130
 224.92166 223.39102 222.01838 220.78774 219.66710 218.62446 217.72582 216.86418
 216.10354 215.28090 214.37626 213.73762 213.18498 213.67825 214.84364 217.04335
 218.96771 220.56877 222.08594 223.41853 224.61978 226.01073 228.43253 230.05145
 230.47110 231.10229 233.58354 237.38222 241.71471 246.17538 250.52718 254.64630
 258.38058 261.70267 264.63385 267.20444 269.52136 271.60574 273.27176 274.85880
 276.67075 278.45621 280.02512 281.40283 282.59656 283.65640 284.62579 285.51190
 286.31824 287.04791 287.68985 288.58954
 366.78100 356.33274 345.76248 334.62622 323.02696 311.21870 299.08645 286.88719
 274.59693 262.49167 250.49841 239.79715 229.91689 221.01863 213.19837 206.19811
 200.02986 194.96560 191.54534 189.58508 188.61982 188.68156 189.51430 190.82004
 192.54278 194.63552 196.89627 199.25301 201.69575 204.17349 206.25923 208.09897
 209.72271 210.86545 211.09219 211.31793 211.25268 210.95542 210.58616 210.21390
 209.82864 209.53638 209.34212 209.20386 209.12960 209.45834 209.84209 210.22883
 211.01957 212.19531 213.44305 215.22379 217.14953 219.19027 221.28301 223.36375
 225.42150 227.50324 229.59798 231.70172 233.82846 235.99820 238.25194 240.61968
 243.23842 245.48716 247.48691 249.24965 250.66439 251.78513 252.60487 252.91861
 252.95335 252.72509 252.08283 251.02857 249.63232 247.79106 245.69780 243.52854
 241.31728 239.11902 236.93676 234.77350 232.63124 230.49598 228.51972 226.67447
 224.95521 223.42495 222.05269 220.82243 219.70217 218.65991 217.76165 216.90039
 216.14013 215.31788 214.41362 213.77536 213.22310 213.71907 214.89085 217.04448
 219.02344 220.71829 222.28221 223.61346 224.79143 226.09619 228.38608 229.84419
 230.19592 230.82814 233.36736 237.27840 241.65283 246.11168 250.45529 254.56436
 258.29056 261.60709 264.53458 267.11020 269.44696 271.54379 273.16919 274.82108
 276.61972 278.40256 279.97141 281.35025 282.54459 283.60507 284.57388 285.46210
 286.26962 286.99719 287.63873 288.53687
 366.78100 356.33319 345.76337 334.62756 323.02875 311.22093 299.08912 286.89030
 274.60049 262.49568 250.50286 239.80205 229.92224 221.02442 213.20461 206.20480
 200.03698 194.97317 191.55336 189.59354 188.62873 188.69091 189.52410 190.83029
 192.55347 194.64666 196.90785 199.26503 201.70822 204.18641 206.27259 208.11278
 209.73696 210.88015 211.10734 211.33352 211.26871 210.97190 210.60308 210.23127
 209.84646 209.55464 209.36083 209.22301 209.14920 209.47839 209.86257 210.24976
 211.04095 212.21713 213.46532 215.24651 217.17269 219.21388 221.30707 223.38825
 225.44644 227.52862 229.62381 231.72800 233.85518 236.02537 238.27956 240.64774
 243.26693 245.51612 247.51630 249.27949 250.69467 251.81586 252.63605 252.95023
 252.98542 252.75761 252.11579 251.06198 249.66617 247.82535 245.73254 243.56372
 241.35291 239.15510 236.97328 234.81047 232.66866 230.53384 228.55803 226.71322
 224.99440 223.46459 222.09278 220.86296 219.74315 218.70133 217.80352 216.94271
 216.18289 215.36108 214.45727 213.81945 213.26764 213.76462 214.93877 217.04167
 219.06342 220.86031 222.47641 223.80421 224.95525 226.18440 228.34796 229.63669
 229.92647 230.57959 233.17569 237.18721 241.59868 246.05067 250.38153 254.47440
 258.18564 261.49277 264.41861 267.00671 269.36755 271.47223 273.08926 274.78860
 276.57306 278.35461 279.92487 281.30548 282.50211 283.56253 284.53433 285.42310
 286.23343 286.96259 287.60620 288.50577
 366.78100 356.33365 345.76430 334.62895 323.03060 311.22325 299.09190 286.89354
 274.60419 262.49984 250.50749 239.80714 229.92779 221.03044 213.21109 206.21174
 200.04439 194.98104 191.56169 189.60233 188.63798 188.70063 189.53428 190.84093
 192.56458 194.65823 196.91988 199.27753 201.72118 204.19983 206.28648 208.12712
 209.75177 210.89542 211.12307 211.34972 211.28537 210.98902 210.62067 210.24932
 209.86497 209.57362 209.38027 209.24292 209.16956 209.49921 209.88386 210.27151
 211.06316 212.23981 213.48846 215.27011 217.19676 219.23841 221.33206 223.41371
 225.47235 227.55500 229.65065 231.75530 233.88295 236.05360 238.30825 240.67690
 243.29655 245.54620 247.54685 249.31050 250.72614 251.84779 252.66844 252.98309
 253.01874 252.79139 252.15004 251.09669 249.70134 247.86099 245.76864 243.60029
 241.38994 239.19258 237.01123 234.84888 232.70753 230.57318 228.59783 226.75348
 225.03513 223.50578 222.13443 220.90508 219.78573 218.74437 217.84702 216.98667
 216.22732 215.40597 214.50262 213.86527 213.31392 213.81255 214.99062 217.03706
 219.09193 220.98465 222.66077 223.99347 225.10860 226.26921 228.31841 229.43607
 229.66331 230.35774 233.01653 237.11057 241.54956 245.99094 250.30569 254.37535
 258.06592 261.36276 264.29340 266.89932 269.27982 271.37839 273.00406 274.76233
 276.54077 278.32159 279.89313 281.27512 282.47214 283.53503 284.50797 285.39783
 286.20880 286.94095 287.58438 288.48639
 366.78100 356.33406 345.76512 334.63018 323.03223 311.22529 299.09435 286.89641
 274.60747 262.50353 250.51158 239.81164 229.93270 221.03576 213.21682 206.21788
 200.05093 194.98799 191.56905 189.61011 188.64617 188.70923 189.54329 190.85034
 192.57440 194.66846 196.93052 199.28858 201.73264 204.21169 206.29875 208.13981
 209.76487 210.90893 211.13699 211.36405 211.30010 211.00416 210.63622 210.26528
 209.88134 209.59040 209.39745 209.26051 209.18757 209.51763 209.90269 210.29075
 211.08280 212.25986 213.50892 215.29098 217.21804 219.26010 221.35416 223.43621
 225.49527 227.57833 229.67439 231.77945 233.90751 236.07856 238.33362 240.70268
 243.32274 245.57280 247.57386 249.33791 250.75397 251.87603 252.69709 253.01215
 253.04821 252.82127 252.18032 251.12738 249.73244 247.89250 245.80056 243.63262
 241.42267 239.22573 237.04479 234.88285 232.74191 230.60797 228.63303 226.78908
 225.07114 223.54220 222.17126 220.94232 219.82338 218.78243 217.88549 217.02555
 216.26661 215.44567 214.54273 213.90578 213.35484 213.85733 215.04453 217.03442
 219.12308 221.09930 222.83372 224.18063 225.26137 226.35411 228.28021 229.22948
 229.40247 230.15611 232.87714 237.04637 241.50949 245.94009 250.23537 254.27740
 257.94531 261.23077 264.16248 266.78494 269.17667 271.25644 272.89969 274.74835
 276.52051 278.29950 279.87296 281.25525 282.45291 283.51691 284.49136 285.38113
 286.19293 286.92850 287.57181 288.47244
 366.78100 356.33442 345.76585 334.63127 323.03370 311.22712 299.09655 286.89897
 274.61039 262.50682 250.51524 239.81567 229.93709 221.04052 213.22194 206.22337
 200.05679 194.99421 191.57564 189.61706 188.65349 188.71691 189.55134 190.85876
 192.58318 194.67761 196.94003 199.29846 201.74288 204.22231 206.30973 208.15115
 209.77658 210.92100 211.14943 211.37685 211.31328 211.01770 210.65012 210.27955
 209.89597 209.60540 209.41282 209.27625 209.20367 209.53410 209.91952 210.30794
 211.10037 212.27779 213.52722 215.30964 217.23707 219.27949 221.37391 223.45634
 225.51576 227.59919 229.69561 231.80104 233.92946 236.10088 238.35631 240.72573
 243.34616 245.59658 247.59801 249.36243 250.77885 251.90128 252.72270 253.03813
 253.07455 252.84798 252.20740 251.15483 249.76025 247.92067 245.82910 243.66152
 241.45195 239.25537 237.07480 234.91322 232.77264 230.63907 228.66449 226.82092
 225.10334 223.57477 222.20419 220.97561 219.85704 218.81646 217.91989 217.06031
 216.30174 215.48116 214.57859 213.94201 213.39143 213.90182 215.10768 217.02354
 219.14619 221.19775 222.99910 224.36453 225.41336 226.45303 228.25992 229.03302
 229.14586 229.97948 232.76382 236.98969 241.46692 245.88312 250.15480 254.16351
 257.80463 261.07898 264.01965 266.67142 269.07849 271.14194 272.78552 274.70007
 276.52118 278.30157 279.87128 281.25269 282.44995 283.51370 284.48709 285.37689
 286.18759 286.92160 287.56583 288.46255
 366.78100 356.33439 345.76578 334.63116 323.03355 311.22694 299.09633 286.89871
 274.61010 262.50649 250.51488 239.81526 229.93665 221.04004 213.22143 206.22281
 200.05620 194.99359 191.57498 189.61636 188.65275 188.71614 189.55053 190.85791
 192.58230 194.67669 196.93908 199.29746 201.74185 204.22124 206.30863 208.15001
 209.77540 210.91979 211.14818 211.37556 211.31195 211.01634 210.64873 210.27811
 209.89450 209.60389 209.41128 209.27467 209.20205 209.53244 209.91783 210.30622
 211.09860 212.27599 213.52538 215.30777 217.23515 219.27754 221.37193 223.45432
 225.51370 227.59709 229.69348 231.79887 233.92725 236.09864 238.35403 240.72342
 243.34380 245.59419 247.59558 249.35997 250.77635 251.89874 252.72013 253.03552
 253.07190 252.84529 252.20468 251.15207 249.75745 247.91784 245.82623 243.65862
 241.44901 239.25239 237.07178 234.91017 232.76956 230.63594 228.66133 226.81772
 225.10011 223.57149 222.20088 220.97227 219.85366 218.81304 217.91643 217.05682
 216.29821 215.47759 214.57498 213.93837 213.38776 213.92311 215.18793 217.02153
 219.13869 221.27393 223.15532 224.54871 225.57562 226.55980 228.23029 228.84496
 228.91077 229.82649 232.67401 236.94495 241.43126 245.83243 250.07886 254.05374
 257.66998 260.93701 263.88660 266.55713 268.95035 270.96823 272.65131 274.65775
 276.52588 278.30826 279.87592 281.25601 282.45337 283.51660 284.49011 285.37970
 286.19473 286.92731 287.57162 288.46198
 366.78100 356.33407 345.76514 334.63022 323.03229 311.22536 299.09443 286.89650
 274.60757 262.50365 250.51172 239.81179 229.93286 221.03593 213.21701 206.21808
 200.05115 194.98822 191.56929 189.61037 188.64644 188.70951 189.54358 190.85065
 192.57472 194.66880 196.93087 199.28894 201.73301 204.21208 206.29916 208.14023
 209.76530 210.90937 211.13744 211.36452 211.30059 211.00466 210.63673 210.26580
 209.88187 209.59095 209.39802 209.26109 209.18816 209.51823 209.90331 210.29138
 211.08345 212.26052 213.50959 215.29166 217.21874 219.26081 221.35488 223.43695
 225.49602 227.57910 229.67517 231.78024 233.90831 236.07938 238.33446 240.70353
 243.32360 245.57367 247.57474 249.33881 250.75489 251.87696 252.69803 253.01310
 253.04917 252.82225 252.18132 251.12839 249.73346 247.89353 245.80161 243.63368
 241.42375 239.22682 237.04589 234.88396 232.74304 230.60911 228.63418 226.79025
 225.07232 223.54340 222.17247 220.94354 219.82461 218.78368 217.88675 217.02683
 216.26790 215.44697 214.54404 213.90711 213.35619 213.92769 215.27794 217.03984
 219.13052 221.31897 223.27933 224.70865 225.73341 226.67189 228.21097 228.66565
 228.68871 229.70041 232.60847 236.91025 241.39789 245.77962 249.99646 253.93248
 257.51971 260.77649 263.73914 266.44263 268.85831 270.89059 272.59006 274.57941
 276.53635 278.32153 279.88184 281.25626 282.45117 283.51376 284.48465 285.37546
 286.18863 286.92480 287.56955 288.45810
 366.78100 356.33400 345.76500 334.62999 323.03199 311.22499 299.09399 286.89599
 274.60698 262.50298 250.51098 239.81098 229.93198 221.03497 213.21597 206.21697
 200.04997 194.98697 191.56796 189.60896 188.64496 188.70796 189.54196 190.84895
 192.57295 194.66695 196.92895 199.28695 201.73094 204.20994 206.29694 208.13794
 209.76294 210.90693 211.13493 211.36193 211.29793 211.00193 210.63392 210.26292
 209.87892 209.58792 209.39492 209.25791 209.18491 209.51491 209.89991 210.28791
 211.07990 212.25690 213.50590 215.28790 217.21490 219.25689 221.35089 223.43289
 225.49189 227.57489 229.67088 231.77588 233.90388 236.07488 238.32988 240.69887
 243.31887 245.56887 247.56987 249.33387 250.74986 251.87186 252.69286 253.00786
 253.04386 252.81685 252.17585 251.12285 249.72785 247.88785 245.79584 243.62784
 241.41784 239.22084 237.03984 234.87783 232.73683 230.60283 228.62783 226.78383
 225.06582 223.53682 222.16582 220.93682 219.81782 218.77681 217.87981 217.01981
 216.26081 215.43981 214.53680 213.89980 213.34880 213.94516 215.35413 217.06616
 219.14174 221.35304 223.37729 224.82423 225.84001 226.81914 228.23830 228.48839
 228.44821 229.58485 232.56400 236.88443 241.37019 245.73235 249.91869 253.81447
 257.37027 260.61276 263.58151 266.29895 268.68927 270.68497 272.59357 274.61621
 276.59109 278.35800 279.90927 281.27789 282.46747 283.52536 284.49472 285.38229
 286.19446 286.92584 287.57236 288.45239
 366.78100 356.33420 345.76541 334.63061 323.03281 311.22602 299.09522 286.89742
 274.60863 262.50483 250.51303 239.81324 229.93444 221.03764 213.21885 206.22005
 200.05325 194.99046 191.57166 189.61286 188.64907 188.71227 189.54647 190.85368
 192.57788 194.67208 196.93429 199.29249 201.73669 204.21590 206.30310 208.14431
 209.76951 210.91371 211.14192 211.36912 211.30532 211.00953 210.64173 210.27093
 209.88714 209.59634 209.40354 209.26675 209.19395 209.52415 209.90936 210.29756
 211.08976 212.26697 213.51617 215.29837 217.22558 219.26778 221.36198 223.44419
 225.50339 227.58659 229.68280 231.78800 233.91620 236.08741 238.34261 240.71181
 243.33202 245.58222 247.58342 249.34763 250.76383 251.88603 252.70724 253.02244
 253.05864 252.83185 252.19105 251.13825 249.74346 247.90366 245.81186 243.64407
 241.43427 239.23747 237.05668 234.89488 232.75408 230.62029 228.64549 226.80169
 225.08390 223.55510 222.18431 220.95551 219.83671 218.79592 217.89912 217.03932
 216.28053 215.45973 214.55693 213.92014 213.36934 213.97604 215.40947 217.10149
 219.16466 221.40421 223.46640 224.92010 225.89738 226.91116 228.26265 228.37036
 228.25543 229.47353 232.52527 236.86739 241.35135 245.69460 249.85281 253.71198
 257.23849 260.46805 263.44028 266.15756 268.49582 270.46683 272.72040 274.57516
 276.58994 278.36789 279.91745 281.28308 282.47137 283.52728 284.49533 285.37994
 286.18826 286.91992 287.56128 288.43622
 366.78100 356.33437 345.76574 334.63111 323.03348 311.22685 299.09622 286.89859
 274.60996 262.50633 250.51470 239.81507 229.93644 221.03981 213.22118 206.22255
 200.05592 194.99329 191.57466 189.61603 188.65240 188.71577 189.55014 190.85751
 192.58188 194.67625 196.93862 199.29699 201.74136 204.22073 206.30811 208.14948
 209.77485 210.91922 211.14759 211.37496 211.31133 211.01570 210.64807 210.27744
 209.89381 209.60318 209.41055 209.27392 209.20129 209.53166 209.91703 210.30540
 211.09777 212.27514 213.52451 215.30688 217.23425 219.27662 221.37099 223.45336
 225.51273 227.59610 229.69247 231.79784 233.92621 236.09758 238.35295 240.72232
 243.34269 245.59306 247.59443 249.35880 250.77517 251.89754 252.71891 253.03428
 253.07065 252.84402 252.20339 251.15076 249.75613 247.91650 245.82487 243.65724
 241.44761 239.25098 237.07035 234.90872 232.76809 230.63446 228.65983 226.81620
 225.09857 223.56994 222.19932 220.97069 219.85206 218.81143 217.91480 217.05517
 216.29654 215.47591 214.57328 213.93665 213.38602 214.00282 215.46008 217.15224
 219.18004 221.45744 223.54733 225.01483 225.95753 226.96381 228.24724 228.28127
 228.12074 229.37462 232.49086 236.86089 241.34212 245.66611 249.79643 253.62080
 257.12146 260.34137 263.31735 266.02899 268.33633 270.33698 272.64734 274.55945
 276.57825 278.34607 279.89413 281.26147 282.44907 283.50409 284.46973 285.35587
 286.16110 286.89166 287.53162 288.39563
 366.78100 356.33417 345.76533 334.63050 323.03266 311.22583 299.09499 286.89716
 274.60833 262.50449 250.51266 239.81282 229.93399 221.03715 213.21832 206.21949
 200.05265 194.98982 191.57098 189.61215 188.64831 188.71148 189.54565 190.85281
 192.57698 194.67114 196.93331 199.29147 201.73564 204.21481 206.30197 208.14314
 209.76830 210.91247 211.14063 211.36780 211.30397 211.00813 210.64030 210.26946
 209.88563 209.59479 209.40196 209.26513 209.19229 209.52246 209.90762 210.29579
 211.08795 212.26512 213.51429 215.29645 217.22362 219.26578 221.35995 223.44211
 225.50128 227.58444 229.68061 231.78578 233.91394 236.08511 238.34027 240.70944
 243.32960 245.57977 247.58094 249.34510 250.76127 251.88343 252.70460 253.01976
 253.05593 252.82910 252.18826 251.13543 249.74059 247.90076 245.80892 243.64109
 241.43126 239.23442 237.05359 234.89175 232.75092 230.61708 228.64225 226.79842
 225.08058 223.55175 222.18091 220.95208 219.83324 218.79241 217.89558 217.03574
 216.27691 215.45607 214.55324 213.91640 213.36557 214.00769 215.52477 217.22566
 219.18869 221.47717 223.59299 225.09453 226.03313 227.01640 228.21788 228.21060
 228.02615 229.29343 232.46710 236.85847 241.33160 245.63663 249.74167 253.53802
 257.02029 260.23621 263.21405 265.91663 268.19571 270.20108 272.43271 274.55768
 276.55475 278.31265 279.86145 281.22852 282.41592 283.47006 284.43594 285.31894
 286.12177 286.85080 287.48834 288.35678
 366.78100 356.33379 345.76457 334.62936 323.03115 311.22393 299.09272 286.89450
 274.60529 262.50108 250.50886 239.80865 229.92944 221.03222 213.21301 206.21380
 200.04658 194.98337 191.56415 189.60494 188.64073 188.70351 189.53730 190.84409
 192.56787 194.66166 196.92345 199.28123 201.72502 204.20380 206.29059 208.13138
 209.75616 210.89995 211.12774 211.35452 211.29031 210.99410 210.62588 210.25467
 209.87045 209.57924 209.38603 209.24881 209.17560 209.50539 209.89017 210.27796
 211.06975 212.24653 213.49532 215.27710 217.20389 219.24568 221.33946 223.42125
 225.48004 227.56282 229.65861 231.76340 233.89118 236.06197 238.31675 240.68554
 243.30533 245.55511 247.55590 249.31969 250.73547 251.85726 252.67805 252.99283
 253.02862 252.80140 252.16019 251.10698 249.71176 247.87155 245.77934 243.61112
 241.40091 239.20370 237.02248 234.86027 232.71905 230.58484 228.60963 226.76541
 225.04720 223.51799 222.14677 220.91756 219.79835 218.75713 217.85992 216.99970
 216.24049 215.41928 214.51606 213.87885 213.32764 213.99942 215.58659 217.31491
 219.22354 221.47679 223.59099 225.13396 226.10519 227.07422 228.18674 228.15025
 227.95125 229.23262 232.46080 236.86314 241.32385 245.60933 249.68860 253.45760
 256.92026 260.12704 263.10056 265.78967 268.05945 270.14313 272.46051 274.52777
 276.50894 278.26270 279.80911 281.17584 282.36267 283.41547 284.38156 285.26096
 286.06445 286.78848 287.42816 288.28616
 366.78100 356.33361 345.76422 334.62883 323.03044 311.22305 299.09166 286.89326
 274.60387 262.49948 250.50709 239.80670 229.92731 221.02992 213.21053 206.21114
 200.04375 194.98036 191.56097 189.60158 188.63718 188.69979 189.53340 190.84001
 192.56362 194.65723 196.91884 199.27645 201.72006 204.19867 206.28528 208.12589
 209.75049 210.89410 211.12171 211.34832 211.28393 210.98754 210.61915 210.24776
 209.86337 209.57198 209.37859 209.24120 209.16781 209.49741 209.88202 210.26963
 211.06124 212.23785 213.48646 215.26807 217.19468 219.23629 221.32990 223.41151
 225.47012 227.55273 229.64833 231.75294 233.88055 236.05116 238.30577 240.67438
 243.29399 245.54360 247.54421 249.30782 250.72343 251.84504 252.66564 252.98025
 253.01586 252.78847 252.14708 251.09369 249.69830 247.85791 245.76552 243.59713
 241.38674 239.18935 237.00796 234.84556 232.70417 230.56978 228.59439 226.75000
 225.03161 223.50222 222.13083 220.90144 219.78205 218.74066 217.84327 216.98288
 216.22348 215.40209 214.49870 213.86131 213.30992 214.00078 215.63300 217.40836
 219.29689 221.48735 223.56543 225.13527 226.15407 227.12268 228.15033 228.08205
 227.87022 229.18086 232.46828 236.87654 241.32585 245.59512 249.65337 253.39778
 256.84055 260.03412 262.99557 265.66748 267.93912 270.07178 272.46573 274.51529
 276.46396 278.20795 279.75220 281.11783 282.30292 283.35489 284.31723 285.19586
 285.99637 286.71924 287.35483 288.20761
 366.78100 356.33354 345.76409 334.62863 323.03018 311.22272 299.09127 286.89281
 274.60336 262.49890 250.50645 239.80599 229.92654 221.02908 213.20963 206.21017
 200.04272 194.97926 191.55981 189.60035 188.63590 188.69844 189.53199 190.83853
 192.56208 194.65562 196.91717 199.27471 201.71825 204.19680 206.28334 208.12389
 209.74843 210.89198 211.11952 211.34607 211.28161 210.98516 210.61670 210.24525
 209.86079 209.56934 209.37588 209.23843 209.16497 209.49452 209.87906 210.26661
 211.05815 212.23470 213.48324 215.26479 217.19133 219.23288 221.32642 223.40797
 225.46651 227.54905 229.64460 231.74914 233.87669 236.04723 238.30178 240.67032
 243.28987 245.53941 247.53996 249.30350 250.71905 251.84059 252.66114 252.97568
 253.01123 252.78377 252.14232 251.08886 249.69341 247.85295 245.76050 243.59204
 241.38159 239.18413 237.00268 234.84022 232.69876 230.56431 228.58885 226.74440
 225.02594 223.49649 222.12503 220.89558 219.77612 218.73467 217.83721 216.97676
 216.21730 215.39585 214.49239 213.85494 213.30348 214.00673 215.66820 217.50957
 219.39235 221.51041 223.52742 225.10422 226.17317 227.15770 228.11452 228.01639
 227.79521 229.14041 232.48416 236.89615 241.33649 245.59171 249.63191 253.35516
 256.77838 259.95602 262.90057 265.55737 267.83823 270.01328 272.43542 274.49280
 276.41547 278.14868 279.68744 281.04944 282.23334 283.28439 284.24341 285.12048
 285.92041 286.63986 287.27484 288.12399
 366.78100 356.33348 345.76395 334.62843 323.02991 311.22239 299.09086 286.89234
 274.60282 262.49830 250.50577 239.80525 229.92573 221.02820 213.20868 206.20916
 200.04164 194.97811 191.55859 189.59907 188.63454 188.69702 189.53050 190.83698
 192.56045 194.65393 196.91541 199.27289 201.71636 204.19484 206.28132 208.12179
 209.74627 210.88975 211.11723 211.34370 211.27918 210.98266 210.61413 210.24261
 209.85809 209.56657 209.37304 209.23552 209.16200 209.49148 209.87595 210.26343
 211.05491 212.23138 213.47986 215.26134 217.18782 219.22929 221.32277 223.40425
 225.46272 227.54520 229.64068 231.74516 233.87263 236.04311 238.29759 240.66607
 243.28554 245.53502 247.53550 249.29897 250.71445 251.83593 252.65641 252.97088
 253.00636 252.77884 252.13731 251.08379 249.68827 247.84775 245.75522 243.58670
 241.37618 239.17866 236.99713 234.83461 232.69309 230.55856 228.58304 226.73852
 225.02000 223.49047 222.11895 220.88943 219.76990 218.72838 217.83086 216.97034
 216.21081 215.38929 214.48577 213.84825 213.29672 214.00992 215.69492 217.62404
 219.50415 221.54572 223.47678 225.04042 226.16246 227.17178 228.06723 227.95375
 227.73814 229.11642 232.50624 236.92278 241.35745 245.60147 249.62730 253.33163
 256.73434 259.89044 262.80841 265.44357 267.73761 269.97336 272.36768 274.44650
 276.35571 278.08264 279.61804 280.97885 282.16098 283.21017 284.16861 285.04318
 285.84323 286.56567 287.19989 288.02844
 366.78100 356.33341 345.76381 334.62822 323.02962 311.22203 299.09043 286.89184
 274.60224 262.49765 250.50505 239.80446 229.92486 221.02727 213.20767 206.20808
 200.04049 194.97689 191.55730 189.59770 188.63311 188.69551 189.52892 190.83532
 192.55873 194.65213 196.91354 199.27094 201.71435 204.19276 206.27916 208.11957
 209.74397 210.88738 211.11478 211.34119 211.27659 210.98000 210.61140 210.23981
 209.85521 209.56362 209.37002 209.23243 209.15884 209.48824 209.87265 210.26005
 211.05146 212.22786 213.47627 215.25767 217.18408 219.22548 221.31889 223.40029
 225.45870 227.54111 229.63651 231.74092 233.86832 236.03873 238.29313 240.66154
 243.28094 245.53035 247.53075 249.29416 250.70956 251.83097 252.65137 252.96578
 253.00119 252.77359 252.13200 251.07840 249.68281 247.84221 245.74962 243.58102
 241.37043 239.17283 236.99124 234.82864 232.68705 230.55246 228.57686 226.73227
 225.01367 223.48408 222.11248 220.88289 219.76329 218.72170 217.82410 216.96351
 216.20391 215.38232 214.47872 213.84113 213.28954 214.01067 215.71443 217.74300
 219.62849 221.59459 223.42497 224.96046 226.13583 227.16719 228.00064 227.87648
 227.67943 229.09779 232.53160 236.95659 241.39243 245.62846 249.64186 253.33054
 256.71161 259.84009 262.72327 265.32999 267.62958 269.96835 272.30707 274.38266
 276.27777 278.00104 279.53085 280.89020 282.06946 283.11526 284.07095 284.94638
 285.74442 286.47049 287.09769 287.92041
 366.78100 356.33348 345.76395 334.62843 323.02990 311.22238 299.09085 286.89233
 274.60281 262.49828 250.50576 239.80523 229.92571 221.02818 213.20866 206.20914
 200.04161 194.97809 191.55856 189.59904 188.63451 188.69699 189.53047 190.83694
 192.56042 194.65389 196.91537 199.27284 201.71632 204.19480 206.28127 208.12175
 209.74622 210.88970 211.11717 211.34365 211.27913 210.98260 210.61408 210.24255
 209.85803 209.56650 209.37298 209.23546 209.16193 209.49141 209.87588 210.26336
 211.05483 212.23131 213.47978 215.26126 217.18774 219.22921 221.32269 223.40416
 225.46264 227.54511 229.64059 231.74507 233.87254 236.04302 238.29749 240.66597
 243.28544 245.53492 247.53540 249.29887 250.71435 251.83582 252.65630 252.97077
 253.00625 252.77873 252.13720 251.08368 249.68815 247.84763 245.75510 243.58658
 241.37606 239.17853 236.99701 234.83448 232.69296 230.55843 228.58291 226.73839
 225.01986 223.49034 222.11881 220.88929 219.76976 218.72824 217.83072 216.97019
 216.21067 215.38914 214.48562 213.84809 213.29657 214.01634 215.71687 217.87093
 219.77283 221.65298 223.36726 224.86389 226.09633 227.14857 227.91434 227.78220
 227.61987 229.09122 232.56676 236.99992 241.43655 245.66786 249.67267 253.34758
 256.70892 259.81003 262.66278 265.24887 267.54782 269.93500 272.24963 274.31497
 276.19501 277.90283 279.41733 280.76367 281.93643 282.97842 283.92975 284.80347
 285.60413 286.33688 286.95288 287.77426
 366.78100 356.33365 345.76429 334.62894 323.03059 311.22323 299.09188 286.89353
 274.60417 262.49982 250.50747 239.80711 229.92776 221.03041 213.21105 206.21170
 200.04435 194.98099 191.56164 189.60229 188.63793 188.70058 189.53423 190.84088
 192.56452 194.65817 196.91982 199.27746 201.72111 204.19976 206.28640 208.12705
 209.75170 210.89534 211.12299 211.34964 211.28528 210.98893 210.62058 210.24922
 209.86487 209.57352 209.38016 209.24281 209.16946 209.49910 209.88375 210.27140
 211.06304 212.23969 213.48834 215.26998 217.19663 219.23828 221.33192 223.41357
 225.47222 227.55486 229.65051 231.75516 233.88280 236.05345 238.30810 240.67675
 243.29639 245.54604 247.54669 249.31033 250.72598 251.84763 252.66827 252.98292
 253.01857 252.79121 252.14986 251.09651 249.70115 247.86080 245.76845 243.60009
 241.38974 239.19239 237.01103 234.84868 232.70733 230.57297 228.59762 226.75327
 225.03491 223.50556 222.13421 220.90485 219.78550 218.74415 217.84679 216.98644
 216.22709 215.40573 214.50238 213.86503 213.31367 214.02512 215.70598 217.99615
 219.94392 221.73146 223.32063 224.76111 226.01918 227.08531 227.80519 227.66547
 227.54909 229.09232 232.61102 237.05507 241.49832 245.72563 249.72298 253.38945
 256.73337 259.81061 262.64178 265.22134 267.51837 269.88055 272.19220 274.23172
 276.09930 277.79083 279.29556 280.63342 281.79077 282.82510 283.77072 284.63934
 285.44855 286.17566 286.79001 287.61670
 366.78100 356.33400 345.76500 334.62999 323.03199 311.22499 299.09399 286.89599
 274.60698 262.50298 250.51098 239.81098 229.93198 221.03497 213.21597 206.21697
 200.04997 194.98697 191.56796 189.60896 188.64496 188.70796 189.54196 190.84895
 192.57295 194.66695 196.92895 199.28695 201.73094 204.20994 206.29694 208.13794
 209.76294 210.90693 211.13493 211.36193 211.29793 211.00193 210.63392 210.26292
 209.87892 209.58792 209.39492 209.25791 209.18491 209.51491 209.89991 210.28791
 211.07990 212.25690 213.50590 215.28790 217.21490 219.25689 221.35089 223.43289
 225.49189 227.57489 229.67088 231.77588 233.90388 236.07488 238.32988 240.69887
 243.31887 245.56887 247.56987 249.33387 250.74986 251.87186 252.69286 253.00786
 253.04386 252.81685 252.17585 251.12285 249.72785 247.88785 245.79584 243.62784
 241.41784 239.22084 237.03984 234.87783 232.73683 230.60283 228.62783 226.78383
 225.06582 223.53682 222.16582 220.93682 219.81782 218.77681 217.87981 217.01981
 216.26081 215.43981 214.53680 213.89980 213.34880 214.04300 215.68311 218.10721
 220.15103 221.84430 223.27698 224.65022 225.94595 227.00810 227.64568 227.49008
 227.44315 229.09485 232.66682 237.12402 241.57985 245.80325 249.79054 253.44934
 256.77701 259.82809 262.64264 265.23059 267.51385 269.83328 272.13489 274.15509
 276.00580 277.67499 279.16287 280.48285 281.63736 282.67737 283.63855 284.51605
 285.31042 286.00769 286.62170 287.44040
 366.78100 356.33512 345.76723 334.63335 323.03646 311.23058 299.10069 286.90381
 274.61592 262.51304 250.52215 239.82327 229.94538 221.04950 213.23161 206.23373
 200.06784 195.00596 191.58807 189.63019 188.66730 188.73142 189.56653 190.87465
 192.59976 194.69488 196.95799 199.31711 201.76222 204.24234 206.33045 208.17257
 209.79868 210.94380 211.17291 211.40103 211.33814 211.04326 210.67637 210.30649
 209.92360 209.63372 209.44183 209.30595 209.23406 209.56518 209.95129 210.34041
 211.13352 212.31164 213.56176 215.34487 217.27299 219.31610 221.41122 223.49433
 225.55445 227.63856 229.73568 231.84179 233.97091 236.14302 238.39914 240.76925
 243.39037 245.64148 247.64360 249.40871 250.82583 251.94894 252.77106 253.08717
 253.12429 252.89840 252.25852 251.20663 249.81275 247.97386 245.88298 243.71609
 241.50721 239.31132 237.13144 234.97055 232.83067 230.69778 228.72390 226.88101
 225.16413 223.63624 222.26636 221.03847 219.92059 218.88070 217.98482 217.12593
 216.36805 215.54816 214.64628 214.01040 213.46051 214.10469 215.62662 218.18881
 220.39041 222.00809 223.28758 224.56654 225.80713 226.84140 227.46376 227.31357
 227.33337 229.09457 232.72234 237.19579 241.66428 245.89113 249.87219 253.52583
 256.84042 259.86642 262.65103 265.21732 267.45920 269.89047 272.02695 274.05652
 275.87332 277.53674 279.01935 280.34259 281.50436 282.54428 283.50662 284.38147
 285.16748 285.86066 286.47168 287.28574
 366.78100 356.33588 345.76876 334.63564 323.03952 311.23440 299.10528 286.90917
 274.62205 262.51993 250.52981 239.83169 229.95457 221.05945 213.24233 206.24521
 200.08009 195.01897 191.60185 189.64473 188.68262 188.74750 189.58338 190.89226
 192.61814 194.71402 196.97790 199.33778 201.78366 204.26454 206.35342 208.19630
 209.82319 210.96907 211.19895 211.42783 211.36571 211.07159 210.70547 210.33635
 209.95423 209.66511 209.47399 209.33887 209.26775 209.59964 209.98652 210.37640
 211.17028 212.34916 213.60004 215.38392 217.31280 219.35668 221.45256 223.53644
 225.59732 227.68220 229.78009 231.88697 234.01685 236.18973 238.44661 240.81749
 243.43937 245.69125 247.69413 249.46001 250.87789 252.00177 252.82466 253.14154
 253.17942 252.95430 252.31518 251.26406 249.87094 248.03282 245.94270 243.77658
 241.56846 239.37334 237.19422 235.03411 232.89499 230.76287 228.78975 226.94763
 225.23151 223.70439 222.33527 221.10815 219.99103 218.95191 218.05679 217.19867
 216.44156 215.62244 214.72132 214.08620 213.53708 214.14995 215.59793 218.22406
 220.60336 222.21947 223.35358 224.44576 225.65985 226.70441 227.27141 227.10173
 227.20844 229.10077 232.78297 237.27110 241.75533 245.97707 249.94441 253.59238
 256.89154 259.89087 262.65823 265.23679 267.48132 269.82123 271.95978 274.00574
 275.81384 277.43011 278.88272 280.18353 281.29816 282.32828 283.29004 284.15469
 284.86362 285.54962 286.17001 286.99780
 366.78100 356.33487 345.76674 334.63262 323.03549 311.22936 299.09923 286.90210
 274.61398 262.51085 250.51972 239.82059 229.94246 221.04633 213.22821 206.23008
 200.06395 195.00182 191.58369 189.62557 188.66244 188.72631 189.56118 190.86905
 192.59393 194.68880 196.95167 199.31054 201.75541 204.23528 206.32316 208.16503
 209.79090 210.93577 211.16464 211.39252 211.32939 211.03426 210.66713 210.29700
 209.91388 209.62375 209.43162 209.29549 209.22336 209.55423 209.94011 210.32898
 211.12185 212.29972 213.54959 215.33247 217.26034 219.30321 221.39808 223.48095
 225.54083 227.62470 229.72157 231.82744 233.95631 236.12818 238.38406 240.75393
 243.37480 245.62567 247.62754 249.39242 250.80929 251.93216 252.75403 253.06990
 253.10678 252.88065 252.24052 251.18839 249.79426 247.95513 245.86401 243.69688
 241.48775 239.29162 237.11149 234.95037 232.81024 230.67711 228.70298 226.85985
 225.14273 223.61460 222.24447 221.01634 219.89821 218.85808 217.96196 217.10283
 216.34470 215.52457 214.62244 213.98632 213.43619 214.10320 215.67909 218.20543
 220.76920 222.42879 223.40445 224.37178 225.59959 226.62968 227.07414 226.83417
 227.01163 229.05946 232.82880 237.34444 241.84189 246.06635 250.02838 253.67607
 256.96854 259.93564 262.66125 265.25424 267.46454 269.88940 271.82346 273.85846
 275.64346 277.31665 278.76465 280.06287 281.16608 282.19415 283.14972 284.00961
 284.74948 285.44504 286.07172 286.90720
 366.78100 356.33505 345.76710 334.63315 323.03621 311.23026 299.10031 286.90336
 274.61541 262.51246 250.52151 239.82257 229.94462 221.04867 213.23072 206.23277
 200.06682 195.00488 191.58693 189.62898 188.66603 188.73008 189.56513 190.87318
 192.59824 194.69329 196.95634 199.31539 201.76044 204.24049 206.32854 208.17060
 209.79665 210.94170 211.17075 211.39880 211.33585 211.04090 210.67396 210.30401
 209.92106 209.63111 209.43916 209.30321 209.23126 209.56232 209.94837 210.33742
 211.13047 212.30852 213.55857 215.34163 217.26968 219.31273 221.40778 223.49083
 225.55088 227.63493 229.73199 231.83804 233.96709 236.13914 238.39519 240.76524
 243.38629 245.63735 247.63940 249.40445 250.82150 251.94455 252.76660 253.08265
 253.11971 252.89376 252.25381 251.20186 249.80791 247.96896 245.87801 243.71107
 241.50212 239.30617 237.12622 234.96527 232.82532 230.69238 228.71843 226.87548
 225.15853 223.63058 222.26063 221.03268 219.91474 218.87479 217.97884 217.11989
 216.36194 215.54199 214.64004 214.00410 213.45415 214.12056 215.70874 218.27783
 220.75267 222.41774 223.50389 224.37454 225.56358 226.59160 226.90399 226.65906
 226.69475 228.90796 232.80261 237.38853 241.93750 246.21062 250.17772 253.82207
 257.09833 260.04181 262.74063 265.20700 267.47784 269.81625 271.82681 273.78583
 275.45166 277.07361 278.55933 279.81903 280.91071 281.88947 282.80060 283.55011
 284.16934 284.71759 285.19650 285.80682
 366.78100 356.33588 345.76875 334.63563 323.03951 311.23438 299.10526 286.90913
 274.62201 262.51989 250.52976 239.83164 229.95452 221.05939 213.24227 206.24515
 200.08002 195.01890 191.60177 189.64465 188.68253 188.74740 189.58328 190.89216
 192.61803 194.71391 196.97779 199.33766 201.78354 204.26441 206.35329 208.19617
 209.82304 210.96892 211.19880 211.42767 211.36555 211.07143 210.70530 210.33618
 209.95405 209.66493 209.47381 209.33868 209.26756 209.59944 209.98631 210.37619
 211.17007 212.34894 213.59982 215.38369 217.31257 219.35645 221.45232 223.53620
 225.59708 227.68195 229.77983 231.88671 234.01658 236.18946 238.44633 240.81721
 243.43909 245.69096 247.69384 249.45972 250.87759 252.00147 252.82435 253.14122
 253.17910 252.95397 252.31485 251.26373 249.87060 248.03248 245.94236 243.77623
 241.56811 239.37299 237.19386 235.03374 232.89461 230.76249 228.78937 226.94724
 225.23112 223.70400 222.33487 221.10775 219.99063 218.95150 218.05638 217.19825
 216.44113 215.62201 214.72088 214.08576 213.53664 214.17052 215.76323 218.39488
 220.66034 222.27748 223.55415 224.37901 225.47226 226.61038 226.90143 226.87491
 226.61215 228.81120 232.74608 237.34059 241.91495 246.23167 250.23692 253.91766
 257.22168 260.14319 262.84473 265.24957 267.39627 269.81885 271.97372 273.85074
 275.26990 276.71814 278.07697 279.27063 280.33786 281.30780 282.20889 283.02521
 283.75940 284.41318 284.98434 285.71219
 366.78100 356.33739 345.77178 334.64017 323.04557 311.24196 299.11435 286.91974
 274.63413 262.53352 250.54491 239.84830 229.97270 221.07909 213.26348 206.26787
 200.10426 195.04465 191.62904 189.67343 188.71283 188.77922 189.61661 190.92700
 192.65439 194.75178 197.01717 199.37856 201.82596 204.30835 206.39874 208.24313
 209.87152 211.01891 211.25030 211.48069 211.42009 211.12748 210.76287 210.39526
 210.01465 209.72704 209.53743 209.40382 209.33422 209.66761 210.05600 210.44739
 211.24278 212.42317 213.67556 215.46095 217.39135 219.43674 221.53413 223.61952
 225.68191 227.76830 229.86769 231.97608 234.10748 236.28187 238.54026 240.91265
 243.53604 245.78943 247.79382 249.56121 250.98061 252.10600 252.93039 253.24878
 253.28817 253.06456 252.42695 251.37734 249.98574 248.14913 246.06052 243.89591
 241.68930 239.49569 237.31808 235.15947 233.02187 230.89126 228.91965 227.07904
 225.36443 223.83882 222.47121 221.24560 220.13000 219.09239 218.19878 217.34217
 216.58656 215.76895 214.86934 214.23573 213.68813 214.25890 215.75540 218.40100
 220.90215 222.44711 223.58537 224.43008 225.44531 226.46858 226.90453 226.87740
 226.80841 228.91740 232.77974 237.36061 241.93552 246.24158 250.25456 253.96074
 257.32718 260.24802 262.92514 265.31357 267.30640 269.70044 271.86093 273.73474
 275.09366 276.43024 277.74802 279.01840 280.23465 281.33386 282.33670 283.24521
 284.06232 284.78995 285.42557 286.23563
 366.78100 356.33867 345.77433 334.64400 323.05066 311.24833 299.12199 286.92866
 274.64432 262.54499 250.55765 239.86232 229.98798 221.09565 213.28131 206.28698
 200.12464 195.06631 191.65197 189.69764 188.73830 188.80597 189.64463 190.95630
 192.68496 194.78363 197.05029 199.41296 201.86162 204.34529 206.43695 208.28262
 209.91228 211.06095 211.29361 211.52528 211.46594 211.17461 210.81127 210.44494
 210.06560 209.77927 209.59093 209.45860 209.39026 209.72493 210.11459 210.50726
 211.30392 212.48559 213.73925 215.52592 217.45758 219.50425 221.60291 223.68958
 225.75324 227.84091 229.94157 232.05124 234.18390 236.35957 238.61923 240.99290
 243.61756 245.87223 247.87789 249.64656 251.06722 252.19389 253.01955 253.33922
 253.37988 253.15755 252.52121 251.47288 250.08254 248.24721 246.15987 243.99654
 241.79120 239.59887 237.42253 235.26520 233.12887 230.99953 229.02920 227.18986
 225.47653 223.95219 222.58586 221.36152 220.24719 219.21085 218.31852 217.46318
 216.70885 215.89251 214.99418 214.36184 213.81551 214.34340 215.73383 218.32153
 221.06961 222.71117 223.71964 224.49057 225.37505 226.27592 226.62955 226.50491
 226.65918 228.93777 232.87064 237.46263 242.04846 246.36810 250.39812 254.11958
 257.52014 260.47849 263.14865 265.65320 267.53696 269.53601 271.66058 273.60046
 275.12921 276.44922 277.72449 279.06686 280.34860 281.53906 282.62518 283.60910
 284.49405 285.28210 285.97052 286.84784
 366.78100 356.33667 345.77035 334.63802 323.04270 311.23837 299.11005 286.91472
 274.62840 262.52707 250.53774 239.84042 229.96409 221.06977 213.25344 206.25712
 200.09279 195.03246 191.61614 189.65981 188.69849 188.76416 189.60084 190.91051
 192.63719 194.73386 196.99853 199.35921 201.80588 204.28756 206.37723 208.22091
 209.84858 210.99526 211.22593 211.45560 211.39428 211.10095 210.73563 210.36730
 209.98598 209.69765 209.50732 209.37300 209.30267 209.63535 210.02302 210.41370
 211.20837 212.38805 213.63972 215.42439 217.35407 219.39874 221.49542 223.58009
 225.64177 227.72744 229.82612 231.93379 234.06446 236.23814 238.49581 240.86749
 243.49016 245.74284 247.74651 249.51318 250.93186 252.05653 252.88021 253.19788
 253.23656 253.01223 252.37391 251.32358 249.93125 248.09393 246.00460 243.83928
 241.63195 239.43763 237.25930 235.09998 232.96165 230.83032 228.85800 227.01667
 225.30135 223.77502 222.40670 221.18037 220.06404 219.02572 218.13139 217.27407
 216.51774 215.69942 214.79909 214.16477 213.61644 214.25932 215.86969 218.27051
 220.92715 222.92474 223.94543 224.56622 225.37608 226.23352 226.52353 226.05196
 226.29398 228.71986 232.81342 237.45535 242.04793 246.38133 250.43431 254.18144
 257.59845 260.62415 263.30655 265.86795 267.87817 269.61774 271.59882 273.67355
 275.28476 276.61017 277.89908 279.24524 280.48102 281.72400 282.88177 283.93066
 284.87405 285.71411 286.44797 287.38321
 366.78100 356.33470 345.76641 334.63211 323.03482 311.22852 299.09823 286.90093
 274.61263 262.50934 250.51804 239.81875 229.94045 221.04415 213.22586 206.22756
 200.06127 194.99897 191.58068 189.62238 188.65908 188.72279 189.55749 190.86520
 192.58990 194.68460 196.94731 199.30601 201.75072 204.23042 206.31813 208.15983
 209.78553 210.93024 211.15894 211.38665 211.32335 211.02805 210.66076 210.29046
 209.90717 209.61687 209.42458 209.28828 209.21598 209.54669 209.93239 210.32110
 211.11380 212.29150 213.54121 215.32391 217.25162 219.29432 221.38903 223.47173
 225.53143 227.61514 229.71184 231.81755 233.94625 236.11796 238.37366 240.74336
 243.36407 245.61477 247.61648 249.38118 250.79788 251.92059 252.74229 253.05800
 253.09470 252.86841 252.22811 251.17581 249.78152 247.94222 245.85093 243.68363
 241.47433 239.27804 237.09774 234.93645 232.79615 230.66286 228.68856 226.84526
 225.12797 223.59967 222.22938 221.00108 219.88278 218.84249 217.94619 217.08690
 216.32860 215.50831 214.60601 213.96971 213.41942 214.15714 215.94974 218.41222
 220.79770 222.75883 223.91891 224.60083 225.44630 226.33446 226.76057 225.81195
 226.00726 228.47337 232.69011 237.33688 241.91010 246.25099 250.29945 254.04100
 257.43866 260.47650 263.22754 265.78650 267.94797 269.68710 271.61209 273.62570
 275.35837 276.75751 278.01584 279.28470 280.46417 281.50983 282.49289 283.42993
 284.27274 285.02322 285.67886 286.51437
 366.78100 356.33644 345.76989 334.63733 323.04177 311.23722 299.10866 286.91310
 274.62655 262.52499 250.53543 239.83788 229.96132 221.06676 213.25021 206.25365
 200.08909 195.02853 191.61198 189.65542 188.69386 188.75931 189.59575 190.90519
 192.63164 194.72808 196.99252 199.35297 201.79941 204.28085 206.37030 208.21374
 209.84118 210.98763 211.21807 211.44751 211.38596 211.09240 210.72684 210.35829
 209.97673 209.68817 209.49762 209.36306 209.29250 209.62495 210.01239 210.40283
 211.19727 212.37672 213.62816 215.41260 217.34205 219.38649 221.48293 223.56738
 225.62882 227.71426 229.81271 231.92015 234.05059 236.22404 238.48148 240.85292
 243.47537 245.72781 247.73125 249.49770 250.91614 252.04058 252.86403 253.18147
 253.21991 252.99536 252.35680 251.30624 249.91369 248.07613 245.98657 243.82101
 241.61346 239.41890 237.24034 235.08079 232.94223 230.81067 228.83812 226.99656
 225.28100 223.75445 222.38589 221.15933 220.04278 219.00422 218.10966 217.25211
 216.49555 215.67699 214.77644 214.14188 213.59332 214.24629 215.82040 218.53909
 221.10806 222.81567 223.79411 224.50537 225.38173 226.27951 226.76950 225.87982
 226.16991 228.54968 232.70012 237.33543 241.88652 246.19775 250.24138 253.95996
 257.34064 260.34238 263.08246 265.65665 267.90918 269.77341 271.59622 273.52856
 275.30859 276.73959 278.00629 279.23770 280.39047 281.42520 282.37244 283.24823
 284.08624 284.83252 285.48444 286.31525
 366.78100 356.33865 345.77430 334.64395 323.05060 311.24825 299.12190 286.92855
 274.64420 262.54485 250.55749 239.86214 229.98779 221.09544 213.28109 206.28674
 200.12439 195.06604 191.65169 189.69734 188.73799 188.80564 189.64429 190.95594
 192.68459 194.78324 197.04989 199.41254 201.86119 204.34484 206.43648 208.28213
 209.91178 211.06043 211.29308 211.52473 211.46538 211.17403 210.81068 210.44433
 210.06498 209.77863 209.59028 209.45793 209.38958 209.72423 210.11388 210.50653
 211.30318 212.48483 213.73847 215.52512 217.45677 219.50342 221.60207 223.68872
 225.75237 227.84002 229.94067 232.05032 234.18297 236.35862 238.61827 240.99192
 243.61657 245.87122 247.87687 249.64552 251.06617 252.19282 253.01846 253.33811
 253.37876 253.15641 252.52006 251.47171 250.08136 248.24601 246.15866 243.99531
 241.78996 239.59761 237.42126 235.26391 233.12756 230.99821 229.02786 227.18851
 225.47516 223.95081 222.58445 221.36010 220.24575 219.20940 218.31705 217.46170
 216.70735 215.89100 214.99265 214.36030 213.81395 214.37834 215.77325 218.55505
 221.22697 222.83954 223.74086 224.38560 225.29054 226.27295 226.67148 225.90382
 226.04326 228.50813 232.71445 237.33864 241.91571 246.22214 250.27216 254.00331
 257.39612 260.40686 263.10995 265.67715 267.97559 269.83459 271.57922 273.48599
 275.19022 276.61353 277.75275 279.01413 280.14899 281.18570 282.15588 283.09607
 283.94736 284.70544 285.36771 286.21167
 366.78100 356.33887 345.77474 334.64461 323.05148 311.24935 299.12322 286.93009
 274.64596 262.54683 250.55970 239.86457 229.99044 221.09831 213.28418 206.29005
 200.12792 195.06979 191.65566 189.70153 188.74240 188.81027 189.64914 190.96101
 192.68988 194.78875 197.05562 199.41849 201.86736 204.35123 206.44309 208.28896
 209.91883 211.06770 211.30057 211.53244 211.47331 211.18218 210.81905 210.45292
 210.07379 209.78766 209.59953 209.46740 209.39927 209.73414 210.12401 210.51688
 211.31375 212.49562 213.74949 215.53636 217.46823 219.51510 221.61397 223.70084
 225.76471 227.85258 229.95345 232.06332 234.19619 236.37206 238.63193 241.00580
 243.63067 245.88554 247.89141 249.66028 251.08115 252.20802 253.03389 253.35376
 253.39463 253.17250 252.53637 251.48824 250.09811 248.26298 246.17585 244.01272
 241.80759 239.61546 237.43933 235.28220 233.14607 231.01694 229.04681 227.20768
 225.49455 223.97042 222.60428 221.38015 220.26602 219.22989 218.33776 217.48263
 216.72850 215.91237 215.01424 214.38211 213.83598 214.41002 215.87044 218.55841
 221.17865 222.76437 223.81854 224.56956 225.40935 226.28912 226.49236 225.96991
 226.03784 228.56531 232.71263 237.33104 241.90039 246.22939 250.30505 254.07571
 257.50491 260.53799 263.21515 265.76089 268.05884 269.90411 271.62009 273.40744
 275.06189 276.40756 277.56454 278.86502 280.05698 281.17422 282.25674 283.23746
 284.11948 284.90491 285.59106 286.46548
 366.78100 356.33961 345.77621 334.64682 323.05442 311.25303 299.12763 286.93524
 274.65184 262.55345 250.56705 239.87266 229.99926 221.10787 213.29447 206.30108
 200.13968 195.08229 191.66889 189.71550 188.75710 188.82571 189.66531 190.97792
 192.70752 194.80713 197.07473 199.43834 201.88794 204.37255 206.46515 208.31176
 209.94236 211.09197 211.32557 211.55818 211.49978 211.20939 210.84699 210.48160
 210.10320 209.81781 209.63041 209.49902 209.43162 209.76723 210.15783 210.55144
 211.34904 212.53165 213.78625 215.57386 217.50646 219.55407 221.65367 223.74128
 225.80588 227.89449 229.99609 232.10670 234.24030 236.41691 238.67751 241.05212
 243.67772 245.93333 247.93993 249.70954 251.13114 252.25875 253.08535 253.40596
 253.44756 253.22617 252.59077 251.54338 250.15398 248.31959 246.23319 244.07080
 241.86640 239.67501 237.49961 235.34322 233.20782 231.07943 229.11003 227.27164
 225.55924 224.03585 222.67045 221.44706 220.33366 219.29827 218.40687 217.55248
 216.79908 215.98369 215.08629 214.45490 213.90950 214.47704 215.95453 218.48454
 221.23488 222.94958 224.05060 224.76924 225.48602 226.16522 226.23801 225.86423
 226.13737 228.65149 232.72253 237.32283 241.87469 246.21997 250.33362 254.14284
 257.62039 260.66840 263.37219 265.89655 268.14716 269.98581 271.67004 273.30139
 274.88834 276.16248 277.49527 278.87363 280.21869 281.45047 282.57431 283.59241
 284.50809 285.32349 286.03583 286.94360
 366.78100 356.34078 345.77856 334.65034 323.05913 311.25891 299.13469 286.94347
 274.66125 262.56403 250.57881 239.88560 230.01338 221.12316 213.31094 206.31872
 200.15850 195.10228 191.69007 189.73785 188.78063 188.85041 189.69119 191.00497
 192.73575 194.83654 197.10532 199.47010 201.92088 204.40666 206.50044 208.34823
 209.98001 211.13079 211.36557 211.59935 211.54213 211.25291 210.89170 210.52748
 210.15026 209.86604 209.67982 209.54960 209.48338 209.82017 210.21195 210.60673
 211.40551 212.58929 213.84507 215.63385 217.56764 219.61642 221.71720 223.80598
 225.87176 227.96154 230.06432 232.17611 234.31089 236.48867 238.75045 241.12623
 243.75301 246.00979 248.01758 249.78836 251.21114 252.33992 253.16770 253.48948
 253.53226 253.31205 252.67783 251.63161 250.24339 248.41017 246.32495 244.16373
 241.96052 239.77030 237.59608 235.44086 233.30664 231.17942 229.21121 227.37399
 225.66277 224.14055 222.77633 221.55411 220.44189 219.40768 218.51746 217.66424
 216.91202 216.09780 215.20158 214.57136 214.02715 214.57361 216.01038 218.39880
 221.23230 223.20110 224.26999 224.83397 225.45773 226.07324 226.17314 225.71448
 226.01480 228.58144 232.70964 237.33110 241.86133 246.24077 250.37506 254.20940
 257.69672 260.82217 263.60971 266.15567 268.41364 270.29205 271.91913 273.46548
 274.91528 276.29990 277.84253 279.45010 280.96890 282.31265 283.53864 284.64926
 285.64816 286.53769 287.31476 288.30505
 366.78100 356.34056 345.77811 334.64967 323.05822 311.25778 299.13334 286.94189
 274.65945 262.56200 250.57656 239.88312 230.01067 221.12023 213.30778 206.31534
 200.15489 195.09845 191.68601 189.73356 188.77612 188.84567 189.68623 190.99979
 192.73034 194.83090 197.09945 199.46401 201.91457 204.40012 206.49368 208.34123
 209.97279 211.12335 211.35790 211.59146 211.53401 211.24457 210.88313 210.51868
 210.14124 209.85679 209.67035 209.53990 209.47346 209.81002 210.20157 210.59613
 211.39468 212.57824 213.83380 215.62235 217.55591 219.60446 221.70502 223.79358
 225.85913 227.94869 230.05124 232.16280 234.29736 236.47491 238.73647 241.11202
 243.73858 245.99514 248.00269 249.77325 251.19580 252.32436 253.15192 253.47347
 253.51603 253.29558 252.66114 251.61469 250.22625 248.39281 246.30736 244.14592
 241.94247 239.75203 237.57759 235.42214 233.28770 231.16025 229.19181 227.35437
 225.64292 224.12048 222.75603 221.53359 220.42115 219.38670 218.49626 217.64281
 216.89037 216.07593 215.17948 214.54904 214.00459 214.58148 216.06233 218.38756
 221.04840 223.23068 224.33896 224.86177 225.53502 226.27878 226.21672 225.50569
 225.79669 228.39893 232.61238 237.24838 241.78726 246.17366 250.32553 254.19392
 257.72122 260.91293 263.78653 266.39801 268.75116 270.76831 272.47498 273.97656
 275.35187 276.64987 278.13745 279.56647 281.04315 282.40396 283.64551 284.77023
 285.78183 286.68265 287.46960 288.47247
 366.78100 356.33977 345.77654 334.64731 323.05509 311.25386 299.12863 286.93640
 274.65317 262.55494 250.56871 239.87449 230.00126 221.11003 213.29680 206.30357
 200.14234 195.08512 191.67189 189.71866 188.76043 188.82920 189.66897 190.98174
 192.71152 194.81129 197.07906 199.44283 201.89260 204.37737 206.47014 208.31692
 209.94769 211.09746 211.33123 211.56400 211.50577 211.21554 210.85332 210.48809
 210.10986 209.82463 209.63740 209.50617 209.43894 209.77472 210.16549 210.55926
 211.35703 212.53980 213.79457 215.58235 217.51512 219.56289 221.66266 223.75043
 225.81520 227.90397 230.00575 232.11652 234.25029 236.42706 238.68783 241.06260
 243.68837 245.94415 247.95092 249.72069 251.14246 252.27023 253.09700 253.41777
 253.45955 253.23832 252.60309 251.55586 250.16663 248.33240 246.24618 244.08395
 241.87972 239.68849 237.51326 235.35703 233.22180 231.09358 229.12435 227.28612
 225.57389 224.05066 222.68543 221.46220 220.34898 219.31375 218.42252 217.56829
 216.81506 215.99983 215.10260 214.47138 213.92615 214.55331 216.12759 218.42752
 220.89180 223.12210 224.33336 224.87466 225.55315 226.35481 226.40030 225.44405
 225.67673 228.24184 232.50774 237.14957 241.69928 246.08376 250.25288 254.13655
 257.68207 260.88345 263.75427 266.37827 268.75818 270.83859 272.63837 274.19870
 275.57141 276.88214 278.35190 279.74219 281.01523 282.29498 283.46255 284.52032
 285.47165 286.31882 287.05887 288.00198
 366.78100 356.33997 345.77694 334.64791 323.05588 311.25485 299.12982 286.93779
 274.65476 262.55673 250.57070 239.87667 230.00364 221.11261 213.29958 206.30655
 200.14551 195.08848 191.67545 189.72242 188.76439 188.83336 189.67333 190.98630
 192.71627 194.81624 197.08421 199.44818 201.89815 204.38312 206.47609 208.32306
 209.95403 211.10400 211.33797 211.57094 211.51291 211.22288 210.86085 210.49582
 210.11779 209.83276 209.64573 209.51470 209.44767 209.78364 210.17461 210.56858
 211.36654 212.54951 213.80448 215.59245 217.52542 219.57339 221.67336 223.76133
 225.82630 227.91527 230.01724 232.12821 234.26218 236.43915 238.70012 241.07509
 243.70106 245.95703 247.96400 249.73397 251.15594 252.28391 253.11088 253.43185
 253.47382 253.25279 252.61776 251.57073 250.18170 248.34767 246.26164 244.09961
 241.89557 239.70454 237.52951 235.37348 233.23845 231.11042 229.14139 227.30336
 225.59133 224.06830 222.70327 221.48024 220.36721 219.33218 218.44115 217.58712
 216.83409 216.01906 215.12203 214.49100 213.94597 214.58754 216.20230 218.43010
 220.85530 223.13422 224.41975 224.94124 225.50600 226.24229 226.35123 225.54402
 225.74782 228.24802 232.45804 237.09268 241.65108 246.05397 250.25307 254.18372
 257.77167 260.98480 263.85242 266.44385 268.78259 270.84579 272.63980 274.20883
 275.56833 277.01257 278.56720 279.98849 281.39575 282.69687 283.88391 284.95932
 285.92651 286.78781 287.54025 288.49911
 366.78100 356.34025 345.77751 334.64876 323.05701 311.25627 299.13152 286.93977
 274.65703 262.55928 250.57353 239.87979 230.00704 221.11629 213.30355 206.31080
 200.15005 195.09331 191.68056 189.72781 188.77007 188.83932 189.67957 190.99283
 192.72308 194.82333 197.09159 199.45584 201.90609 204.39135 206.48460 208.33185
 209.96311 211.11336 211.34761 211.58087 211.52312 211.23337 210.87163 210.50688
 210.12913 209.84439 209.65764 209.52689 209.46015 209.79640 210.18765 210.58191
 211.38016 212.56341 213.81867 215.60692 217.54017 219.58843 221.68868 223.77693
 225.84219 227.93144 230.03369 232.14495 234.27920 236.45645 238.71771 241.09296
 243.71921 245.97547 247.98272 249.75297 251.17523 252.30348 253.13073 253.45199
 253.49424 253.27349 252.63875 251.59200 250.20325 248.36951 246.28376 244.12201
 241.91827 239.72752 237.55277 235.39703 233.26228 231.13453 229.16579 227.32804
 225.61629 224.09355 222.72880 221.50605 220.39331 219.35856 218.46781 217.61407
 216.86132 216.04657 215.14983 214.51908 213.97433 214.62373 216.24200 218.44684
 220.75591 222.99287 224.46211 225.05283 225.47354 226.16913 226.44186 225.48439
 225.69028 228.14746 232.37450 237.01294 241.58479 246.00632 250.24254 254.22116
 257.87570 261.16641 264.08005 266.67737 269.01862 271.10016 272.91919 274.51617
 275.90286 277.18179 278.67490 280.06741 281.34995 282.62439 283.78714 284.84048
 285.78787 286.63150 287.36850 288.30771
 366.78100 356.33926 345.77552 334.64577 323.05303 311.25129 299.12555 286.93281
 274.64907 262.55032 250.56358 239.86884 229.99510 221.10336 213.28962 206.29587
 200.13413 195.07639 191.66265 189.70891 188.75017 188.81842 189.65768 190.96994
 192.69920 194.79846 197.06572 199.42897 201.87823 204.36249 206.45475 208.30101
 209.93127 211.08052 211.31378 211.54604 211.48730 211.19656 210.83382 210.46807
 210.08933 209.80359 209.61585 209.48411 209.41637 209.75162 210.14188 210.53514
 211.33240 212.51466 213.76892 215.55617 217.48843 219.53569 221.63495 223.72221
 225.78647 227.87472 229.97598 232.08624 234.21950 236.39576 238.65602 241.03027
 243.65553 245.91079 247.91705 249.68631 251.10757 252.23482 253.06108 253.38134
 253.42260 253.20086 252.56512 251.51737 250.12763 248.29289 246.20615 244.04341
 241.83867 239.64692 237.47118 235.31444 233.17870 231.04996 229.08022 227.24147
 225.52873 224.00499 222.63925 221.41551 220.30177 219.26602 218.37428 217.51954
 216.76580 215.95006 215.05232 214.42057 213.87483 214.58018 216.29124 218.54312
 220.58882 222.64049 224.35753 225.19576 225.58783 226.26282 226.74120 225.19958
 225.44725 227.91571 232.22554 236.86348 241.44295 245.87756 250.14412 254.15900
 257.85416 261.20203 264.19409 266.84314 269.21857 271.34665 273.19525 274.81183
 276.24377 277.50687 278.73901 280.05731 281.24893 282.31970 283.37653 284.39258
 285.30637 286.12015 286.83102 287.73694
 366.78100 356.33975 345.77650 334.64724 323.05499 311.25374 299.12849 286.93623
 274.65298 262.55473 250.56848 239.87422 230.00097 221.10972 213.29647 206.30322
 200.14196 195.08471 191.67146 189.71821 188.75995 188.82870 189.66845 190.98120
 192.71094 194.81069 197.07844 199.44219 201.89193 204.37668 206.46943 208.31618
 209.94693 211.09667 211.33042 211.56317 211.50492 211.21466 210.85241 210.48716
 210.10891 209.82365 209.63640 209.50515 209.43790 209.77365 210.16439 210.55814
 211.35589 212.53864 213.79338 215.58113 217.51388 219.56163 221.66137 223.74912
 225.81387 227.90262 230.00436 232.11511 234.24886 236.42561 238.68636 241.06110
 243.68685 245.94260 247.94935 249.71909 251.14084 252.26859 253.09534 253.41608
 253.45783 253.23658 252.60133 251.55408 250.16482 248.33057 246.24432 244.08207
 241.87781 239.68656 237.51131 235.35506 233.21980 231.09155 229.12230 227.28405
 225.57180 224.04854 222.68329 221.46004 220.34679 219.31153 218.42028 217.56603
 216.81278 215.99752 215.10027 214.46902 213.92377 214.60748 216.25175 218.68517
 220.64633 222.47591 224.24446 225.20828 225.71272 226.40527 226.91194 225.35225
 225.44492 227.81685 232.09438 236.70845 241.27969 245.71935 250.01181 254.06003
 257.78729 261.17053 264.20941 266.90088 269.30411 271.46408 273.34665 274.96469
 276.38339 277.65399 278.81799 280.05252 281.22769 282.28488 283.27954 284.24887
 285.16110 285.97348 286.68311 287.58749
 366.78100 356.34144 345.77988 334.65232 323.06176 311.26220 299.13864 286.94807
 274.66651 262.56995 250.58539 239.89283 230.02127 221.13171 213.32015 206.32859
 200.16903 195.11347 191.70191 189.75035 188.79379 188.86422 189.70566 191.02010
 192.75154 194.85298 197.12242 199.48786 201.93930 204.42574 206.52018 208.36862
 210.00106 211.15250 211.38793 211.62237 211.56581 211.27725 210.91669 210.55313
 210.17657 209.89301 209.70745 209.57789 209.51233 209.84977 210.24221 210.63765
 211.43708 212.62152 213.87796 215.66740 217.60184 219.65128 221.75272 223.84216
 225.90860 227.99904 230.10248 232.21492 234.35036 236.52879 238.79123 241.16767
 243.79511 246.05255 248.06099 249.83243 251.25587 252.38531 253.21375 253.53619
 253.57963 253.36007 252.72651 251.68094 250.29338 248.46082 246.37626 244.21570
 242.01314 239.82358 237.65002 235.49546 233.36190 231.23534 229.26778 227.43122
 225.72065 224.19909 222.83553 221.61397 220.50241 219.46885 218.57929 217.72673
 216.97517 216.16161 215.26605 214.63649 214.09293 214.70676 216.16382 218.69037
 220.84824 222.52788 224.10886 225.03287 225.62178 226.39706 227.03616 225.67964
 225.61482 227.90329 232.05341 236.61192 241.16188 245.59903 249.90242 253.96234
 257.70169 261.10693 264.18350 266.91373 269.35034 271.55679 273.49179 275.14047
 276.56070 277.81329 278.93948 280.07483 281.24957 282.30850 283.30408 284.24576
 285.13074 285.94299 286.65256 287.55682
 366.78100 356.34257 345.78214 334.65570 323.06627 311.26784 299.14541 286.95598
 274.67554 262.58011 250.59668 239.90525 230.03482 221.14638 213.33595 206.34552
 200.18709 195.13266 191.72222 189.77179 188.81636 188.88793 189.73049 191.04606
 192.77863 194.88120 197.15177 199.51833 201.97090 204.45847 206.55404 208.40361
 210.03717 211.18974 211.42631 211.66188 211.60645 211.31901 210.95958 210.59715
 210.22172 209.93929 209.75485 209.62642 209.56199 209.90056 210.29413 210.69069
 211.49126 212.67683 213.93440 215.72497 217.66053 219.71110 221.81367 223.90424
 225.97181 228.06337 230.16794 232.28151 234.41808 236.59765 238.86121 241.23878
 243.86735 246.12592 248.13548 249.90805 251.33262 252.46319 253.29276 253.61632
 253.66089 253.44246 252.81003 251.76560 250.37916 248.54773 246.46430 244.30487
 242.10344 239.91500 237.74257 235.58914 233.45671 231.33128 229.36484 227.52941
 225.81998 224.29955 222.93712 221.71668 220.60625 219.57382 218.68539 217.83396
 217.08352 216.27109 215.37666 214.74823 214.20580 214.78317 216.14731 218.64473
 220.99075 222.69969 224.06490 224.85048 225.43973 226.26700 227.01025 225.95789
 225.78989 228.01956 232.04915 236.58351 241.12016 245.56186 249.86169 253.91689
 257.65182 261.05762 264.14496 266.88342 269.33578 271.57800 273.55496 275.23862
 276.68335 277.94336 279.07709 280.16971 281.28244 282.33896 283.32996 284.25543
 285.09125 285.82184 286.49783 287.36584
 366.78100 356.34304 345.78308 334.65712 323.06816 311.27020 299.14824 286.95928
 274.67932 262.58436 250.60140 239.91044 230.04048 221.15251 213.34255 206.35259
 200.19463 195.14067 191.73071 189.78075 188.82579 188.89783 189.74087 191.05691
 192.78995 194.89299 197.16403 199.53107 201.98411 204.47215 206.56819 208.41823
 210.05227 211.20531 211.44235 211.67839 211.62343 211.33647 210.97750 210.61554
 210.24058 209.95862 209.77466 209.64670 209.58274 209.92178 210.31582 210.71286
 211.51390 212.69994 213.95798 215.74902 217.68506 219.73610 221.83914 223.93018
 225.99822 228.09026 230.19530 232.30934 234.44638 236.62642 238.89046 241.26849
 243.89753 246.15657 248.16661 249.93965 251.36469 252.49573 253.32577 253.64981
 253.69485 253.47689 252.84493 251.80097 250.41501 248.58405 246.50109 244.34213
 242.14117 239.95321 237.78125 235.62829 233.49633 231.37137 229.40541 227.57045
 225.86148 224.34152 222.97956 221.75960 220.64964 219.61768 218.72972 217.87876
 217.12880 216.31684 215.42288 214.79492 214.25296 214.82336 216.17101 218.63199
 220.97601 222.80147 224.12500 224.77754 225.28816 226.12282 226.91760 226.06596
 225.86314 228.08775 232.06747 236.59485 241.13010 245.57991 249.88112 253.93411
 257.66125 261.05545 264.12506 266.84262 269.28696 271.52335 273.50305 275.21387
 276.69214 277.97769 279.12213 280.18097 281.30457 282.35587 283.34302 284.27103
 285.09848 285.81195 286.43454 287.26791
 366.78100 356.34284 345.78269 334.65653 323.06738 311.26922 299.14707 286.95791
 274.67776 262.58260 250.59944 239.90829 230.03813 221.14998 213.33982 206.34967
 200.19151 195.13736 191.72720 189.77704 188.82189 188.89373 189.73658 191.05242
 192.78527 194.88811 197.15896 199.52580 201.97864 204.46649 206.56233 208.41218
 210.04602 211.19887 211.43571 211.67156 211.61640 211.32924 210.97009 210.60793
 210.23278 209.95062 209.76647 209.63831 209.57416 209.91300 210.30684 210.70369
 211.50453 212.69038 213.94822 215.73907 217.67491 219.72576 221.82860 223.91944
 225.98729 228.07913 230.18398 232.29782 234.43467 236.61451 238.87836 241.25620
 243.88504 246.14389 248.15373 249.92658 251.35142 252.48227 253.31211 253.63596
 253.68080 253.46264 252.83049 251.78633 250.40018 248.56902 246.48587 244.32671
 242.12556 239.93740 237.76524 235.61209 233.47993 231.35478 229.38862 227.55347
 225.84431 224.32416 222.96200 221.74184 220.63169 219.59953 218.71138 217.86022
 217.11007 216.29791 215.40376 214.77560 214.23344 214.82562 216.22475 218.62755
 220.91292 222.79236 224.17116 224.77374 225.21057 226.01591 226.82983 226.07898
 225.91331 228.13339 232.09332 236.61211 241.15108 245.61005 249.91751 253.97629
 257.70535 261.09277 264.14670 266.83527 269.25095 271.46088 273.42032 275.13327
 276.63016 277.93741 279.10022 280.19812 281.34229 282.39981 283.40039 284.32831
 285.14804 285.85782 286.47464 287.30136
 366.78100 356.34228 345.78155 334.65483 323.06510 311.26638 299.14365 286.95393
 274.67320 262.57748 250.59375 239.90203 230.03130 221.14258 213.33185 206.34113
 200.18240 195.12768 191.71696 189.76623 188.81051 188.88178 189.72406 191.03933
 192.77161 194.87388 197.14416 199.51043 201.96271 204.44998 206.54526 208.39453
 210.02781 211.18008 211.41636 211.65164 211.59591 211.30819 210.94846 210.58574
 210.21001 209.92729 209.74256 209.61384 209.54911 209.88739 210.28066 210.67694
 211.47721 212.66249 213.91976 215.71004 217.64532 219.69559 221.79787 223.88814
 225.95542 228.04669 230.15097 232.26424 234.40052 236.57979 238.84307 241.22034
 243.84862 246.10689 248.11617 249.88844 251.31272 252.44299 253.27227 253.59555
 253.63982 253.42110 252.78837 251.74365 250.35692 248.52520 246.44147 244.28175
 242.08002 239.89130 237.71857 235.56485 233.43212 231.30640 229.33967 227.50395
 225.79423 224.27350 222.91078 221.69005 220.57933 219.54660 218.65788 217.80615
 217.05543 216.24270 215.34798 214.71925 214.17653 214.80634 216.29428 218.61267
 220.88295 222.74326 224.14349 224.77145 225.19505 225.95366 226.75154 226.08745
 225.96968 228.17288 232.10953 236.61937 241.16174 245.62936 249.94424 254.00827
 257.74179 261.12781 264.17426 266.85077 269.25153 271.44370 273.38211 275.08490
 276.58600 277.90817 279.09033 280.17889 281.31686 282.36459 283.32761 284.22409
 285.05841 285.81424 286.44376 287.27246
 366.78100 356.34215 345.78130 334.65446 323.06461 311.26576 299.14291 286.95307
 274.67222 262.57637 250.59252 239.90067 230.02983 221.14098 213.33013 206.33928
 200.18043 195.12559 191.71474 189.76389 188.80804 188.87920 189.72135 191.03650
 192.76865 194.87080 197.14096 199.50711 201.95926 204.44641 206.54156 208.39072
 210.02387 211.17602 211.41217 211.64733 211.59148 211.30363 210.94378 210.58093
 210.20509 209.92224 209.73739 209.60854 209.54369 209.88185 210.27500 210.67115
 211.47130 212.65646 213.91361 215.70376 217.63891 219.68906 221.79122 223.88137
 225.94852 228.03967 230.14382 232.25698 234.39313 236.57228 238.83543 241.21259
 243.84074 246.09889 248.10804 249.88019 251.30435 252.43450 253.26365 253.58680
 253.63095 253.41211 252.77926 251.73441 250.34756 248.51572 246.43187 244.27202
 242.07017 239.88132 237.70848 235.55463 233.42178 231.29593 229.32908 227.49324
 225.78339 224.26254 222.89969 221.67885 220.56800 219.53515 218.64630 217.79445
 217.04361 216.23076 215.33591 214.70706 214.16422 214.81029 216.33669 218.61017
 220.86839 222.70815 224.08798 224.73648 225.16504 225.89102 226.68741 226.11424
 226.04076 228.22116 232.12454 236.62206 241.16794 245.64337 249.96342 254.02734
 257.75821 261.13837 264.17740 266.85147 269.25433 271.44586 273.37384 275.06174
 276.54874 277.87393 279.07114 280.15399 281.28717 282.33270 283.29153 284.17920
 285.01508 285.79260 286.42218 287.25674
 366.78100 356.34245 345.78191 334.65536 323.06582 311.26727 299.14473 286.95518
 274.67463 262.57909 250.59554 239.90400 230.03345 221.14491 213.33436 206.34381
 200.18527 195.13072 191.72018 189.76963 188.81409 188.88554 189.72799 191.04345
 192.77590 194.87836 197.14881 199.51527 201.96772 204.45517 206.55063 208.40008
 210.03354 211.18599 211.42245 211.65790 211.60235 211.31481 210.95526 210.59272
 210.21717 209.93463 209.75008 209.62153 209.55699 209.89544 210.28890 210.68535
 211.48581 212.67126 213.92871 215.71917 217.65462 219.70508 221.80753 223.89799
 225.96544 228.05689 230.16135 232.27480 234.41126 236.59071 238.85417 241.23162
 243.86007 246.11853 248.12798 249.90044 251.32489 252.45534 253.28480 253.60825
 253.65271 253.43416 252.80162 251.75707 250.37052 248.53898 246.45543 244.29589
 242.09434 239.90580 237.73325 235.57970 233.44716 231.32161 229.35507 227.51952
 225.80998 224.28943 222.92688 221.70634 220.59579 219.56325 218.67470 217.82316
 217.07261 216.26006 215.36552 214.73697 214.19443 214.83629 216.35278 218.62062
 220.84961 222.69847 224.04700 224.67752 225.09399 225.79619 226.60361 226.16862
 226.15636 228.28481 232.14568 236.63373 241.18489 245.66948 249.99287 254.05051
 257.77029 261.13660 264.16373 266.83597 269.24756 271.44525 273.37216 275.05133
 276.52109 277.83597 279.04065 280.12912 281.27139 282.32132 283.28064 284.17068
 285.00119 285.77914 286.41049 287.24155
 366.78100 356.34256 345.78212 334.65568 323.06624 311.26780 299.14536 286.95592
 274.67548 262.58004 250.59660 239.90516 230.03472 221.14628 213.33584 206.34540
 200.18696 195.13252 191.72208 189.77164 188.81620 188.88776 189.73032 191.04588
 192.77844 194.88100 197.15156 199.51812 201.97068 204.45824 206.55381 208.40337
 210.03693 211.18949 211.42605 211.66161 211.60617 211.31873 210.95929 210.59685
 210.22141 209.93897 209.75453 209.62609 209.56165 209.90021 210.29377 210.69033
 211.49089 212.67645 213.93401 215.72457 217.66013 219.71069 221.81325 223.90381
 225.97137 228.06293 230.16749 232.28105 234.41761 236.59717 238.86073 241.23829
 243.86685 246.12541 248.13497 249.90753 251.33209 252.46265 253.29221 253.61577
 253.66033 253.44189 252.80945 251.76501 250.37857 248.54713 246.46369 244.30425
 242.10281 239.91437 237.74193 235.58849 233.45605 231.33061 229.36417 227.52873
 225.81930 224.29886 222.93642 221.71598 220.60554 219.57310 218.68466 217.83322
 217.08278 216.27034 215.37590 214.74746 214.20502 214.85199 216.38051 218.61218
 220.84042 222.70831 224.01848 224.60107 224.98390 225.68439 226.52190 226.18536
 226.24840 228.37625 232.18497 236.65439 241.21432 245.70992 250.03618 254.08427
 257.78836 261.13492 264.14481 266.81329 269.23032 271.43378 273.36127 275.03766
 276.49414 277.80136 279.00696 280.11966 281.27264 282.32535 283.29044 284.17935
 285.00320 285.76697 286.40680 287.24466
 366.78100 356.34235 345.78170 334.65505 323.06540 311.26674 299.14409 286.95444
 274.67379 262.57814 250.59449 239.90284 230.03219 221.14353 213.33288 206.34223
 200.18358 195.12893 191.71828 189.76763 188.81198 188.88333 189.72567 191.04102
 192.77337 194.87572 197.14607 199.51242 201.96477 204.45212 206.54747 208.39681
 210.03016 211.18251 211.41886 211.65421 211.59856 211.31091 210.95126 210.58860
 210.21295 209.93030 209.74565 209.61700 209.55235 209.89070 210.28405 210.68040
 211.48074 212.66609 213.92344 215.71379 217.64914 219.69949 221.80184 223.89219
 225.95953 228.05088 230.15523 232.26858 234.40493 236.58428 238.84763 241.22498
 243.85333 246.11167 248.12102 249.89337 251.31772 252.44807 253.27742 253.60077
 253.64512 253.42647 252.79381 251.74916 250.36251 248.53086 246.44721 244.28756
 242.08591 239.89726 237.72460 235.57095 233.43830 231.31265 229.34600 227.51035
 225.80070 224.28005 222.91740 221.69674 220.58609 219.55344 218.66479 217.81314
 217.06249 216.24984 215.35519 214.72653 214.18388 214.85178 216.42975 218.57962
 220.83543 222.73470 224.00713 224.53542 224.85461 225.51466 226.39821 226.28745
 226.41325 228.42961 232.20639 236.68056 241.25278 245.76297 250.09331 254.13045
 257.81577 261.13837 264.12656 266.78806 269.20865 271.41690 273.34396 275.01852
 276.46765 277.76947 278.97589 280.11215 281.26935 282.32318 283.28824 284.17639
 284.99658 285.75360 286.40207 287.23373
 366.78100 356.34217 345.78135 334.65452 323.06469 311.26587 299.14304 286.95321
 274.67239 262.57656 250.59273 239.90091 230.03008 221.14125 213.33043 206.33960
 200.18077 195.12595 191.71512 189.76429 188.80847 188.87964 189.72181 191.03699
 192.76916 194.87133 197.14151 199.50768 201.95985 204.44703 206.54220 208.39137
 210.02455 211.17672 211.41289 211.64807 211.59224 211.30441 210.94459 210.58176
 210.20593 209.92311 209.73828 209.60945 209.54463 209.88280 210.27597 210.67215
 211.47232 212.65749 213.91467 215.70484 217.64001 219.69019 221.79236 223.88253
 225.94971 228.04088 230.14505 232.25823 234.39440 236.57357 238.83675 241.21392
 243.84210 246.10027 248.10944 249.88162 251.30579 252.43596 253.26514 253.58831
 253.63248 253.41366 252.78083 251.73600 250.34918 248.51735 246.43352 244.27370
 242.07187 239.88304 237.71022 235.55639 233.42356 231.29774 229.33091 227.49508
 225.78526 224.26443 222.90160 221.68078 220.56995 219.53712 218.64830 217.79647
 217.04564 216.23282 215.33799 214.70916 214.16634 214.85379 216.47800 218.55289
 220.80933 222.76738 224.01797 224.49776 224.73628 225.32013 226.23180 226.36255
 226.57269 228.48669 232.23177 236.71475 241.30199 245.82884 250.16423 254.18922
 257.85333 261.14825 264.10867 266.76212 269.18634 271.40088 273.33011 275.00259
 276.44476 277.74487 278.95245 280.10434 281.26477 282.31876 283.28485 284.17267
 284.99023 285.74100 286.39490 287.23126
 366.78100 356.34222 345.78143 334.65465 323.06486 311.26608 299.14329 286.95351
 274.67273 262.57694 250.59316 239.90137 230.03059 221.14181 213.33102 206.34024
 200.18145 195.12667 191.71588 189.76510 188.80932 188.88053 189.72275 191.03796
 192.77018 194.87239 197.14261 199.50883 201.96104 204.44826 206.54347 208.39269
 210.02590 211.17812 211.41434 211.64955 211.59377 211.30598 210.94620 210.58342
 210.20763 209.92485 209.74006 209.61128 209.54649 209.88471 210.27793 210.67414
 211.47436 212.65957 213.91679 215.70700 217.64222 219.69244 221.79465 223.88487
 225.95208 228.04330 230.14752 232.26073 234.39695 236.57616 238.83938 241.21659
 243.84481 246.10303 248.11224 249.88446 251.30867 252.43889 253.26810 253.59132
 253.63554 253.41675 252.78397 251.73918 250.35240 248.52062 246.43683 244.27705
 242.07526 239.88648 237.71369 235.55991 233.42713 231.30134 229.33456 227.49877
 225.78899 224.26820 222.90542 221.68464 220.57385 219.54107 218.65228 217.80050
 217.04971 216.23693 215.34215 214.71336 214.17058 214.86690 216.51202 218.54875
 220.75903 222.79283 224.04427 224.47519 224.62576 225.11897 226.04552 226.39314
 226.70464 228.55612 232.27211 236.75876 241.36118 245.90573 250.24701 254.25864
 257.89923 261.16235 264.09177 266.73483 269.16449 271.38760 273.32175 274.99536
 276.43066 277.73010 278.94006 280.10489 281.26691 282.32047 283.28583 284.17453
 284.98657 285.73087 286.38412 287.21790
 366.78100 356.34234 345.78167 334.65501 323.06535 311.26669 299.14402 286.95436
 274.67370 262.57804 250.59437 239.90271 230.03205 221.14339 213.33272 206.34206
 200.18340 195.12874 191.71807 189.76741 188.81175 188.88309 189.72542 191.04076
 192.77310 194.87543 197.14577 199.51211 201.96445 204.45178 206.54712 208.39646
 210.02980 211.18213 211.41847 211.65381 211.59815 211.31048 210.95082 210.58816
 210.21250 209.92983 209.74517 209.61651 209.55185 209.89018 210.28352 210.67986
 211.48019 212.66553 213.92287 215.71321 217.64854 219.69888 221.80122 223.89156
 225.95889 228.05023 230.15457 232.26791 234.40424 236.58358 238.84692 241.22426
 243.85259 246.11093 248.12027 249.89261 251.31694 252.44728 253.27662 253.59995
 253.64429 253.42563 252.79297 251.74830 250.36164 248.52998 246.44632 244.28665
 242.08499 239.89633 237.72367 235.57000 233.43734 231.31168 229.34502 227.50935
 225.79969 224.27903 222.91637 221.69570 220.58504 219.55238 218.66371 217.81205
 217.06139 216.24873 215.35406 214.72540 214.18274 214.88341 216.53879 218.55539
 220.70288 222.80186 224.07651 224.45651 224.51683 224.91772 225.85350 226.38800
 226.81186 228.63994 232.32016 236.81021 241.43120 245.99290 250.33881 254.33548
 257.94986 261.17987 264.07693 266.71158 269.14694 271.37921 273.31998 274.99561
 276.42575 277.72421 278.93491 280.11301 281.27734 282.33167 283.29807 284.18430
 284.99457 285.73035 286.38184 287.21768
 366.78100 356.34241 345.78182 334.65523 323.06564 311.26705 299.14447 286.95488
 274.67429 262.57870 250.59511 239.90352 230.03293 221.14434 213.33375 206.34316
 200.18458 195.12999 191.71940 189.76881 188.81322 188.88463 189.72704 191.04245
 192.77486 194.87727 197.14768 199.51410 201.96651 204.45392 206.54933 208.39874
 210.03215 211.18456 211.42097 211.65638 211.60079 211.31320 210.95362 210.59103
 210.21544 209.93285 209.74826 209.61967 209.55508 209.89349 210.28690 210.68331
 211.48373 212.66914 213.92655 215.71696 217.65237 219.70278 221.80519 223.89560
 225.96301 228.05442 230.15883 232.27225 234.40866 236.58807 238.85148 241.22889
 243.85730 246.11571 248.12512 249.89753 251.32194 252.45235 253.28177 253.60518
 253.64959 253.43100 252.79841 251.75382 250.36723 248.53564 246.45205 244.29246
 242.09088 239.90229 237.72970 235.57611 233.44352 231.31793 229.35134 227.51575
 225.80616 224.28557 222.92298 221.70240 220.59181 219.55922 218.67063 217.81904
 217.06845 216.25586 215.36127 214.73268 214.19009 214.89725 216.56799 218.55833
 220.65640 222.79176 224.10423 224.43782 224.40970 224.72263 225.66293 226.35104
 226.89174 228.73064 232.38121 236.86984 241.50703 246.08498 250.43527 254.41617
 258.00351 261.20093 264.06754 266.69513 269.13858 271.37891 273.32449 275.00235
 276.42752 277.72540 278.94272 280.13312 281.29953 282.35275 283.32040 284.20526
 285.01276 285.74777 286.39624 287.23663
 366.78100 356.34245 345.78189 334.65534 323.06578 311.26723 299.14468 286.95512
 274.67457 262.57902 250.59546 239.90391 230.03335 221.14480 213.33425 206.34369
 200.18514 195.13059 191.72003 189.76948 188.81392 188.88537 189.72782 191.04326
 192.77571 194.87815 197.14860 199.51505 201.96749 204.45494 206.55039 208.39983
 210.03328 211.18572 211.42217 211.65762 211.60206 211.31451 210.95496 210.59240
 210.21685 209.93429 209.74974 209.62119 209.55663 209.89508 210.28852 210.68497
 211.48542 212.67086 213.92831 215.71876 217.65420 219.70465 221.80709 223.89754
 225.96499 228.05643 230.16088 232.27433 234.41077 236.59022 238.85366 241.23111
 243.85956 246.11800 248.12745 249.89989 251.32434 252.45479 253.28423 253.60768
 253.65213 253.43357 252.80102 251.75646 250.36991 248.53836 246.45480 244.29525
 242.09370 239.90514 237.73259 235.57903 233.44648 231.32093 229.35437 227.51882
 225.80926 224.28871 222.92616 221.70560 220.59505 219.56250 218.67394 217.82239
 217.07183 216.25928 215.36473 214.73617 214.19362 214.90939 216.60048 218.55681
 220.62196 222.76671 224.12125 224.41620 224.30693 224.53993 225.47978 226.28917
 226.94412 228.82018 232.45047 236.93556 241.58754 246.18056 250.53391 254.49947
 258.06012 261.22748 264.06631 266.69034 269.14166 271.38788 273.33655 275.01367
 276.43314 277.72955 278.93945 280.16418 281.33667 282.39020 283.35669 284.24023
 285.04523 285.77747 286.42084 287.25864
 366.78100 356.34251 345.78203 334.65554 323.06605 311.26757 299.14508 286.95559
 274.67511 262.57962 250.59613 239.90465 230.03416 221.14568 213.33519 206.34470
 200.18622 195.13173 191.72124 189.77076 188.81527 188.88678 189.72930 191.04481
 192.77732 194.87984 197.15035 199.51686 201.96938 204.45689 206.55240 208.40192
 210.03543 211.18794 211.42446 211.65997 211.60449 211.31700 210.95751 210.59503
 210.21954 209.93705 209.75257 209.62408 209.55959 209.89811 210.29162 210.68813
 211.48865 212.67416 213.93167 215.72219 217.65770 219.70821 221.81073 223.90124
 225.96875 228.06027 230.16478 232.27830 234.41481 236.59432 238.85784 241.23535
 243.86386 246.12238 248.13189 249.90440 251.32892 252.45943 253.28894 253.61246
 253.65697 253.43848 252.80600 251.76151 250.37502 248.54354 246.46005 244.30056
 242.09908 239.91059 237.73811 235.58462 233.45213 231.32665 229.36016 227.52467
 225.81519 224.29470 222.93221 221.71173 220.60124 219.56875 218.68027 217.82878
 217.07829 216.26581 215.37132 214.74283 214.20035 214.92366 216.63255 218.55591
 220.59303 222.73158 224.12389 224.38681 224.20763 224.37260 225.30804 226.21135
 226.97331 228.90312 232.52266 237.00705 241.67247 246.27850 250.63293 254.58315
 258.11862 261.25916 264.07660 266.69910 269.15723 271.40668 273.35587 275.02899
 276.44220 277.73782 278.97113 280.19977 281.37012 282.42465 283.39136 284.27249
 285.07645 285.80420 286.44400 287.27902
 366.78100 356.34267 345.78234 334.65601 323.06668 311.26835 299.14603 286.95670
 274.67637 262.58104 250.59771 239.90638 230.03605 221.14772 213.33739 206.34706
 200.18874 195.13441 191.72408 189.77375 188.81842 188.89009 189.73276 191.04843
 192.78110 194.88377 197.15444 199.52112 201.97379 204.46146 206.55713 208.40680
 210.04047 211.19314 211.42981 211.66548 211.61015 211.32283 210.96350 210.60117
 210.22584 209.94351 209.75918 209.63085 209.56652 209.90519 210.29886 210.69553
 211.49621 212.68188 213.93955 215.73022 217.66589 219.71656 221.81923 223.90990
 225.97757 228.06924 230.17392 232.28759 234.42426 236.60393 238.86760 241.24527
 243.87394 246.13261 248.14228 249.91495 251.33962 252.47030 253.29997 253.62364
 253.66831 253.44998 252.81765 251.77332 250.38699 248.55566 246.47233 244.31301
 242.11168 239.92335 237.75102 235.59769 233.46536 231.34003 229.37370 227.53837
 225.82904 224.30871 222.94639 221.72606 220.61573 219.58340 218.69507 217.84374
 217.09341 216.28108 215.38675 214.75842 214.21609 214.94344 216.66182 218.55833
 220.56451 222.68990 224.11113 224.34579 224.10832 224.21745 225.14880 226.12920
 226.98778 228.97763 232.59590 237.08350 241.76167 246.37631 250.72963 254.66446
 258.17648 261.29541 264.09753 266.71988 269.18283 271.43484 273.38141 275.04858
 276.45569 277.75085 278.94495 280.25079 281.43112 282.48157 283.44431 284.32538
 285.12494 285.84894 286.49054 287.31726
 366.78100 356.34290 345.78280 334.65670 323.06760 311.26950 299.14740 286.95830
 274.67820 262.58310 250.60000 239.90890 230.03880 221.15070 213.34060 206.35050
 200.19239 195.13829 191.72819 189.77809 188.82299 188.89489 189.73779 191.05369
 192.78659 194.88949 197.16039 199.52729 201.98019 204.46809 206.56399 208.41389
 210.04779 211.20069 211.43759 211.67349 211.61839 211.33129 210.97219 210.61009
 210.23499 209.95289 209.76879 209.64069 209.57659 209.91549 210.30939 210.70628
 211.50718 212.69308 213.95098 215.74188 217.67778 219.72868 221.83158 223.92248
 225.99038 228.08228 230.18718 232.30108 234.43798 236.61788 238.88178 241.25968
 243.88858 246.14748 248.15738 249.93028 251.35518 252.48608 253.31598 253.63988
 253.68478 253.46668 252.83458 251.79048 250.40438 248.57328 246.49017 244.33107
 242.12997 239.94187 237.76977 235.61667 233.48457 231.35947 229.39337 227.55827
 225.84917 224.32907 222.96697 221.74687 220.63677 219.60467 218.71657 217.86547
 217.11537 216.30327 215.40917 214.78107 214.23897 214.96761 216.68912 218.56154
 220.53455 222.64636 224.08542 224.29242 224.00690 224.07085 224.99690 226.04720
 226.99422 229.04355 232.67059 237.16628 241.85526 246.47461 250.82248 254.74118
 258.23141 261.33310 264.12674 266.75183 269.21704 271.46786 273.40854 275.06833
 276.47110 277.76923 278.97339 280.29639 281.48221 282.53732 283.50171 284.38120
 285.18362 285.90674 286.54568 287.37778
 366.78100 356.34320 345.78339 334.65759 323.06879 311.27099 299.14918 286.96038
 274.68058 262.58578 250.60297 239.91217 230.04237 221.15457 213.34476 206.35496
 200.19716 195.14336 191.73355 189.78375 188.82895 188.90114 189.74434 191.06054
 192.79374 194.89693 197.16813 199.53533 201.98853 204.47672 206.57292 208.42312
 210.05732 211.21051 211.44771 211.68391 211.62911 211.34230 210.98350 210.62170
 210.24690 209.96509 209.78129 209.65349 209.58968 209.92888 210.32308 210.72028
 211.52147 212.70767 213.96587 215.75707 217.69326 219.74446 221.84766 223.93886
 226.00705 228.09925 230.20445 232.31865 234.45584 236.63604 238.90024 241.27843
 243.90763 246.16683 248.17703 249.95022 251.37542 252.50662 253.33682 253.66101
 253.70621 253.48841 252.85661 251.81280 250.42700 248.59620 246.51340 244.35459
 242.15379 239.96599 237.79418 235.64138 233.50958 231.38478 229.41897 227.58417
 225.87537 224.35557 222.99376 221.77396 220.66416 219.63236 218.74455 217.89375
 217.14395 216.33215 215.43834 214.81054 214.26874 214.99518 216.71146 218.56667
 220.50369 222.60057 224.05150 224.23260 223.90471 223.92685 224.84793 225.96576
 226.99307 229.10110 232.74716 237.25696 241.95436 246.57346 250.91164 254.81335
 258.28268 261.37149 264.16339 266.79178 269.25674 271.50104 273.43265 275.08362
 276.48660 277.79382 279.02609 280.35468 281.54315 282.59781 283.56467 284.44699
 285.24750 285.97272 286.61209 287.44955
 366.78100 356.34356 345.78412 334.65868 323.07024 311.27280 299.15135 286.96291
 274.68347 262.58903 250.60659 239.91615 230.04671 221.15927 213.34983 206.36039
 200.20294 195.14950 191.74006 189.79062 188.83618 188.90874 189.75230 191.06886
 192.80242 194.90598 197.17753 199.54509 201.99865 204.48721 206.58377 208.43433
 210.06889 211.22245 211.46001 211.69657 211.64212 211.35568 210.99724 210.63580
 210.26136 209.97992 209.79648 209.66904 209.60560 209.94516 210.33971 210.73727
 211.53883 212.72539 213.98395 215.77551 217.71207 219.76363 221.86719 223.95875
 226.02730 228.11986 230.22542 232.33998 234.47754 236.65810 238.92266 241.30122
 243.93078 246.19034 248.20089 249.97445 251.40001 252.53157 253.36213 253.68669
 253.73225 253.51481 252.88337 251.83993 250.45448 248.62404 246.54160 244.38316
 242.18272 239.99528 237.82384 235.67140 233.53996 231.41552 229.45007 227.61563
 225.90719 224.38775 223.02631 221.80687 220.69743 219.66599 218.77855 217.92811
 217.17867 216.36722 215.47378 214.84634 214.30490 215.02554 216.72812 218.57317
 220.47650 222.55034 224.00478 224.16931 223.80971 223.79085 224.69296 225.87582
 226.98563 229.15327 232.82866 237.35812 242.06024 246.67145 250.99603 254.87947
 258.32925 261.40878 264.20538 266.83786 269.29922 271.53351 273.45139 275.09225
 276.50085 277.81885 279.08960 280.42392 281.61420 282.66980 283.63757 284.52011
 285.32245 286.04932 286.68805 287.52228
 366.78100 356.34390 345.78479 334.65969 323.07158 311.27448 299.15337 286.96527
 274.68617 262.59206 250.60996 239.91985 230.05075 221.16365 213.35454 206.36544
 200.20833 195.15523 191.74612 189.79702 188.84292 188.91581 189.75971 191.07660
 192.81050 194.91439 197.18629 199.55419 202.00808 204.49698 206.59387 208.44477
 210.07966 211.23356 211.47146 211.70835 211.65425 211.36814 211.01004 210.64894
 210.27483 209.99373 209.81062 209.68352 209.62041 209.96031 210.35521 210.75310
 211.55500 212.74189 214.00079 215.79268 217.72958 219.78148 221.88537 223.97727
 226.04616 228.13906 230.24495 232.35985 234.49775 236.67864 238.94354 241.32243
 243.95233 246.21223 248.22312 249.99702 251.42291 252.55481 253.38570 253.71060
 253.75650 253.53939 252.90829 251.86518 250.48008 248.64997 246.56787 244.40977
 242.20966 240.02256 237.85145 235.69935 233.56824 231.44414 229.47904 227.64493
 225.93683 224.41772 223.05662 221.83752 220.72841 219.69731 218.81020 217.96010
 217.21099 216.39989 215.50679 214.87968 214.33858 215.05522 216.74838 218.57547
 220.45044 222.50569 223.94960 224.09488 223.71194 223.66170 224.54770 225.76961
 226.95862 229.20602 232.91861 237.46834 242.16963 246.76611 251.07329 254.93948
 258.37180 261.44672 264.25345 266.88968 269.34305 271.56311 273.46283 275.09100
 276.51062 277.85074 279.16080 280.50314 281.69220 282.74933 283.71753 284.60135
 285.40381 286.12918 286.76923 287.60489
 366.78100 356.34422 345.78544 334.66066 323.07288 311.27609 299.15531 286.96753
 274.68875 262.59497 250.61319 239.92341 230.05463 221.16784 213.35906 206.37028
 200.21350 195.16072 191.75194 189.80316 188.84938 188.92259 189.76681 191.08403
 192.81825 194.92247 197.19469 199.56291 202.01713 204.50635 206.60356 208.45478
 210.09000 211.24422 211.48244 211.71966 211.66588 211.38010 211.02231 210.66153
 210.28775 210.00697 209.82419 209.69741 209.63463 209.97485 210.37006 210.76828
 211.57050 212.75772 214.01694 215.80916 217.74638 219.79860 221.90282 223.99503
 226.06425 228.15747 230.26369 232.37891 234.51713 236.69835 238.96357 241.34278
 243.97300 246.23322 248.24444 250.01866 251.44488 252.57710 253.40832 253.73353
 253.77975 253.56297 252.93219 251.88941 250.50463 248.67485 246.59307 244.43529
 242.23550 240.04872 237.87794 235.72616 233.59538 231.47160 229.50682 227.67304
 225.96525 224.44647 223.08569 221.86691 220.75813 219.72735 218.84057 217.99079
 217.24200 216.43122 215.53844 214.91166 214.37088 215.08495 216.77203 218.57591
 220.41666 222.45976 223.90221 224.02902 223.61337 223.51884 224.38748 225.68251
 226.94360 229.24771 233.01196 237.58707 242.28119 246.85764 251.14578 254.99614
 258.41299 261.48611 264.30518 266.94406 269.38483 271.58435 273.46106 275.07880
 276.51569 277.87341 279.23706 280.58719 281.77835 282.83755 283.80591 284.68967
 285.49261 286.21915 286.85992 287.69531
 366.78100 356.34467 345.78633 334.66200 323.07466 311.27833 299.15800 286.97066
 274.69233 262.59899 250.61766 239.92833 230.05999 221.17366 213.36532 206.37699
 200.22066 195.16832 191.75999 189.81165 188.85832 188.93199 189.77665 191.09432
 192.82898 194.93365 197.20632 199.57498 202.02965 204.51932 206.61698 208.46865
 210.10431 211.25898 211.49765 211.73531 211.68198 211.39664 211.03931 210.67898
 210.30564 210.02531 209.84297 209.71664 209.65431 209.99497 210.39064 210.78930
 211.59197 212.77964 214.03930 215.83197 217.76963 219.82230 221.92697 224.01963
 226.08930 228.18296 230.28963 232.40530 234.54396 236.72563 238.99129 241.37096
 244.00163 246.26229 248.27396 250.04862 251.47529 252.60796 253.43962 253.76529
 253.81195 253.59562 252.96529 251.92295 250.53862 248.70928 246.62795 244.47062
 242.27128 240.08495 237.91461 235.76328 233.63295 231.50961 229.54528 227.71195
 226.00461 224.48628 223.12594 221.90761 220.79928 219.76894 218.88261 218.03327
 217.28494 216.47461 215.58227 214.95594 214.41560 215.12051 216.78595 218.58385
 220.38211 222.39470 223.84608 223.98199 223.54642 223.39668 224.21408 225.49583
 226.87999 229.33311 233.13068 237.71246 242.39334 246.94617 251.21541 255.05173
 258.45346 261.52588 264.35809 266.99512 269.41968 271.59616 273.44833 275.05383
 276.51312 277.90186 279.32025 280.67752 281.86816 282.92578 283.89609 284.78110
 285.58426 286.31064 286.94974 287.79065
 366.78100 356.34523 345.78746 334.66369 323.07692 311.28115 299.16138 286.97460
 274.69683 262.60406 250.62329 239.93452 230.06675 221.18098 213.37321 206.38544
 200.22967 195.17790 191.77013 189.82236 188.86958 188.94381 189.78904 191.10727
 192.84250 194.94773 197.22096 199.59019 202.04542 204.53565 206.63388 208.48611
 210.12234 211.27756 211.51679 211.75502 211.70225 211.41748 211.06071 210.70094
 210.32817 210.04840 209.86663 209.74086 209.67909 210.02032 210.41654 210.81577
 211.61900 212.80723 214.06746 215.86069 217.79892 219.85215 221.95738 224.05061
 226.12084 228.21507 230.32230 232.43853 234.57775 236.75998 239.02621 241.40644
 244.03767 246.29890 248.31113 250.08636 251.51359 252.64682 253.47905 253.80528
 253.85251 253.63673 253.00696 251.96519 250.58142 248.75265 246.67188 244.51511
 242.31634 240.13057 237.96080 235.81003 233.68026 231.55749 229.59371 227.76094
 226.05417 224.53640 223.17663 221.95886 220.85109 219.82132 218.93555 218.08678
 217.33901 216.52924 215.63747 215.01169 214.47192 215.16014 216.78615 218.59773
 220.36125 222.32034 223.76230 223.92236 223.49258 223.29910 224.05756 225.29822
 226.79253 229.40962 233.25243 237.84062 242.50482 247.03200 251.28322 255.10617
 258.49280 261.56540 264.41171 267.04532 269.45056 271.59720 273.42169 275.02481
 276.50861 277.90302 279.40475 280.77246 281.96332 283.02148 283.98984 284.87442
 285.67850 286.40277 287.04468 287.88202
 366.78100 356.34580 345.78859 334.66539 323.07918 311.28398 299.16477 286.97857
 274.70137 262.60916 250.62896 239.94075 230.07355 221.18834 213.38114 206.39393
 200.23873 195.18753 191.78032 189.83312 188.88091 188.95571 189.80150 191.12030
 192.85610 194.96189 197.23569 199.60548 202.06128 204.55207 206.65087 208.50366
 210.14046 211.29626 211.53605 211.77485 211.72264 211.43844 211.08223 210.72303
 210.35083 210.07162 209.89042 209.76521 209.70401 210.04580 210.44260 210.84240
 211.64619 212.83499 214.09578 215.88958 217.82837 219.88217 221.98796 224.08176
 226.15256 228.24735 230.35515 232.47194 234.61174 236.79453 239.06133 241.44213
 244.07392 246.33572 248.34851 250.12431 251.55210 252.68590 253.51870 253.84549
 253.89329 253.67808 253.04888 252.00767 250.62447 248.79626 246.71606 244.55986
 242.36165 240.17645 238.00724 235.85704 233.72783 231.60563 229.64243 227.81022
 226.10402 224.58681 223.22761 222.01040 220.90320 219.87399 218.98879 218.14059
 217.39338 216.58418 215.69297 215.06777 214.52856 215.19872 216.78201 218.60423
 220.35448 222.25648 223.66093 223.83768 223.42912 223.20995 223.91550 225.11395
 226.69775 229.46916 233.37331 237.97389 242.62059 247.12149 251.35532 255.16388
 258.53430 261.60431 264.46130 267.08774 269.46979 271.58716 273.38348 274.97589
 276.49121 277.96066 279.48425 280.85986 282.05374 283.11517 284.08417 284.96890
 285.77087 286.49982 287.13525 287.97824
 366.78100 356.34630 345.78960 334.66690 323.08119 311.28649 299.16779 286.98209
 274.70539 262.61369 250.63399 239.94628 230.07958 221.19488 213.38818 206.40148
 200.24678 195.19608 191.78937 189.84267 188.89097 188.96627 189.81257 191.13187
 192.86817 194.97446 197.24876 199.61906 202.07536 204.56666 206.66596 208.51926
 210.15655 211.31285 211.55315 211.79245 211.74075 211.45705 211.10135 210.74264
 210.37094 210.09224 209.91154 209.78684 209.72614 210.06844 210.46573 210.86603
 211.67033 212.85963 214.12093 215.91523 217.85453 219.90882 222.01512 224.10942
 226.18072 228.27602 230.38432 232.50162 234.64191 236.82521 239.09251 241.47381
 244.10611 246.36841 248.38171 250.15800 251.58630 252.72060 253.55390 253.88120
 253.92950 253.71480 253.08609 252.04539 250.66269 248.83499 246.75529 244.59959
 242.40189 240.21718 238.04848 235.89878 233.77008 231.64838 229.68568 227.85398
 226.14827 224.63157 223.27287 222.05617 220.94947 219.92077 219.03607 218.18836
 217.44166 216.63296 215.74226 215.11756 214.57886 215.23436 216.78305 218.59489
 220.35020 222.21172 223.56128 223.73271 223.34482 223.11522 223.77728 224.94298
 226.60695 229.51855 233.49503 238.11311 242.74185 247.21632 251.43184 255.22383
 258.57666 261.64331 264.50876 267.12280 269.47424 271.55264 273.32477 274.93793
 276.47714 278.01736 279.55161 280.92960 282.12595 283.18839 284.15985 285.04398
 285.84818 286.57266 287.20816 288.05331
 366.78100 356.34673 345.79045 334.66818 323.08291 311.28864 299.17036 286.98509
 274.70882 262.61755 250.63827 239.95100 230.08473 221.20046 213.39418 206.40791
 200.25364 195.20337 191.79709 189.85082 188.89955 188.97528 189.82200 191.14173
 192.87846 194.98519 197.25991 199.63064 202.08737 204.57910 206.67882 208.53255
 210.17028 211.32701 211.56773 211.80746 211.75619 211.47292 211.11764 210.75937
 210.38810 210.10983 209.92955 209.80528 209.74501 210.08774 210.48546 210.88619
 211.69092 212.88065 214.14237 215.93710 217.87683 219.93156 222.03828 224.13301
 226.20474 228.30047 230.40919 232.52692 234.66765 236.85138 239.11910 241.50083
 244.13356 246.39629 248.41001 250.18674 251.61547 252.75020 253.58392 253.91165
 253.96038 253.74611 253.11783 252.07756 250.69529 248.86802 246.78874 244.63347
 242.43620 240.25193 238.08365 235.93438 233.80611 231.68484 229.72256 227.89129
 226.18602 224.66975 223.31147 222.09520 220.98893 219.96066 219.07638 218.22911
 217.48284 216.67457 215.78429 215.16002 214.62175 215.26640 216.78947 218.57518
 220.33986 222.17906 223.47520 223.62050 223.23657 223.00096 223.62888 224.78441
 226.53076 229.57072 233.62448 238.26184 242.87111 247.31810 251.51407 255.28648
 258.61789 261.67719 264.54489 267.14389 269.47009 271.51791 273.25681 274.84674
 276.47842 278.09158 279.63339 281.00897 282.20444 283.26602 284.23563 285.12027
 285.92276 286.64627 287.28339 288.12650
 366.78100 356.34715 345.79129 334.66944 323.08458 311.29073 299.17287 286.98802
 274.71216 262.62131 250.64245 239.95560 230.08974 221.20589 213.40003 206.41418
 200.26032 195.21047 191.80462 189.85876 188.90791 188.98405 189.83120 191.15134
 192.88849 194.99563 197.27078 199.64192 202.09907 204.59121 206.69136 208.54550
 210.18365 211.34079 211.58194 211.82208 211.77123 211.48838 211.13352 210.77567
 210.40481 210.12696 209.94710 209.82325 209.76339 210.10654 210.50468 210.90583
 211.71097 212.90112 214.16326 215.95841 217.89855 219.95370 222.06085 224.15599
 226.22814 228.32428 230.43343 232.55157 234.69272 236.87686 239.14501 241.52715
 244.16030 246.42344 248.43759 250.21473 251.64388 252.77902 253.61317 253.94132
 253.99046 253.77661 253.14875 252.10890 250.72704 248.90019 246.82133 244.66648
 242.46962 240.28577 238.11791 235.96906 233.84120 231.72035 229.75849 227.92764
 226.22279 224.70693 223.34908 222.13322 221.02737 219.99951 219.11566 218.26880
 217.52295 216.71509 215.82524 215.20138 214.66353 215.29692 216.79338 218.55907
 220.32550 222.14349 223.39867 223.51733 223.12500 222.87291 223.46069 224.62314
 226.45824 229.62518 233.76071 238.41823 243.00679 247.42958 251.60808 255.36386
 258.67514 261.72229 264.58057 267.14664 269.42502 271.42401 273.17032 274.85416
 276.37891 278.12146 279.68802 281.06735 282.26520 283.32574 284.29443 285.17734
 285.97617 286.69446 287.32657 288.16873
 366.78100 356.34764 345.79227 334.67091 323.08655 311.29318 299.17582 286.99145
 274.71609 262.62573 250.64736 239.96100 230.09564 221.21227 213.40691 206.42154
 200.26818 195.21882 191.81345 189.86809 188.91773 188.99436 189.84200 191.16264
 192.90027 195.00791 197.28354 199.65518 202.11282 204.60545 206.70609 208.56073
 210.19936 211.35700 211.59863 211.83927 211.78891 211.50654 211.15218 210.79482
 210.42445 210.14709 209.96773 209.84436 209.78500 210.12863 210.52727 210.92891
 211.73454 212.92518 214.18782 215.98345 217.92409 219.97972 222.08736 224.18300
 226.25563 228.35227 230.46191 232.58054 234.72218 236.90682 239.17545 241.55809
 244.19172 246.45536 248.47000 250.24763 251.67727 252.81291 253.64754 253.97618
 254.02581 253.81245 253.18509 252.14572 250.76436 248.93800 246.85963 244.70527
 242.50890 240.32554 238.15818 236.00981 233.88245 231.76209 229.80072 227.97036
 226.26600 224.75063 223.39327 222.17790 221.07254 220.04518 219.16181 218.31545
 217.57009 216.76272 215.87336 215.24999 214.71263 215.32874 216.78435 218.54369
 220.31714 222.10791 223.31764 223.40974 223.01004 222.74457 223.29144 224.46878
 226.38937 229.67992 233.89680 238.57237 243.13991 247.53993 251.69908 255.43185
 258.71979 261.75766 264.61456 267.16574 269.41827 271.38721 273.07718 274.53897
 276.44089 278.21805 279.76712 281.13480 282.32297 283.37866 284.34286 285.22131
 286.01611 286.73273 287.36169 288.20270
 366.78100 356.34809 345.79318 334.67227 323.08836 311.29545 299.17854 286.99463
 274.71972 262.62981 250.65190 239.96599 230.10108 221.21817 213.41326 206.42835
 200.27544 195.22653 191.82162 189.87671 188.92681 189.00390 189.85199 191.17308
 192.91117 195.01926 197.29535 199.66744 202.12553 204.61862 206.71971 208.57480
 210.21389 211.37198 211.61407 211.85516 211.80525 211.52334 211.16943 210.81252
 210.44261 210.16570 209.98679 209.86388 209.80497 210.14906 210.54815 210.95024
 211.75633 212.94742 214.21051 216.00660 217.94769 220.00378 222.11187 224.20796
 226.28105 228.37814 230.48824 232.60733 234.74942 236.93451 239.20360 241.58669
 244.22078 246.48487 248.49996 250.27805 251.70814 252.84423 253.67932 254.00841
 254.05850 253.84559 253.21868 252.17977 250.79886 248.97295 246.89504 244.74113
 242.54522 240.36231 238.19540 236.04749 233.92058 231.80067 229.83976 228.00985
 226.30594 224.79103 223.43412 222.21921 221.11430 220.08739 219.20448 218.35857
 217.61367 216.80676 215.91785 215.29494 214.75803 215.35733 216.77324 218.51540
 220.31549 222.09160 223.23807 223.27876 222.86678 222.59708 223.12508 224.34416
 226.34636 229.74722 234.03720 238.72728 243.27759 247.66281 251.81160 255.52235
 258.77356 261.77667 264.59714 267.10114 269.30508 271.24283 272.96198 274.90744
 276.48590 278.22238 279.77902 281.14850 282.33652 283.38910 284.35303 285.22946
 286.02460 286.74036 287.36868 288.21265
 366.78100 356.34837 345.79374 334.67310 323.08947 311.29684 299.18021 286.99657
 274.72194 262.63231 250.65468 239.96905 230.10441 221.22178 213.41715 206.43252
 200.27989 195.23125 191.82662 189.88199 188.93236 189.00972 189.85809 191.17946
 192.91783 195.02620 197.30256 199.67493 202.13330 204.62667 206.72803 208.58340
 210.22277 211.38114 211.62351 211.86487 211.81524 211.53361 211.17998 210.82334
 210.45371 210.17708 209.99845 209.87582 209.81718 210.16155 210.56092 210.96329
 211.76966 212.96102 214.22439 216.02076 217.96213 220.01849 222.12686 224.22323
 226.29660 228.39397 230.50433 232.62370 234.76607 236.95144 239.22080 241.60417
 244.23854 246.50291 248.51828 250.29664 251.72701 252.86338 253.69875 254.02812
 254.07848 253.86585 253.23922 252.20059 250.81995 248.99432 246.91669 244.76306
 242.56743 240.38479 238.21816 236.07053 233.94390 231.82426 229.86363 228.03400
 226.33037 224.81574 223.45910 222.24447 221.13984 220.11321 219.23057 218.38494
 217.64031 216.83368 215.94505 215.32241 214.78578 215.37663 216.77258 218.47845
 220.30132 222.08334 223.17444 223.13844 222.68929 222.40807 222.94817 224.23186
 226.32341 229.83214 234.18222 238.87967 243.41887 247.79807 251.94641 255.65015
 258.88162 261.85175 264.62897 267.08411 269.24841 271.10464 272.62045 274.73413
 276.47595 278.23578 279.79041 281.15778 282.34393 283.39584 284.35687 285.23380
 286.02896 286.74939 287.38663 288.23041
 366.78100 356.34850 345.79401 334.67351 323.09002 311.29752 299.18103 286.99753
 274.72304 262.63354 250.65605 239.97055 230.10606 221.22356 213.41907 206.43457
 200.28208 195.23358 191.82908 189.88459 188.93509 189.01260 189.86110 191.18261
 192.92111 195.02962 197.30612 199.67863 202.13713 204.63064 206.73214 208.58765
 210.22715 211.38565 211.62816 211.86966 211.82017 211.53867 211.18518 210.82868
 210.45919 210.18269 210.00420 209.88170 209.82321 210.16771 210.56722 210.96972
 211.77623 212.96773 214.23123 216.02774 217.96924 220.02575 222.13425 224.23076
 226.30426 228.40177 230.51227 232.63178 234.77428 236.95979 239.22929 241.61280
 244.24730 246.51180 248.52731 250.30581 251.73632 252.87282 253.70833 254.03783
 254.08834 253.87584 253.24935 252.21085 250.83036 249.00486 246.92737 244.77387
 242.57838 240.39588 238.22938 236.08189 233.95539 231.83590 229.87540 228.04591
 226.34241 224.82792 223.47142 222.25693 221.15243 220.12594 219.24344 218.39795
 217.65345 216.84695 215.95846 215.33596 214.79947 215.38815 216.77898 218.44681
 220.27757 222.07620 223.13469 223.01041 222.49057 222.17664 222.74649 224.11377
 226.31837 229.94543 234.34094 239.03969 243.57042 247.94080 252.07469 255.76067
 258.97800 261.92615 264.66443 267.05054 269.08142 270.79300 272.98633 274.58527
 276.50195 278.20557 279.73987 281.10376 282.28671 283.33514 284.29340 285.16812
 285.96603 286.69113 287.32614 288.15216
 366.78100 356.34864 345.79428 334.67392 323.09056 311.29820 299.18184 286.99848
 274.72412 262.63476 250.65740 239.97204 230.10768 221.22532 213.42096 206.43661
 200.28425 195.23589 191.83153 189.88717 188.93781 189.01545 189.86409 191.18573
 192.92437 195.03301 197.30965 199.68229 202.14093 204.63457 206.73621 208.59185
 210.23149 211.39013 211.63277 211.87441 211.82505 211.54369 211.19033 210.83397
 210.46461 210.18825 210.00989 209.88753 209.82917 210.17382 210.57346 210.97610
 211.78274 212.97438 214.23802 216.03466 217.97630 220.03294 222.14158 224.23822
 226.31186 228.40950 230.52014 232.63978 234.78242 236.96806 239.23770 241.62134
 244.25598 246.52062 248.53626 250.31490 251.74554 252.88218 253.71782 254.04746
 254.09810 253.88574 253.25939 252.22103 250.84067 249.01531 246.93795 244.78459
 242.58923 240.40687 238.24051 236.09315 233.96679 231.84743 229.88707 228.05771
 226.35435 224.83999 223.48363 222.26927 221.16491 220.13855 219.25619 218.41083
 217.66647 216.86011 215.97175 215.34939 214.81303 215.39679 216.77600 218.42793
 220.24590 222.06067 223.11162 222.90619 222.29190 221.91919 222.50786 223.97978
 226.31554 230.06993 234.51910 239.21956 243.74825 248.11140 252.22293 255.88380
 259.08545 262.01797 264.73770 267.09525 269.04318 270.63928 272.92883 274.58008
 276.38849 278.03647 279.52148 280.85150 282.01196 283.05008 284.00119 284.87039
 285.67325 286.41238 287.03409 287.85605
 366.78100 356.34882 345.79463 334.67445 323.09127 311.29908 299.18290 286.99971
 274.72553 262.63635 250.65916 239.97398 230.10980 221.22761 213.42343 206.43924
 200.28706 195.23888 191.83469 189.89051 188.94133 189.01914 189.86796 191.18977
 192.92859 195.03741 197.31422 199.68704 202.14586 204.63967 206.74149 208.59730
 210.23712 211.39594 211.63875 211.88057 211.83139 211.55020 211.19702 210.84083
 210.47165 210.19547 210.01728 209.89510 209.83692 210.18173 210.58155 210.98436
 211.79118 212.98300 214.24681 216.04363 217.98545 220.04226 222.15108 224.24790
 226.32171 228.41953 230.53034 232.65016 234.79298 236.97879 239.24861 241.63243
 244.26724 246.53206 248.54787 250.32669 251.75751 252.89432 253.73014 254.05996
 254.11077 253.89859 253.27240 252.23422 250.85404 249.02885 246.95167 244.79849
 242.60330 240.42112 238.25493 236.10775 233.98157 231.86238 229.90220 228.07302
 226.36983 224.85565 223.49946 222.28528 221.18110 220.15491 219.27273 218.42755
 217.68336 216.87718 215.98899 215.36681 214.83063 215.40593 216.76512 218.40584
 220.22562 222.03609 223.08119 222.81415 222.10782 221.66026 222.24428 223.80237
 226.29562 230.19905 234.71655 239.42294 243.93977 248.29016 252.37526 256.00684
 259.19110 262.10696 264.80774 267.17239 269.16345 270.83746 272.72501 274.55212
 276.25854 277.81647 279.23691 280.54959 281.71375 282.75809 283.72131 284.60303
 285.39734 286.10153 286.71515 287.53708
 366.78100 356.34893 345.79487 334.67480 323.09173 311.29966 299.18360 287.00053
 274.72646 262.63739 250.66033 239.97526 230.11119 221.22913 213.42506 206.44099
 200.28892 195.24086 191.83679 189.89272 188.94365 189.02159 189.87052 191.19245
 192.93138 195.04032 197.31725 199.69018 202.14912 204.64305 206.74498 208.60091
 210.24085 211.39978 211.64271 211.88464 211.83558 211.55451 211.20144 210.84538
 210.47631 210.20024 210.02217 209.90011 209.84204 210.18697 210.58690 210.98984
 211.79677 212.98870 214.25263 216.04957 217.99150 220.04843 222.15737 224.25430
 226.32823 228.42616 230.53710 232.65703 234.79996 236.98589 239.25583 241.63976
 244.27469 246.53963 248.55556 250.33449 251.76542 252.90236 253.73829 254.06822
 254.11915 253.90709 253.28102 252.24295 250.86289 249.03782 246.96075 244.80768
 242.61262 240.43055 238.26448 236.11741 233.99135 231.87228 229.91221 228.08314
 226.38008 224.86601 223.50994 222.29588 221.19181 220.16574 219.28367 218.43861
 217.69454 216.88847 216.00040 215.37834 214.84227 215.41119 216.75533 218.37613
 220.20332 222.02470 223.03702 222.69794 221.92841 221.39507 221.98071 223.63391
 226.27876 230.32315 234.92039 239.62903 244.12650 248.46855 252.53209 256.13235
 259.28760 262.17606 264.85373 267.22333 269.28885 271.11267 272.77191 274.49222
 276.17734 277.66080 279.00839 280.25513 281.37579 282.41336 283.37494 284.25232
 285.04172 285.73361 286.34604 287.16882
 366.78100 356.34888 345.79475 334.67463 323.09150 311.29938 299.18325 287.00013
 274.72600 262.63688 250.65975 239.97463 230.11050 221.22838 213.42425 206.44013
 200.28800 195.23988 191.83575 189.89163 188.94250 189.02038 189.86925 191.19113
 192.93000 195.03888 197.31575 199.68863 202.14750 204.64138 206.74326 208.59913
 210.23901 211.39788 211.64076 211.88263 211.83351 211.55238 211.19926 210.84313
 210.47401 210.19788 210.01976 209.89763 209.83951 210.18438 210.58426 210.98713
 211.79401 212.98588 214.24976 216.04663 217.98851 220.04538 222.15426 224.25113
 226.32501 228.42288 230.53376 232.65364 234.79651 236.98239 239.25226 241.63614
 244.27101 246.53589 248.55176 250.33064 251.76151 252.89839 253.73426 254.06414
 254.11501 253.90289 253.27676 252.23864 250.85851 249.03339 246.95626 244.80314
 242.60801 240.42589 238.25976 236.11264 233.98651 231.86739 229.90726 228.07814
 226.37502 224.86089 223.50477 222.29064 221.18652 220.16039 219.27827 218.43314
 217.68902 216.88289 215.99477 215.37264 214.83652 215.40576 216.75067 218.35139
 220.18364 221.99298 222.99577 222.59901 221.73083 221.15662 221.71115 223.45010
 226.25160 230.44678 235.13171 239.83885 244.33609 248.66858 252.71223 256.27924
 259.39560 262.23404 264.86795 267.22702 269.33652 271.24036 272.92072 274.56067
 276.17801 277.60770 278.90771 280.11426 281.16449 282.12836 283.06973 283.92615
 284.65082 285.34439 285.96466 286.79944
 366.78100 356.34923 345.79547 334.67570 323.09294 311.30117 299.18541 287.00264
 274.72887 262.64011 250.66334 239.97858 230.11481 221.23305 213.42928 206.44552
 200.29375 195.24598 191.84222 189.89845 188.94969 189.02792 189.87716 191.19939
 192.93862 195.04786 197.32509 199.69833 202.15756 204.65180 206.75403 208.61027
 210.25050 211.40973 211.65297 211.89520 211.84644 211.56567 211.21291 210.85714
 210.48837 210.21261 210.03484 209.91308 209.85531 210.20055 210.60078 211.00402
 211.81125 213.00348 214.26772 216.06495 218.00719 220.06442 222.17366 224.27089
 226.34512 228.44336 230.55459 232.67483 234.81806 237.00430 239.27453 241.65877
 244.29400 246.55923 248.57547 250.35470 251.78594 252.92317 253.75941 254.08964
 254.14087 253.92911 253.30334 252.26558 250.88581 249.06105 246.98428 244.83151
 242.63675 240.45498 238.28922 236.14245 234.01669 231.89792 229.93816 228.10939
 226.40662 224.89286 223.53709 222.32333 221.21956 220.19380 219.31203 218.46726
 217.72350 216.91773 216.02997 215.40820 214.87244 215.41925 216.71118 218.36179
 220.16611 221.91528 222.94688 222.55919 221.63518 220.79457 221.37923 223.31134
 226.24789 230.55533 235.32408 240.05374 244.55701 248.87624 252.89714 256.43179
 259.51682 262.30481 264.87875 267.22586 269.34509 271.26703 273.00891 274.62762
 276.14600 277.51907 278.77386 279.95874 280.97253 281.81720 282.72607 283.58307
 284.22119 284.86978 285.48154 286.34207
 366.78100 356.34837 345.79374 334.67311 323.08948 311.29685 299.18022 286.99658
 274.72195 262.63232 250.65469 239.96906 230.10443 221.22180 213.41717 206.43254
 200.27991 195.23128 191.82665 189.88201 188.93238 189.00975 189.85812 191.17949
 192.91786 195.02623 197.30260 199.67497 202.13334 204.62671 206.72808 208.58344
 210.22281 211.38118 211.62355 211.86492 211.81529 211.53366 211.18003 210.82340
 210.45377 210.17714 209.99851 209.87588 209.81724 210.16161 210.56098 210.96335
 211.76972 212.96109 214.22446 216.02083 217.96220 220.01857 222.12694 224.22331
 226.29667 228.39404 230.50441 232.62378 234.76615 236.95152 239.22089 241.60426
 244.23863 246.50300 248.51837 250.29674 251.72711 252.86347 253.69884 254.02821
 254.07858 253.86595 253.23932 252.20069 250.82006 248.99443 246.91680 244.76317
 242.56754 240.38490 238.21827 236.07064 233.94401 231.82438 229.86375 228.03412
 226.33049 224.81586 223.45923 222.24460 221.13997 220.11333 219.23070 218.38507
 217.64044 216.83381 215.94518 215.32255 214.78592 215.37160 216.75533 218.29002
 220.19116 221.87723 222.77402 222.50912 221.56432 220.38367 221.08656 223.25426
 226.34160 230.69028 235.49632 240.26198 244.78151 249.07042 253.05534 256.57684
 259.64523 262.39209 264.91556 267.25156 269.38297 271.33145 273.12570 274.76279
 276.22919 277.55963 278.77560 279.90332 280.86032 281.76001 282.69656 283.50327
 284.12408 284.77304 285.38599 286.23236
 366.78100 356.34771 345.79242 334.67113 323.08684 311.29355 299.17626 286.99197
 274.71668 262.62639 250.64810 239.96182 230.09653 221.21324 213.40795 206.42266
 200.26937 195.22008 191.81479 189.86950 188.91921 188.99592 189.84363 191.16434
 192.90205 195.00976 197.28547 199.65718 202.11489 204.60760 206.70831 208.56302
 210.20174 211.35945 211.60116 211.84187 211.79158 211.50929 211.15500 210.79771
 210.42742 210.15013 209.97084 209.84755 209.78826 210.13197 210.53068 210.93239
 211.73810 212.92881 214.19152 215.98723 217.92794 219.98365 222.09137 224.18708
 226.25979 228.35650 230.46621 232.58492 234.72663 236.91134 239.18005 241.56276
 244.19647 246.46018 248.47489 250.25260 251.68231 252.81802 253.65273 253.98144
 254.03115 253.81786 253.19057 252.15129 250.77000 248.94371 246.86542 244.71113
 242.51484 240.33155 238.16426 236.01597 233.88868 231.76839 229.80710 227.97681
 226.27252 224.75723 223.39994 222.18465 221.07936 220.05207 219.16878 218.32249
 217.57721 216.76992 215.88063 215.25734 214.72005 215.33876 216.80054 218.22026
 220.15259 221.63173 222.67899 222.62733 221.35077 219.88463 220.83867 223.12460
 226.49138 230.82327 235.66791 240.45557 244.97569 249.21994 253.15256 256.64432
 259.68903 262.40457 264.89777 267.22391 269.39090 271.40280 273.25363 274.92978
 276.43509 277.79654 279.03229 280.15292 281.14743 282.05090 282.89847 283.71829
 284.50449 285.27097 285.94052 286.79382
 366.78100 356.34851 345.79403 334.67354 323.09006 311.29757 299.18109 286.99760
 274.72311 262.63363 250.65614 239.97066 230.10617 221.22369 213.41920 206.43471
 200.28223 195.23374 191.82926 189.88477 188.93529 189.01280 189.86131 191.18283
 192.92134 195.02986 197.30637 199.67889 202.13740 204.63091 206.73243 208.58794
 210.22746 211.38597 211.62849 211.87000 211.82051 211.53903 211.18554 210.82906
 210.45957 210.18309 210.00460 209.88212 209.82363 210.16814 210.56766 210.97017
 211.77669 212.96820 214.23172 216.02823 217.96974 220.02626 222.13477 224.23129
 226.30480 228.40232 230.51283 232.63234 234.77486 236.96037 239.22989 241.61340
 244.24792 246.51243 248.52794 250.30646 251.73697 252.87349 253.70900 254.03852
 254.08903 253.87654 253.25006 252.21157 250.83109 249.00560 246.92812 244.77463
 242.57914 240.39666 238.23017 236.08269 233.95620 231.83672 229.87623 228.04674
 226.34326 224.82877 223.47229 222.25780 221.15332 220.12683 219.24434 218.39886
 217.65437 216.84789 215.95940 215.33692 214.80043 215.37592 216.74149 218.26299
 220.11314 221.24222 222.79326 222.67444 220.97720 219.62596 220.70810 222.91084
 226.55212 230.92766 235.81882 240.60384 245.09691 249.29866 253.16443 256.61472
 259.65079 262.36505 264.85208 267.17767 269.36124 271.41077 273.33331 275.11496
 276.70212 278.07468 279.24835 280.29346 281.27957 282.24893 283.18945 284.09933
 284.96017 285.72675 286.39642 287.24985
 366.78100 356.34831 345.79361 334.67292 323.08923 311.29653 299.17984 286.99615
 274.72145 262.63176 250.65407 239.96837 230.10368 221.22099 213.41629 206.43160
 200.27891 195.23021 191.82552 189.88083 188.93113 189.00844 189.85675 191.17805
 192.91636 195.02467 197.30097 199.67328 202.13159 204.62489 206.72620 208.58151
 210.22081 211.37912 211.62143 211.86273 211.81304 211.53135 211.17765 210.82096
 210.45127 210.17457 209.99588 209.87319 209.81449 210.15880 210.55811 210.96041
 211.76672 212.95802 214.22133 216.01764 217.95894 220.01525 222.12356 224.21986
 226.29317 228.39048 230.50078 232.62009 234.76240 236.94770 239.21701 241.60032
 244.23462 246.49893 248.51424 250.29254 251.72285 252.85916 253.69446 254.02377
 254.07408 253.86138 253.23469 252.19600 250.81530 248.98961 246.91192 244.75822
 242.56253 240.37984 238.21314 236.06545 233.93876 231.81906 229.85837 228.02868
 226.32498 224.81029 223.45360 222.23890 221.13421 220.10752 219.22482 218.37913
 217.63444 216.82774 215.93905 215.31636 214.77966 215.35585 216.71886 218.24232
 220.19827 221.14400 222.78041 222.37013 220.68846 219.62752 220.68503 222.82559
 226.58823 231.02386 235.96289 240.77217 245.25024 249.39551 253.19914 256.61053
 259.63605 262.33987 264.80890 267.13882 269.38049 271.53290 273.55197 275.35422
 276.85269 278.05411 279.02142 279.87317 280.69266 281.57141 282.48032 283.36298
 284.25082 285.04401 285.73691 286.61993
 366.78100 356.34638 345.78975 334.66713 323.08150 311.28688 299.16825 286.98263
 274.70600 262.61438 250.63475 239.94713 230.08050 221.19588 213.38925 206.40263
 200.24801 195.19738 191.79076 189.84413 188.89251 188.96788 189.81426 191.13363
 192.87001 194.97638 197.25076 199.62113 202.07751 204.56888 206.66826 208.52164
 210.15901 211.31539 211.55576 211.79514 211.74351 211.45989 211.10426 210.74564
 210.37401 210.09539 209.91476 209.79014 209.72951 210.07189 210.46926 210.86964
 211.67402 212.86339 214.12477 215.91914 217.85852 219.91289 222.01927 224.11364
 226.18502 228.28039 230.38877 232.50614 234.64652 236.82989 239.09727 241.47865
 244.11102 246.37340 248.38677 250.16315 251.59152 252.72590 253.55927 253.88665
 253.93502 253.72040 253.09177 252.05115 250.66852 248.84090 246.76128 244.60565
 242.40803 240.22340 238.05478 235.90515 233.77653 231.65490 229.69228 227.86065
 226.15503 224.63840 223.27978 222.06315 220.95653 219.92791 219.04328 218.19566
 217.44903 216.64041 215.74978 215.12516 214.58653 215.24652 216.80583 218.14777
 220.24330 221.33678 222.58109 221.94453 220.47635 219.57410 220.55098 222.83849
 226.59991 231.16656 236.14119 241.02428 245.52264 249.61369 253.34288 256.67920
 259.66888 262.35654 264.80716 267.14902 269.45706 271.68106 273.71320 275.43793
 276.80042 277.83826 278.61215 279.21689 279.79871 280.47552 281.25790 282.11313
 282.94031 283.79376 284.53931 285.48944
 354.97500 345.04800 334.58700 324.11500 313.32600 302.53700 291.65000 280.76700
 269.93100 259.19300 248.62200 238.61700 229.08700 220.35500 212.54000 205.53500
 199.46400 194.49300 191.14300 189.19000 188.08900 188.01400 188.72400 189.90600
 191.46900 193.38200 195.40300 197.55600 199.80700 202.06000 204.28800 206.47900
 208.55200 210.37800 212.02500 213.65900 214.99800 216.11800 217.17200 218.25900
 219.49400 220.64500 221.67900 222.61400 223.54500 224.98200 226.57100 228.19000
 229.79700 231.81100 233.86500 235.97200 238.24200 240.55300 242.89900 245.25300
 247.48800 249.53500 251.36600 252.84800 254.09800 255.16700 256.02700 256.25300
 256.09500 255.54300 253.93500 252.56600 251.38400 250.24500 249.05200 247.70100
 246.01600 243.99600 241.78400 239.39300 236.81300 234.22300 231.65800 229.14400
 226.74000 224.47300 222.33500 220.32500 218.44000 216.67700 214.96200 213.47200
 212.20000 211.10800 210.26000 209.63900 209.24400 209.03100 209.05800 209.33300
 209.78400 210.62600 211.33100 212.39100 213.62500 214.84668 217.72949 219.47640
 220.32566 220.86828 220.88710 220.27371 219.43733 218.84250 219.04934 220.86203
 222.60583 225.72206 229.03064 232.61777 236.12270 239.51333 242.70767 245.68587
 248.41061 250.90679 253.19353 254.91714 256.48655 257.94920 259.39966 260.69384
 261.81714 262.77997 263.71679 264.54570 265.26305 265.89772 266.47676 267.00133
 267.47312 267.89325 268.26027 268.72800
