|-------------------------------------------------------------------------|
|   File Name : in_temp.dat
|   Subject   : temperature profiles used for initial guess atmosphere
|   File Type : input of gmtr
|   Data Type : atmospherical data
|   Author/s  : WRF-Chem
|   Date      : Fri Jul 26 15:39:24 2024
|-------------------------------------------------------------------------|

 WRF-Chem temperature
#
 values of T (K)    (8f10.5)
#
 354.97500 345.04800 334.58700 324.11500 313.32600 302.53700 291.65000 280.76700
 269.93100 259.19300 248.62200 238.61700 229.08700 220.35500 212.54000 205.53500
 199.46400 194.49300 191.14300 189.19000 188.08900 188.01400 188.72400 189.90600
 191.46900 193.38200 195.40300 197.55600 199.80700 202.06000 204.28800 206.47900
 208.55200 210.37800 212.02500 213.65900 214.99800 216.11800 217.17200 218.25900
 219.49400 220.64500 221.67900 222.61400 223.54500 224.98200 226.57100 228.19000
 229.79700 231.81100 233.86500 235.97200 238.24200 240.55300 242.89900 245.25300
 247.48800 249.53500 251.36600 252.84800 254.09800 255.16700 256.02700 256.25300
 256.09500 255.54300 253.93500 252.56600 251.38400 250.24500 249.05200 247.70100
 246.01600 243.99600 241.78400 239.39300 236.81300 234.22300 231.65800 229.14400
 226.74000 224.47300 222.33500 220.32500 218.44000 216.67700 214.96200 213.47200
 212.20000 211.10800 210.26000 209.63900 209.24400 209.03100 209.05800 209.33300
 209.78400 210.62600 211.33100 212.39100 213.62500 214.84668 217.72949 219.47640
 220.32566 220.86828 220.88710 220.27371 219.43733 218.84250 219.04934 220.86203
 222.60583 225.72206 229.03064 232.61777 236.12270 239.51333 242.70767 245.68587
 248.41061 250.90679 253.19353 254.91714 256.48655 257.94920 259.39966 260.69384
 261.81714 262.77997 263.71679 264.54570 265.26305 265.89772 266.47676 267.00133
 267.47312 267.89325 268.26027 268.72800
 366.78100 356.33500 345.76700 334.63300 323.03600 311.23000 299.10000 286.90300
 274.61500 262.51200 250.52100 239.82200 229.94400 221.04800 213.23000 206.23200
 200.06600 195.00400 191.58600 189.62800 188.66500 188.72900 189.56400 190.87200
 192.59700 194.69200 196.95500 199.31400 201.75900 204.23900 206.32700 208.16900
 209.79500 210.94000 211.16900 211.39700 211.33400 211.03900 210.67200 210.30200
 209.91900 209.62900 209.43700 209.30100 209.22900 209.56000 209.94600 210.33500
 211.12800 212.30600 213.55600 215.33900 217.26700 219.31000 221.40500 223.48800
 225.54800 227.63200 229.72900 231.83500 233.96400 236.13600 238.39200 240.76200
 243.38300 245.63400 247.63600 249.40100 250.81800 251.94100 252.76300 253.07900
 253.11600 252.89000 252.25000 251.19800 249.80400 247.96500 245.87400 243.70700
 241.49800 239.30200 237.12200 234.96100 232.82100 230.68800 228.71400 226.87100
 225.15400 223.62600 222.25600 221.02800 219.91000 218.87000 217.97400 217.11500
 216.35700 215.53700 214.63500 213.99900 213.44900 212.85855 212.01316 212.61654
 214.26826 216.08686 218.14273 220.53346 223.40855 226.78828 231.49734 235.90155
 239.42278 243.28576 247.23140 251.11907 254.80144 258.23331 261.38913 264.27520
 266.89312 269.26852 271.44504 273.08845 274.58484 275.98591 277.39845 278.65879
 279.75272 280.69038 281.56708 282.34086 283.01050 283.60295 284.14348 284.63317
 285.07358 285.46577 285.80838 286.24500
 381.81900 372.39900 361.20600 349.77600 337.62200 324.85300 311.81000 298.35300
 284.86000 271.32400 258.56100 246.30400 236.08700 226.79600 218.44800 211.29000
 205.52200 200.89400 197.38100 194.84800 193.01500 192.31500 192.25000 192.43100
 192.91200 193.53700 194.13600 194.71200 195.26200 195.83100 196.39300 196.97600
 197.60400 198.14900 198.58400 199.05700 199.69500 200.37800 201.05400 201.70800
 202.31300 202.85700 203.35500 203.86200 204.56900 205.29700 206.02600 206.98700
 208.19300 209.44100 210.96900 212.57600 214.46200 216.51300 218.63000 220.85300
 223.34100 225.96200 228.73900 231.69700 234.70600 237.70600 240.69200 243.65700
 246.73700 249.69900 252.52100 255.06300 257.29000 259.23300 260.63300 261.68000
 262.46100 262.79800 262.69100 262.22400 261.06900 259.52500 257.70700 255.50700
 253.00100 250.30200 247.39800 244.45200 241.65400 239.05400 236.73300 234.59000
 232.59500 230.72500 228.83400 226.82600 224.66600 222.38700 220.10400 217.71500
 215.45900 213.06600 210.54600 208.09300 205.35400 202.08130 196.05959 200.71215
 209.01611 216.90438 223.84126 229.78593 235.00632 240.20838 245.98943 250.68668
 254.32982 257.93487 261.55666 264.96801 268.15192 271.06452 273.76717 276.25691
 278.57680 280.74479 282.77456 284.60533 286.27232 287.81705 289.31715 290.65561
 291.81734 292.81312 293.70701 294.49387 295.17482 295.77730 296.32696 296.82492
 297.27278 297.67160 298.02000 298.46400
 399.33000 389.90700 379.81300 368.66800 357.52200 345.30100 333.07400 320.22700
 307.21600 293.84800 280.37600 267.29600 254.61000 242.98700 232.15100 221.97700
 212.67200 204.28600 197.66900 192.82100 189.48600 187.45200 186.81400 187.08900
 187.78100 189.05400 190.64800 192.54200 194.63000 196.75200 198.67100 200.15800
 201.53500 202.48700 202.97500 203.34000 203.53900 203.49700 203.38500 203.24700
 203.00500 202.78600 202.60300 202.43700 202.42600 202.88800 203.42000 203.95100
 204.89500 205.99200 207.30100 208.95800 210.73800 213.10000 215.56400 218.18000
 220.96600 223.91800 226.96100 230.09200 233.29300 236.55700 239.95500 243.53700
 246.84500 249.39000 251.54200 253.47400 255.19500 256.48400 257.43100 258.05900
 258.21200 258.04000 257.58200 256.64300 255.23900 253.50700 251.40800 249.05600
 246.57600 243.99400 241.38900 238.83000 236.34400 233.98600 231.96900 230.11800
 228.42300 226.89900 225.54800 224.29700 223.10500 221.96500 220.95800 220.11300
 219.49000 218.92000 218.32500 217.88100 217.42300 216.96366 216.35568 216.80261
 217.73415 218.28582 218.64258 219.10077 220.44626 222.53987 226.38451 230.35736
 233.59734 237.39164 241.29814 245.22796 248.98002 252.51130 255.78595 258.80109
 261.54781 264.05210 266.34239 268.04198 269.58951 271.01303 272.35754 273.55718
 274.59842 275.49092 276.28989 276.99307 277.60161 278.14001 278.63122 279.07623
 279.47646 279.83287 280.14422 280.54100
 399.73800 389.78500 379.66200 368.15100 356.64100 344.35000 331.79200 318.88800
 305.72600 292.49300 279.20900 266.73800 254.69600 244.21100 234.45700 225.43300
 217.56900 210.45100 204.30000 199.30600 195.45800 192.57600 191.02700 190.38600
 190.23900 190.53400 191.16600 191.92500 192.79500 193.76600 194.73200 195.31200
 195.80000 196.05200 196.11500 196.11500 196.03900 195.72300 195.34000 194.98900
 194.75100 194.79200 195.13300 195.59800 196.50600 198.13600 199.85800 201.56600
 204.17900 206.82300 209.89300 213.28400 216.82800 220.60500 224.38700 228.20900
 232.03200 235.82500 239.56000 243.25800 246.84500 250.20100 253.70900 257.46800
 261.53000 264.22100 266.60100 268.68100 270.32900 271.74100 272.83600 273.47400
 273.89800 274.00200 273.75700 273.28800 272.37100 271.10000 269.58900 267.77900
 265.81600 263.72100 261.39300 258.91600 256.29800 253.42300 250.33100 247.11400
 243.83700 240.52900 237.24900 233.99900 230.72800 227.51500 224.25400 220.95200
 217.62700 213.65600 210.12100 206.78900 204.01000 201.99491 199.07309 198.76551
 199.40006 200.48994 201.46112 202.31912 203.45100 204.96110 207.47502 210.85391
 213.70530 217.29629 220.99574 224.72316 228.28753 231.64854 234.68024 237.40893
 239.70644 241.60899 243.46854 245.67368 247.68154 249.52395 251.24767 252.78566
 254.12057 255.26479 256.23740 257.09036 257.82852 258.48160 259.07744 259.61723
 260.10271 260.53504 260.91270 261.39400
 399.73800 389.78500 379.66200 368.15100 356.64100 344.35000 331.79200 318.88800
 305.72600 292.49300 279.20900 266.73800 254.69600 244.21100 234.45700 225.43300
 217.56900 210.45100 204.30000 199.30600 195.45800 192.57600 191.02700 190.38600
 190.23900 190.53400 191.16600 191.92500 192.79500 193.76600 194.73200 195.31200
 195.80000 196.05200 196.11500 196.11500 196.03900 195.72300 195.34000 194.98900
 194.75100 194.79200 195.13300 195.59800 196.50600 198.13600 199.85800 201.56600
 204.17900 206.82300 209.89300 213.28400 216.82800 220.60500 224.38700 228.20900
 232.03200 235.82500 239.56000 243.25800 246.84500 250.20100 253.70900 257.46800
 261.53000 264.22100 266.60100 268.68100 270.32900 271.74100 272.83600 273.47400
 273.89800 274.00200 273.75700 273.28800 272.37100 271.10000 269.58900 267.77900
 265.81600 263.72100 261.39300 258.91600 256.29800 253.42300 250.33100 247.11400
 243.83700 240.52900 237.24900 233.99900 230.72800 227.51500 224.25400 220.95200
 217.62700 213.65600 210.12100 206.78900 204.01000 201.99491 199.07309 198.76551
 199.40006 200.48994 201.46112 202.31912 203.45100 204.96110 207.47502 210.85391
 213.70530 217.29629 220.99574 224.72316 228.28753 231.64854 234.68024 237.40893
 239.70644 241.60899 243.46854 245.67368 247.68154 249.52395 251.24767 252.78566
 254.12057 255.26479 256.23740 257.09036 257.82852 258.48160 259.07744 259.61723
 260.10271 260.53504 260.91270 261.39400
 399.33000 389.90700 379.81300 368.66800 357.52200 345.30100 333.07400 320.22700
 307.21600 293.84800 280.37600 267.29600 254.61000 242.98700 232.15100 221.97700
 212.67200 204.28600 197.66900 192.82100 189.48600 187.45200 186.81400 187.08900
 187.78100 189.05400 190.64800 192.54200 194.63000 196.75200 198.67100 200.15800
 201.53500 202.48700 202.97500 203.34000 203.53900 203.49700 203.38500 203.24700
 203.00500 202.78600 202.60300 202.43700 202.42600 202.88800 203.42000 203.95100
 204.89500 205.99200 207.30100 208.95800 210.73800 213.10000 215.56400 218.18000
 220.96600 223.91800 226.96100 230.09200 233.29300 236.55700 239.95500 243.53700
 246.84500 249.39000 251.54200 253.47400 255.19500 256.48400 257.43100 258.05900
 258.21200 258.04000 257.58200 256.64300 255.23900 253.50700 251.40800 249.05600
 246.57600 243.99400 241.38900 238.83000 236.34400 233.98600 231.96900 230.11800
 228.42300 226.89900 225.54800 224.29700 223.10500 221.96500 220.95800 220.11300
 219.49000 218.92000 218.32500 217.88100 217.42300 216.96366 216.35568 216.80261
 217.73415 218.28582 218.64258 219.10077 220.44626 222.53987 226.38451 230.35736
 233.59734 237.39164 241.29814 245.22796 248.98002 252.51130 255.78595 258.80109
 261.54781 264.05210 266.34239 268.04198 269.58951 271.01303 272.35754 273.55718
 274.59842 275.49092 276.28989 276.99307 277.60161 278.14001 278.63122 279.07623
 279.47646 279.83287 280.14422 280.54100
 381.81900 372.39900 361.20600 349.77600 337.62200 324.85300 311.81000 298.35300
 284.86000 271.32400 258.56100 246.30400 236.08700 226.79600 218.44800 211.29000
 205.52200 200.89400 197.38100 194.84800 193.01500 192.31500 192.25000 192.43100
 192.91200 193.53700 194.13600 194.71200 195.26200 195.83100 196.39300 196.97600
 197.60400 198.14900 198.58400 199.05700 199.69500 200.37800 201.05400 201.70800
 202.31300 202.85700 203.35500 203.86200 204.56900 205.29700 206.02600 206.98700
 208.19300 209.44100 210.96900 212.57600 214.46200 216.51300 218.63000 220.85300
 223.34100 225.96200 228.73900 231.69700 234.70600 237.70600 240.69200 243.65700
 246.73700 249.69900 252.52100 255.06300 257.29000 259.23300 260.63300 261.68000
 262.46100 262.79800 262.69100 262.22400 261.06900 259.52500 257.70700 255.50700
 253.00100 250.30200 247.39800 244.45200 241.65400 239.05400 236.73300 234.59000
 232.59500 230.72500 228.83400 226.82600 224.66600 222.38700 220.10400 217.71500
 215.45900 213.06600 210.54600 208.09300 205.35400 202.08130 196.05959 200.71215
 209.01611 216.90438 223.84126 229.78593 235.00632 240.20838 245.98943 250.68668
 254.32982 257.93487 261.55666 264.96801 268.15192 271.06452 273.76717 276.25691
 278.57680 280.74479 282.77456 284.60533 286.27232 287.81705 289.31715 290.65561
 291.81734 292.81312 293.70701 294.49387 295.17482 295.77730 296.32696 296.82492
 297.27278 297.67160 298.02000 298.46400
 366.78100 356.33594 345.76889 334.63583 323.03977 311.23471 299.10566 286.90960
 274.62254 262.52049 250.53043 239.83237 229.95531 221.06026 213.24320 206.24614
 200.08109 195.02003 191.60297 189.64591 188.68386 188.74880 189.58474 190.89369
 192.61963 194.71557 196.97952 199.33946 201.78540 204.26634 206.35529 208.19823
 209.82517 210.97112 211.20106 211.43000 211.36794 211.07389 210.70783 210.33877
 209.95672 209.66766 209.47660 209.34154 209.27049 209.60243 209.98937 210.37932
 211.17326 212.35220 213.60314 215.38709 217.31603 219.35997 221.45592 223.53986
 225.60080 227.68574 229.78369 231.89063 234.02057 236.19352 238.45046 240.82140
 243.44335 245.69529 247.69823 249.46417 250.88212 252.00606 252.82900 253.14595
 253.18389 252.95883 252.31977 251.26872 249.87566 248.03760 245.94755 243.78149
 241.57343 239.37837 237.19932 235.03926 232.90020 230.76815 228.79509 226.95303
 225.23697 223.70992 222.34086 221.11380 219.99675 218.95769 218.06263 217.20457
 216.44752 215.62846 214.72740 214.09235 213.54329 212.77187 210.95424 210.39606
 210.59868 211.89661 213.56302 215.75874 219.15233 223.75792 229.58604 234.75381
 238.66867 242.55075 246.51091 250.52380 254.40475 258.16586 260.99344 262.72537
 265.42120 268.25995 270.64185 272.44467 274.39886 276.40213 277.93442 279.43857
 281.10349 282.66486 284.13309 285.48965 286.67050 287.71783 288.67517 289.54254
 290.33032 291.03494 291.65573 292.48077
 366.78100 356.33620 345.76940 334.63660 323.04079 311.23599 299.10719 286.91139
 274.62459 262.52279 250.53299 239.83518 229.95838 221.06358 213.24678 206.24998
 200.08518 195.02438 191.60758 189.65077 188.68897 188.75417 189.59037 190.89957
 192.62577 194.72197 196.98616 199.34636 201.79256 204.27376 206.36296 208.20616
 209.83336 210.97955 211.20975 211.43895 211.37715 211.08335 210.71755 210.34875
 209.96695 209.67814 209.48734 209.35254 209.28174 209.61394 210.00114 210.39134
 211.18553 212.36473 213.61593 215.40013 217.32933 219.37353 221.46973 223.55392
 225.61512 227.70032 229.79852 231.90572 234.03592 236.20912 238.46632 240.83751
 243.45971 245.71191 247.71511 249.48131 250.89951 252.02371 252.84690 253.16410
 253.20230 252.97750 252.33870 251.28790 249.89510 248.05729 245.96749 243.80169
 241.59389 239.39909 237.22029 235.06049 232.92168 230.78988 228.81708 226.97528
 225.25948 223.73268 222.36388 221.13708 220.02027 218.98147 218.08667 217.22887
 216.47207 215.65327 214.75247 214.11766 213.56886 212.81921 211.05217 210.47232
 210.61449 211.99684 213.64471 215.76485 219.07086 223.69127 229.53833 234.69730
 238.59940 242.46579 246.41316 250.42982 254.33888 258.10117 260.92505 262.66901
 265.37054 268.21542 270.59427 272.36526 274.29465 276.30093 277.83594 279.33798
 281.01068 282.57968 284.04126 285.39771 286.57840 287.62646 288.58209 289.45148
 290.23901 290.94211 291.56747 292.38782
 366.78100 356.33632 345.76963 334.63695 323.04127 311.23658 299.10790 286.91221
 274.62553 262.52385 250.53416 239.83648 229.95980 221.06511 213.24843 206.25174
 200.08706 195.02638 191.60969 189.65301 188.69133 188.75664 189.59296 190.90227
 192.62859 194.72491 196.98922 199.34954 201.79586 204.27717 206.36649 208.20980
 209.83712 210.98344 211.21375 211.44307 211.38139 211.08770 210.72202 210.35333
 209.97165 209.68297 209.49228 209.35760 209.28692 209.61923 210.00655 210.39686
 211.19118 212.37050 213.62181 215.40613 217.33545 219.37976 221.47608 223.56040
 225.62171 227.70703 229.80534 231.91266 234.04298 236.21629 238.47361 240.84493
 243.46724 245.71956 247.72287 249.48919 250.90751 252.03182 252.85514 253.17246
 253.21077 252.98609 252.34740 251.29672 249.90404 248.06635 245.97667 243.81099
 241.60330 239.40862 237.22993 235.07025 232.93157 230.79988 228.82720 226.98552
 225.26983 223.74315 222.37446 221.14778 220.03110 218.99241 218.09773 217.24005
 216.48336 215.66468 214.76399 214.12931 213.58063 212.85922 211.15800 210.53342
 210.66078 212.07396 213.72270 215.78516 219.00563 223.62033 229.48857 234.63441
 238.52333 242.37590 246.31305 250.33575 254.27586 258.03812 260.85739 262.61362
 265.31638 268.16531 270.54355 272.28479 274.19235 276.20001 277.73944 279.23956
 280.91953 282.49551 283.95175 285.30701 286.48886 287.53629 288.49295 289.36203
 290.15018 290.85626 291.47903 292.30368
 366.78100 356.33634 345.76968 334.63702 323.04137 311.23671 299.10805 286.91239
 274.62573 262.52407 250.53441 239.83676 229.96010 221.06544 213.24878 206.25212
 200.08746 195.02680 191.61015 189.65349 188.69183 188.75717 189.59351 190.90285
 192.62919 194.72554 196.98988 199.35022 201.79656 204.27790 206.36724 208.21058
 209.83793 210.98427 211.21461 211.44395 211.38229 211.08863 210.72298 210.35432
 209.97266 209.68400 209.49334 209.35868 209.28802 209.62037 210.00771 210.39805
 211.19239 212.37173 213.62307 215.40741 217.33676 219.38110 221.47744 223.56178
 225.62312 227.70846 229.80680 231.91415 234.04449 236.21783 238.47517 240.84651
 243.46885 245.72119 247.72454 249.49088 250.90922 252.03356 252.85690 253.17424
 253.21258 252.98793 252.34927 251.29861 249.90595 248.06829 245.97863 243.81297
 241.60532 239.41066 237.23200 235.07234 232.93368 230.80202 228.82936 226.98771
 225.27205 223.74539 222.37673 221.15007 220.03341 218.99475 218.10010 217.24244
 216.48578 215.66712 214.76646 214.13180 213.58315 212.89349 211.26645 210.59825
 210.71367 212.13918 213.79562 215.81331 218.95947 223.54616 229.43523 234.56828
 238.44530 242.28610 246.21547 250.24391 254.21603 257.97534 260.78619 262.55450
 265.25604 268.10721 270.48685 272.20410 274.09283 276.10318 277.64822 279.14633
 280.83386 282.41168 283.86642 285.22195 286.40353 287.45047 288.40793 289.27878
 290.06610 290.77081 291.39697 292.22186
 366.78100 356.33637 345.76974 334.63710 323.04147 311.23684 299.10821 286.91258
 274.62595 262.52431 250.53468 239.83705 229.96042 221.06579 213.24915 206.25252
 200.08789 195.02726 191.61063 189.65399 188.69236 188.75773 189.59410 190.90347
 192.62984 194.72620 196.99057 199.35094 201.79731 204.27868 206.36804 208.21141
 209.83878 210.98515 211.21552 211.44489 211.38325 211.08962 210.72399 210.35536
 209.97373 209.68509 209.49446 209.35983 209.28920 209.62157 210.00894 210.39930
 211.19367 212.37304 213.62441 215.40878 217.33814 219.38251 221.47888 223.56325
 225.62462 227.70998 229.80835 231.91572 234.04609 236.21946 238.47683 240.84819
 243.47056 245.72293 247.72630 249.49267 250.91103 252.03540 252.85877 253.17614
 253.21451 252.98988 252.35124 251.30061 249.90798 248.07035 245.98072 243.81508
 241.60745 239.41282 237.23419 235.07456 232.93592 230.80429 228.83166 226.99003
 225.27440 223.74777 222.37913 221.15250 220.03587 218.99724 218.10261 217.24497
 216.48834 215.66971 214.76908 214.13445 213.58582 212.92668 211.37105 210.67259
 210.77281 212.18967 213.85942 215.84984 218.92891 223.47528 229.37865 234.49820
 238.36433 242.19566 246.11841 250.15407 254.15939 257.91238 260.71091 262.49451
 265.18829 268.04028 270.42389 272.12280 273.99695 276.01096 277.56494 279.06201
 280.75266 282.33243 283.78479 285.13950 286.32220 287.37024 288.32510 289.19672
 289.98340 290.69016 291.31470 292.14410
 366.78100 356.33641 345.76983 334.63724 323.04165 311.23707 299.10848 286.91290
 274.62631 262.52472 250.53514 239.83755 229.96096 221.06638 213.24979 206.25320
 200.08862 195.02803 191.61145 189.65486 188.69327 188.75869 189.59510 190.90451
 192.63093 194.72734 196.99175 199.35217 201.79858 204.28000 206.36941 208.21282
 209.84024 210.98665 211.21706 211.44648 211.38489 211.09130 210.72572 210.35713
 209.97555 209.68696 209.49637 209.36179 209.29120 209.62361 210.01103 210.40144
 211.19585 212.37527 213.62668 215.41109 217.34051 219.38492 221.48134 223.56575
 225.62716 227.71258 229.81099 231.91840 234.04882 236.22223 238.47964 240.85106
 243.47347 245.72589 247.72930 249.49571 250.91413 252.03854 252.86195 253.17937
 253.21778 252.99319 252.35461 251.30402 249.91144 248.07385 245.98426 243.81868
 241.61109 239.41650 237.23792 235.07833 232.93974 230.80816 228.83557 226.99399
 225.27840 223.75181 222.38323 221.15664 220.04005 219.00147 218.10688 217.24929
 216.49271 215.67412 214.77354 214.13895 213.59036 212.95967 211.47081 210.75969
 210.83730 212.22668 213.91603 215.89093 218.90628 223.41240 229.31976 234.42519
 238.28044 242.10327 246.02075 250.06631 254.10654 257.85217 260.63510 262.43372
 265.11462 267.96390 270.35187 272.03778 273.90292 275.92087 277.48679 278.98477
 280.67542 282.25778 283.70737 285.06305 286.24350 287.29166 288.24887 289.11932
 289.90784 290.61685 291.23923 292.06979
 366.78100 356.33637 345.76973 334.63710 323.04147 311.23684 299.10820 286.91257
 274.62594 262.52431 250.53467 239.83704 229.96041 221.06578 213.24914 206.25251
 200.08788 195.02725 191.61061 189.65398 188.69235 188.75772 189.59408 190.90345
 192.62982 194.72618 196.99055 199.35092 201.79729 204.27865 206.36802 208.21139
 209.83876 210.98512 211.21549 211.44486 211.38323 211.08959 210.72396 210.35533
 209.97370 209.68506 209.49443 209.35980 209.28917 209.62153 210.00890 210.39927
 211.19363 212.37300 213.62437 215.40874 217.33810 219.38247 221.47884 223.56321
 225.62457 227.70994 229.80831 231.91568 234.04604 236.21941 238.47678 240.84815
 243.47051 245.72288 247.72625 249.49262 250.91098 252.03535 252.85872 253.17608
 253.21445 252.98982 252.35119 251.30055 249.90792 248.07029 245.98066 243.81502
 241.60739 239.41276 237.23413 235.07449 232.93586 230.80423 228.83160 226.98996
 225.27433 223.74770 222.37907 221.15243 220.03580 218.99717 218.10253 217.24490
 216.48827 215.66964 214.76900 214.13437 213.58574 212.98653 211.57164 210.85666
 210.90395 212.25542 213.96597 215.93282 218.88297 223.35689 229.26082 234.34953
 238.19275 242.00696 245.92259 249.98145 254.05969 257.79526 260.56094 262.37686
 265.03650 267.87784 270.26904 271.94702 273.80795 275.83270 277.41394 278.91403
 280.60291 282.18826 283.63400 284.98868 286.17123 287.21811 288.17545 289.04587
 289.83490 290.54276 291.16733 291.99890
 366.78100 356.33617 345.76934 334.63651 323.04068 311.23585 299.10702 286.91119
 274.62436 262.52253 250.53270 239.83487 229.95804 221.06321 213.24638 206.24955
 200.08472 195.02389 191.60706 189.65023 188.68840 188.75357 189.58974 190.89891
 192.62508 194.72125 196.98542 199.34559 201.79176 204.27293 206.36210 208.20527
 209.83244 210.97861 211.20878 211.43795 211.37612 211.08229 210.71646 210.34763
 209.96580 209.67697 209.48614 209.35131 209.28048 209.61265 209.99982 210.38999
 211.18416 212.36333 213.61450 215.39867 217.32784 219.37202 221.46819 223.55236
 225.61353 227.69870 229.79687 231.90404 234.03421 236.20738 238.46455 240.83572
 243.45789 245.71006 247.71323 249.47940 250.89757 252.02174 252.84491 253.16208
 253.20025 252.97542 252.33659 251.28576 249.89293 248.05510 245.96527 243.79944
 241.59161 239.39678 237.21795 235.05812 232.91929 230.78746 228.81463 226.97280
 225.25697 223.73014 222.36131 221.13448 220.01765 218.97882 218.08399 217.22616
 216.46933 215.65050 214.74967 214.11484 213.56601 213.00418 211.67729 210.96370
 210.97130 212.27739 214.01216 215.97514 218.85928 223.30440 229.20129 234.27097
 238.10030 241.90640 245.82317 249.90034 254.01865 257.74271 260.48865 262.32599
 264.95602 267.78217 270.17557 271.84933 273.71301 275.74664 277.34363 278.85004
 280.53488 282.12152 283.56436 284.91809 286.10040 287.14886 288.10519 288.97650
 289.76584 290.47418 291.09933 291.93286
 366.78100 356.33588 345.76876 334.63564 323.03952 311.23441 299.10529 286.90917
 274.62205 262.51993 250.52981 239.83169 229.95457 221.05946 213.24234 206.24522
 200.08010 195.01898 191.60186 189.64474 188.68262 188.74751 189.58339 190.89227
 192.61815 194.71403 196.97791 199.33779 201.78367 204.26456 206.35344 208.19632
 209.82320 210.96908 211.19896 211.42784 211.36572 211.07161 210.70549 210.33637
 209.95425 209.66513 209.47401 209.33889 209.26777 209.59966 209.98654 210.37642
 211.17030 212.34918 213.60006 215.38394 217.31282 219.35671 221.45259 223.53647
 225.59735 227.68223 229.78011 231.88699 234.01687 236.18976 238.44664 240.81752
 243.43940 245.69128 247.69416 249.46004 250.87792 252.00181 252.82469 253.14157
 253.17945 252.95433 252.31521 251.26409 249.87097 248.03286 245.94274 243.77662
 241.56850 239.37338 237.19426 235.03414 232.89502 230.76291 228.78979 226.94767
 225.23155 223.70443 222.33531 221.10819 219.99107 218.95196 218.05684 217.19872
 216.44160 215.62248 214.72136 214.08624 213.53712 213.01590 211.78473 211.07968
 211.04378 212.29495 214.05772 216.02196 218.83740 223.24840 229.13889 234.18523
 237.99860 241.79788 245.72066 249.82111 253.98360 257.69135 260.41888 262.28159
 264.87482 267.67993 270.07587 271.75021 273.62036 275.66440 277.28088 278.79346
 280.47266 282.05847 283.49686 284.85110 286.03397 287.08105 288.03860 288.90976
 289.69980 290.40814 291.03302 291.86896
 366.78100 356.33528 345.76756 334.63384 323.03712 311.23140 299.10168 286.90497
 274.61725 262.51453 250.52381 239.82509 229.94737 221.05165 213.23393 206.23621
 200.07049 195.00877 191.59105 189.63334 188.67062 188.73490 189.57018 190.87846
 192.60374 194.69902 196.96230 199.32158 201.76686 204.24714 206.33542 208.17771
 209.80399 210.94927 211.17855 211.40683 211.34411 211.04939 210.68267 210.31295
 209.93023 209.64051 209.44879 209.31307 209.24136 209.57264 209.95892 210.34820
 211.14148 212.31976 213.57004 215.35332 217.28160 219.32488 221.42016 223.50344
 225.56373 227.64801 229.74529 231.85157 233.98085 236.15313 238.40941 240.77969
 243.40097 245.65225 247.65453 249.41981 250.83710 251.96038 252.78266 253.09894
 253.13622 252.91050 252.27078 251.21906 249.82534 247.98662 245.89590 243.72918
 241.52047 239.32475 237.14503 234.98431 232.84459 230.71187 228.73815 226.89543
 225.17871 223.65099 222.28127 221.05355 219.93583 218.89612 218.00040 217.14168
 216.38396 215.56424 214.66252 214.02680 213.47708 213.00955 211.90504 211.20380
 211.11543 212.32442 214.10303 216.04669 218.80212 223.19060 229.07458 234.09210
 237.88940 241.68399 245.61732 249.74530 253.95377 257.64178 260.35129 262.24265
 264.79428 267.57233 269.97217 271.65402 273.53165 275.58847 277.22620 278.74588
 280.41580 281.99832 283.43207 284.78738 285.96887 287.01715 287.97443 288.84671
 289.63467 290.34650 290.96997 291.80426
 366.78100 356.33502 345.76704 334.63306 323.03608 311.23011 299.10013 286.90315
 274.61517 262.51219 250.52121 239.82223 229.94425 221.04827 213.23030 206.23232
 200.06634 195.00436 191.58638 189.62840 188.66542 188.72944 189.56446 190.87249
 192.59751 194.69253 196.95555 199.31457 201.75959 204.23961 206.32763 208.16965
 209.79568 210.94070 211.16972 211.39774 211.33476 211.03978 210.67280 210.30282
 209.91984 209.62987 209.43789 209.30191 209.22993 209.56095 209.94697 210.33599
 211.12901 212.30703 213.55706 215.34008 217.26810 219.31112 221.40614 223.48916
 225.54918 227.63320 229.73022 231.83625 233.96527 236.13729 238.39331 240.76333
 243.38435 245.63537 247.63739 249.40241 250.81944 251.94246 252.76448 253.08050
 253.11752 252.89154 252.25156 251.19958 249.80560 247.96663 245.87565 243.70867
 241.49969 239.30371 237.12373 234.96275 232.82277 230.68979 228.71582 226.87284
 225.15586 223.62788 222.25790 221.02992 219.91194 218.87196 217.97598 217.11701
 216.35903 215.53905 214.63707 214.00109 213.45111 213.01787 211.99437 211.35463
 211.23410 212.27519 214.11736 216.12921 218.81416 223.13785 228.99873 233.98904
 237.77370 241.56648 245.51434 249.67314 253.92946 257.59506 260.28586 262.20929
 264.71567 267.46005 269.86298 271.55563 273.44443 275.51379 277.17313 278.70065
 280.36197 281.93909 283.37091 284.72687 285.90817 286.95593 287.91461 288.78540
 289.57605 290.28741 290.91199 291.74869
 366.78100 356.33474 345.76649 334.63223 323.03498 311.22872 299.09847 286.90121
 274.61295 262.50970 250.51844 239.81919 229.94093 221.04468 213.22642 206.22816
 200.06191 194.99965 191.58140 189.62314 188.65989 188.72363 189.55837 190.86612
 192.59086 194.68561 196.94835 199.30710 201.75184 204.23159 206.31933 208.16107
 209.78682 210.93156 211.16031 211.38805 211.32480 211.02954 210.66228 210.29203
 209.90877 209.61852 209.42626 209.29001 209.21775 209.54849 209.93424 210.32298
 211.11573 212.29347 213.54322 215.32596 217.25370 219.29645 221.39119 223.47394
 225.53368 227.61743 229.71417 231.81991 233.94866 236.12040 238.37615 240.74589
 243.36664 245.61738 247.61912 249.38387 250.80061 251.92336 252.74510 253.06085
 253.09759 252.87133 252.23108 251.17882 249.78457 247.94531 245.85406 243.68680
 241.47755 239.28129 237.10103 234.93978 232.79952 230.66627 228.69201 226.84876
 225.13150 223.60324 222.23299 221.00473 219.88648 218.84622 217.94997 217.09071
 216.33245 215.51220 214.60994 213.97369 213.42343 213.02596 212.08693 211.48459
 211.33421 212.30679 214.22462 216.13959 218.71611 223.08112 228.92824 233.88158
 237.65341 241.44574 245.41174 249.60588 253.91005 257.55328 260.22763 262.18689
 264.64160 267.34598 269.74966 271.45557 273.35580 275.43890 277.11823 278.65326
 280.30908 281.88028 283.31366 284.66779 285.84991 286.89789 287.85715 288.72797
 289.51852 290.22751 290.85550 291.69424
 366.78100 356.33419 345.76538 334.63057 323.03275 311.22594 299.09513 286.89732
 274.60851 262.50470 250.51289 239.81308 229.93426 221.03745 213.21864 206.21983
 200.05302 194.99021 191.57140 189.61259 188.64877 188.71196 189.54615 190.85334
 192.57753 194.67172 196.93391 199.29210 201.73628 204.21547 206.30266 208.14385
 209.76904 210.91323 211.14142 211.36861 211.30479 211.00898 210.64117 210.27036
 209.88655 209.59574 209.40293 209.26612 209.19330 209.52349 209.90868 210.29687
 211.08906 212.26625 213.51544 215.29763 217.22481 219.26700 221.36119 223.44338
 225.50257 227.58576 229.68195 231.78714 233.91532 236.08651 238.34170 240.71089
 243.33108 245.58127 247.58246 249.34665 250.76283 251.88502 252.70621 253.02140
 253.05759 252.83078 252.18997 251.13716 249.74234 247.90253 245.81072 243.64291
 241.43310 239.23629 237.05548 234.89367 232.75285 230.61904 228.64423 226.80042
 225.08261 223.55380 222.18299 220.95418 219.83536 218.79455 217.89774 217.03793
 216.27912 215.45831 214.55550 213.91869 213.36787 213.02213 212.20526 211.56361
 211.45422 212.40472 214.21516 216.13715 218.71329 222.99074 228.85796 233.77727
 237.53416 241.33020 245.31882 249.54962 253.89981 257.52197 260.17984 262.17520
 264.57217 267.22925 269.63116 271.35132 273.26508 275.36313 277.06012 278.60446
 280.25522 281.82108 283.25708 284.61270 285.79465 286.84305 287.80035 288.67307
 289.46399 290.17416 290.80170 291.64197
 366.78100 356.33334 345.76369 334.62803 323.02937 311.22172 299.09006 286.89140
 274.60175 262.49709 250.50443 239.80378 229.92412 221.02646 213.20681 206.20715
 200.03949 194.97584 191.55618 189.59652 188.63187 188.69421 189.52755 190.83389
 192.55724 194.65058 196.91192 199.26927 201.71261 204.19095 206.27730 208.11764
 209.74198 210.88533 211.11267 211.33901 211.27436 210.97770 210.60904 210.23739
 209.85273 209.56107 209.36742 209.22976 209.15610 209.48545 209.86979 210.25713
 211.04848 212.22482 213.47316 215.25451 217.18085 219.22219 221.31554 223.39688
 225.45522 227.53757 229.63291 231.73725 233.86460 236.03494 238.28928 240.65762
 243.27697 245.52631 247.52665 249.29000 250.70534 251.82668 252.64703 252.96137
 252.99671 252.76906 252.12740 251.07374 249.67809 247.83743 245.74477 243.57612
 241.36546 239.16780 236.98615 234.82349 232.68183 230.54718 228.57152 226.72686
 225.00821 223.47855 222.10689 220.87724 219.75758 218.71592 217.81827 216.95761
 216.19795 215.37630 214.47264 213.83498 213.28333 213.00394 212.34387 211.64391
 211.53110 212.45453 214.21754 216.20479 218.76628 222.90742 228.77660 233.66785
 237.41389 241.21796 245.23216 249.50020 253.89235 257.49103 260.12811 262.15726
 264.49915 267.10736 269.50647 271.24426 273.17554 275.28842 277.00323 278.55765
 280.20322 281.76205 283.20285 284.55875 285.74078 286.78809 287.74783 288.62039
 289.41196 290.12207 290.74994 291.59189
 366.78100 356.33292 345.76284 334.62677 323.02769 311.21961 299.08753 286.88845
 274.59838 262.49330 250.50022 239.79914 229.91907 221.02099 213.20091 206.20083
 200.03275 194.96868 191.54860 189.58852 188.62344 188.68536 189.51829 190.82421
 192.54713 194.64005 196.90097 199.25790 201.70082 204.17874 206.26466 208.10459
 209.72851 210.87143 211.09835 211.32427 211.25920 210.96212 210.59304 210.22096
 209.83588 209.54381 209.34973 209.21165 209.13757 209.46649 209.85042 210.23734
 211.02826 212.20418 213.45211 215.23303 217.15895 219.19987 221.29279 223.37372
 225.43164 227.51356 229.60848 231.71240 233.83933 236.00925 238.26317 240.63109
 243.25001 245.49894 247.49886 249.26178 250.67670 251.79763 252.61755 252.93147
 252.96639 252.73831 252.09624 251.04216 249.64608 247.80500 245.71192 243.54285
 241.33177 239.13369 236.95161 234.78854 232.64646 230.51138 228.53530 226.69022
 224.97115 223.44107 222.06899 220.83891 219.71883 218.67676 217.77868 216.91760
 216.15752 215.33544 214.43137 213.79329 213.24121 213.00558 212.44888 211.77333
 211.57704 212.49397 214.26852 216.26651 218.77782 222.82973 228.70084 233.56287
 237.29594 241.10718 245.14769 249.45319 253.88342 257.45419 260.06699 262.12930
 264.42310 266.98428 269.38297 271.14322 273.09296 275.21936 276.95047 278.51202
 280.15463 281.70352 283.15204 284.50827 285.69089 286.73865 287.69794 288.57129
 289.36060 290.07388 290.69952 291.54526
 366.78100 356.33270 345.76240 334.62610 323.02680 311.21850 299.08619 286.88689
 274.59659 262.49129 250.49799 239.79669 229.91639 221.01809 213.19779 206.19749
 200.02918 194.96488 191.54458 189.58428 188.61898 188.68068 189.51338 190.81908
 192.54178 194.63448 196.89517 199.25187 201.69457 204.17227 206.25797 208.09767
 209.72137 210.86407 211.09077 211.31647 211.25116 210.95386 210.58456 210.21226
 209.82696 209.53466 209.34036 209.20206 209.12776 209.45646 209.84016 210.22685
 211.01755 212.19325 213.44095 215.22165 217.14735 219.18805 221.28075 223.36145
 225.41915 227.50084 229.59554 231.69924 233.82594 235.99564 238.24934 240.61704
 243.23574 245.48444 247.48414 249.24683 250.66153 251.78223 252.60193 252.91563
 252.95033 252.72203 252.07973 251.02543 249.62913 247.78782 245.69452 243.52522
 241.31392 239.11562 236.93332 234.77002 232.62772 230.49242 228.51612 226.67082
 224.95151 223.42121 222.04891 220.81861 219.69831 218.65601 217.75771 216.89641
 216.13611 215.31381 214.40950 213.77120 213.21890 213.01588 212.53624 211.92517
 211.61818 212.54082 214.33553 216.30286 218.75737 222.75542 228.63321 233.46318
 237.17859 240.99731 245.06531 249.40742 253.87119 257.41180 260.00006 262.09726
 264.34866 266.86456 269.26422 271.05035 273.01624 275.15494 276.89960 278.46741
 280.10773 281.64716 283.10300 284.45975 285.64279 286.69022 287.65048 288.52258
 289.31412 290.02704 290.65250 291.49966
 366.78100 356.33231 345.76162 334.62493 323.02524 311.21655 299.08385 286.88416
 274.59347 262.48778 250.49409 239.79240 229.91171 221.01302 213.19233 206.19164
 200.02295 194.95826 191.53756 189.57687 188.61118 188.67249 189.50480 190.81011
 192.53242 194.62473 196.88504 199.24135 201.68366 204.16097 206.24627 208.08558
 209.70889 210.85120 211.07751 211.30282 211.23713 210.93944 210.56975 210.19706
 209.81137 209.51868 209.32398 209.18529 209.11060 209.43891 209.82222 210.20853
 210.99884 212.17415 213.42146 215.20177 217.12708 219.16739 221.25969 223.34000
 225.39731 227.47862 229.57293 231.67624 233.80255 235.97186 238.22517 240.59248
 243.21079 245.45910 247.45840 249.22071 250.63502 251.75533 252.57464 252.88795
 252.92226 252.69357 252.05088 250.99619 249.59950 247.75781 245.66411 243.49442
 241.28273 239.08404 236.90135 234.73766 232.59497 230.45928 228.48259 226.63690
 224.91721 223.38652 222.01382 220.78313 219.66244 218.61975 217.72106 216.85937
 216.09868 215.27599 214.37130 213.73261 213.17992 213.01729 212.63306 212.06848
 211.67326 212.59227 214.39119 216.32893 218.73973 222.68719 228.56473 233.36084
 237.05832 240.88763 244.98660 249.36488 253.85609 257.36557 259.93051 262.06241
 264.27591 266.74838 269.14890 270.96173 272.94446 275.09229 276.84875 278.42062
 280.05957 281.58154 283.05911 284.41733 285.59903 286.64636 287.60645 288.48077
 289.27087 289.98291 290.61151 291.45508
 366.78100 356.33180 345.76060 334.62340 323.02320 311.21400 299.08080 286.88060
 274.58939 262.48319 250.48899 239.78679 229.90559 221.00639 213.18519 206.18399
 200.01479 194.94959 191.52839 189.56719 188.60099 188.66179 189.49359 190.79839
 192.52018 194.61198 196.87178 199.22758 201.66938 204.14618 206.23098 208.06978
 209.69258 210.83438 211.06018 211.28498 211.21878 210.92058 210.55038 210.17718
 209.79097 209.49777 209.30257 209.16337 209.08817 209.41597 209.79877 210.18457
 210.97437 212.14917 213.39597 215.17577 217.10057 219.14037 221.23217 223.31197
 225.36876 227.44956 229.54336 231.64616 233.77196 235.94076 238.19356 240.56036
 243.17816 245.42596 247.42476 249.18656 250.60036 251.72016 252.53896 252.85176
 252.88555 252.65635 252.01315 250.95795 249.56075 247.71855 245.62435 243.45415
 241.24195 239.04275 236.85955 234.69535 232.55215 230.41595 228.43875 226.59254
 224.87234 223.34114 221.96794 220.73674 219.61554 218.57234 217.67314 216.81094
 216.04974 215.22654 214.32134 213.68214 213.12894 213.01250 212.73738 212.20235
 211.74396 212.64352 214.43498 216.34970 218.72795 222.62543 228.49396 233.25467
 236.93781 240.78137 244.91435 249.32518 253.83676 257.31409 259.85715 262.02054
 264.20242 266.63586 269.03683 270.87915 272.87787 275.03369 276.79819 278.37180
 280.00919 281.51111 283.01880 284.37936 285.56012 286.60980 287.56821 288.44180
 289.23386 289.94489 290.57370 291.42188
 366.78100 356.33127 345.75954 334.62182 323.02109 311.21136 299.07763 286.87690
 274.58517 262.47845 250.48372 239.78099 229.89926 220.99953 213.17781 206.17608
 200.00635 194.94062 191.51889 189.55717 188.59044 188.65071 189.48198 190.78625
 192.50752 194.59880 196.85807 199.21334 201.65461 204.13088 206.21516 208.05343
 209.67570 210.81697 211.04224 211.26652 211.19979 210.90106 210.53033 210.15660
 209.76987 209.47615 209.28042 209.14069 209.06496 209.39223 209.77451 210.15978
 210.94905 212.12332 213.36959 215.14887 217.07314 219.11241 221.20368 223.28295
 225.33922 227.41950 229.51277 231.61504 233.74031 235.90858 238.16086 240.52713
 243.14440 245.39167 247.38994 249.15122 250.56449 251.68376 252.50203 252.81430
 252.84757 252.61785 251.97412 250.91839 249.52066 247.67793 245.58321 243.41248
 241.19975 239.00002 236.81629 234.65157 232.50784 230.37111 228.39338 226.54665
 224.82592 223.29420 221.92047 220.68874 219.56701 218.52328 217.62356 216.76083
 215.99910 215.17537 214.26964 213.62992 213.07619 213.00659 212.84216 212.33476
 211.82494 212.69128 214.46822 216.36909 218.72301 222.57118 228.42249 233.14523
 236.82013 240.68100 244.84891 249.28888 253.81204 257.25641 259.77621 261.96719
 264.12531 266.52710 268.93027 270.80301 272.81815 274.97876 276.74744 278.32196
 279.95767 281.45309 282.97781 284.33881 285.52188 286.57065 287.53137 288.40427
 289.19589 289.90781 290.53769 291.38419
 366.78100 356.33086 345.75871 334.62057 323.01942 311.20928 299.07513 286.87399
 274.58184 262.47470 250.47955 239.77641 229.89427 220.99412 213.17198 206.16983
 199.99969 194.93354 191.51140 189.54925 188.58211 188.64196 189.47282 190.77668
 192.49753 194.58839 196.84724 199.20210 201.64295 204.11881 206.20266 208.04052
 209.66237 210.80323 211.02809 211.25194 211.18480 210.88565 210.51451 210.14036
 209.75322 209.45907 209.26293 209.12278 209.04664 209.37350 209.75535 210.14021
 210.92906 212.10292 213.34877 215.12763 217.05148 219.09034 221.18119 223.26005
 225.31591 227.39576 229.48862 231.59047 233.71533 235.88318 238.13504 240.50089
 243.11775 245.36460 247.36246 249.12332 250.53617 251.65503 252.47288 252.78474
 252.81759 252.58745 251.94330 250.88716 249.48901 247.64587 245.55073 243.37958
 241.16644 238.96629 236.78215 234.61700 232.47286 230.33571 228.35757 226.51042
 224.78928 223.25714 221.88299 220.65085 219.52870 218.48456 217.58441 216.72127
 215.95912 215.13498 214.22883 213.58869 213.03455 213.00632 212.93959 212.47115
 211.91425 212.73579 214.49669 216.38675 218.71732 222.52121 228.35159 233.04068
 236.71030 240.59079 244.79108 249.25482 253.77914 257.18832 259.68283 261.89816
 264.04379 266.42245 268.83075 270.73642 272.76627 274.92889 276.69803 278.27069
 279.90793 281.40781 282.93796 284.29980 285.48303 286.53174 287.49176 288.36536
 289.15805 289.87091 290.49826 291.34860
 366.78100 356.33054 345.75807 334.61961 323.01815 311.20768 299.07322 286.87176
 274.57929 262.47183 250.47637 239.77290 229.89044 220.98998 213.16751 206.16505
 199.99458 194.92812 191.50566 189.54319 188.57573 188.63527 189.46580 190.76934
 192.48988 194.58041 196.83895 199.19349 201.63402 204.10956 206.19310 208.03063
 209.65217 210.79271 211.01724 211.24078 211.17332 210.87385 210.50239 210.12793
 209.74046 209.44600 209.24954 209.10907 209.03261 209.35914 209.74068 210.12522
 210.91375 212.08729 213.33283 215.11136 217.03490 219.07344 221.16397 223.24251
 225.29805 227.37758 229.47012 231.57166 233.69619 235.86373 238.11527 240.48080
 243.09734 245.34388 247.34141 249.10195 250.51449 251.63302 252.45056 252.76210
 252.79463 252.56417 251.91970 250.86324 249.46478 247.62131 245.52585 243.35439
 241.14092 238.94046 236.75600 234.59053 232.44607 230.30861 228.33014 226.48268
 224.76122 223.22875 221.85429 220.62183 219.49936 218.45490 217.55444 216.69097
 215.92851 215.10405 214.19758 213.55712 213.00266 213.01117 213.03131 212.60988
 212.00250 212.77690 214.52338 216.40356 218.70818 222.47667 228.28474 232.94278
 236.60944 240.51097 244.74231 249.22411 253.73839 257.11084 259.57956 261.81256
 263.95529 266.32016 268.73575 270.67441 272.72128 274.88412 276.64972 278.22134
 279.86072 281.36929 282.90173 284.26385 285.44714 286.49655 287.45651 288.33289
 289.12436 289.83606 290.46484 291.31540
 366.78100 356.33028 345.75757 334.61885 323.01714 311.20642 299.07171 286.86999
 274.57728 262.46956 250.47385 239.77013 229.88742 220.98670 213.16399 206.16127
 199.99056 194.92384 191.50113 189.53841 188.57070 188.62998 189.46027 190.76355
 192.48384 194.57412 196.83241 199.18669 201.62698 204.10226 206.18555 208.02283
 209.64412 210.78440 211.00869 211.23197 211.16426 210.86454 210.49283 210.11811
 209.73040 209.43568 209.23897 209.09825 209.02154 209.34782 209.72911 210.11339
 210.90168 212.07496 213.32025 215.09853 217.02182 219.06010 221.15039 223.22867
 225.28396 227.36324 229.45553 231.55681 233.68110 235.84838 238.09967 240.46495
 243.08124 245.32752 247.32481 249.08509 250.49738 251.61566 252.43295 252.74423
 252.77652 252.54580 251.90109 250.84437 249.44565 247.60194 245.50622 243.33451
 241.12079 238.92008 236.73536 234.56965 232.42493 230.28722 228.30850 226.46079
 224.73907 223.20636 221.83164 220.59893 219.47621 218.43150 217.53078 216.66707
 215.90435 215.07964 214.17292 213.53221 212.97749 213.02007 213.12065 212.74477
 212.09712 212.81079 214.53743 216.42177 218.71365 222.43735 228.21713 232.85240
 236.51991 240.44370 244.70441 249.19792 253.69138 257.02521 259.46603 261.70773
 263.85495 266.21567 268.64102 270.61612 272.68112 274.84302 276.60361 278.17261
 279.81647 281.33746 282.87045 284.23413 285.41718 286.46674 287.42758 288.30225
 289.09521 289.80768 290.43637 291.29059
 366.78100 356.33021 345.75741 334.61862 323.01682 311.20603 299.07123 286.86944
 274.57664 262.46885 250.47305 239.76926 229.88647 220.98567 213.16288 206.16008
 199.98929 194.92249 191.49970 189.53690 188.56911 188.62831 189.45852 190.76172
 192.48193 194.57214 196.83034 199.18455 201.62475 204.09996 206.18316 208.02037
 209.64157 210.78178 211.00598 211.22919 211.16140 210.86160 210.48981 210.11501
 209.72722 209.43242 209.23563 209.09483 209.01804 209.34424 209.72545 210.10966
 210.89786 212.07107 213.31627 215.09448 217.01768 219.05589 221.14609 223.22430
 225.27950 227.35871 229.45092 231.55212 233.67633 235.84353 238.09474 240.45994
 243.07615 245.32235 247.31956 249.07976 250.49197 251.61017 252.42738 252.73859
 252.77079 252.54000 251.89520 250.83841 249.43961 247.59582 245.50002 243.32823
 241.11443 238.91364 236.72885 234.56305 232.41826 230.28046 228.30167 226.45387
 224.73208 223.19928 221.82449 220.59169 219.46890 218.42411 217.52331 216.65952
 215.89672 215.07193 214.16513 213.52434 212.96954 213.03822 213.20045 212.88202
 212.19307 212.83965 214.55054 216.44569 218.71829 222.40346 228.15688 232.76678
 236.43651 240.38380 244.67369 249.17549 253.63626 256.92975 259.34277 261.58484
 263.74408 266.11014 268.54691 270.56100 272.64752 274.80701 276.55948 278.12607
 279.77573 281.30991 282.84482 284.20923 285.39249 286.44159 287.40378 288.27826
 289.07227 289.78571 290.41107 291.26562
 366.78100 356.33024 345.75748 334.61871 323.01695 311.20619 299.07143 286.86967
 274.57691 262.46914 250.47338 239.76962 229.88686 220.98610 213.16334 206.16057
 199.98981 194.92305 191.50029 189.53753 188.56976 188.62900 189.45924 190.76248
 192.48272 194.57296 196.83119 199.18543 201.62567 204.10091 206.18415 208.02139
 209.64262 210.78286 211.00710 211.23034 211.16258 210.86281 210.49105 210.11629
 209.72853 209.43377 209.23701 209.09624 209.01948 209.34572 209.72696 210.11120
 210.89944 212.07267 213.31791 215.09615 217.01939 219.05763 221.14787 223.22610
 225.28134 227.36058 229.45282 231.55406 233.67829 235.84553 238.09677 240.46201
 243.07825 245.32449 247.32172 249.08196 250.49420 251.61244 252.42968 252.74092
 252.77315 252.54239 251.89763 250.84087 249.44211 247.59834 245.50258 243.33082
 241.11706 238.91630 236.73154 234.56577 232.42101 230.28325 228.30449 226.45673
 224.73497 223.20220 221.82744 220.59468 219.47192 218.42716 217.52639 216.66263
 215.89987 215.07511 214.16835 213.52759 212.97282 213.06297 213.27592 213.00500
 212.30681 212.87567 214.55116 216.46397 218.73830 222.37210 228.08990 232.67941
 236.35858 240.33342 244.65259 249.15753 253.57671 256.82916 259.21332 261.44629
 263.62265 266.00177 268.45187 270.50632 272.61734 274.77332 276.51611 278.07928
 279.73856 281.28799 282.82593 284.19122 285.37384 286.42322 287.38522 288.26050
 289.05484 289.76761 290.39499 291.24777
 366.78100 356.33029 345.75758 334.61887 323.01716 311.20645 299.07174 286.87003
 274.57732 262.46961 250.47390 239.77019 229.88748 220.98677 213.16406 206.16135
 199.99064 194.92393 191.50122 189.53851 188.57080 188.63009 189.46038 190.76367
 192.48396 194.57425 196.83254 199.18683 201.62712 204.10241 206.18570 208.02299
 209.64428 210.78457 211.00886 211.23215 211.16444 210.86473 210.49302 210.11831
 209.73060 209.43589 209.23918 209.09847 209.02176 209.34805 209.72934 210.11363
 210.90192 212.07521 213.32050 215.09879 217.02208 219.06037 221.15066 223.22895
 225.28424 227.36353 229.45582 231.55711 233.68140 235.84869 238.09998 240.46527
 243.08156 245.32785 247.32514 249.08543 250.49772 251.61601 252.43330 252.74459
 252.77688 252.54617 251.90146 250.84475 249.44604 247.60233 245.50662 243.33491
 241.12120 238.92049 236.73578 234.57007 232.42536 230.28765 228.30894 226.46123
 224.73952 223.20681 221.83210 220.59939 219.47668 218.43197 217.53126 216.66755
 215.90484 215.08013 214.17342 213.53271 212.97800 213.08897 213.35117 213.12164
 212.41138 212.92117 214.56551 216.47874 218.74254 222.34038 228.03708 232.60814
 236.29317 240.29234 244.63866 249.14207 253.50653 256.71405 259.06638 261.28442
 263.48679 265.88956 268.35760 270.45697 272.59515 274.74734 276.47888 278.03708
 279.70657 281.27121 282.81067 284.17657 285.35974 286.41031 287.37143 288.24820
 289.04263 289.75409 290.38254 291.23465
 366.78100 356.33109 345.75918 334.62127 323.02036 311.21045 299.07654 286.87563
 274.58372 262.47681 250.48190 239.77899 229.89709 220.99718 213.17527 206.17336
 200.00345 194.93754 191.51563 189.55372 188.58681 188.64690 189.47799 190.78208
 192.50317 194.59426 196.85335 199.20844 201.64953 204.12562 206.20971 208.04780
 209.66989 210.81098 211.03608 211.26017 211.19326 210.89435 210.52344 210.14953
 209.76262 209.46871 209.27280 209.13289 209.05698 209.38407 209.76616 210.15125
 210.94034 212.11443 213.36052 215.13961 217.06370 219.10279 221.19388 223.27297
 225.32906 227.40916 229.50225 231.60434 233.72943 235.89752 238.14961 240.51570
 243.13279 245.37988 247.37797 249.13906 250.55215 251.67124 252.48933 252.80142
 252.83451 252.60460 251.96069 250.90478 249.50687 247.66396 245.56905 243.39815
 241.18524 238.98533 236.80142 234.63651 232.49260 230.35569 228.37778 226.53087
 224.80996 223.27805 221.90414 220.67223 219.55032 218.50641 217.60650 216.74359
 215.98168 215.15777 214.25186 213.61195 213.05804 213.15373 213.37982 213.24533
 212.57050 212.94092 214.54671 216.52165 218.77782 222.32195 227.97144 232.51988
 236.21916 240.24818 244.62437 249.12418 253.42221 256.58115 258.90466 261.10794
 263.34589 265.78223 268.27133 270.42044 272.58578 274.73218 276.45297 278.00302
 279.67862 281.26053 282.80072 284.16513 285.34970 286.39902 287.36194 288.23801
 289.03226 289.74445 290.37341 291.22437
 366.78100 356.33154 345.76007 334.62261 323.02215 311.21268 299.07922 286.87876
 274.58729 262.48083 250.48636 239.78390 229.90244 221.00297 213.18151 206.18005
 200.01058 194.94512 191.52366 189.56219 188.59573 188.65627 189.48780 190.79234
 192.51388 194.60541 196.86495 199.22048 201.66202 204.13856 206.22309 208.06163
 209.68417 210.82570 211.05124 211.27578 211.20931 210.91085 210.54039 210.16692
 209.78046 209.48699 209.29153 209.15207 209.07660 209.40414 209.78668 210.17221
 210.96175 212.13629 213.38282 215.16236 217.08690 219.12643 221.21797 223.29751
 225.35404 227.43458 229.52811 231.63065 233.75619 235.92472 238.17726 240.54380
 243.16133 245.40887 247.40741 249.16894 250.58248 251.70202 252.52055 252.83309
 252.86663 252.63716 251.99370 250.93823 249.54077 247.69831 245.60384 243.43338
 241.22092 239.02145 236.83799 234.67353 232.53006 230.39360 228.41614 226.56967
 224.84921 223.31774 221.94428 220.71282 219.59135 218.54789 217.64843 216.78596
 216.02450 215.20104 214.29557 213.65611 213.10265 213.20454 213.44530 213.32359
 212.61539 213.08389 214.60843 216.53177 218.82318 222.28217 227.89569 232.42937
 236.14471 240.20842 244.61491 249.10765 253.33240 256.44406 258.74228 260.92783
 263.20636 265.68005 268.19144 270.39224 272.58310 274.72232 276.43118 277.97192
 279.65521 281.25040 282.79306 284.15842 285.34235 286.39230 287.35532 288.23108
 289.02490 289.73602 290.36850 291.21719
 366.78100 356.33193 345.76087 334.62380 323.02373 311.21467 299.08160 286.88153
 274.59047 262.48440 250.49033 239.78827 229.90720 221.00813 213.18706 206.18600
 200.01693 194.95186 191.53080 189.56973 188.60366 188.66460 189.49653 190.80146
 192.52340 194.61533 196.87526 199.23120 201.67313 204.15006 206.23500 208.07393
 209.69686 210.83880 211.06473 211.28966 211.22359 210.92553 210.55546 210.18239
 209.79633 209.50326 209.30819 209.16913 209.09406 209.42199 209.80493 210.19086
 210.98079 212.15573 213.40266 215.18259 217.10753 219.14746 221.23939 223.31933
 225.37626 227.45719 229.55112 231.65406 233.77999 235.94892 238.20186 240.56879
 243.18672 245.43466 247.43359 249.19552 250.60946 251.72939 252.54832 252.86126
 252.89519 252.66612 252.02306 250.96799 249.57092 247.72886 245.63479 243.46472
 241.25265 239.05359 236.87052 234.70645 232.56339 230.42732 228.45025 226.60419
 224.88412 223.35305 221.97999 220.74892 219.62785 218.58479 217.68572 216.82365
 216.06259 215.23952 214.33445 213.69539 213.14232 213.25404 213.51799 213.39803
 212.64973 213.20027 214.67210 216.57001 218.88876 222.23906 227.81656 232.34254
 236.07890 240.17821 244.61214 249.09242 253.23769 256.30203 258.57550 260.74176
 263.06375 265.57922 268.11206 270.36365 272.57971 274.71008 276.40411 277.93631
 279.63028 281.24316 282.78781 284.15234 285.33798 286.38669 287.34976 288.22620
 289.02106 289.73203 290.36160 291.21255
 366.78100 356.33261 345.76222 334.62582 323.02643 311.21804 299.08565 286.88625
 274.59586 262.49047 250.49708 239.79569 229.91529 221.01690 213.19651 206.19612
 200.02772 194.96333 191.54294 189.58255 188.61716 188.67876 189.51137 190.81698
 192.53959 194.63219 196.89280 199.24941 201.69202 204.16963 206.25523 208.09484
 209.71845 210.86106 211.08766 211.31327 211.24788 210.95049 210.58110 210.20870
 209.82331 209.53092 209.33653 209.19813 209.12374 209.45235 209.83596 210.22257
 211.01317 212.18878 213.43639 215.21700 217.14260 219.18321 221.27582 223.35643
 225.41404 227.49564 229.59025 231.69386 233.82047 235.99007 238.24368 240.61129
 243.22990 245.47851 247.47811 249.24072 250.65533 251.77594 252.59554 252.90915
 252.94376 252.71537 252.07298 251.01858 249.62219 247.78080 245.68741 243.51801
 241.30662 239.10823 236.92584 234.76245 232.62005 230.48466 228.50827 226.66288
 224.94348 223.41309 222.04070 220.81031 219.68992 218.64752 217.74913 216.88774
 216.12735 215.30495 214.40056 213.76217 213.20978 213.31958 213.57904 213.43996
 212.74910 213.29402 214.71722 216.62515 218.93201 222.19206 227.74898 232.26955
 236.02577 240.15852 244.61478 249.07605 253.13528 256.15128 258.40219 260.54938
 262.91824 265.47830 268.03275 270.33270 272.57324 274.69443 276.37207 277.89761
 279.60522 281.23682 282.78281 284.14835 285.33234 286.38281 287.34628 288.22183
 289.01523 289.72839 290.35840 291.20770
 366.78100 356.33343 345.76386 334.62829 323.02971 311.22214 299.09057 286.89200
 274.60243 262.49786 250.50529 239.80472 229.92514 221.02757 213.20800 206.20843
 200.04086 194.97729 191.55772 189.59815 188.63357 188.69600 189.52943 190.83586
 192.55929 194.65272 196.91415 199.27157 201.71500 204.19343 206.27986 208.12029
 209.74472 210.88815 211.11558 211.34200 211.27743 210.98086 210.61229 210.24072
 209.85615 209.56458 209.37101 209.23343 209.15986 209.48929 209.87372 210.26115
 211.05258 212.22901 213.47744 215.25886 217.18529 219.22672 221.32015 223.40158
 225.46001 227.54244 229.63786 231.74229 233.86972 236.04015 238.29458 240.66301
 243.28244 245.53187 247.53229 249.29572 250.71115 251.83258 252.65301 252.96744
 253.00287 252.77530 252.13372 251.08015 249.68458 247.84401 245.75144 243.58287
 241.37230 239.17472 236.99315 234.83058 232.68901 230.55444 228.57887 226.73430
 225.01573 223.48615 222.11458 220.88501 219.76544 218.72387 217.82630 216.96573
 216.20616 215.38458 214.48101 213.84344 213.29187 213.39291 213.63162 213.46686
 212.86902 213.38246 214.77083 216.68582 218.94954 222.14589 227.69055 232.20512
 235.98006 240.14474 244.61882 249.05449 253.02283 255.98973 258.22208 260.35327
 262.77264 265.37793 267.95493 270.30182 272.56393 274.67490 276.33588 277.85602
 279.57822 281.23123 282.77780 284.14362 285.32758 286.37820 287.34113 288.21701
 289.01123 289.72488 290.35092 291.20206
 366.78100 356.33444 345.76588 334.63133 323.03377 311.22721 299.09665 286.89910
 274.61054 262.50698 250.51542 239.81587 229.93731 221.04075 213.22219 206.22364
 200.05708 194.99452 191.57596 189.61740 188.65385 188.71729 189.55173 190.85917
 192.58362 194.67806 196.94050 199.29894 201.74339 204.22283 206.31027 208.15171
 209.77715 210.92160 211.15004 211.37748 211.31392 211.01837 210.65081 210.28025
 209.89669 209.60614 209.41358 209.27702 209.20446 209.53491 209.92035 210.30879
 211.10123 212.27867 213.52812 215.31056 217.23800 219.28044 221.37489 223.45733
 225.51677 227.60021 229.69666 231.80210 233.93054 236.10198 238.35743 240.72687
 243.34731 245.59775 247.59919 249.36364 250.78008 251.90252 252.72396 253.03941
 253.07585 252.84929 252.20873 251.15618 249.76162 247.92206 245.83050 243.66295
 241.45339 239.25683 237.07627 234.91471 232.77416 230.64060 228.66604 226.82248
 225.10493 223.57637 222.20581 220.97725 219.85870 218.81814 217.92158 217.06202
 216.30346 215.48291 214.58035 213.94379 213.39323 213.47537 213.66942 213.50645
 212.97377 213.47087 214.84302 216.74486 218.95694 222.10980 227.63608 232.14253
 235.93819 240.13489 244.62106 249.02522 252.89960 255.81796 258.03650 260.15591
 262.62891 265.27975 267.87921 270.27106 272.55222 274.65466 276.29810 277.81403
 279.54889 281.22324 282.77151 284.13715 285.32095 286.37146 287.33359 288.21008
 289.00412 289.71530 290.34476 291.19321
 366.78100 356.33557 345.76814 334.63472 323.03829 311.23286 299.10343 286.90700
 274.61958 262.51715 250.52672 239.82829 229.95086 221.05544 213.23801 206.24058
 200.07515 195.01372 191.59630 189.63887 188.67644 188.74101 189.57658 190.88515
 192.61073 194.70630 196.96987 199.32944 201.77501 204.25559 206.34416 208.18673
 209.81330 210.95887 211.18845 211.41702 211.35459 211.06016 210.69373 210.32431
 209.94188 209.65245 209.46102 209.32559 209.25417 209.58574 209.97231 210.36188
 211.15545 212.33403 213.58460 215.36817 217.29674 219.34031 221.43589 223.51946
 225.58003 227.66460 229.76217 231.86875 233.99832 236.17089 238.42746 240.79803
 243.41960 245.67118 247.67375 249.43932 250.85689 251.98046 252.80304 253.11961
 253.15718 252.93175 252.29232 251.24090 249.84747 248.00904 245.91861 243.75218
 241.54376 239.34833 237.16890 235.00847 232.86904 230.73662 228.76319 226.92076
 225.20433 223.67690 222.30748 221.08005 219.96262 218.92319 218.02776 217.16934
 216.41191 215.59248 214.69105 214.05562 213.50620 213.56316 213.69772 213.55258
 213.06931 213.55966 214.92590 216.79866 218.96111 222.08536 227.58316 232.08212
 235.90170 240.12813 244.62059 248.98621 252.76584 255.63753 257.84714 259.96127
 262.48853 265.18469 267.80563 270.23923 272.53894 274.63361 276.26498 277.77710
 279.52097 281.21045 282.75952 284.12485 285.30869 286.35849 287.31937 288.19626
 288.99164 289.70236 290.32965 291.17776
 366.78100 356.33675 345.77049 334.63824 323.04299 311.23874 299.11048 286.91523
 274.62898 262.52772 250.53847 239.84122 229.96497 221.07071 213.25446 206.25821
 200.09395 195.03370 191.61745 189.66120 188.69994 188.76569 189.60244 190.91219
 192.63893 194.73568 197.00043 199.36117 201.80792 204.28967 206.37942 208.22316
 209.85091 210.99766 211.22840 211.45815 211.39690 211.10365 210.73839 210.37014
 209.98889 209.70063 209.51038 209.37613 209.30588 209.63862 210.02637 210.41712
 211.21186 212.39161 213.64336 215.42811 217.35785 219.40260 221.49935 223.58410
 225.64584 227.73159 229.83034 231.93808 234.06883 236.24258 238.50033 240.87207
 243.49482 245.74757 247.75131 249.51806 250.93681 252.06156 252.88530 253.20305
 253.24180 253.01754 252.37929 251.32904 249.93679 248.09953 246.01028 243.84503
 241.63777 239.44352 237.26527 235.10602 232.96776 230.83651 228.86426 227.02300
 225.30775 223.78150 222.41325 221.18699 220.07074 219.03249 218.13824 217.28098
 216.52473 215.70648 214.80622 214.17197 213.62372 213.65353 213.72400 213.59486
 213.16779 213.65080 215.01555 216.84821 218.96460 222.06656 227.52953 232.02542
 235.87016 240.12408 244.61551 248.93541 252.62123 255.44907 257.65527 259.77213
 262.35397 265.09296 267.73367 270.20404 272.51886 274.60724 276.22662 277.73935
 279.48962 281.19739 282.74750 284.11313 285.29752 286.34799 287.31110 288.18796
 288.98489 289.70050 290.32907 291.17856
 366.78100 356.33796 345.77292 334.64188 323.04784 311.24480 299.11776 286.92372
 274.63868 262.53864 250.55060 239.85456 229.97952 221.08648 213.27144 206.27640
 200.11336 195.05432 191.63928 189.68424 188.72421 188.79117 189.62913 190.94009
 192.66805 194.76601 197.03197 199.39393 201.84189 204.32485 206.41581 208.26077
 209.88973 211.03769 211.26965 211.50061 211.44057 211.14853 210.78449 210.41745
 210.03741 209.75037 209.56133 209.42829 209.35925 209.69321 210.08217 210.47413
 211.27009 212.45105 213.70401 215.48997 217.42093 219.46689 221.56485 223.65081
 225.71377 227.80073 229.90069 232.00966 234.14162 236.31658 238.57554 240.94850
 243.57246 245.82642 247.83138 249.59934 251.01930 252.14526 252.97022 253.28918
 253.32914 253.10610 252.46906 251.42002 250.02898 248.19294 246.10490 243.94086
 241.73482 239.54178 237.36474 235.20670 233.06966 230.93962 228.96858 227.12854
 225.41450 223.88946 222.52242 221.29738 220.18234 219.14530 218.25226 217.39622
 216.64118 215.82414 214.92511 214.29207 213.74503 213.74599 213.74823 213.63025
 213.27225 213.74593 215.11090 216.89392 218.96794 222.04842 227.47293 231.97462
 235.84552 240.12286 244.60371 248.86969 252.46359 255.25092 257.46054 259.59305
 262.22919 265.00751 267.66754 270.16849 272.49530 274.57834 276.18750 277.69949
 279.44806 281.18265 282.73172 284.09665 285.28064 286.33136 287.29294 288.17313
 288.96960 289.68710 290.31430 291.15860
 366.78100 356.33917 345.77535 334.64552 323.05269 311.25087 299.12504 286.93221
 274.64839 262.54956 250.56273 239.86790 229.99408 221.10225 213.28842 206.29460
 200.13277 195.07494 191.66112 189.70729 188.74846 188.81664 189.65581 190.96798
 192.69716 194.79633 197.06350 199.42668 201.87585 204.36002 206.45220 208.29837
 209.92854 211.07771 211.31089 211.54306 211.48423 211.19341 210.83058 210.46475
 210.08593 209.80010 209.61227 209.48045 209.41262 209.74779 210.13797 210.53114
 211.32831 212.51049 213.76466 215.55183 217.48401 219.53118 221.63035 223.71752
 225.78170 227.86987 229.97104 232.08122 234.21439 236.39056 238.65074 241.02491
 243.65008 245.90526 247.91143 249.68060 251.10178 252.22895 253.05512 253.37530
 253.41647 253.19464 252.55882 251.51099 250.12116 248.28633 246.19951 244.03668
 241.83185 239.64003 237.46420 235.30737 233.17155 231.04272 229.07289 227.23407
 225.52124 223.99741 222.63159 221.40776 220.29393 219.25811 218.36628 217.51145
 216.75763 215.94180 215.04397 214.41214 213.86632 213.83804 213.77127 213.65611
 213.38451 213.84401 215.20921 216.94328 218.97141 222.02783 227.41432 231.92613
 235.82431 240.12239 244.58394 248.78755 252.29239 255.04347 257.26425 259.42535
 262.11502 264.93030 267.60757 270.13412 272.47086 274.55014 276.15173 277.66199
 279.40955 281.15158 282.70114 284.06601 285.24872 286.29819 287.25983 288.13596
 288.92953 289.64127 290.26819 291.11066
 366.78100 356.34053 345.77805 334.64958 323.05811 311.25763 299.13316 286.94169
 274.65921 262.56174 250.57627 239.88279 230.01032 221.11985 213.30737 206.31490
 200.15443 195.09796 191.68548 189.73301 188.77554 188.84506 189.68559 190.99912
 192.72964 194.83017 197.09870 199.46322 201.91375 204.39928 206.49280 208.34033
 209.97186 211.12238 211.35691 211.59044 211.53296 211.24349 210.88202 210.51754
 210.14007 209.85560 209.66912 209.53865 209.47218 209.80871 210.20023 210.59476
 211.39329 212.57681 213.83234 215.62087 217.55439 219.60292 221.70345 223.79197
 225.85750 227.94703 230.04955 232.16108 234.29561 236.47313 238.73466 241.11019
 243.73671 245.99324 248.00077 249.77129 251.19382 252.32235 253.14987 253.47140
 253.51393 253.29346 252.65898 251.61251 250.22404 248.39056 246.30509 244.14362
 241.94014 239.74967 237.57520 235.41972 233.28525 231.15778 229.18930 227.35183
 225.64036 224.11788 222.75341 221.53094 220.41846 219.38399 218.49352 217.64004
 216.88757 216.07310 215.17662 214.54615 214.00168 213.93680 213.78352 213.68764
 213.49588 213.94107 215.31021 216.99757 218.97665 222.00548 227.35350 231.88422
 235.80983 240.12456 244.55725 248.69038 252.10916 254.82559 257.06363 259.26724
 262.01038 264.86093 267.55518 270.10260 272.44748 274.52582 276.12268 277.62930
 279.37216 281.10571 282.65472 284.01901 285.20169 286.25064 287.21222 288.08594
 288.88034 289.58905 290.21872 291.05765
 366.78100 356.34180 345.78059 334.65339 323.06318 311.26398 299.14077 286.95057
 274.66936 262.57316 250.58895 239.89675 230.02554 221.13634 213.32513 206.33393
 200.17472 195.11952 191.70831 189.75711 188.80090 188.87170 189.71350 191.02829
 192.76009 194.86188 197.13168 199.49747 201.94927 204.43606 206.53086 208.37965
 210.01245 211.16424 211.40004 211.63483 211.57863 211.29042 210.93022 210.56701
 210.19081 209.90761 209.72240 209.59320 209.52799 209.86579 210.25858 210.65438
 211.45417 212.63897 213.89576 215.68556 217.62035 219.67015 221.77194 223.86174
 225.92853 228.01933 230.12312 232.23592 234.37171 236.55051 238.81331 241.19010
 243.81790 246.07569 248.08449 249.85628 251.28008 252.40987 253.23867 253.56146
 253.60526 253.38605 252.75285 251.70764 250.32044 248.48823 246.40403 244.24382
 242.04162 239.85242 237.67921 235.52501 233.39180 231.26560 229.29839 227.46219
 225.75198 224.23078 222.86757 221.64637 220.53516 219.50196 218.61275 217.76055
 217.00934 216.19614 215.30093 214.67173 214.12852 214.03082 213.80000 213.70685
 213.62347 214.03717 215.40341 217.05045 218.97958 221.98564 227.29810 231.84718
 235.79880 240.12645 244.52094 248.57463 251.91116 254.59709 256.86160 259.12128
 261.91818 264.80182 267.51337 270.07498 272.42715 274.50516 276.09982 277.60019
 279.33365 281.04919 282.59726 283.96091 285.14478 286.19312 287.15430 288.02853
 288.82016 289.53021 290.16000 290.99728
 366.78100 356.34355 345.78409 334.65864 323.07018 311.27273 299.15128 286.96282
 274.68337 262.58892 250.60646 239.91601 230.04655 221.15910 213.34965 206.36019
 200.20274 195.14929 191.73983 189.79038 188.83592 188.90847 189.75202 191.06856
 192.80211 194.90565 197.17720 199.54475 201.99829 204.48684 206.58339 208.43393
 210.06848 211.22202 211.45957 211.69612 211.64166 211.35521 210.99676 210.63530
 210.26085 209.97939 209.79594 209.66849 209.60503 209.94458 210.33912 210.73667
 211.53822 212.72476 213.98331 215.77486 217.71140 219.76295 221.86649 223.95804
 226.02659 228.11913 230.22468 232.33923 234.47677 236.65732 238.92186 241.30041
 243.92996 246.18950 248.20005 249.97359 251.39914 252.53069 253.36123 253.68578
 253.73133 253.51387 252.88242 251.83896 250.45351 248.62306 246.54060 244.38215
 242.18170 239.99424 237.82279 235.67033 233.53888 231.41443 229.44897 227.61452
 225.90607 224.38661 223.02516 221.80570 220.69625 219.66480 218.77734 217.92689
 217.17743 216.36598 215.47253 214.84507 214.30362 214.14786 213.77986 213.75735
 213.74475 214.12567 215.48912 217.11301 218.98880 221.95740 227.23746 231.81081
 235.79083 240.12811 244.47641 248.44592 251.70639 254.36748 256.66360 258.98904
 261.83740 264.75055 267.47766 270.04865 272.40555 274.48441 276.07776 277.57230
 279.28970 280.98438 282.53049 283.89478 285.07715 286.12503 287.08640 287.96136
 288.75290 289.46375 290.09222 290.92554
 366.78100 356.34537 345.78774 334.66411 323.07747 311.28184 299.16221 286.97558
 274.69795 262.60532 250.62469 239.93605 230.06842 221.18279 213.37516 206.38753
 200.23190 195.18027 191.77263 189.82500 188.87237 188.94674 189.79211 191.11048
 192.84585 194.95121 197.22458 199.59395 202.04932 204.53969 206.63806 208.49043
 210.12679 211.28216 211.52153 211.75990 211.70727 211.42264 211.06600 210.70637
 210.33374 210.05411 209.87248 209.74685 209.68522 210.02658 210.42295 210.82232
 211.62569 212.81406 214.07443 215.86780 217.80616 219.85953 221.96490 224.05827
 226.12864 228.22301 230.33038 232.44674 234.58611 236.76848 239.03485 241.41522
 244.04659 246.30796 248.32032 250.09569 251.52306 252.65643 253.48880 253.81517
 253.86254 253.64690 253.01727 251.97564 250.59201 248.76338 246.68275 244.52612
 242.32748 240.14185 237.97222 235.82159 233.69196 231.56933 229.60570 227.77306
 226.06643 224.54880 223.18917 221.97154 220.86391 219.83428 218.94864 218.10001
 217.35238 216.54275 215.65112 215.02549 214.48586 214.26910 213.75700 213.77986
 213.92360 214.20615 215.56274 217.14999 218.97626 221.94530 227.18843 231.78435
 235.79135 240.13306 244.42668 248.30429 251.49115 254.12834 256.46017 258.86160
 261.76154 264.70447 267.44568 270.02390 272.38580 274.46945 276.06659 277.55093
 279.24493 280.91278 282.45670 283.82089 285.00317 286.05176 287.01114 287.88657
 288.67831 289.38867 290.01498 290.85190
 366.78100 356.34588 345.78875 334.66563 323.07950 311.28438 299.16526 286.97913
 274.70201 262.60988 250.62976 239.94163 230.07451 221.18939 213.38226 206.39514
 200.24001 195.18889 191.78177 189.83464 188.88252 188.95739 189.80327 191.12215
 192.85802 194.96390 197.23777 199.60765 202.06353 204.55440 206.65328 208.50615
 210.14303 211.29890 211.53878 211.77766 211.72553 211.44141 211.08528 210.72616
 210.35404 210.07491 209.89379 209.76866 209.70754 210.04942 210.44629 210.84617
 211.65004 212.83892 214.09980 215.89367 217.83255 219.88642 221.99230 224.08617
 226.15705 228.25193 230.35980 232.47668 234.61655 236.79943 239.06631 241.44718
 244.07906 246.34093 248.35381 250.12969 251.55756 252.69144 253.52431 253.85119
 253.89907 253.68394 253.05482 252.01369 250.63057 248.80244 246.72232 244.56620
 242.36807 240.18295 238.01382 235.86370 233.73458 231.61245 229.64933 227.81720
 226.11108 224.59396 223.23483 222.01771 220.91058 219.88146 218.99634 218.14821
 217.40109 216.59196 215.70084 215.07571 214.53659 214.32361 213.82043 213.74237
 214.02809 214.38953 215.63974 217.19641 218.99416 221.88942 227.13794 231.76347
 235.79181 240.13277 244.36368 248.14340 251.26100 253.88026 256.25577 258.74457
 261.69635 264.66843 267.42413 270.00809 272.37616 274.46625 276.07114 277.54315
 279.20294 280.83768 282.37766 283.74274 284.92307 285.97287 286.93170 287.80731
 288.59824 289.30872 289.93442 290.77023
 366.78100 356.34665 345.79030 334.66794 323.08259 311.28824 299.16989 286.98454
 274.70819 262.61683 250.63748 239.95013 230.08378 221.19943 213.39308 206.40672
 200.25237 195.20202 191.79567 189.84932 188.89797 188.97361 189.82026 191.13991
 192.87656 194.98321 197.25786 199.62850 202.08515 204.57680 206.67645 208.53010
 210.16775 211.32439 211.56504 211.80469 211.75334 211.46999 211.11464 210.75628
 210.38493 210.10658 209.92623 209.80188 209.74153 210.08417 210.48182 210.88247
 211.68712 212.87677 214.13842 215.93306 217.87271 219.92736 222.03401 224.12866
 226.20031 228.29595 230.40460 232.52225 234.66290 236.84655 239.11419 241.49584
 244.12849 246.39114 248.40479 250.18144 251.61008 252.74473 253.57838 253.90603
 253.95468 253.74033 253.11197 252.07162 250.68927 248.86192 246.78257 244.62722
 242.42986 240.24551 238.07716 235.92781 233.79946 231.67811 229.71575 227.88440
 226.17905 224.66270 223.30435 222.08800 220.98164 219.95329 219.06894 218.22159
 217.47524 216.66689 215.77653 215.15218 214.61383 214.39017 213.86174 213.74057
 214.11731 214.52391 215.68733 217.24895 219.02336 221.85266 227.09294 231.74797
 235.79727 240.13338 244.29608 247.97736 251.03508 253.64296 256.06668 258.64600
 261.64545 264.64188 267.41025 269.99561 272.36765 274.46542 276.07840 277.53738
 279.16162 280.76013 282.29605 283.65997 284.84286 285.89005 286.84949 287.72537
 288.51566 289.22681 289.85229 290.68668
 366.78100 356.34774 345.79248 334.67122 323.08695 311.29369 299.17643 286.99217
 274.71691 262.62665 250.64839 239.96213 230.09686 221.21360 213.40834 206.42308
 200.26982 195.22056 191.81530 189.87004 188.91977 188.99651 189.84425 191.16499
 192.90273 195.01047 197.28621 199.65794 202.11568 204.60842 206.70916 208.56390
 210.20264 211.36038 211.60212 211.84285 211.79259 211.51033 211.15607 210.79881
 210.42855 210.15129 209.97203 209.84876 209.78950 210.13324 210.53198 210.93372
 211.73946 212.93020 214.19293 215.98867 217.92941 219.98515 222.09289 224.18863
 226.26137 228.35811 230.46784 232.58658 234.72832 236.91306 239.18180 241.56454
 244.19828 246.46202 248.47675 250.25449 251.68423 252.81997 253.65471 253.98345
 254.03319 253.81993 253.19266 252.15340 250.77214 248.94588 246.86762 244.71336
 242.51710 240.33383 238.16657 236.01831 233.89105 231.77079 229.80953 227.97927
 226.27501 224.75974 223.40248 222.18722 221.08196 220.05470 219.17144 218.32518
 217.57992 216.77265 215.88339 215.26013 214.72287 214.47174 213.87843 213.76674
 214.21057 214.61903 215.72456 217.31236 219.03918 221.83633 227.05234 231.73724
 235.80809 240.13556 244.22752 247.81096 250.81560 253.41476 255.88638 258.55688
 261.59958 264.61563 267.39377 269.97693 272.35333 274.45944 276.08124 277.53058
 279.11920 280.68381 282.21506 283.57883 284.76007 285.80798 286.76794 287.64215
 288.43326 289.14517 289.76828 290.60492
 366.78100 356.34873 345.79446 334.67419 323.09092 311.29865 299.18238 286.99911
 274.72483 262.63556 250.65829 239.97302 230.10875 221.22648 213.42221 206.43794
 200.28567 195.23740 191.83313 189.88886 188.93959 189.01732 189.86604 191.18777
 192.92650 195.03523 197.31196 199.68469 202.14342 204.63715 206.73888 208.59461
 210.23434 211.39307 211.63580 211.87753 211.82825 211.54698 211.19371 210.83744
 210.46817 210.19190 210.01363 209.89136 209.83309 210.17782 210.57755 210.98028
 211.78701 212.97874 214.24246 216.03919 217.98092 220.03765 222.14638 224.24311
 226.31684 228.41457 230.52530 232.64503 234.78776 236.97349 239.24322 241.62695
 244.26168 246.52640 248.54213 250.32086 251.75159 252.88832 253.72405 254.05378
 254.10451 253.89224 253.26597 252.22770 250.84743 249.02216 246.94489 244.79161
 242.59634 240.41407 238.24780 236.10053 233.97426 231.85499 229.89472 228.06545
 226.36218 224.84791 223.49164 222.27737 221.17310 220.14682 219.26455 218.41928
 217.67501 216.86874 215.98047 215.35820 214.82193 214.54654 213.89589 213.80258
 214.30057 214.69989 215.75781 217.37134 219.05099 221.82997 227.01677 231.73146
 235.82291 240.13832 244.15617 247.64099 250.59593 253.18687 255.70639 258.46948
 261.55396 264.58780 267.37347 269.95499 272.33667 274.45441 276.08737 277.52988
 279.08157 280.61151 282.13571 283.49951 284.68130 285.73007 286.68781 287.56348
 288.35397 289.06348 289.69247 290.52267
 366.78100 356.34945 345.79589 334.67634 323.09378 311.30223 299.18667 287.00412
 274.73056 262.64201 250.66545 239.98090 230.11734 221.23579 213.43223 206.44868
 200.29712 195.24957 191.84601 189.90246 188.95390 189.03235 189.88179 191.20424
 192.94368 195.05313 197.33057 199.70402 202.16346 204.65791 206.76035 208.61680
 210.25724 211.41669 211.66013 211.90258 211.85402 211.57347 211.22091 210.86536
 210.49680 210.22125 210.04369 209.92214 209.86458 210.21003 210.61047 211.01392
 211.82136 213.01381 214.27825 216.07570 218.01814 220.07559 222.18503 224.28248
 226.35692 228.45537 230.56682 232.68726 234.83071 237.01715 239.28760 241.67204
 244.30749 246.57293 248.58938 250.36882 251.80027 252.93771 253.77416 254.10460
 254.15605 253.94449 253.31894 252.28138 250.90183 249.07727 247.00072 244.84816
 242.65361 240.47205 238.30650 236.15994 234.03439 231.91583 229.95628 228.12772
 226.42517 224.91161 223.55606 222.34250 221.23895 220.21339 219.33184 218.48728
 217.74373 216.93817 216.05062 215.42906 214.89351 214.60518 213.92397 213.84282
 214.38373 214.77675 215.78734 217.41389 219.06912 221.82990 226.98508 231.73030
 235.84024 240.13948 244.07928 247.46449 250.37296 252.95779 255.52736 258.38412
 261.50952 264.55930 267.35281 269.93250 272.32050 274.45126 276.09869 277.53720
 279.05087 280.54593 282.06271 283.42554 284.60715 285.65485 286.61411 287.49008
 288.28067 288.98868 289.61633 290.45056
 366.78100 356.34990 345.79681 334.67771 323.09562 311.30452 299.18943 287.00733
 274.73424 262.64614 250.67005 239.98595 230.12285 221.24176 213.43866 206.45557
 200.30447 195.25738 191.85428 189.91119 188.96309 189.04200 189.89190 191.21480
 192.95471 195.06461 197.34252 199.71642 202.17633 204.67123 206.77414 208.63104
 210.27194 211.43185 211.67575 211.91866 211.87056 211.59047 211.23837 210.88328
 210.51518 210.24009 210.06299 209.94189 209.88480 210.23070 210.63161 211.03551
 211.84342 213.03632 214.30123 216.09913 218.04204 220.09994 222.20984 224.30775
 226.38265 228.48156 230.59346 232.71437 234.85827 237.04518 239.31608 241.70099
 244.33689 246.60279 248.61970 250.39960 251.83151 252.96941 253.80632 254.13722
 254.18913 253.97803 253.35294 252.31584 250.93674 249.11265 247.03655 244.88446
 242.69036 240.50927 238.34417 236.19808 234.07298 231.95489 229.99579 228.16769
 226.46560 224.95250 223.59741 222.38431 221.28122 220.25612 219.37503 218.53093
 217.78784 216.98274 216.09564 215.47455 214.93945 214.64848 213.96101 213.88887
 214.46191 214.84952 215.81541 217.44035 219.09389 221.83206 226.95938 231.73460
 235.85765 240.13441 243.99333 247.27982 250.14799 252.73163 255.35403 258.30389
 261.46799 264.53101 267.33051 269.90878 272.30365 274.44818 276.11191 277.54898
 279.02884 280.49084 281.99667 283.35919 284.54214 285.58957 286.54932 287.42303
 288.21405 288.92377 289.55045 290.38239
 366.78100 356.35018 345.79735 334.67853 323.09670 311.30588 299.19105 287.00923
 274.73641 262.64858 250.67276 239.98893 230.12611 221.24528 213.44246 206.45964
 200.30881 195.26199 191.85916 189.91634 188.96851 189.04769 189.89786 191.22104
 192.96122 195.07139 197.34957 199.72374 202.18392 204.67909 206.78227 208.63945
 210.28062 211.44080 211.68497 211.92815 211.88032 211.60050 211.24868 210.89385
 210.52603 210.25120 210.07438 209.95355 209.89673 210.24291 210.64408 211.04826
 211.85643 213.04961 214.31478 216.11296 218.05614 220.11431 222.22449 224.32266
 226.39784 228.49701 230.60919 232.73037 234.87454 237.06172 239.33289 241.71807
 244.35424 246.62042 248.63759 250.41777 251.84995 252.98812 253.82530 254.15647
 254.20865 253.99782 253.37300 252.33618 250.95735 249.13353 247.05770 244.90588
 242.71205 240.53123 238.36641 236.22058 234.09576 231.97793 230.01911 228.19128
 226.48946 224.97664 223.62181 222.40899 221.30616 220.28134 219.40051 218.55669
 217.81387 217.00904 216.12222 215.50139 214.96657 214.68002 214.00307 213.94241
 214.53769 214.91685 215.84885 217.46278 219.11142 221.83261 226.93735 231.74036
 235.87082 240.12065 243.89804 247.09207 249.92871 252.51729 255.19214 258.23001
 261.42822 264.50015 267.30362 269.87952 272.28171 274.44202 276.12253 277.56332
 279.01611 280.44687 281.94208 283.30511 284.48697 285.53543 286.49405 287.36899
 288.15906 288.87088 289.49637 290.32635
 366.78100 356.35027 345.79754 334.67881 323.09707 311.30634 299.19161 287.00988
 274.73715 262.64942 250.67368 239.98995 230.12722 221.24649 213.44376 206.46103
 200.31030 195.26356 191.86083 189.91810 188.97037 189.04964 189.89991 191.22317
 192.96344 195.07371 197.35198 199.72625 202.18652 204.68179 206.78505 208.64232
 210.28359 211.44386 211.68813 211.93140 211.88366 211.60393 211.25220 210.89747
 210.52974 210.25501 210.07828 209.95754 209.90081 210.24708 210.64835 211.05262
 211.86089 213.05415 214.31942 216.11769 218.06096 220.11923 222.22950 224.32776
 226.40303 228.50230 230.61457 232.73584 234.88011 237.06738 239.33864 241.72391
 244.36018 246.62645 248.64372 250.42399 251.85625 252.99452 253.83179 254.16306
 254.21533 254.00460 253.37987 252.34313 250.96440 249.14067 247.06494 244.91321
 242.71948 240.53874 238.37401 236.22828 234.10355 231.98582 230.02709 228.19936
 226.49762 224.98489 223.63016 222.41743 221.31470 220.28997 219.40923 218.56550
 217.82277 217.01804 216.13131 215.51058 214.97585 214.70041 214.04965 213.99991
 214.61400 214.98097 215.88510 217.48372 219.11476 221.83362 226.91850 231.74779
 235.88072 240.09915 243.79744 246.90662 249.71721 252.31328 255.03830 258.15680
 261.38516 264.46249 267.26712 269.84390 272.25641 274.43381 276.13220 277.57977
 279.01422 280.41965 281.90207 283.26337 284.44614 285.49390 286.45502 287.32889
 288.11996 288.83023 289.45575 290.28580
 366.78100 356.35022 345.79745 334.67867 323.09690 311.30612 299.19134 287.00957
 274.73679 262.64902 250.67324 239.98946 230.12669 221.24591 213.44314 206.46036
 200.30958 195.26281 191.86003 189.91726 188.96948 189.04871 189.89893 191.22215
 192.96238 195.07260 197.35083 199.72505 202.18527 204.68050 206.78372 208.64095
 210.28217 211.44239 211.68662 211.92984 211.88207 211.60229 211.25051 210.89574
 210.52796 210.25319 210.07641 209.95563 209.89886 210.24508 210.64631 211.05053
 211.85875 213.05198 214.31720 216.11543 218.05865 220.11687 222.22710 224.32532
 226.40055 228.49977 230.61199 232.73322 234.87744 237.06467 239.33589 241.72112
 244.35734 246.62356 248.64079 250.42101 251.85324 252.99146 253.82868 254.15991
 254.21213 254.00136 253.37658 252.33980 250.96103 249.13725 247.06148 244.90970
 242.71592 240.53515 238.37037 236.22460 234.09982 231.98204 230.02327 228.19549
 226.49372 224.98094 223.62616 222.41339 221.31061 220.28584 219.40506 218.56128
 217.81851 217.01373 216.12696 215.50618 214.97141 214.71202 214.09921 214.06155
 214.68861 215.05057 215.92104 217.50063 219.11636 221.83745 226.91096 231.75981
 235.88750 240.06917 243.68779 246.71599 249.50482 252.11127 254.88710 258.08075
 261.33591 264.41644 267.22241 269.80542 272.23172 274.42731 276.14670 277.60422
 279.02267 280.40765 281.87784 283.23917 284.42175 285.47177 286.43222 287.30618
 288.09711 288.80637 289.43307 290.26178
 366.78100 356.35017 345.79734 334.67851 323.09669 311.30586 299.19103 287.00920
 274.73637 262.64854 250.67271 239.98889 230.12606 221.24523 213.44240 206.45957
 200.30874 195.26191 191.85909 189.91626 188.96843 189.04760 189.89777 191.22094
 192.96111 195.07129 197.34946 199.72363 202.18380 204.67897 206.78214 208.63931
 210.28049 211.44066 211.68483 211.92800 211.88017 211.60034 211.24851 210.89368
 210.52586 210.25103 210.07420 209.95337 209.89654 210.24271 210.64388 211.04806
 211.85623 213.04940 214.31457 216.11274 218.05591 220.11408 222.22426 224.32243
 226.39760 228.49677 230.60894 232.73011 234.87428 237.06146 239.33263 241.71780
 244.35397 246.62014 248.63731 250.41748 251.84966 252.98783 253.82500 254.15617
 254.20834 253.99751 253.37268 252.33586 250.95703 249.13320 247.05737 244.90554
 242.71171 240.53088 238.36606 236.22023 234.09540 231.97757 230.01874 228.19091
 226.48908 224.97626 223.62143 222.40860 221.30577 220.28094 219.40011 218.55628
 217.81346 217.00863 216.12180 215.50097 214.96614 214.72105 214.14201 214.13495
 214.75555 215.12186 215.96561 217.51718 219.12404 221.84216 226.91377 231.77536
 235.88907 240.02715 243.56398 246.51468 249.28522 251.90820 254.73920 258.00360
 261.28281 264.36423 267.17157 269.76462 272.20877 274.42493 276.16684 277.63828
 279.04868 280.41779 281.87088 283.23062 284.41440 285.46515 286.42520 287.30005
 288.09082 288.80008 289.42621 290.25510
 366.78100 356.34998 345.79695 334.67793 323.09591 311.30489 299.18986 287.00784
 274.73482 262.64679 250.67077 239.98675 230.12373 221.24270 213.43968 206.45666
 200.30563 195.25861 191.85559 189.91257 188.96454 189.04352 189.89350 191.21647
 192.95645 195.06643 197.34441 199.71838 202.17836 204.67334 206.77631 208.63329
 210.27427 211.43425 211.67822 211.92120 211.87318 211.59316 211.24113 210.88611
 210.51809 210.24306 210.06604 209.94502 209.88800 210.23397 210.63495 211.03893
 211.84690 213.03988 214.30486 216.10284 218.04581 220.10379 222.21377 224.31174
 226.38672 228.48570 230.59768 232.71865 234.86263 237.04961 239.32058 241.70556
 244.34154 246.60752 248.62449 250.40447 251.83645 252.97442 253.81140 254.14238
 254.19436 253.98333 253.35831 252.32129 250.94226 249.11824 247.04222 244.89020
 242.69617 240.51515 238.35013 236.20410 234.07908 231.96106 230.00204 228.17401
 226.47199 224.95897 223.60394 222.39092 221.28790 220.26288 219.38185 218.53783
 217.79481 216.98978 216.10276 215.48174 214.94672 214.72107 214.18796 214.20712
 214.82486 215.20181 216.01100 217.53297 219.13899 221.85521 226.92287 231.78944
 235.88290 239.96967 243.42157 246.29982 249.05908 251.70862 254.59978 257.92947
 261.22958 264.30945 267.11703 269.72308 272.18533 274.42267 276.18765 277.67523
 279.08377 280.44534 281.87891 283.23846 284.42337 285.47324 286.43427 287.30759
 288.09958 288.80807 289.43549 290.26443
 366.78100 356.34986 345.79672 334.67759 323.09545 311.30431 299.18917 287.00703
 274.73390 262.64576 250.66962 239.98548 230.12235 221.24121 213.43807 206.45493
 200.30379 195.25666 191.85352 189.91038 188.96224 189.04110 189.89097 191.21383
 192.95369 195.06355 197.34141 199.71528 202.17514 204.67000 206.77286 208.62973
 210.27059 211.43045 211.67431 211.91717 211.86904 211.58890 211.23676 210.88162
 210.51348 210.23835 210.06121 209.94007 209.88293 210.22880 210.62966 211.03352
 211.84138 213.03424 214.29911 216.09697 218.03983 220.09769 222.20755 224.30542
 226.38028 228.47914 230.59100 232.71186 234.85573 237.04259 239.31345 241.69831
 244.33418 246.60004 248.61690 250.39676 251.82862 252.96649 253.80335 254.13421
 254.18607 253.97493 253.34980 252.31266 250.93352 249.10938 247.03324 244.88111
 242.68697 240.50583 238.34069 236.19456 234.06942 231.95128 229.99214 228.16400
 226.46187 224.94873 223.59359 222.38045 221.27731 220.25218 219.37104 218.52690
 217.78376 216.97862 216.09149 215.47035 214.93521 214.72299 214.22157 214.29381
 214.88527 215.28230 216.08109 217.55843 219.15501 221.85902 226.92549 231.79933
 235.86957 239.89885 243.26643 246.08032 248.83623 251.52029 254.47365 257.86078
 261.17676 264.25098 267.05765 269.67624 272.15961 274.41779 276.20413 277.70993
 279.12143 280.48035 281.90137 283.26035 284.44540 285.49820 286.45886 287.33319
 288.12347 288.83548 289.45822 290.28638
 366.78100 356.34965 345.79630 334.67695 323.09460 311.30325 299.18790 287.00555
 274.73220 262.64385 250.66750 239.98315 230.11979 221.23844 213.43509 206.45174
 200.30039 195.25304 191.84969 189.90634 188.95799 189.03664 189.88629 191.20894
 192.94859 195.05824 197.33589 199.70954 202.16919 204.66384 206.76649 208.62314
 210.26379 211.42344 211.66708 211.90973 211.86138 211.58103 211.22868 210.87333
 210.50498 210.22963 210.05228 209.93093 209.87358 210.21923 210.61988 211.02353
 211.83118 213.02383 214.28848 216.08613 218.02878 220.08643 222.19608 224.29373
 226.36838 228.46702 230.57867 232.69932 234.84297 237.02962 239.30027 241.68492
 244.32057 246.58622 248.60287 250.38252 251.81417 252.95182 253.78847 254.11912
 254.17077 253.95942 253.33407 252.29672 250.91737 249.09302 247.01667 244.86431
 242.66996 240.48861 238.32326 236.17691 234.05156 231.93321 229.97386 228.14551
 226.44316 224.92981 223.57446 222.36111 221.25776 220.23241 219.35106 218.50671
 217.76336 216.95801 216.07066 215.44931 214.91396 214.71861 214.25711 214.36618
 214.97124 215.37239 216.13280 217.57603 219.18185 221.89102 226.93416 231.80823
 235.85210 239.81544 243.09525 245.84959 248.60759 251.33287 254.35248 257.79169
 261.11856 264.18414 266.99063 269.62512 272.13351 274.41357 276.22379 277.74677
 279.16409 280.52191 281.93625 283.29553 284.48248 285.53430 286.49734 287.37164
 288.16205 288.87222 289.49844 290.32422
 366.78100 356.34891 345.79483 334.67474 323.09166 311.29957 299.18349 287.00040
 274.72632 262.63723 250.66015 239.97506 230.11097 221.22889 213.42480 206.44072
 200.28863 195.24055 191.83646 189.89238 188.94329 189.02121 189.87012 191.19203
 192.93095 195.03986 197.31678 199.68969 202.14861 204.64252 206.74444 208.60035
 210.24027 211.39918 211.64209 211.88401 211.83492 211.55384 211.20075 210.84467
 210.47558 210.19950 210.02141 209.89933 209.84124 210.18615 210.58607 210.98898
 211.79590 212.98781 214.25173 216.04864 217.99056 220.04747 222.15639 224.25330
 226.32721 228.42513 230.53604 232.65596 234.79887 236.98479 239.25470 241.63862
 244.27353 246.53845 248.55436 250.33327 251.76419 252.90110 253.73702 254.06693
 254.11785 253.90576 253.27968 252.24159 250.86151 249.03642 246.95933 244.80625
 242.61116 240.42908 238.26299 236.11591 233.98982 231.87074 229.91065 228.08157
 226.37848 224.86439 223.50831 222.29422 221.19014 220.16405 219.28197 218.43688
 217.69280 216.88671 215.99863 215.37654 214.84045 214.68700 214.32445 214.40535
 215.03415 215.50450 216.26273 217.64058 219.19821 221.87784 226.92819 231.80566
 235.81795 239.70474 242.89676 245.60222 248.37274 251.14999 254.24025 257.72644
 261.06046 264.11716 266.92468 269.57944 272.11304 274.41751 276.25211 277.79459
 279.21762 280.57123 281.98251 283.34146 284.52945 285.58145 286.54492 287.41916
 288.21063 288.92148 289.54492 290.37207
 366.78100 356.34818 345.79336 334.67254 323.08872 311.29590 299.17908 286.99526
 274.72044 262.63062 250.65280 239.96697 230.10215 221.21933 213.41451 206.42969
 200.27687 195.22805 191.82323 189.87841 188.92859 189.00577 189.85395 191.17513
 192.91331 195.02149 197.29767 199.66985 202.12803 204.62121 206.72239 208.57757
 210.21674 211.37492 211.61710 211.85828 211.80846 211.52664 211.17282 210.81600
 210.44618 210.16936 209.99054 209.86772 209.80890 210.15308 210.55226 210.95444
 211.76062 212.95180 214.21498 216.01116 217.95234 220.00851 222.11669 224.21287
 226.28605 228.38323 230.49341 232.61259 234.75477 236.93995 239.20913 241.59231
 244.22649 246.49067 248.50585 250.28403 251.71421 252.85039 253.68557 254.01475
 254.06493 253.85211 253.22528 252.18646 250.80564 248.97982 246.90200 244.74818
 242.55236 240.36954 238.20272 236.05490 233.92808 231.80826 229.84744 228.01762
 226.31380 224.79898 223.44216 222.22734 221.12252 220.09570 219.21288 218.36705
 217.62223 216.81541 215.92659 215.30377 214.76695 214.65320 214.38446 214.46352
 215.07036 215.61818 216.38618 217.68217 219.21283 221.90985 226.92537 231.79404
 235.77710 239.58594 242.69833 245.36682 248.15770 250.99147 254.14796 257.67151
 261.00830 264.05405 266.86169 269.53714 272.09341 274.42044 276.27878 277.84024
 279.26999 280.62204 282.03552 283.39487 284.58316 285.63696 286.60001 287.47415
 288.26462 288.97723 289.60059 290.42715
 366.78100 356.34788 345.79275 334.67163 323.08750 311.29438 299.17726 286.99313
 274.71801 262.62788 250.64976 239.96363 230.09851 221.21539 213.41026 206.42514
 200.27201 195.22289 191.81777 189.87264 188.92252 188.99939 189.84727 191.16815
 192.90602 195.01390 197.28977 199.66165 202.11952 204.61240 206.71328 208.56815
 210.20703 211.36490 211.60678 211.84766 211.79753 211.51541 211.16128 210.80416
 210.43404 210.15691 209.97779 209.85466 209.79554 210.13941 210.53829 210.94017
 211.74604 212.93692 214.19979 215.99567 217.93655 219.99242 222.10030 224.19617
 226.26905 228.36592 230.47580 232.59468 234.73655 236.92143 239.19030 241.57318
 244.20706 246.47093 248.48581 250.26368 251.69356 252.82944 253.66431 253.99319
 254.04306 253.82994 253.20281 252.16369 250.78257 248.95644 246.87832 244.72419
 242.52807 240.34495 238.17782 236.02970 233.90257 231.78245 229.82133 227.99120
 226.28708 224.77195 223.41483 222.19970 221.09458 220.06746 219.18433 218.33821
 217.59308 216.78596 215.89684 215.27371 214.73659 214.63921 214.40913 214.55743
 215.11040 215.71072 216.49806 217.71481 219.22566 221.95688 226.92725 231.78203
 235.73404 239.46698 242.50829 245.14760 247.96167 250.85124 254.06839 257.61984
 260.95389 263.98587 266.79205 269.48752 272.06808 274.41556 276.29611 277.87750
 279.31854 280.67465 282.08978 283.45007 284.63937 285.69443 286.65723 287.53223
 288.32294 289.03235 289.65707 290.47849
 366.78100 356.34785 345.79270 334.67154 323.08739 311.29424 299.17709 286.99294
 274.71779 262.62763 250.64948 239.96333 230.09818 221.21503 213.40988 206.42472
 200.27157 195.22242 191.81727 189.87212 188.92197 188.99881 189.84666 191.16751
 192.90536 195.01321 197.28905 199.66090 202.11875 204.61160 206.71245 208.56730
 210.20614 211.36399 211.60584 211.84669 211.79654 211.51439 211.16023 210.80308
 210.43293 210.15578 209.97663 209.85348 209.79432 210.13817 210.53702 210.93887
 211.74472 212.93556 214.19841 215.99426 217.93511 219.99096 222.09881 224.19465
 226.26750 228.36435 230.47420 232.59305 234.73490 236.91974 239.18859 241.57144
 244.20529 246.46914 248.48398 250.26183 251.69168 252.82753 253.66238 253.99123
 254.04107 253.82792 253.20077 252.16162 250.78047 248.95432 246.87616 244.72201
 242.52586 240.34271 238.17556 236.02741 233.90025 231.78010 229.81895 227.98880
 226.28465 224.76949 223.41234 222.19719 221.09204 220.06489 219.18174 218.33558
 217.59043 216.78328 215.89413 215.27098 214.73383 214.63795 214.41148 214.66370
 215.16515 215.79630 216.61299 217.75677 219.22473 221.99635 226.93150 231.77118
 235.68948 239.34557 242.31990 244.93558 247.77356 250.71948 253.99385 257.56702
 260.89386 263.91010 266.71649 269.43372 272.03815 274.40579 276.30682 277.91025
 279.36584 280.72778 282.14709 283.50677 284.69617 285.75168 286.71536 287.59000
 288.38095 289.08832 289.71521 290.53705
 366.78100 356.34783 345.79265 334.67148 323.08731 311.29414 299.17696 286.99279
 274.71762 262.62744 250.64927 239.96310 230.09792 221.21475 213.40958 206.42441
 200.27123 195.22206 191.81689 189.87171 188.92154 188.99837 189.84620 191.16702
 192.90485 195.01268 197.28850 199.66033 202.11816 204.61098 206.71181 208.56664
 210.20547 211.36329 211.60512 211.84595 211.79577 211.51360 211.15943 210.80225
 210.43208 210.15491 209.97574 209.85256 209.79339 210.13722 210.53604 210.93787
 211.74370 212.93453 214.19735 215.99318 217.93401 219.98983 222.09766 224.19349
 226.26631 228.36314 230.47297 232.59180 234.73362 236.91845 239.18728 241.57010
 244.20393 246.46776 248.48259 250.26041 251.69024 252.82607 253.66089 253.98972
 254.03955 253.82637 253.19920 252.16003 250.77886 248.95268 246.87451 244.72034
 242.52416 240.34099 238.17382 236.02564 233.89847 231.77830 229.81713 227.98695
 226.28278 224.76761 223.41043 222.19526 221.09009 220.06292 219.17974 218.33357
 217.58840 216.78122 215.89205 215.26888 214.73170 214.63698 214.41316 214.75935
 215.23868 215.89232 216.72868 217.80734 219.21133 222.02042 226.93976 231.76204
 235.64159 239.21825 242.12776 244.72530 247.59021 250.59444 253.92400 257.51273
 260.82965 263.83118 266.64026 269.38113 272.00772 274.39490 276.31506 277.93994
 279.41150 280.78064 282.20261 283.56311 284.75357 285.80969 286.77417 287.64639
 288.43878 289.14795 289.76871 290.59369
 366.78100 356.34772 345.79245 334.67117 323.08690 311.29362 299.17635 286.99207
 274.71679 262.62652 250.64824 239.96197 230.09669 221.21341 213.40814 206.42286
 200.26959 195.22031 191.81504 189.86976 188.91948 188.99621 189.84393 191.16466
 192.90238 195.01011 197.28583 199.65755 202.11528 204.60800 206.70873 208.56345
 210.20217 211.35990 211.60162 211.84235 211.79207 211.50980 211.15552 210.79824
 210.42797 210.15069 209.97142 209.84814 209.78886 210.13259 210.53131 210.93304
 211.73876 212.92949 214.19221 215.98793 217.92866 219.98438 222.09211 224.18783
 226.26056 228.35728 230.46700 232.58573 234.72745 236.91218 239.18090 241.56362
 244.19735 246.46107 248.47580 250.25352 251.68325 252.81897 253.65369 253.98242
 254.03214 253.81887 253.19159 252.15232 250.77104 248.94476 246.86649 244.71221
 242.51594 240.33266 238.16538 236.01711 233.88983 231.76956 229.80828 227.97801
 226.27373 224.75845 223.40118 222.18590 221.08063 220.05335 219.17008 218.32380
 217.57852 216.77125 215.88197 215.25870 214.72142 214.63173 214.41980 214.83731
 215.33080 216.00374 216.83873 217.85829 219.19844 222.03276 226.95303 231.75314
 235.58817 239.08322 241.93140 244.51796 247.41312 250.47687 253.85895 257.45859
 260.76352 263.75177 266.56552 269.33008 271.97934 274.38153 276.32025 277.96423
 279.44940 280.82529 282.25574 283.61624 284.80722 285.86414 286.82745 287.70148
 288.49182 289.20013 289.82254 290.64572
 366.78100 356.34767 345.79233 334.67100 323.08667 311.29333 299.17600 286.99166
 274.71633 262.62600 250.64766 239.96133 230.09600 221.21266 213.40733 206.42200
 200.26866 195.21933 191.81399 189.86866 188.91833 188.99499 189.84266 191.16333
 192.90099 195.00866 197.28433 199.65599 202.11366 204.60632 206.70699 208.56166
 210.20032 211.35799 211.59966 211.84032 211.78999 211.50766 211.15332 210.79599
 210.42565 210.14832 209.96899 209.84565 209.78632 210.12999 210.52865 210.93032
 211.73599 212.92665 214.18932 215.98498 217.92565 219.98132 222.08898 224.18465
 226.25732 228.35398 230.46365 232.58232 234.72398 236.90865 239.17732 241.55998
 244.19365 246.45731 248.47198 250.24965 251.67931 252.81498 253.64965 253.97831
 254.02798 253.81465 253.18731 252.14798 250.76664 248.94031 246.86198 244.70764
 242.51131 240.32798 238.16064 236.01231 233.88498 231.76464 229.80331 227.97297
 226.26864 224.75331 223.39597 222.18064 221.07531 220.04797 219.16464 218.31831
 217.57297 216.76564 215.87630 215.25297 214.71564 214.62849 214.42259 214.90750
 215.43655 216.12054 216.94334 217.90865 219.19637 222.04184 226.97044 231.74336
 235.52780 238.94124 241.73286 244.31639 247.24551 250.36885 253.79831 257.40399
 260.69455 263.67139 266.49243 269.27979 271.95001 274.36383 276.31863 277.98080
 279.47864 280.86298 282.30115 283.66171 284.85294 285.90973 286.87253 287.74759
 288.53473 289.24399 289.86505 290.68771
 366.78100 356.34775 345.79250 334.67125 323.08699 311.29374 299.17649 286.99224
 274.71699 262.62674 250.64848 239.96223 230.09698 221.21373 213.40848 206.42323
 200.26998 195.22072 191.81547 189.87022 188.91997 188.99672 189.84447 191.16521
 192.90296 195.01071 197.28646 199.65821 202.11596 204.60871 206.70945 208.56420
 210.20295 211.36070 211.60245 211.84320 211.79294 211.51069 211.15644 210.79919
 210.42894 210.15169 209.97244 209.84918 209.78993 210.13368 210.53243 210.93418
 211.73993 212.93067 214.19342 215.98917 217.92992 219.98567 222.09342 224.18917
 226.26191 228.35866 230.46841 232.58716 234.72891 236.91366 239.18240 241.56515
 244.19890 246.46265 248.47740 250.25515 251.68490 252.82064 253.65539 253.98414
 254.03389 253.82064 253.19339 252.15413 250.77288 248.94663 246.86838 244.71413
 242.51788 240.33463 238.16737 236.01912 233.89187 231.77162 229.81037 227.98012
 226.27586 224.76061 223.40336 222.18811 221.08286 220.05561 219.17236 218.32610
 217.58085 216.77360 215.88435 215.26110 214.72385 214.63187 214.41455 214.97575
 215.55157 216.23712 217.04631 217.96040 219.20796 222.05128 226.98776 231.72910
 235.46056 238.79376 241.53575 244.12360 247.08987 250.27080 253.74191 257.34787
 260.62122 263.58856 266.41870 269.22867 271.91708 274.33981 276.30817 277.98721
 279.49585 280.89111 282.33499 283.69669 284.88751 285.94409 286.90735 287.78012
 288.56845 289.27667 289.89560 290.72018
 366.78100 356.34796 345.79292 334.67187 323.08783 311.29479 299.17775 286.99370
 274.71866 262.62862 250.65058 239.96453 230.09949 221.21645 213.41141 206.42636
 200.27332 195.22428 191.81924 189.87419 188.92415 189.00111 189.84907 191.17002
 192.90798 195.01594 197.29190 199.66385 202.12181 204.61477 206.71573 208.57068
 210.20964 211.36760 211.60956 211.85051 211.80047 211.51843 211.16439 210.80734
 210.43730 210.16026 209.98122 209.85817 209.79913 210.14309 210.54205 210.94400
 211.74996 212.94092 214.20388 215.99983 217.94079 219.99675 222.10471 224.20066
 226.27362 228.37058 230.48054 232.59949 234.74145 236.92641 239.19537 241.57832
 244.21228 246.47624 248.49120 250.26915 251.69911 252.83507 253.67003 253.99898
 254.04894 253.83590 253.20886 252.16981 250.78877 248.96273 246.88469 244.73064
 242.53460 240.35156 238.18452 236.03647 233.90943 231.78939 229.82835 227.99830
 226.29426 224.77922 223.42218 222.20713 221.10209 220.07505 219.19201 218.34596
 217.60092 216.79388 215.90484 215.28179 214.74475 214.64156 214.39777 215.04442
 215.67395 216.35303 217.15213 218.01617 219.22588 222.06169 227.00081 231.70882
 235.38573 238.64188 241.34074 243.94096 246.94748 250.18318 253.68895 257.28986
 260.54517 263.50436 266.34689 269.17767 271.88159 274.30963 276.29028 277.98624
 279.50803 280.91486 282.35480 283.71625 284.90616 285.96228 286.92426 287.79642
 288.58459 289.29166 289.91171 290.72830
 366.78100 356.34821 345.79343 334.67264 323.08885 311.29607 299.17928 286.99549
 274.72071 262.63092 250.65314 239.96735 230.10256 221.21978 213.41499 206.43020
 200.27742 195.22863 191.82384 189.87906 188.92927 189.00648 189.85470 191.17591
 192.91413 195.02234 197.29855 199.67077 202.12898 204.62219 206.72341 208.57862
 210.21783 211.37605 211.61826 211.85947 211.80969 211.52790 211.17411 210.81733
 210.44754 210.17076 209.99197 209.86918 209.81040 210.15461 210.55382 210.95604
 211.76225 212.95346 214.21668 216.01289 217.95410 220.01032 222.11853 224.21475
 226.28796 228.38517 230.49539 232.61460 234.75681 236.94203 239.21124 241.59445
 244.22867 246.49288 248.50809 250.28631 251.71652 252.85274 253.68795 254.01716
 254.06738 253.85459 253.22780 252.18902 250.80823 248.98244 246.90466 244.75087
 242.55508 240.37230 238.20551 236.05772 233.93094 231.81115 229.85037 228.02058
 226.31679 224.80201 223.44522 222.23043 221.12565 220.09886 219.21607 218.37029
 217.62550 216.81871 215.92993 215.30714 214.77036 214.65303 214.37584 215.11162
 215.80089 216.47307 217.25876 218.07178 219.25067 222.07178 227.00658 231.67981
 235.30107 238.48222 241.14732 243.76927 246.82042 250.10783 253.64073 257.23105
 260.46658 263.41949 266.27441 269.12573 271.84140 274.27307 276.26376 277.97708
 279.51364 280.93335 282.36606 283.72653 284.91656 285.97253 286.93378 287.80603
 288.59430 289.29971 289.92123 290.73785
 366.78100 356.34848 345.79396 334.67344 323.08992 311.29740 299.18088 286.99736
 274.72284 262.63332 250.65580 239.97028 230.10576 221.22324 213.41872 206.43420
 200.28168 195.23316 191.82864 189.88412 188.93460 189.01208 189.86056 191.18204
 192.92052 195.02900 197.30548 199.67796 202.13644 204.62992 206.73140 208.58688
 210.22636 211.38484 211.62732 211.86880 211.81928 211.53776 211.18424 210.82772
 210.45820 210.18168 210.00316 209.88064 209.82212 210.16660 210.56608 210.96856
 211.77504 212.96652 214.23000 216.02648 217.96796 220.02444 222.13292 224.22940
 226.30288 228.40036 230.51084 232.63032 234.77280 236.95828 239.22776 241.61124
 244.24572 246.51020 248.52568 250.30416 251.73464 252.87112 253.70660 254.03608
 254.08656 253.87404 253.24752 252.20900 250.82848 249.00296 246.92544 244.77192
 242.57640 240.39388 238.22736 236.07984 233.95332 231.83380 229.87328 228.04376
 226.34024 224.82572 223.46920 222.25468 221.15016 220.12364 219.24112 218.39560
 217.65108 216.84456 215.95604 215.33352 214.79700 214.66400 214.34978 215.17345
 215.93112 216.59435 217.37862 218.12959 219.26872 222.07700 227.00554 231.64357
 235.20811 238.31819 240.95847 243.61147 246.71106 250.04665 253.59808 257.17136
 260.38528 263.33322 266.20294 269.07233 271.79706 274.22607 276.22476 277.95285
 279.50540 280.93839 282.37881 283.73953 284.92938 285.98541 286.94812 287.82275
 288.61606 289.32855 289.95444 290.77161
 366.78100 356.34875 345.79449 334.67424 323.09098 311.29873 299.18248 286.99922
 274.72497 262.63571 250.65846 239.97321 230.10895 221.22670 213.42245 206.43819
 200.28594 195.23768 191.83343 189.88918 188.93992 189.01767 189.86641 191.18816
 192.92691 195.03565 197.31240 199.68514 202.14389 204.63764 206.73938 208.59513
 210.23487 211.39362 211.63637 211.87811 211.82886 211.54761 211.19435 210.83810
 210.46884 210.19259 210.01434 209.89208 209.83383 210.17857 210.57832 210.98107
 211.78781 212.97956 214.24330 216.04005 217.98180 220.03854 222.14729 224.24403
 226.31778 228.41553 230.52627 232.64602 234.78877 236.97451 239.24426 241.62800
 244.26275 246.52750 248.54324 250.32199 251.75273 252.88948 253.72523 254.05497
 254.10572 253.89346 253.26721 252.22896 250.84870 249.02345 246.94619 244.79294
 242.59769 240.41543 238.24918 236.10192 233.97567 231.85642 229.89616 228.06691
 226.36366 224.84940 223.49315 222.27889 221.17464 220.14839 219.26613 218.42088
 217.67662 216.87037 215.98212 215.35986 214.82361 214.67465 214.32272 215.22365
 216.07408 216.72850 217.48862 218.18451 219.29768 222.08269 226.99779 231.59723
 235.10411 238.14651 240.77094 243.46454 246.61806 249.99876 253.56099 257.11148
 260.30209 263.24823 266.13416 269.02017 271.74966 274.17453 276.17902 277.92007
 279.48605 280.93381 282.38452 283.74567 284.93442 285.99017 286.95300 287.82654
 288.62131 289.33264 289.95551 290.77737
 366.78100 356.34916 345.79531 334.67547 323.09262 311.30078 299.18493 287.00209
 274.72824 262.63940 250.66255 239.97771 230.11386 221.23202 213.42817 206.44433
 200.29248 195.24464 191.84079 189.89695 188.94810 189.02626 189.87541 191.19757
 192.93672 195.04588 197.32303 199.69619 202.15534 204.64950 206.75166 208.60781
 210.24797 211.40712 211.65028 211.89243 211.84359 211.56274 211.20990 210.85405
 210.48521 210.20936 210.03152 209.90967 209.85183 210.19698 210.59714 211.00029
 211.80745 212.99960 214.26376 216.06091 218.00307 220.06022 222.16938 224.26653
 226.34069 228.43884 230.55000 232.67016 234.81331 236.99947 239.26962 241.65378
 244.28893 246.55409 248.57024 250.34940 251.78055 252.91771 253.75386 254.08402
 254.13517 253.92333 253.29748 252.25964 250.87979 249.05495 246.97810 244.82526
 242.63041 240.44857 238.28272 236.13588 234.01003 231.89119 229.93134 228.10250
 226.39966 224.88581 223.52997 222.31612 221.21228 220.18643 219.30459 218.45974
 217.71590 216.91005 216.02221 215.40036 214.86452 214.69319 214.28838 215.27307
 216.21817 216.87210 217.62280 218.24103 219.30307 222.07442 226.98181 231.54073
 234.98969 237.96991 240.58850 243.33150 246.54228 249.96423 253.52919 257.05139
 260.21823 263.16357 266.06683 268.96750 271.69913 274.11792 276.12589 277.87717
 279.45828 280.92157 282.37958 283.73975 284.92795 285.98178 286.94318 287.81619
 288.60968 289.31927 289.94247 290.75842
 366.78100 356.34968 345.79637 334.67705 323.09473 311.30341 299.18810 287.00578
 274.73246 262.64414 250.66783 239.98351 230.12019 221.23887 213.43556 206.45224
 200.30092 195.25360 191.85029 189.90697 188.95865 189.03733 189.88702 191.20970
 192.94938 195.05906 197.33675 199.71043 202.17011 204.66479 206.76748 208.62416
 210.26484 211.42452 211.66821 211.91089 211.86257 211.58225 211.22994 210.87462
 210.50630 210.23098 210.05367 209.93235 209.87503 210.22071 210.62140 211.02508
 211.83276 213.02544 214.29013 216.08781 218.03049 220.08817 222.19786 224.29554
 226.37022 228.46890 230.58059 232.70127 234.84495 237.03163 239.30232 241.68700
 244.32268 246.58836 248.60505 250.38473 251.81641 252.95409 253.79078 254.12146
 254.17314 253.96182 253.33651 252.29919 250.91987 249.09555 247.01924 244.86692
 242.67260 240.49128 238.32597 236.17965 234.05433 231.93601 229.97670 228.14838
 226.44606 224.93274 223.57743 222.36411 221.26079 220.23547 219.35416 218.50984
 217.76652 216.96120 216.07389 215.45257 214.91725 214.71892 214.25035 215.31245
 216.39066 217.01947 217.71620 218.29974 219.34117 222.07823 226.96384 231.47639
 234.86635 237.78760 240.40662 243.20676 246.47855 249.93703 253.49763 256.98563
 260.12695 263.07394 265.99655 268.91013 271.64090 274.05066 276.06152 277.82333
 279.42096 280.90295 282.36530 283.72546 284.91254 285.96426 286.92450 287.79611
 288.58658 289.29608 289.91895 290.72894
 366.78100 356.34993 345.79687 334.67780 323.09574 311.30467 299.18961 287.00754
 274.73448 262.64641 250.67034 239.98628 230.12321 221.24215 213.43908 206.45602
 200.30495 195.25789 191.85482 189.91175 188.96369 189.04262 189.89256 191.21549
 192.95543 195.06536 197.34330 199.71723 202.17716 204.67210 206.77503 208.63197
 210.27290 211.43284 211.67677 211.91971 211.87164 211.59157 211.23951 210.88444
 210.51638 210.24131 210.06425 209.94318 209.88612 210.23205 210.63298 211.03692
 211.84485 213.03779 214.30272 216.10066 218.04359 220.10153 222.21146 224.30939
 226.38433 228.48326 230.59520 232.71613 234.86007 237.04700 239.31794 241.70287
 244.33880 246.60474 248.62167 250.40161 251.83354 252.97148 253.80841 254.13935
 254.19128 253.98021 253.35515 252.31808 250.93902 249.11495 247.03889 244.88682
 242.69276 240.51169 238.34662 236.20056 234.07549 231.95743 229.99836 228.17030
 226.46823 224.95517 223.60010 222.38703 221.28397 220.25890 219.37784 218.53377
 217.79071 216.98564 216.09857 215.47751 214.94244 214.73114 214.23192 215.31383
 216.56000 217.22844 217.87326 218.36061 219.33032 222.05750 226.93109 231.39366
 234.72252 237.58800 240.21637 243.08461 246.42270 249.91592 253.46654 256.91663
 260.03369 262.98538 265.92850 268.85327 271.58139 273.98129 275.99426 277.76581
 279.38074 280.87796 282.34326 283.70200 284.88855 285.93854 286.89615 287.76740
 288.55688 289.26422 289.88635 290.70023
 366.78100 356.34999 345.79699 334.67798 323.09597 311.30497 299.18996 287.00795
 274.73495 262.64694 250.67093 239.98693 230.12392 221.24291 213.43990 206.45690
 200.30589 195.25888 191.85588 189.91287 188.96486 189.04386 189.89385 191.21684
 192.95684 195.06683 197.34482 199.71882 202.17881 204.67380 206.77680 208.63379
 210.27478 211.43478 211.67877 211.92176 211.87375 211.59375 211.24174 210.88673
 210.51873 210.24372 210.06671 209.94571 209.88870 210.23469 210.63569 211.03968
 211.84767 213.04067 214.30566 216.10365 218.04665 220.10464 222.21463 224.31263
 226.38762 228.48661 230.59860 232.71960 234.86359 237.05058 239.32158 241.70657
 244.34256 246.60856 248.62555 250.40554 251.83754 252.97553 253.81252 254.14352
 254.19551 253.98450 253.35950 252.32249 250.94348 249.11948 247.04347 244.89146
 242.69745 240.51645 238.35144 236.20543 234.08043 231.96242 230.00341 228.17541
 226.47340 224.96039 223.60539 222.39238 221.28937 220.26437 219.38336 218.53935
 217.79635 216.99134 216.10433 215.48333 214.94832 214.73184 214.22040 215.31174
 216.69730 217.43741 218.03984 218.42360 219.31509 222.03529 226.89612 231.30582
 234.57434 237.38826 240.03355 242.97693 246.38440 249.90799 253.44240 256.85263
 259.94763 262.90555 265.86728 268.79944 271.52206 273.91235 275.92722 277.70660
 279.33521 280.84689 282.31409 283.67154 284.85526 285.90353 286.86093 287.73007
 288.51743 289.22220 289.84454 290.65570
 366.78100 356.35013 345.79726 334.67839 323.09652 311.30565 299.19078 287.00891
 274.73604 262.64817 250.67230 239.98843 230.12556 221.24468 213.44181 206.45894
 200.30807 195.26120 191.85833 189.91546 188.96759 189.04672 189.89685 191.21998
 192.96011 195.07024 197.34837 199.72250 202.18263 204.67776 206.78089 208.63802
 210.27915 211.43928 211.68341 211.92654 211.87867 211.59880 211.24692 210.89205
 210.52418 210.24931 210.07244 209.95157 209.89470 210.24083 210.64196 211.04609
 211.85422 213.04735 214.31248 216.11061 218.05374 220.11187 222.22200 224.32013
 226.39526 228.49439 230.60652 232.72765 234.87178 237.05891 239.33004 241.71516
 244.35129 246.61742 248.63455 250.41468 251.84681 252.98494 253.82207 254.15320
 254.20533 253.99446 253.36959 252.33272 250.95385 249.12998 247.05411 244.90224
 242.70837 240.52750 238.36263 236.21676 234.09189 231.97402 230.01515 228.18728
 226.48540 224.97253 223.61766 222.40479 221.30192 220.27705 219.39618 218.55231
 217.80944 217.00457 216.11770 215.49683 214.96196 214.73354 214.19385 215.32629
 216.82805 217.62389 218.19992 218.48560 219.31454 222.02357 226.86232 231.21548
 234.42430 237.19202 239.86041 242.88336 246.36040 249.90892 253.42137 256.78906
 259.86255 262.82739 265.80649 268.74402 271.45816 273.83768 275.85110 277.63629
 279.27887 280.80576 282.27643 283.63269 284.81406 285.86057 286.81625 287.68301
 288.46790 289.17331 289.79233 290.59781
 366.78100 356.35026 345.79753 334.67879 323.09706 311.30632 299.19159 287.00985
 274.73712 262.64938 250.67365 239.98991 230.12718 221.24644 213.44371 206.46097
 200.31024 195.26350 191.86077 189.91803 188.97030 189.04956 189.89983 191.22309
 192.96336 195.07362 197.35189 199.72615 202.18642 204.68168 206.78495 208.64221
 210.28348 211.44374 211.68801 211.93127 211.88354 211.60380 211.25207 210.89733
 210.52960 210.25486 210.07813 209.95739 209.90066 210.24692 210.64819 211.05245
 211.86072 213.05398 214.31925 216.11751 218.06078 220.11904 222.22931 224.32757
 226.40284 228.50210 230.61437 232.73563 234.87990 237.06716 239.33843 241.72369
 244.35996 246.62622 248.64349 250.42375 251.85602 252.99428 253.83155 254.16281
 254.21508 254.00434 253.37961 252.34287 250.96414 249.14040 247.06467 244.91293
 242.71920 240.53846 238.37373 236.22799 234.10326 231.98552 230.02679 228.19905
 226.49732 224.98458 223.62984 222.41711 221.31437 220.28964 219.40890 218.56517
 217.82243 217.01770 216.13096 215.51023 214.97549 214.73433 214.16458 215.33846
 216.96201 217.79396 218.36143 218.55186 219.32195 222.01759 226.82724 231.12141
 234.27200 236.99724 239.69460 242.80168 246.34734 249.91537 253.40076 256.72418
 259.77609 262.74759 265.74411 268.68359 271.38690 273.75150 275.76050 277.55078
 279.20950 280.75665 282.22964 283.58292 284.76236 285.80661 286.75983 287.62488
 288.40979 289.11172 289.72736 290.53384
 366.78100 356.35034 345.79768 334.67901 323.09735 311.30669 299.19203 287.01037
 274.73771 262.65004 250.67438 239.99072 230.12806 221.24740 213.44473 206.46207
 200.31141 195.26475 191.86209 189.91943 188.97176 189.05110 189.90144 191.22478
 192.96512 195.07545 197.35379 199.72813 202.18847 204.68381 206.78715 208.64448
 210.28582 211.44616 211.69050 211.93384 211.88617 211.60651 211.25485 210.90019
 210.53253 210.25787 210.08120 209.96054 209.90388 210.25022 210.65156 211.05589
 211.86423 213.05757 214.32291 216.12125 218.06459 220.12292 222.23326 224.33160
 226.40694 228.50628 230.61861 232.73995 234.88429 237.07163 239.34297 241.72831
 244.36464 246.63098 248.64832 250.42866 251.86100 252.99933 253.83667 254.16801
 254.22035 254.00969 253.38503 252.34836 250.96970 249.14604 247.07038 244.91872
 242.72505 240.54439 238.37973 236.23407 234.10941 231.99175 230.03308 228.20542
 226.50376 224.99110 223.63644 222.42377 221.32111 220.29645 219.41579 218.57213
 217.82947 217.02480 216.13814 215.51748 214.98282 214.73340 214.14410 215.33791
 217.08786 217.96049 218.52319 218.62584 219.32965 222.01187 226.78955 231.02379
 234.11887 236.80765 239.53987 242.73398 246.34645 249.92903 253.38341 256.66156
 259.69272 262.66989 265.67938 268.61664 271.30624 273.65427 275.65872 277.45682
 279.13586 280.70062 282.17407 283.52063 284.69604 285.73889 286.69061 287.55460
 288.33612 289.03732 289.65442 290.45551
 366.78100 356.35038 345.79775 334.67913 323.09750 311.30688 299.19225 287.01063
 274.73800 262.65038 250.67476 239.99113 230.12851 221.24788 213.44526 206.46263
 200.31201 195.26538 191.86276 189.92014 188.97251 189.05189 189.90226 191.22564
 192.96601 195.07639 197.35476 199.72914 202.18952 204.68489 206.78827 208.64564
 210.28702 211.44739 211.69177 211.93514 211.88752 211.60790 211.25627 210.90165
 210.53402 210.25940 210.08277 209.96215 209.90553 210.25190 210.65328 211.05765
 211.86603 213.05940 214.32478 216.12315 218.06653 220.12491 222.23528 224.33366
 226.40903 228.50841 230.62078 232.74216 234.88653 237.07391 239.34529 241.73066
 244.36704 246.63341 248.65079 250.43116 251.86354 253.00191 253.83929 254.17067
 254.22304 254.01242 253.38779 252.35117 250.97254 249.14892 247.07329 244.92167
 242.72805 240.54742 238.38280 236.23717 234.11255 231.99492 230.03630 228.20867
 226.50705 224.99443 223.63980 222.42718 221.32455 220.29993 219.41930 218.57568
 217.83305 217.02843 216.14181 215.52118 214.98656 214.73303 214.13408 215.32907
 217.19417 218.12617 218.67773 218.70758 219.33682 222.00456 226.75066 230.92668
 233.96974 236.62793 239.39989 242.68118 246.35670 249.94785 253.36865 256.60251
 259.61411 262.59631 265.61597 268.54688 271.21841 273.54865 275.54733 277.35449
 279.05466 280.63806 282.10727 283.44250 284.61572 285.65503 286.60529 287.46777
 288.24887 288.94589 289.56381 290.36398
 366.78100 356.35011 345.79722 334.67832 323.09643 311.30554 299.19065 287.00876
 274.73586 262.64797 250.67208 239.98819 230.12530 221.24440 213.44151 206.45862
 200.30773 195.26083 191.85794 189.91505 188.96716 189.04627 189.89637 191.21948
 192.95959 195.06970 197.34781 199.72191 202.18202 204.67713 206.78024 208.63735
 210.27845 211.43856 211.68267 211.92578 211.87789 211.59799 211.24610 210.89121
 210.52332 210.24843 210.07153 209.95064 209.89375 210.23986 210.64096 211.04507
 211.85318 213.04629 214.31140 216.10950 218.05261 220.11072 222.22083 224.31894
 226.39404 228.49315 230.60526 232.72637 234.87048 237.05758 239.32869 241.71380
 244.34991 246.61602 248.63312 250.41323 251.84534 252.98345 253.82056 254.15166
 254.20377 253.99288 253.36799 252.33109 250.95220 249.12831 247.05242 244.90053
 242.70663 240.52574 238.36085 236.21496 234.09007 231.97217 230.01328 228.18539
 226.48350 224.97061 223.61571 222.40282 221.29993 220.27504 219.39415 218.55025
 217.80736 217.00247 216.11558 215.49469 214.95979 214.71637 214.14124 215.32826
 217.27698 218.27858 218.81361 218.78781 219.34488 221.99670 226.71234 230.83290
 233.82915 236.46500 239.28090 242.64812 246.38155 249.97592 253.35870 256.54730
 259.53778 262.52322 265.55038 268.47183 271.12170 273.43112 275.42282 277.24234
 278.96323 280.56271 282.02490 283.34744 284.51376 285.54871 286.49774 287.35989
 288.13898 288.83737 289.45432 290.25439
 366.78100 356.34937 345.79574 334.67611 323.09348 311.30185 299.18622 287.00359
 274.72996 262.64133 250.66470 239.98007 230.11643 221.23480 213.43117 206.44754
 200.29591 195.24828 191.84465 189.90102 188.95239 189.03076 189.88013 191.20250
 192.94187 195.05124 197.32861 199.70198 202.16135 204.65572 206.75809 208.61446
 210.25483 211.41420 211.65756 211.89993 211.85130 211.57067 211.21804 210.86241
 210.49378 210.21815 210.04052 209.91889 209.86126 210.20663 210.60700 211.01037
 211.81774 213.01011 214.27448 216.07185 218.01422 220.07159 222.18096 224.27833
 226.35270 228.45106 230.56243 232.68280 234.82617 237.01254 239.28291 241.66728
 244.30265 246.56802 248.58439 250.36376 251.79513 252.93250 253.76887 254.09924
 254.15061 253.93898 253.31335 252.27572 250.89609 249.07146 246.99483 244.84220
 242.64756 240.46593 238.30030 236.15367 234.02804 231.90941 229.94978 228.12115
 226.41852 224.90489 223.54926 222.33563 221.23200 220.20637 219.32474 218.48011
 217.73648 216.93085 216.04322 215.42159 214.88596 214.67349 214.17155 215.34854
 217.33273 218.39693 218.91563 218.84795 219.34724 221.98587 226.67599 230.74670
 233.70456 236.32800 239.19258 242.64377 246.43309 250.02596 253.36765 256.50888
 259.47427 262.45624 265.48434 268.38971 271.01508 273.29617 275.27362 277.10477
 278.85934 280.46695 281.92322 283.23166 284.38309 285.41156 286.35513 287.21722
 287.99701 288.69424 289.30963 290.11255
 366.78100 356.34859 345.79418 334.67376 323.09035 311.29794 299.18153 286.99812
 274.72370 262.63429 250.65688 239.97147 230.10706 221.22464 213.42023 206.43582
 200.28341 195.23500 191.83058 189.88617 188.93676 189.01435 189.86294 191.18452
 192.92311 195.03170 197.30829 199.68088 202.13946 204.63305 206.73464 208.59023
 210.22982 211.38840 211.63099 211.87258 211.82317 211.54176 211.18834 210.83193
 210.46252 210.18611 210.00770 209.88528 209.82687 210.17146 210.57105 210.97364
 211.78022 212.97181 214.23540 216.03199 217.97358 220.03016 222.13875 224.23534
 226.30893 228.40652 230.51710 232.63669 234.77928 236.96487 239.23446 241.61804
 244.25263 246.51722 248.53281 250.31140 251.74198 252.87857 253.71416 254.04375
 254.09434 253.88192 253.25551 252.21710 250.83669 249.01128 246.93386 244.78045
 242.58504 240.40263 238.23622 236.08880 233.96239 231.84298 229.88257 228.05316
 226.34974 224.83533 223.47892 222.26451 221.16010 220.13368 219.25127 218.40586
 217.66145 216.85504 215.96662 215.34421 214.80780 214.62856 214.20509 215.38899
 217.38495 218.48705 218.98100 218.87720 219.33791 221.96526 226.63539 230.65839
 233.58514 236.20947 239.13338 242.67162 246.51913 250.11569 253.41727 256.51324
 259.44775 262.41217 265.42465 268.30170 270.89175 273.13922 275.10999 276.96878
 278.71500 280.33688 281.77277 283.05426 284.18024 285.19217 286.12958 286.99234
 287.77023 288.46942 289.08752 289.88977
 366.78100 356.34831 345.79361 334.67292 323.08922 311.29653 299.17984 286.99614
 274.72145 262.63175 250.65406 239.96837 230.10367 221.22098 213.41628 206.43159
 200.27890 195.23020 191.82551 189.88081 188.93112 189.00843 189.85673 191.17804
 192.91634 195.02465 197.30096 199.67326 202.13157 204.62487 206.72618 208.58149
 210.22079 211.37910 211.62140 211.86271 211.81302 211.53132 211.17763 210.82093
 210.45124 210.17455 209.99585 209.87316 209.81446 210.15877 210.55808 210.96038
 211.76669 212.95800 214.22130 216.01761 217.95891 220.01522 222.12353 224.21983
 226.29314 228.39044 230.50075 232.62006 234.76236 236.94767 239.21697 241.60028
 244.23459 246.49889 248.51420 250.29250 251.72281 252.85912 253.69442 254.02373
 254.07403 253.86134 253.23465 252.19595 250.81526 248.98956 246.91187 244.75818
 242.56248 240.37979 238.21309 236.06540 233.93871 231.81901 229.85832 228.02862
 226.32493 224.81024 223.45354 222.23885 221.13415 220.10746 219.22477 218.37907
 217.63438 216.82768 215.93899 215.31630 214.77960 214.61127 214.21355 215.44063
 217.48021 218.59129 219.03571 218.87830 219.30228 221.92052 226.57732 230.54843
 233.44287 236.07274 239.06570 242.69797 246.60960 250.21463 253.48489 256.54398
 259.45505 262.40518 265.39920 268.24921 270.81357 273.03320 274.96399 276.77374
 278.61447 280.18576 281.57434 282.81158 283.90271 284.88950 285.81937 286.67841
 287.45917 288.15939 288.78061 289.58963
 366.78100 356.34835 345.79369 334.67304 323.08939 311.29674 299.18008 286.99643
 274.72178 262.63212 250.65447 239.96882 230.10416 221.22151 213.41686 206.43221
 200.27955 195.23090 191.82625 189.88159 188.93194 189.00929 189.85764 191.17898
 192.91733 195.02568 197.30202 199.67437 202.13272 204.62606 206.72741 208.58276
 210.22211 211.38045 211.62280 211.86415 211.81449 211.53284 211.17919 210.82254
 210.45288 210.17623 209.99758 209.87492 209.81627 210.16062 210.55997 210.96231
 211.76866 212.96001 214.22335 216.01970 217.96105 220.01739 222.12574 224.22209
 226.29544 228.39278 230.50313 232.62248 234.76482 236.95017 239.21952 241.60287
 244.23721 246.50156 248.51691 250.29525 251.72560 252.86195 253.69729 254.02664
 254.07699 253.86434 253.23768 252.19903 250.81838 248.99272 246.91507 244.76142
 242.56577 240.38311 238.21646 236.06881 233.94215 231.82250 229.86185 228.03219
 226.32854 224.81389 223.45724 222.24258 221.13793 220.11128 219.22862 218.38297
 217.63832 216.83167 215.94301 215.32036 214.78371 214.60988 214.19922 215.48523
 217.62486 218.74226 219.10910 218.88535 219.26685 221.85974 226.49725 230.40465
 233.26060 235.89967 238.97102 242.70363 246.66797 250.28610 253.53464 256.57217
 259.47195 262.41309 265.39401 268.22156 270.76871 272.97403 274.87247 276.64871
 278.53735 280.01584 281.35095 282.53616 283.58337 284.54126 285.46213 286.32458
 287.10489 287.81308 288.43393 289.25583
 366.78100 356.34856 345.79413 334.67369 323.09025 311.29781 299.18138 286.99794
 274.72350 262.63406 250.65663 239.97119 230.10675 221.22431 213.41988 206.43544
 200.28300 195.23456 191.83013 189.88569 188.93625 189.01381 189.86238 191.18394
 192.92250 195.03106 197.30763 199.68019 202.13875 204.63231 206.73388 208.58944
 210.22900 211.38756 211.63013 211.87169 211.82225 211.54081 211.18738 210.83094
 210.46150 210.18506 210.00663 209.88419 209.82575 210.17031 210.56988 210.97244
 211.77900 212.97056 214.23413 216.03069 217.97225 220.02881 222.13738 224.23394
 226.30750 228.40506 230.51563 232.63519 234.77775 236.96331 239.23288 241.61644
 244.25100 246.51556 248.53113 250.30969 251.74025 252.87681 253.71238 254.04194
 254.09250 253.88006 253.25363 252.21519 250.83475 249.00931 246.93188 244.77844
 242.58300 240.40056 238.23413 236.08669 233.96025 231.84081 229.88038 228.05094
 226.34750 224.83306 223.47663 222.26219 221.15775 220.13131 219.24888 218.40344
 217.65900 216.85256 215.96413 215.34169 214.80525 214.61024 214.14951 215.55936
 217.78703 218.89977 219.18095 218.89845 219.23312 221.79318 226.40608 230.24113
 233.05478 235.70522 238.86084 242.69055 246.69670 250.32181 253.56224 256.58810
 259.48859 262.43369 265.40961 268.22678 270.77728 272.99081 274.86984 276.61865
 278.45859 279.86993 281.14346 282.27042 283.25937 284.18155 285.09903 285.96191
 286.74823 287.45859 288.08972 288.92041
 366.78100 356.34939 345.79578 334.67616 323.09355 311.30194 299.18633 287.00371
 274.73010 262.64149 250.66488 239.98026 230.11665 221.23504 213.43143 206.44782
 200.29620 195.24859 191.84498 189.90137 188.95275 189.03114 189.88053 191.20292
 192.94231 195.05169 197.32908 199.70247 202.16186 204.65624 206.75863 208.61502
 210.25541 211.41479 211.65818 211.90057 211.85196 211.57135 211.21873 210.86312
 210.49451 210.21890 210.04128 209.91967 209.86206 210.20745 210.60783 211.01122
 211.81861 213.01100 214.27539 216.07277 218.01516 220.07255 222.18194 224.27932
 226.35371 228.45210 230.56349 232.68388 234.82726 237.01365 239.28404 241.66843
 244.30381 246.56920 248.58559 250.36498 251.79636 252.93375 253.77014 254.10053
 254.15192 253.94030 253.31469 252.27708 250.89747 249.07285 246.99624 244.84363
 242.64902 240.46741 238.30179 236.15518 234.02957 231.91096 229.95134 228.12273
 226.42012 224.90651 223.55089 222.33728 221.23367 220.20806 219.32645 218.48183
 217.73822 216.93261 216.04500 215.42338 214.88777 214.64766 214.08037 215.64058
 217.97218 219.04402 219.20068 218.86087 219.18732 221.72353 226.31514 230.08492
 232.86179 235.52620 238.76027 242.67772 246.70386 250.31657 253.54904 256.58011
 259.50018 262.46106 265.44815 268.25864 270.81613 273.05176 274.94437 276.60178
 278.42514 279.82541 281.03378 282.06671 282.96640 283.85226 284.77545 285.63959
 286.42929 287.14633 287.78192 288.62167
 366.78100 356.34949 345.79597 334.67646 323.09394 311.30243 299.18691 287.00440
 274.73089 262.64237 250.66586 239.98134 230.11783 221.23631 213.43280 206.44929
 200.29777 195.25026 191.84674 189.90323 188.95471 189.03320 189.88268 191.20517
 192.94466 195.05414 197.33163 199.70511 202.16460 204.65908 206.76157 208.61806
 210.25854 211.41803 211.66151 211.90400 211.85548 211.57497 211.22246 210.86694
 210.49843 210.22291 210.04540 209.92388 209.86637 210.21186 210.61234 211.01583
 211.82331 213.01580 214.28028 216.07777 218.02026 220.07774 222.18723 224.28471
 226.35920 228.45768 230.56917 232.68965 234.83314 237.01963 239.29011 241.67460
 244.31008 246.57557 248.59205 250.37154 251.80303 252.94051 253.77700 254.10748
 254.15897 253.94745 253.32194 252.28443 250.90491 249.08040 247.00388 244.85137
 242.65685 240.47534 238.30983 236.16331 234.03780 231.91928 229.95977 228.13125
 226.42874 224.91523 223.55971 222.34620 221.24268 220.21717 219.33565 218.49114
 217.74763 216.94211 216.05460 215.43308 214.89757 214.64859 214.06035 215.65051
 218.12714 219.21974 219.28185 218.86345 219.13835 221.63486 226.19502 229.88817
 232.63986 235.34401 238.67383 242.67207 246.70734 250.30019 253.54868 256.59872
 259.53772 262.51022 265.48160 268.26425 270.81198 273.05865 274.97327 276.63837
 278.35956 279.69928 280.83633 281.83157 282.74341 283.64011 284.57037 285.43497
 286.22986 286.94943 287.58566 288.43240
 366.78100 356.34822 345.79345 334.67267 323.08890 311.29612 299.17934 286.99557
 274.72079 262.63102 250.65324 239.96746 230.10269 221.21991 213.41513 206.43036
 200.27758 195.22881 191.82403 189.87925 188.92948 189.00670 189.85493 191.17615
 192.91437 195.02260 197.29882 199.67105 202.12927 204.62249 206.72372 208.57894
 210.21817 211.37639 211.61861 211.85984 211.81006 211.52829 211.17451 210.81773
 210.44796 210.17118 209.99240 209.86963 209.81085 210.15508 210.55430 210.95652
 211.76275 212.95397 214.21720 216.01342 217.95464 220.01087 222.11909 224.21532
 226.28854 228.38576 230.49599 232.61521 234.75744 236.94266 239.21188 241.59511
 244.22933 246.49356 248.50878 250.28700 251.71723 252.85345 253.68867 254.01790
 254.06812 253.85535 253.22857 252.18979 250.80902 248.98324 246.90547 244.75169
 242.55591 240.37314 238.20636 236.05859 233.93181 231.81203 229.85126 228.02148
 226.31771 224.80293 223.44615 222.23138 221.12660 220.09983 219.21705 218.37127
 217.62650 216.81972 215.93094 215.30817 214.77139 214.57739 214.11906 215.62868
 218.20515 219.37759 219.39497 218.86639 219.09004 221.55505 226.09705 229.73692
 232.45892 235.20389 238.62437 242.68681 246.73293 250.33530 253.57663 256.62064
 259.56686 262.54706 265.50284 268.25684 270.79297 273.05762 274.99597 276.67783
 278.28387 279.55710 280.64359 281.59946 282.47284 283.33801 284.26450 285.13049
 285.92715 286.65186 287.29376 288.14459
 366.78100 356.34713 345.79127 334.66940 323.08453 311.29066 299.17280 286.98793
 274.71206 262.62119 250.64233 239.95546 230.08959 221.20572 213.39986 206.41399
 200.26012 195.21025 191.80439 189.85852 188.90765 188.98379 189.83092 191.15105
 192.88818 194.99532 197.27045 199.64158 202.09871 204.59085 206.69098 208.54511
 210.18324 211.34038 211.58151 211.82164 211.77077 211.48791 211.13304 210.77517
 210.40430 210.12644 209.94657 209.82270 209.76284 210.10597 210.50410 210.90523
 211.71037 212.90050 214.16263 215.95776 217.89790 219.95303 222.06016 224.15529
 226.22743 228.32356 230.43269 232.55082 234.69196 236.87609 239.14422 241.52636
 244.15949 246.42262 248.43675 250.21389 251.64302 252.77815 253.61228 253.94042
 253.98955 253.77568 253.14781 252.10795 250.72608 248.89921 246.82034 244.66548
 242.46861 240.28474 238.11687 235.96801 233.84014 231.71927 229.75741 227.92654
 226.22167 224.70580 223.34794 222.13207 221.02620 219.99833 219.11447 218.26760
 217.52173 216.71386 215.82400 215.20013 214.66226 214.52052 214.18565 215.61287
 218.24844 219.51404 219.49268 218.83853 219.01886 221.46727 225.99666 229.58742
 232.28374 235.07645 238.59113 242.69017 246.78134 250.37643 253.62180 256.68506
 259.63199 262.60422 265.52750 268.24026 270.75668 273.02942 274.97501 276.69373
 278.20892 279.42542 280.50043 281.42966 282.22940 283.05933 283.98865 284.85739
 285.65878 286.39124 287.04041 287.89709
 366.78100 356.34652 345.79004 334.66756 323.08208 311.28760 299.16912 286.98364
 274.70716 262.61568 250.63620 239.94871 230.08223 221.19775 213.39127 206.40479
 200.25031 195.19983 191.79335 189.84687 188.89539 188.97091 189.81743 191.13695
 192.87347 194.97999 197.25451 199.62503 202.08155 204.57307 206.67259 208.52611
 210.16362 211.32014 211.56066 211.80018 211.74870 211.46522 211.10974 210.75126
 210.37978 210.10130 209.92082 209.79634 209.73586 210.07838 210.47590 210.87642
 211.68094 212.87046 214.13198 215.92650 217.86602 219.92053 222.02705 224.12157
 226.19309 228.28861 230.39713 232.51465 234.65517 236.83869 239.10621 241.48773
 244.12025 246.38277 248.39629 250.17281 251.60133 252.73585 253.56937 253.89689
 253.94541 253.73093 253.10244 252.06196 250.67948 248.85200 246.77252 244.61704
 242.41956 240.23508 238.06660 235.91712 233.78864 231.66716 229.70468 227.87320
 226.16772 224.65124 223.29276 222.07628 220.96980 219.94132 219.05684 218.20935
 217.46287 216.65439 215.76391 215.13943 214.60095 214.49707 214.25163 215.59891
 218.25821 219.65141 219.61967 218.82863 218.94400 221.37177 225.88023 229.41245
 232.08696 234.93948 238.55130 242.69984 246.81436 250.44237 253.66870 256.74219
 259.68246 262.64215 265.52530 268.20322 270.70609 272.98059 274.95413 276.69373
 278.15060 279.30093 280.34354 281.24289 282.00323 282.83414 283.76260 284.63309
 285.43533 286.17279 286.82394 287.68265
 366.78100 356.34526 345.78752 334.66378 323.07703 311.28129 299.16155 286.97481
 274.69707 262.60433 250.62359 239.93484 230.06710 221.18136 213.37362 206.38588
 200.23014 195.17840 191.77065 189.82291 188.87017 188.94443 189.78969 191.10795
 192.84320 194.94846 197.22172 199.59098 202.04624 204.53650 206.63476 208.48701
 210.12327 211.27853 211.51779 211.75605 211.70331 211.41857 211.06182 210.70208
 210.32934 210.04960 209.86786 209.74212 209.68038 210.02163 210.41789 210.81715
 211.62041 212.80867 214.06893 215.86219 217.80044 219.85370 221.95896 224.05222
 226.12248 228.21674 230.32400 232.44025 234.57951 236.76177 239.02803 241.40829
 244.03955 246.30080 248.31306 250.08832 251.51558 252.64884 253.48110 253.80736
 253.85461 253.63887 253.00913 251.96739 250.58365 248.75491 246.67417 244.51742
 242.31868 240.13294 237.96320 235.81246 233.68272 231.55998 229.59623 227.76349
 226.05675 224.53901 223.17927 221.96153 220.85379 219.82404 218.93830 218.08956
 217.34182 216.53208 215.64034 215.01459 214.47485 214.43823 214.35172 215.61873
 218.20322 219.72041 219.73851 218.84602 218.88228 221.28308 225.76572 229.24039
 231.90060 234.82176 238.53052 242.73021 246.88574 250.51392 253.71608 256.79913
 259.73450 262.68591 265.54501 268.19287 270.67587 272.95239 274.94620 276.71164
 278.10971 279.21338 280.20108 281.06860 281.80215 282.61938 283.54382 284.41599
 285.21899 285.95770 286.60928 287.47501
 366.78100 356.34366 345.78431 334.65897 323.07062 311.27328 299.15193 286.96359
 274.68424 262.58990 250.60755 239.91721 230.04786 221.16052 213.35117 206.36183
 200.20448 195.15114 191.74180 189.79245 188.83811 188.91076 189.75442 191.07107
 192.80473 194.90838 197.18004 199.54769 202.00135 204.49000 206.58666 208.43731
 210.07197 211.22562 211.46328 211.69994 211.64559 211.35925 211.00090 210.63956
 210.26521 209.98387 209.80052 209.67318 209.60983 209.94949 210.34414 210.74180
 211.54345 212.73011 213.98876 215.78042 217.71708 219.76873 221.87239 223.96404
 226.03270 228.12535 230.23101 232.34566 234.48332 236.66397 238.92863 241.30728
 243.93694 246.19659 248.20725 249.98090 251.40656 252.53822 253.36887 253.69353
 253.73918 253.52184 252.89049 251.84715 250.46180 248.63146 246.54911 244.39077
 242.19042 240.00308 237.83173 235.67939 233.54804 231.42370 229.45836 227.62401
 225.91567 224.39632 223.03498 221.81563 220.70629 219.67494 218.78760 217.93725
 217.18791 216.37656 215.48322 214.85587 214.31453 214.35362 214.44598 215.69257
 218.13873 219.71117 219.79176 218.84685 218.82101 221.19870 225.64667 229.04675
 231.68756 234.68378 238.49341 242.79520 247.02400 250.65660 253.82927 256.92252
 259.84781 262.79327 265.60260 268.19653 270.64417 272.90176 274.90054 276.64432
 277.98203 279.02441 279.98828 280.80878 281.52322 282.35022 283.26605 284.13297
 284.93472 285.67218 286.32635 287.18729
 366.78100 356.34262 345.78225 334.65587 323.06649 311.26812 299.14574 286.95636
 274.67599 262.58061 250.59723 239.90586 230.03548 221.14711 213.33673 206.34635
 200.18798 195.13360 191.72322 189.77285 188.81747 188.88909 189.73172 191.04734
 192.77996 194.88259 197.15321 199.51983 201.97246 204.46008 206.55570 208.40533
 210.03895 211.19158 211.42820 211.66382 211.60845 211.32107 210.96169 210.59932
 210.22394 209.94156 209.75719 209.62881 209.56443 209.90306 210.29668 210.69330
 211.49393 212.67955 213.93717 215.72780 217.66342 219.71405 221.81667 223.90729
 225.97492 228.06654 230.17116 232.28479 234.42141 236.60103 238.86466 241.24228
 243.87090 246.12953 248.13915 249.91177 251.33640 252.46702 253.29664 253.62027
 253.66489 253.44652 252.81414 251.76976 250.38339 248.55201 246.46863 244.30926
 242.10788 239.91950 237.74713 235.59375 233.46137 231.33600 229.36962 227.53424
 225.82487 224.30449 222.94211 221.72174 220.61136 219.57899 218.69061 217.83923
 217.08886 216.27648 215.38210 214.75373 214.21135 214.30081 214.51218 215.77583
 218.10513 219.70171 219.83716 218.85931 218.78098 221.13655 225.54195 228.86316
 231.47607 234.53368 238.43378 242.85361 247.14966 250.74577 253.85608 256.94650
 259.88898 262.84634 265.62286 268.17374 270.58472 272.84259 274.84570 276.57474
 277.88431 278.88080 279.81741 280.63022 281.31192 282.05759 282.93039 283.79089
 284.58707 285.31970 285.97107 286.83463
 366.78100 356.34125 345.77951 334.65176 323.06101 311.26127 299.13752 286.94677
 274.66503 262.56828 250.58354 239.89079 230.01904 221.12930 213.31755 206.32580
 200.16606 195.11031 191.69856 189.74682 188.79007 188.86032 189.70158 191.01583
 192.74709 194.84834 197.11759 199.48285 201.93410 204.42035 206.51461 208.36286
 209.99511 211.14637 211.38162 211.61587 211.55913 211.27038 210.90964 210.54589
 210.16914 209.88540 209.69965 209.56990 209.50416 209.84141 210.23366 210.62892
 211.42817 212.61242 213.86868 215.65793 217.59219 219.64144 221.74269 223.83195
 225.89820 227.98845 230.09171 232.20396 234.33921 236.51747 238.77972 241.15597
 243.78323 246.04048 248.04874 249.81999 251.24324 252.37250 253.20075 253.52300
 253.56626 253.34651 252.71276 251.66702 250.27927 248.44652 246.36178 244.20103
 241.99828 239.80854 237.63479 235.48005 233.34630 231.21955 229.25181 227.41506
 225.70431 224.18257 222.81882 221.59707 220.48533 219.45158 218.56183 217.70909
 216.95734 216.14360 215.24785 214.61810 214.07436 214.23576 214.61710 215.83510
 218.03618 219.71135 219.93237 218.94516 218.80899 221.11482 225.46214 228.72166
 231.31610 234.42288 238.41621 242.93138 247.21246 250.69527 253.75549 256.84427
 259.81537 262.79526 265.57779 268.12772 270.54977 272.83002 274.87445 276.63477
 277.97571 279.01294 279.91568 280.72125 281.42981 282.09558 282.77386 283.58762
 284.37482 285.10934 285.76746 286.64169
 366.78100 356.34212 345.78125 334.65437 323.06450 311.26562 299.14274 286.95287
 274.67199 262.57612 250.59224 239.90036 230.02949 221.14061 213.32974 206.33886
 200.17999 195.12511 191.71423 189.76336 188.80748 188.87861 189.72073 191.03585
 192.76798 194.87010 197.14023 199.50635 201.95847 204.44560 206.54072 208.38985
 210.02297 211.17509 211.41122 211.64634 211.59047 211.30259 210.94271 210.57984
 210.20396 209.92109 209.73621 209.60734 209.54246 209.88058 210.27371 210.66983
 211.46996 212.65508 213.91220 215.70233 217.63745 219.68758 221.78970 223.87982
 225.94695 228.03807 230.14220 232.25532 234.39144 236.57057 238.83369 241.21082
 243.83894 246.09706 248.10619 249.87831 251.30244 252.43256 253.26169 253.58481
 253.62893 253.41006 252.77718 251.73231 250.34543 248.51355 246.42968 244.26980
 242.06793 239.87905 237.70617 235.55230 233.41942 231.29355 229.32667 227.49079
 225.78092 224.26004 222.89717 221.67629 220.56541 219.53254 218.64366 217.79179
 217.04091 216.22804 215.33316 214.70428 214.16141 214.29463 214.60934 215.87868
 218.09409 219.77518 219.99562 218.91382 218.71278 221.03752 225.37538 228.59317
 231.15572 234.29240 238.43024 243.04961 247.28699 250.67833 253.66444 256.74454
 259.73718 262.73306 265.54187 268.08139 270.50699 272.81363 274.89908 276.69208
 278.07925 279.19028 280.13968 280.99332 281.73935 282.40433 283.05115 283.83099
 284.62131 285.35794 286.02017 286.88351
 366.78100 356.34660 345.79021 334.66781 323.08241 311.28802 299.16962 286.98423
 274.70783 262.61643 250.63704 239.94964 230.08324 221.19885 213.39245 206.40605
 200.25166 195.20126 191.79486 189.84847 188.89707 188.97268 189.81928 191.13888
 192.87549 194.98209 197.25669 199.62730 202.08390 204.57550 206.67511 208.52871
 210.16632 211.32292 211.56352 211.80313 211.75173 211.46833 211.11294 210.75454
 210.38314 210.10475 209.92435 209.79995 209.73956 210.08216 210.47977 210.88037
 211.68497 212.87458 214.13618 215.93078 217.87039 219.92499 222.03159 224.12620
 226.19780 228.29341 230.40201 232.51961 234.66022 236.84382 239.11142 241.49303
 244.12563 246.38823 248.40184 250.17844 251.60704 252.74165 253.57525 253.90286
 253.95146 253.73706 253.10867 252.06827 250.68587 248.85848 246.77908 244.62368
 242.42629 240.24189 238.07349 235.92410 233.79570 231.67431 229.71191 227.88051
 226.17512 224.65872 223.30032 222.08393 220.97753 219.94913 219.06474 218.21734
 217.47095 216.66255 215.77215 215.14776 214.60936 214.56346 214.48065 215.81493
 218.25882 219.79974 219.91159 218.59752 218.28535 220.75291 225.17262 228.48677
 230.95985 234.20900 238.47211 243.12573 247.30649 250.71208 253.72191 256.78452
 259.81256 262.77850 265.55914 268.10242 270.49051 272.74924 274.82187 276.57004
 277.96432 279.11606 280.15579 281.06326 281.68369 282.42719 283.38263 284.31946
 285.26215 286.10162 286.83496 287.76953
 366.78100 356.34509 345.78718 334.66327 323.07636 311.28045 299.16054 286.97363
 274.69572 262.60281 250.62190 239.93299 230.06508 221.17917 213.37126 206.38335
 200.22744 195.17553 191.76762 189.81971 188.86680 188.94089 189.78598 191.10407
 192.83916 194.94425 197.21734 199.58643 202.04152 204.53161 206.62970 208.48179
 210.11788 211.27297 211.51206 211.75015 211.69724 211.41233 211.05542 210.69551
 210.32260 210.04269 209.86078 209.73487 209.67296 210.01405 210.41014 210.80923
 211.61232 212.80041 214.06050 215.85359 217.79168 219.84477 221.94986 224.04295
 226.11304 228.20713 230.31422 232.43031 234.56940 236.75149 239.01758 241.39767
 244.02876 246.28985 248.30194 250.07703 251.50411 252.63720 253.46929 253.79538
 253.84247 253.62656 252.99665 251.95474 250.57083 248.74192 246.66101 244.50410
 242.30519 240.11928 237.94937 235.79846 233.66855 231.54564 229.58173 227.74882
 226.04191 224.52400 223.16409 221.94618 220.83827 219.80836 218.92245 218.07354
 217.32563 216.51572 215.62381 214.99790 214.45799 214.51588 214.69641 215.78378
 217.90079 219.50099 219.75095 218.64391 218.48936 220.82437 225.05460 228.46196
 230.95505 234.30341 238.58626 243.21082 247.35141 250.80806 253.90646 256.95328
 259.97751 262.92398 265.64120 268.10416 270.44205 272.63892 274.63388 276.34158
 277.71848 278.82153 279.67300 280.31351 281.20215 282.22086 283.23535 284.16901
 285.00873 285.75647 286.40970 287.24219
 366.78100 356.33883 345.77465 334.64448 323.05130 311.24913 299.12295 286.92978
 274.64560 262.54643 250.55926 239.86408 229.98991 221.09773 213.28356 206.28938
 200.12721 195.06903 191.65486 189.70069 188.74151 188.80934 189.64816 190.95999
 192.68881 194.78764 197.05447 199.41729 201.86612 204.34994 206.44177 208.28759
 209.91742 211.06624 211.29907 211.53090 211.47172 211.18055 210.81737 210.45120
 210.07202 209.78585 209.59767 209.46550 209.39733 209.73215 210.12198 210.51480
 211.31163 212.49345 213.74728 215.53410 217.46593 219.51276 221.61158 223.69841
 225.76223 227.85006 229.95088 232.06071 234.19353 236.36936 238.62919 241.00301
 243.62784 245.88266 247.88849 249.65731 251.07814 252.20497 253.03079 253.35062
 253.39144 253.16927 252.53309 251.48492 250.09474 248.25957 246.17240 244.00922
 241.80405 239.61187 237.43570 235.27852 233.14235 231.01317 229.04300 227.20383
 225.49065 223.96648 222.60030 221.37613 220.26195 219.22578 218.33360 217.47843
 216.72426 215.90808 215.00991 214.37773 213.83156 214.20078 215.07993 215.93440
 217.32587 219.16382 219.84563 218.91943 218.67023 220.91290 225.11745 228.43680
 230.92049 234.28084 238.59390 243.22815 247.35092 250.84666 254.02995 257.12097
 260.13004 263.04254 265.73999 268.12662 270.33435 272.45667 274.46814 276.03787
 277.30206 278.41080 279.34821 280.18051 280.90964 281.71548 282.49591 283.17496
 283.78568 284.32953 284.80463 285.41010
 366.78100 356.33696 345.77091 334.63887 323.04382 311.23978 299.11174 286.91669
 274.63065 262.52960 250.54056 239.84352 229.96747 221.07343 213.25738 206.26134
 200.09729 195.03725 191.62121 189.66516 188.70412 188.77007 189.60703 190.91699
 192.64394 194.74090 197.00585 199.36681 201.81377 204.29572 206.38568 208.22963
 209.85759 211.00455 211.23550 211.46546 211.40441 211.11137 210.74633 210.37828
 209.99724 209.70919 209.51915 209.38510 209.31506 209.64802 210.03597 210.42693
 211.22188 212.40184 213.65380 215.43875 217.36871 219.41366 221.51062 223.59558
 225.65753 227.74349 229.84244 231.95040 234.08136 236.25531 238.51327 240.88522
 243.50818 245.76113 247.76509 249.53205 250.95100 252.07596 252.89991 253.21787
 253.25683 253.03278 252.39474 251.34469 249.95265 248.11561 246.02656 243.86152
 241.65447 239.46043 237.28239 235.12334 232.98530 230.85425 228.88221 227.04117
 225.32612 223.80008 222.43203 221.20599 220.08994 219.05190 218.15786 217.30081
 216.54477 215.72672 214.82668 214.19264 213.64459 214.11517 215.22906 216.10707
 217.09358 218.97321 219.98996 219.21864 218.76682 220.88211 225.01207 228.16052
 230.66467 234.10529 238.55276 243.14281 247.18112 250.70535 254.03255 257.19513
 260.19946 263.09503 265.75626 268.06238 270.28784 272.54004 274.45853 275.95837
 277.15167 278.16943 279.06113 279.94601 280.74155 281.44257 282.05463 282.57947
 283.03873 283.44769 283.80496 284.26025
 366.78100 356.33686 345.77072 334.63858 323.04343 311.23929 299.11115 286.91601
 274.62987 262.52873 250.53959 239.84245 229.96630 221.07216 213.25602 206.25988
 200.09574 195.03560 191.61946 189.66332 188.70217 188.76803 189.60489 190.91475
 192.64161 194.73847 197.00333 199.36419 201.81104 204.29290 206.38276 208.22662
 209.85448 211.00134 211.23220 211.46206 211.40091 211.10777 210.74263 210.37449
 209.99335 209.70521 209.51507 209.38093 209.31078 209.64364 210.03150 210.42236
 211.21722 212.39708 213.64894 215.43379 217.36365 219.40851 221.50537 223.59023
 225.65209 227.73795 229.83681 231.94466 234.07552 236.24938 238.50724 240.87910
 243.50196 245.75482 247.75868 249.52553 250.94439 252.06925 252.89311 253.21097
 253.24983 253.02569 252.38755 251.33740 249.94526 248.10812 246.01898 243.85384
 241.64670 239.45256 237.27442 235.11527 232.97713 230.84599 228.87385 227.03271
 225.31757 223.79143 222.42329 221.19714 220.08100 219.04286 218.14872 217.29158
 216.53544 215.71730 214.81715 214.18301 213.63487 214.14622 215.34581 216.08696
 216.93457 218.88744 220.14066 219.54787 219.07750 220.95158 224.81664 227.90475
 230.42850 234.02432 238.53015 243.05806 247.03740 250.61650 254.06970 257.23737
 260.21326 263.07925 265.72125 267.89944 270.43234 272.64334 274.43536 275.83936
 277.06274 278.16461 279.13629 279.95602 280.83780 281.50153 282.07892 282.60202
 283.07251 283.49146 283.85745 284.32385
 366.78100 356.33557 345.76814 334.63471 323.03828 311.23285 299.10342 286.90699
 274.61956 262.51713 250.52670 239.82826 229.95083 221.05540 213.23797 206.24054
 200.07511 195.01368 191.59625 189.63882 188.67639 188.74096 189.57653 190.88510
 192.61067 194.70624 196.96981 199.32938 201.77495 204.25552 206.34409 208.18665
 209.81322 210.95879 211.18836 211.41693 211.35450 211.06007 210.69364 210.32421
 209.94178 209.65235 209.46092 209.32549 209.25406 209.58563 209.97220 210.36177
 211.15534 212.33391 213.58448 215.36804 217.29661 219.34018 221.43575 223.51932
 225.57989 227.66446 229.76203 231.86860 233.99817 236.17074 238.42731 240.79788
 243.41945 245.67102 247.67359 249.43916 250.85673 251.98030 252.80287 253.11944
 253.15700 252.93157 252.29214 251.24071 249.84728 248.00885 245.91842 243.75199
 241.54356 239.34813 237.16870 235.00827 232.86884 230.73641 228.76298 226.92055
 225.20412 223.67669 222.30726 221.07983 219.96239 218.92296 218.02753 217.16910
 216.41167 215.59224 214.69081 214.05538 213.50595 214.11526 215.52629 216.11143
 216.69992 218.73322 220.11559 219.67998 219.31866 221.06921 224.84027 227.87529
 230.40002 234.05489 238.59842 243.07814 247.02037 250.63918 254.17346 257.32431
 260.25513 263.07074 265.62167 268.11365 270.58395 272.64981 274.34586 275.81009
 277.06772 278.14310 279.11719 279.98392 280.74371 281.32260 281.82819 282.28622
 282.69818 283.06500 283.38547 283.79388
 366.78100 356.33685 345.77070 334.63854 323.04339 311.23924 299.11109 286.91593
 274.62978 262.52863 250.53948 239.84232 229.96617 221.07202 213.25587 206.25971
 200.09556 195.03541 191.61926 189.66310 188.70195 188.76780 189.60465 190.91449
 192.64134 194.73819 197.00304 199.36388 201.81073 204.29258 206.38243 208.22628
 209.85412 211.00097 211.23182 211.46167 211.40051 211.10736 210.74221 210.37406
 209.99290 209.70475 209.51460 209.38045 209.31029 209.64314 210.03099 210.42184
 211.21668 212.39653 213.64838 215.43323 217.36307 219.40792 221.50477 223.58962
 225.65146 227.73731 229.83616 231.94401 234.07486 236.24870 238.50655 240.87840
 243.50125 245.75409 247.75794 249.52479 250.94364 252.06848 252.89233 253.21018
 253.24903 253.02487 252.38672 251.33657 249.94442 248.10726 246.01811 243.85296
 241.64581 239.45165 237.27350 235.11435 232.97620 230.84504 228.87289 227.03174
 225.31659 223.79044 222.42228 221.19613 220.07998 219.04183 218.14767 217.29052
 216.53437 215.71622 214.81606 214.18191 213.63376 214.21373 215.56274 216.21547
 216.70540 218.67540 220.03523 219.51582 219.25578 221.07822 224.84526 227.83279
 230.31572 234.02354 238.63028 243.12041 247.00655 250.59297 254.15367 257.38864
 260.29147 263.13620 265.78253 268.17093 270.61227 272.63171 274.24771 275.70175
 277.02649 278.13120 278.98880 279.86731 280.61758 281.15988 281.63791 282.07098
 282.46051 282.80734 283.11035 283.49649
 366.78100 356.34106 345.77912 334.65118 323.06024 311.26030 299.13636 286.94542
 274.66348 262.56654 250.58160 239.88866 230.01672 221.12678 213.31484 206.32290
 200.16296 195.10702 191.69508 189.74314 188.78620 188.85626 189.69732 191.01137
 192.74243 194.84349 197.11255 199.47761 201.92867 204.41473 206.50879 208.35685
 209.98891 211.13997 211.37503 211.60909 211.55215 211.26321 210.90227 210.53833
 210.16139 209.87745 209.69151 209.56157 209.49563 209.83269 210.22475 210.61981
 211.41887 212.60293 213.85899 215.64805 217.58211 219.63117 221.73223 223.82129
 225.88735 227.97741 230.08047 232.19253 234.32759 236.50565 238.76771 241.14377
 243.77083 246.02789 248.03595 249.80700 251.23006 252.35912 253.18718 253.50924
 253.55230 253.33236 252.69842 251.65248 250.26454 248.43160 246.34666 244.18572
 241.98278 239.79284 237.61890 235.46396 233.33002 231.20308 229.23514 227.39820
 225.68726 224.16532 222.80138 221.57944 220.46750 219.43356 218.54362 217.69068
 216.93874 216.12480 215.22886 214.59892 214.05498 214.47319 215.48232 216.25624
 216.86960 218.71597 220.01169 219.47916 219.25069 221.10139 224.81265 227.69905
 230.24931 234.07899 238.71803 243.18286 247.01479 250.59619 254.13560 257.35477
 260.30383 263.17270 265.85672 268.37167 270.63455 272.57901 274.15445 275.67957
 276.98389 278.03412 279.04611 279.98453 280.79785 281.51740 282.17389 282.76865
 283.30353 283.77988 284.19598 284.72629
 366.78100 356.34140 345.77980 334.65220 323.06160 311.26200 299.13839 286.94779
 274.66619 262.56959 250.58499 239.89239 230.02079 221.13119 213.31959 206.32799
 200.16839 195.11279 191.70118 189.74958 188.79298 188.86338 189.70478 191.01918
 192.75058 194.85198 197.12138 199.48678 201.93818 204.42457 206.51897 208.36737
 209.99977 211.15117 211.38657 211.62097 211.56437 211.27577 210.91517 210.55157
 210.17497 209.89136 209.70576 209.57616 209.51056 209.84796 210.24036 210.63576
 211.43516 212.61956 213.87596 215.66536 217.59975 219.64915 221.75055 223.83995
 225.90635 227.99675 230.10015 232.21255 234.34795 236.52635 238.78875 241.16515
 243.79254 246.04994 248.05834 249.82974 251.25314 252.38254 253.21094 253.53334
 253.57674 253.35714 252.72354 251.67793 250.29033 248.45773 246.37313 244.21253
 242.00993 239.82033 237.64673 235.49213 233.35853 231.23193 229.26433 227.42772
 225.71712 224.19552 222.83192 221.61032 220.49872 219.46512 218.57552 217.72292
 216.97132 216.15772 215.26211 214.63251 214.08891 214.54306 215.60156 216.19238
 216.81413 218.62935 220.07919 219.55237 219.13118 221.00771 224.93054 227.78693
 230.43361 234.22365 238.77211 243.17108 247.04649 250.65337 254.12827 257.34982
 260.39182 263.30847 266.04828 268.55206 270.75058 272.56149 274.10278 275.67529
 276.92422 278.24768 279.57147 280.73386 281.73981 282.62982 283.44180 284.17743
 284.83902 285.42819 285.94287 286.59875
 366.78100 356.33671 345.77042 334.63813 323.04285 311.23856 299.11027 286.91498
 274.62869 262.52740 250.53812 239.84083 229.96454 221.07025 213.25396 206.25767
 200.09339 195.03310 191.61681 189.66052 188.69923 188.76494 189.60166 190.91137
 192.63808 194.73479 196.99950 199.36021 201.80693 204.28864 206.37835 208.22206
 209.84977 210.99648 211.22720 211.45691 211.39562 211.10233 210.73704 210.36875
 209.98747 209.69918 209.50889 209.37460 209.30431 209.63702 210.02473 210.41545
 211.21016 212.38987 213.64158 215.42629 217.35600 219.40072 221.49743 223.58214
 225.64385 227.72956 229.82827 231.93599 234.06670 236.24041 238.49812 240.86983
 243.49254 245.74526 247.74897 249.51568 250.93439 252.05910 252.88281 253.20053
 253.23924 253.01495 252.37666 251.32637 249.93408 248.09680 246.00751 243.84222
 241.63493 239.44064 237.26235 235.10307 232.96478 230.83349 228.86120 227.01991
 225.30462 223.77834 222.41005 221.18376 220.06747 219.02918 218.13489 217.27760
 216.52132 215.70303 214.80274 214.16845 213.62016 214.37390 215.90398 216.08913
 216.66373 218.51630 220.08763 219.58063 219.10721 220.77603 224.74670 227.74741
 230.50516 234.32726 238.83841 243.20694 247.04727 250.64084 254.11754 257.42175
 260.50848 263.42429 266.13657 268.60800 270.78760 272.50961 274.17337 275.65298
 276.72989 277.65158 278.44913 279.14944 279.75549 280.29172 280.78091 281.22409
 281.62271 281.97766 282.28775 282.68289
 366.78100 356.33510 345.76720 334.63330 323.03640 311.23050 299.10060 286.90370
 274.61580 262.51290 250.52200 239.82310 229.94520 221.04930 213.23140 206.23350
 200.06760 195.00570 191.58780 189.62990 188.66700 188.73110 189.56620 190.87430
 192.59940 194.69450 196.95760 199.31670 201.76180 204.24190 206.33000 208.17210
 209.79820 210.94330 211.17241 211.40051 211.33761 211.04271 210.67581 210.30591
 209.92301 209.63311 209.44121 209.30531 209.23341 209.56451 209.95061 210.33971
 211.13281 212.31091 213.56101 215.34411 217.27221 219.31531 221.41041 223.49351
 225.55361 227.63771 229.73481 231.84091 233.97001 236.14211 238.39821 240.76831
 243.38941 245.64051 247.64261 249.40771 250.82481 251.94791 252.77001 253.08611
 253.12321 252.89731 252.25741 251.20551 249.81161 247.97271 245.88181 243.71491
 241.50601 239.31011 237.13021 234.96931 232.82941 230.69651 228.72261 226.87971
 225.16281 223.63491 222.26501 221.03711 219.91921 218.87931 217.98341 217.12451
 216.36661 215.54671 214.64481 214.00891 213.45901 214.33138 216.06664 216.09431
 216.44563 218.30182 219.95319 219.57956 219.26648 220.89156 224.72623 227.76349
 230.48630 234.32954 238.88994 243.24203 247.05077 250.64319 254.14995 257.47842
 260.61880 263.58698 266.32861 268.76651 270.91373 272.59964 274.03778 275.26074
 276.17377 276.95633 277.63354 278.22815 278.74277 279.19806 279.61343 279.98975
 280.32819 280.62958 280.89285 281.22839
 366.78100 356.33789 345.77278 334.64166 323.04755 311.24444 299.11733 286.92321
 274.63810 262.53799 250.54988 239.85376 229.97865 221.08554 213.27043 206.27531
 200.11220 195.05309 191.63798 189.68286 188.72275 188.78964 189.62753 190.93842
 192.66630 194.76419 197.03008 199.39197 201.83985 204.32274 206.41363 208.25852
 209.88740 211.03529 211.26718 211.49807 211.43795 211.14584 210.78173 210.41462
 210.03450 209.74739 209.55828 209.42517 209.35606 209.68994 210.07883 210.47072
 211.26661 212.44749 213.70038 215.48627 217.41716 219.46304 221.56093 223.64682
 225.70971 227.79659 229.89648 232.00537 234.13726 236.31215 238.57103 240.94392
 243.56781 245.82170 247.82658 249.59447 251.01436 252.14025 252.96513 253.28402
 253.32391 253.10080 252.46368 251.41457 250.02346 248.18735 246.09923 243.93512
 241.72901 239.53590 237.35879 235.20067 233.06356 230.93345 228.96234 227.12222
 225.40811 223.88300 222.51589 221.29077 220.17566 219.13855 218.24544 217.38932
 216.63421 215.81710 214.91799 214.28487 213.73776 214.48230 216.06812 216.23132
 216.31638 218.10483 219.77966 219.55234 219.30542 220.91533 224.76787 227.78871
 230.50792 234.34802 238.88359 243.20825 247.02182 250.61169 254.14890 257.51398
 260.68628 263.65231 266.37457 268.79834 270.89413 272.60141 273.99469 275.30240
 277.35834 279.12637 280.65631 281.99969 283.16229 284.19089 285.12930 285.97946
 286.74411 287.42499 288.01984 288.77786
 366.78100 356.33793 345.77286 334.64179 323.04772 311.24465 299.11758 286.92351
 274.63845 262.53838 250.55031 239.85424 229.97917 221.08610 213.27103 206.27596
 200.11289 195.05382 191.63875 189.68368 188.72361 188.79054 189.62847 190.93941
 192.66734 194.76527 197.03120 199.39313 201.84106 204.32399 206.41492 208.25985
 209.88878 211.03671 211.26864 211.49957 211.43950 211.14743 210.78336 210.41630
 210.03623 209.74916 209.56009 209.42702 209.35795 209.69188 210.08081 210.47274
 211.26867 212.44960 213.70253 215.48846 217.41939 219.46532 221.56326 223.64919
 225.71212 227.79905 229.89898 232.00791 234.13984 236.31477 238.57370 240.94663
 243.57056 245.82449 247.82942 249.59735 251.01728 252.14322 252.96815 253.28708
 253.32701 253.10394 252.46687 251.41780 250.02673 248.19066 246.10259 243.93852
 241.73245 239.53938 237.36231 235.20424 233.06717 230.93711 228.96604 227.12597
 225.41190 223.88683 222.51976 221.29469 220.17962 219.14255 218.24948 217.39341
 216.63834 215.82127 214.92220 214.28913 213.74207 214.51985 216.18091 216.22780
 216.10600 218.04179 219.77264 219.48141 219.32494 220.96637 224.64563 227.62831
 230.35280 234.29207 238.88708 243.16705 246.98933 250.61880 254.17023 257.58392
 260.77411 263.72241 266.40802 268.80359 270.88785 272.59390 273.80734 275.08286
 276.24588 277.24277 278.10541 278.86288 279.51840 280.09836 280.62750 281.10684
 281.53799 281.92191 282.25729 282.68469
 366.78100 356.33900 345.77500 334.64500 323.05201 311.25001 299.12401 286.93101
 274.64701 262.54801 250.56101 239.86601 229.99202 221.10002 213.28602 206.29202
 200.13002 195.07202 191.65802 189.70403 188.74503 188.81303 189.65203 190.96403
 192.69303 194.79203 197.05904 199.42204 201.87104 204.35504 206.44704 208.29304
 209.92304 211.07204 211.30505 211.53705 211.47805 211.18705 210.82405 210.45805
 210.07905 209.79306 209.60506 209.47306 209.40506 209.74006 210.13006 210.52306
 211.32007 212.50207 213.75607 215.54307 217.47507 219.52207 221.62107 223.70807
 225.77208 227.86008 229.96108 232.07108 234.20408 236.38008 238.64008 241.01409
 243.63909 245.89409 247.90009 249.66909 251.09009 252.21709 253.04310 253.36310
 253.40410 253.18210 252.54610 251.49810 250.10810 248.27310 246.18611 244.02311
 241.81811 239.62611 237.45011 235.29311 233.15711 231.02812 229.05812 227.21912
 225.50612 223.98212 222.61612 221.39212 220.27813 219.24213 218.35013 217.49513
 216.74113 215.92513 215.02713 214.39513 213.84914 214.59302 216.25233 216.32693
 215.72728 217.54857 219.45226 219.44872 219.44803 221.12842 224.72762 227.68996
 230.33168 234.34026 238.95413 243.25967 247.13292 250.78081 254.31824 257.75464
 260.95349 263.89496 266.58505 268.96875 270.99225 272.67209 273.64163 274.48889
 275.22339 275.85294 276.39774 276.87610 277.29007 277.65634 277.99051 278.29324
 278.56552 278.80798 279.01978 279.28970
 366.78100 356.34170 345.78040 334.65309 323.06279 311.26349 299.14019 286.94988
 274.66858 262.57228 250.58798 239.89568 230.02437 221.13507 213.32377 206.33247
 200.17316 195.11786 191.70656 189.75526 188.79895 188.86965 189.71135 191.02605
 192.75775 194.85944 197.12914 199.49484 201.94654 204.43323 206.52793 208.37663
 210.00933 211.16103 211.39672 211.63142 211.57512 211.28682 210.92651 210.56321
 210.18691 209.90361 209.71831 209.58900 209.52370 209.86140 210.25410 210.64979
 211.44949 212.63419 213.89089 215.68058 217.61528 219.66498 221.76668 223.85638
 225.92307 228.01377 230.11747 232.23017 234.36586 236.54456 238.80726 241.18396
 243.81166 246.06935 248.07805 249.84975 251.27345 252.40314 253.23184 253.55454
 253.59824 253.37894 252.74563 251.70033 250.31303 248.48073 246.39642 244.23612
 242.03382 239.84452 237.67122 235.51691 233.38361 231.25731 229.29001 227.45370
 225.74340 224.22210 222.85880 221.63749 220.52619 219.49289 218.60359 217.75129
 216.99998 216.18668 215.29138 214.66208 214.11877 214.73924 216.20020 216.60638
 215.81500 216.99385 218.93738 219.16002 219.44667 221.24966 224.88519 227.85030
 230.53357 234.47278 239.08836 243.39967 247.27464 250.90234 254.42000 257.83316
 261.01935 263.96909 266.69312 269.11703 271.17456 272.91348 273.87766 275.01590
 275.95020 276.75101 277.44400 278.05249 278.57907 279.04498 279.47003 279.85513
 280.20145 280.50986 280.77930 281.12265
 366.78100 356.34259 345.78218 334.65577 323.06636 311.26795 299.14553 286.95612
 274.67571 262.58030 250.59689 239.90548 230.03507 221.14666 213.33625 206.34584
 200.18742 195.13301 191.72260 189.77219 188.81678 188.88837 189.73096 191.04655
 192.77914 194.88173 197.15231 199.51890 201.97149 204.45908 206.55467 208.40426
 210.03785 211.19044 211.42703 211.66262 211.60720 211.31979 210.96038 210.59797
 210.22256 209.94015 209.75574 209.62733 209.56292 209.90151 210.29509 210.69168
 211.49227 212.67786 213.93545 215.72604 217.66163 219.71222 221.81481 223.90540
 225.97298 228.06457 230.16916 232.28275 234.41934 236.59893 238.86252 241.24011
 243.86870 246.12729 248.13687 249.90946 251.33405 252.46464 253.29423 253.61782
 253.66241 253.44400 252.81159 251.76718 250.38076 248.54935 246.46594 244.30653
 242.10512 239.91671 237.74430 235.59089 233.45848 231.33307 229.36665 227.53124
 225.82183 224.30142 222.93901 221.71860 220.60819 219.57578 218.68737 217.83596
 217.08554 216.27313 215.37872 214.75031 214.20790 214.81409 216.20934 216.65253
 215.99730 216.92950 218.72639 218.81006 219.16249 221.13301 224.75929 227.78554
 230.55106 234.51495 239.10019 243.41635 247.28830 250.92580 254.46167 257.87183
 261.05219 263.98468 266.69727 269.10001 271.17636 272.95398 273.87326 275.60403
 278.03195 280.11304 281.91388 283.49515 284.86359 286.07431 287.17892 288.17963
 289.07962 289.88110 290.58124 291.47351
 366.78100 356.34193 345.78086 334.65380 323.06373 311.26466 299.14159 286.95152
 274.67046 262.57439 250.59032 239.89825 230.02719 221.13812 213.32705 206.33598
 200.17691 195.12185 191.71078 189.75971 188.80364 188.87457 189.71651 191.03144
 192.76337 194.86530 197.13524 199.50117 201.95310 204.44003 206.53496 208.38390
 210.01683 211.16876 211.40469 211.63962 211.58356 211.29549 210.93542 210.57235
 210.19628 209.91322 209.72815 209.59908 209.53401 209.87195 210.26488 210.66081
 211.46074 212.64567 213.90261 215.69254 217.62747 219.67740 221.77933 223.86927
 225.93620 228.02713 230.13106 232.24400 234.37993 236.55886 238.82179 241.19872
 243.82666 246.08459 248.09352 249.86545 251.28938 252.41932 253.24825 253.57118
 253.61511 253.39604 252.76298 251.71791 250.33084 248.49877 246.41471 244.25464
 242.05257 239.86350 237.69043 235.53637 233.40330 231.27723 229.31016 227.47409
 225.76403 224.24296 222.87989 221.65882 220.54775 219.51469 218.62562 217.77355
 217.02248 216.20942 215.31435 214.68528 214.14221 214.80838 216.29385 216.60466
 215.92706 216.84520 218.67036 218.73428 218.98616 221.09923 224.68089 227.73648
 230.55710 234.55212 239.14354 243.45209 247.35513 251.00703 254.55296 257.95724
 261.11124 264.03094 266.74670 269.17438 271.28696 273.03778 274.33539 276.10739
 278.50928 280.62546 282.45667 284.06461 285.45615 286.68729 287.81052 288.82809
 289.74329 290.55829 291.27023 292.17755
 366.78100 356.34178 345.78056 334.65334 323.06312 311.26390 299.14068 286.95046
 274.66924 262.57302 250.58880 239.89658 230.02536 221.13614 213.32492 206.33370
 200.17447 195.11925 191.70803 189.75681 188.80059 188.87137 189.71315 191.02793
 192.75971 194.86149 197.13127 199.49705 201.94883 204.43561 206.53039 208.37917
 210.01195 211.16373 211.39951 211.63429 211.57807 211.28985 210.92963 210.56641
 210.19019 209.90697 209.72175 209.59253 209.52731 209.86509 210.25787 210.65365
 211.45342 212.63820 213.89498 215.68476 217.61954 219.66932 221.77110 223.86088
 225.92766 228.01844 230.12222 232.23500 234.37078 236.54956 238.81234 241.18912
 243.81690 246.07468 248.08346 249.85524 251.27902 252.40880 253.23758 253.56036
 253.60414 253.38492 252.75170 251.70648 250.31926 248.48704 246.40282 244.24260
 242.04037 239.85115 237.67793 235.52371 233.39049 231.26427 229.29705 227.46083
 225.75061 224.22939 222.86617 221.64495 220.53373 219.50051 218.61129 217.75907
 217.00785 216.19463 215.29941 214.67019 214.12697 214.81087 216.34532 216.69119
 215.99800 216.55179 218.16263 218.53229 219.01680 221.30418 224.64078 227.86710
 230.65747 234.59250 239.17670 243.49281 247.39780 251.07063 254.61900 258.00742
 261.14371 264.05414 266.76022 269.18829 271.30325 273.13815 274.78806 276.23810
 277.82309 279.68967 281.36267 282.83170 284.10303 285.22781 286.25403 287.18369
 288.01981 288.76440 289.41486 290.24377
 366.78100 356.34226 345.78151 334.65477 323.06503 311.26629 299.14354 286.95380
 274.67306 262.57731 250.59357 239.90183 230.03109 221.14234 213.33160 206.34086
 200.18211 195.12737 191.71663 189.76589 188.81014 188.88140 189.72366 191.03891
 192.77117 194.87343 197.14369 199.50994 201.96220 204.44946 206.54471 208.39397
 210.02723 211.17949 211.41574 211.65100 211.59526 211.30751 210.94777 210.58503
 210.20929 209.92654 209.74180 209.61306 209.54831 209.88657 210.27983 210.67609
 211.47634 212.66160 213.91886 215.70911 217.64437 219.69463 221.79689 223.88714
 225.95440 228.04566 230.14991 232.26317 234.39943 236.57869 238.84194 241.21920
 243.84746 246.10571 248.11497 249.88723 251.31148 252.44174 253.27100 253.59426
 253.63851 253.41977 252.78703 251.74228 250.35554 248.52380 246.44006 244.28031
 242.07857 239.88983 237.71708 235.56334 233.43060 231.30486 229.33811 227.50237
 225.79263 224.27188 222.90914 221.68840 220.57766 219.54491 218.65617 217.80443
 217.05368 216.24094 215.34620 214.71746 214.17471 214.84982 216.36417 216.72345
 216.10046 216.50481 217.90416 218.28596 218.83560 221.18886 224.55933 227.78111
 230.62926 234.62939 239.22798 243.54601 247.46507 251.16095 254.71349 258.06924
 261.16919 264.04727 266.72064 269.12320 271.22278 273.07993 274.84457 276.34860
 277.54361 279.33652 281.10944 282.66617 284.01337 285.20532 286.29279 287.27795
 288.16400 288.95303 289.64230 290.52072
 366.78100 356.34248 345.78196 334.65544 323.06591 311.26739 299.14487 286.95535
 274.67483 262.57931 250.59578 239.90426 230.03374 221.14522 213.33470 206.34418
 200.18565 195.13113 191.72061 189.77009 188.81457 188.88605 189.72852 191.04400
 192.77648 194.87896 197.14944 199.51592 201.96839 204.45587 206.55135 208.40083
 210.03431 211.18679 211.42327 211.65874 211.60322 211.31570 210.95618 210.59366
 210.21814 209.93561 209.75109 209.62257 209.55805 209.89653 210.29001 210.68648
 211.48696 212.67244 213.92992 215.72040 217.65588 219.70635 221.80883 223.89931
 225.96679 228.05827 230.16275 232.27622 234.41270 236.59218 238.85566 241.23314
 243.86162 246.12009 248.12957 249.90205 251.32653 252.45701 253.28649 253.60997
 253.65444 253.43592 252.80340 251.75888 250.37236 248.54084 246.45731 244.29779
 242.09627 239.90775 237.73523 235.58171 233.44918 231.32366 229.35714 227.52162
 225.81210 224.29158 222.92905 221.70853 220.59801 219.56549 218.67697 217.82545
 217.07492 216.26240 215.36788 214.73936 214.19684 214.88049 216.39186 216.67242
 216.05887 216.51701 217.90869 218.13547 218.57652 221.00571 224.49106 227.74332
 230.66594 234.70935 239.30832 243.63930 247.58830 251.31987 254.89731 258.23355
 261.30130 264.15686 266.82098 269.20996 271.32602 273.14346 275.04922 276.57590
 277.75665 279.74246 281.48822 283.02115 284.34775 285.52145 286.59229 287.56238
 288.43484 289.21182 289.89056 290.75552
 366.78100 356.34268 345.78236 334.65604 323.06672 311.26840 299.14608 286.95676
 274.67644 262.58113 250.59781 239.90649 230.03617 221.14785 213.33753 206.34721
 200.18889 195.13457 191.72425 189.77393 188.81861 188.89029 189.73297 191.04865
 192.78133 194.88401 197.15469 199.52138 201.97406 204.46174 206.55742 208.40710
 210.04078 211.19346 211.43014 211.66582 211.61050 211.32318 210.96386 210.60154
 210.22622 209.94390 209.75958 209.63126 209.56694 209.90563 210.29931 210.69599
 211.49667 212.68235 213.94003 215.73071 217.66639 219.71707 221.81975 223.91043
 225.97811 228.06979 230.17447 232.28815 234.42483 236.60451 238.86819 241.24588
 243.87456 246.13324 248.14292 249.91560 251.34028 252.47096 253.30064 253.62432
 253.66900 253.45068 252.81836 251.77404 250.38772 248.55640 246.47308 244.31376
 242.11245 239.92413 237.75181 235.59849 233.46617 231.34085 229.37453 227.53921
 225.82989 224.30957 222.94725 221.72693 220.61661 219.58429 218.69597 217.84465
 217.09433 216.28201 215.38770 214.75938 214.21706 214.89299 216.40630 216.72682
 216.10291 216.37613 217.51031 217.88153 218.60654 221.03415 224.52292 227.84871
 230.71945 234.77919 239.42331 243.75818 247.70226 251.40968 254.94455 258.24341
 261.29352 264.15060 266.82635 269.24014 271.39777 273.40143 275.30145 276.87997
 278.06445 279.67697 281.38776 282.89673 284.20258 285.35794 286.41202 287.36697
 288.22583 288.99063 289.65875 290.51022
 366.78100 356.34339 345.78379 334.65818 323.06957 311.27196 299.15036 286.96175
 274.68214 262.58753 250.60493 239.91432 230.04471 221.15710 213.34750 206.35789
 200.20028 195.14667 191.73707 189.78746 188.83285 188.90524 189.74864 191.06503
 192.79842 194.90181 197.17321 199.54060 201.99399 204.48238 206.57878 208.42917
 210.06356 211.21695 211.45435 211.69074 211.63613 211.34952 210.99092 210.62931
 210.25470 209.97309 209.78949 209.66188 209.59827 209.93766 210.33206 210.72945
 211.53084 212.71723 213.97563 215.76702 217.70341 219.75480 221.85820 223.94959
 226.01798 228.11037 230.21577 232.33016 234.46755 236.64794 238.91234 241.29073
 243.92012 246.17951 248.18991 249.96330 251.38869 252.52009 253.35048 253.67487
 253.72026 253.50266 252.87105 251.82744 250.44183 248.61123 246.52862 244.37001
 242.16940 239.98180 237.81019 235.65758 233.52597 231.40137 229.43576 227.60115
 225.89254 224.37294 223.01133 221.79172 220.68211 219.65051 218.76290 217.91229
 217.16268 216.35108 215.45747 214.82986 214.28825 214.92590 216.38249 216.81979
 216.19331 216.31987 217.22055 217.59396 218.46574 220.93214 224.48982 227.85732
 230.76671 234.85417 239.50874 243.84515 247.76544 251.45372 254.96918 258.23483
 261.26123 264.10657 266.76776 269.16101 271.34277 273.40839 275.29495 276.79752
 278.08087 279.58847 281.15439 282.61395 283.87869 284.99765 286.01852 286.94339
 287.77521 288.51593 289.16299 289.98764
 366.78100 356.34446 345.78592 334.66138 323.07384 311.27730 299.15676 286.96922
 274.69068 262.59714 250.61560 239.92606 230.05752 221.17098 213.36244 206.37390
 200.21736 195.16482 191.75628 189.80774 188.85420 188.92766 189.77212 191.08958
 192.82404 194.92850 197.20096 199.56942 202.02388 204.51334 206.61080 208.46226
 210.09772 211.25218 211.49064 211.72810 211.67456 211.38902 211.03148 210.67094
 210.29740 210.01686 209.83432 209.70778 209.64524 209.98570 210.38116 210.77962
 211.58208 212.76954 214.02900 215.82146 217.75892 219.81138 221.91584 224.00830
 226.07776 228.17122 230.27768 232.39314 234.53160 236.71306 238.97852 241.35798
 243.98844 246.24890 248.26036 250.03482 251.46128 252.59374 253.42520 253.75066
 253.79712 253.58058 252.95004 251.90750 250.52296 248.69342 246.61188 244.45434
 242.25480 240.06826 237.89772 235.74618 233.61564 231.49210 229.52756 227.69402
 225.98648 224.46794 223.10740 221.88886 220.78032 219.74978 218.86324 218.01370
 217.26516 216.45462 215.56208 214.93554 214.39500 214.98434 216.34666 216.82979
 216.19612 216.37778 217.23878 217.49106 218.33914 220.80446 224.39703 227.76355
 230.69510 234.86736 239.53664 243.88356 247.84734 251.56677 255.09258 258.34726
 261.35062 264.17239 266.80109 269.16287 271.32999 273.47241 275.33710 276.73779
 278.02689 279.69730 281.35614 282.86447 284.16980 285.32468 286.37833 287.33286
 288.19138 288.95587 289.62372 290.47482
 366.78100 356.34548 345.78796 334.66444 323.07792 311.28240 299.16288 286.97636
 274.69884 262.60632 250.62579 239.93727 230.06975 221.18423 213.37671 206.38919
 200.23367 195.18215 191.77463 189.82711 188.87459 188.94907 189.79455 191.11303
 192.84851 194.95399 197.22747 199.59695 202.05243 204.54290 206.64138 208.49386
 210.13034 211.28582 211.52530 211.76378 211.71126 211.42674 211.07022 210.71070
 210.33818 210.05866 209.87714 209.75162 209.69010 210.03158 210.42806 210.82754
 211.63102 212.81949 214.07997 215.87345 217.81193 219.86541 221.97089 224.06437
 226.13485 228.22933 230.33681 232.45329 234.59277 236.77525 239.04173 241.42221
 244.05369 246.31517 248.32765 250.10313 251.53060 252.66408 253.49656 253.82304
 253.87052 253.65500 253.02548 251.98396 250.60044 248.77192 246.69140 244.53488
 242.33636 240.15084 237.98132 235.83080 233.70128 231.57876 229.61524 227.78271
 226.07619 224.55867 223.19915 221.98163 220.87411 219.84459 218.95907 218.11055
 217.36303 216.55351 215.66199 215.03647 214.49695 215.03688 216.30614 216.85432
 216.23326 216.31726 217.11261 217.34964 218.24251 220.73712 224.39932 227.77060
 230.75168 234.94037 239.61681 243.99724 247.99246 251.72769 255.24641 258.47968
 261.46533 264.27649 266.89832 269.25427 271.41797 273.59982 275.50867 276.86057
 278.13235 279.90103 281.62918 283.17105 284.50540 285.68597 286.76303 287.73880
 288.61639 289.39789 290.08060 290.95062
 366.78100 356.34672 345.79044 334.66816 323.08288 311.28859 299.17031 286.98503
 274.70875 262.61747 250.63819 239.95091 230.08463 221.20034 213.39406 206.40778
 200.25350 195.20322 191.79694 189.85066 188.89938 188.97509 189.82181 191.14153
 192.87825 194.98497 197.25969 199.63041 202.08713 204.57885 206.67856 208.53228
 210.17000 211.32672 211.56744 211.80716 211.75588 211.47260 211.11731 210.75903
 210.38775 210.10947 209.92919 209.80491 209.74463 210.08735 210.48506 210.88578
 211.69050 212.88022 214.14194 215.93666 217.87638 219.93110 222.03782 224.13253
 226.20425 228.29997 230.40869 232.52641 234.66713 236.85085 239.11857 241.50028
 244.13300 246.39572 248.40944 250.18616 251.61488 252.74960 253.58332 253.91103
 253.95975 253.74547 253.11719 252.07691 250.69463 248.86735 246.78807 244.63279
 242.43550 240.25122 238.08294 235.93366 233.80538 231.68410 229.72182 227.89054
 226.18525 224.66897 223.31069 222.09441 220.98813 219.95985 219.07557 218.22829
 217.48200 216.67372 215.78344 215.15916 214.62088 215.09917 216.24152 216.88200
 216.42320 216.29207 216.87834 217.07333 218.05576 220.62669 224.34984 227.75954
 230.77330 235.00551 239.70422 244.11008 248.12764 251.86812 255.36960 258.56299
 261.51019 264.30978 266.94046 269.30444 271.50378 273.82950 275.68188 276.97681
 278.28140 280.04935 281.79776 283.36786 284.72665 285.92883 287.02563 288.01926
 288.91293 289.70874 290.40393 291.28992
 366.78100 356.34653 345.79006 334.66759 323.08212 311.28764 299.16917 286.98370
 274.70723 262.61576 250.63629 239.94882 230.08235 221.19787 213.39140 206.40493
 200.25046 195.19999 191.79352 189.84705 188.89558 188.97111 189.81763 191.13716
 192.87369 194.98022 197.25475 199.62528 202.08181 204.57334 206.67286 208.52639
 210.16392 211.32045 211.56098 211.80051 211.74904 211.46557 211.11010 210.75162
 210.38015 210.10168 209.92121 209.79674 209.73627 210.07880 210.47633 210.87685
 211.68138 212.87091 214.13244 215.92697 217.86650 219.92103 222.02756 224.12209
 226.19361 228.28914 230.39767 232.51520 234.65573 236.83926 239.10679 241.48832
 244.12085 246.38337 248.39690 250.17343 251.60196 252.73649 253.57002 253.89755
 253.94608 253.73160 253.10313 252.06266 250.68019 248.85272 246.77325 244.61778
 242.42031 240.23584 238.06736 235.91789 233.78942 231.66795 229.70548 227.87401
 226.16854 224.65207 223.29359 222.07712 220.97065 219.94218 219.05771 218.21024
 217.46377 216.65530 215.76483 215.14035 214.60188 215.10083 216.24644 216.77147
 216.59355 216.43022 216.84836 216.87160 217.81960 220.42511 224.21146 227.67844
 230.76614 235.04346 239.75975 244.18802 248.22604 251.98755 255.50381 258.69263
 261.61508 264.38995 267.01242 269.39633 271.63376 273.97125 275.96014 277.26163
 278.52399 280.34030 282.16309 283.76358 285.14871 286.37418 287.49222 288.50510
 289.41608 290.22729 290.93597 291.83908
 366.78100 356.34495 345.78690 334.66285 323.07580 311.27975 299.15969 286.97264
 274.69459 262.60154 250.62049 239.93144 230.06339 221.17734 213.36929 206.38124
 200.22519 195.17313 191.76508 189.81703 188.86398 188.93793 189.78288 191.10083
 192.83578 194.94073 197.21368 199.58263 202.03757 204.52752 206.62547 208.47742
 210.11337 211.26832 211.50727 211.74522 211.69217 211.40712 211.05007 210.69001
 210.31696 210.03691 209.85486 209.72881 209.66676 210.00771 210.40366 210.80261
 211.60556 212.79351 214.05345 215.84640 217.78435 219.83730 221.94225 224.03520
 226.10515 228.19910 230.30605 232.42200 234.56095 236.74289 239.00884 241.38879
 244.01974 246.28069 248.29264 250.06759 251.49454 252.62749 253.45944 253.78539
 253.83233 253.61628 252.98623 251.94418 250.56013 248.73108 246.65003 244.49298
 242.29393 240.10788 237.93783 235.78677 233.65672 231.53367 229.56962 227.73657
 226.02952 224.51147 223.15142 221.93337 220.82532 219.79527 218.90921 218.06016
 217.31211 216.50206 215.61001 214.98396 214.44391 215.02435 216.30652 216.62988
 216.66859 216.58936 216.80150 216.74405 217.67371 220.31226 224.05226 227.54631
 230.65990 235.07385 239.84917 244.27400 248.30739 252.06367 255.57199 258.75378
 261.68976 264.48334 267.11786 269.51767 271.87421 274.36621 276.40613 277.74939
 278.96631 280.61060 282.27753 283.82413 285.16260 286.34677 287.42719 288.40594
 289.28622 290.07013 290.75494 291.62766
 366.78100 356.34486 345.78672 334.66258 323.07544 311.27930 299.15916 286.97202
 274.69387 262.60073 250.61959 239.93045 230.06231 221.17617 213.36803 206.37989
 200.22375 195.17161 191.76347 189.81533 188.86219 188.93605 189.78091 191.09877
 192.83362 194.93848 197.21134 199.58020 202.03506 204.52492 206.62278 208.47464
 210.11050 211.26536 211.50422 211.74208 211.68894 211.40380 211.04666 210.68652
 210.31337 210.03323 209.85109 209.72495 209.66281 210.00367 210.39953 210.79839
 211.60125 212.78911 214.04897 215.84183 217.77969 219.83255 221.93741 224.03027
 226.10012 228.19398 230.30084 232.41670 234.55556 236.73742 239.00328 241.38314
 244.01400 246.27486 248.28672 250.06158 251.48844 252.62130 253.45316 253.77901
 253.82587 253.60973 252.97959 251.93745 250.55331 248.72417 246.64303 244.48589
 242.28675 240.10061 237.93047 235.77933 233.64919 231.52605 229.56191 227.72876
 226.02162 224.50348 223.14334 221.92520 220.81706 219.78692 218.90078 218.05164
 217.30350 216.49336 215.60122 214.97508 214.43494 215.00229 216.29169 216.62273
 216.67905 216.63484 216.66130 216.58713 217.49315 220.14157 223.94788 227.44727
 230.80629 235.12396 239.84872 244.29137 248.32870 252.06445 255.53001 258.67575
 261.60947 264.42926 267.10556 269.61807 272.09219 274.55038 276.58771 278.11154
 279.42178 280.65833 281.88547 283.02264 284.13382 285.14294 286.06360 286.89767
 287.64783 288.31586 288.89941 289.64310
 366.78100 356.34563 345.78826 334.66489 323.07852 311.28315 299.16378 286.97741
 274.70004 262.60767 250.62729 239.93892 230.07155 221.18618 213.37881 206.39144
 200.23607 195.18470 191.77733 189.82996 188.87759 188.95222 189.79785 191.11648
 192.85211 194.95774 197.23137 199.60100 202.05663 204.54725 206.64588 208.49851
 210.13514 211.29077 211.53040 211.76903 211.71666 211.43229 211.07592 210.71655
 210.34418 210.06481 209.88344 209.75807 209.69670 210.03833 210.43496 210.83459
 211.63821 212.82684 214.08747 215.88110 217.81973 219.87336 221.97899 224.07262
 226.14325 228.23788 230.34551 232.46214 234.60177 236.78440 239.05103 241.43166
 244.06329 246.32492 248.33755 250.11317 251.54080 252.67443 253.50706 253.83369
 253.88132 253.66595 253.03658 251.99521 250.61184 248.78347 246.70310 244.54673
 242.34836 240.16299 237.99362 235.84325 233.71388 231.59151 229.62813 227.79576
 226.08939 224.57202 223.21265 221.99528 220.88791 219.85854 218.97317 218.12480
 217.37743 216.56806 215.67669 215.05132 214.51195 215.02438 216.21758 216.68947
 216.68781 216.62968 216.55214 216.36209 217.23959 219.95393 223.89049 227.28209
 230.80051 235.14011 239.89513 244.35510 248.39735 252.12280 255.54930 258.65997
 261.55905 264.35364 267.03851 269.58823 272.14066 274.61917 276.65839 278.20905
 279.59088 280.81445 281.85696 282.62949 283.33441 284.24268 285.15472 285.98550
 286.73270 287.39807 287.97934 288.72009
 366.78100 356.34610 345.78920 334.66631 323.08041 311.28551 299.16661 286.98072
 274.70382 262.61192 250.63202 239.94413 230.07723 221.19233 213.38543 206.39854
 200.24364 195.19274 191.78584 189.83894 188.88705 188.96215 189.80825 191.12735
 192.86346 194.96956 197.24366 199.61376 202.06987 204.56097 206.66007 208.51317
 210.15028 211.30638 211.54648 211.78558 211.73368 211.44979 211.09389 210.73499
 210.36309 210.08420 209.90330 209.77840 209.71750 210.05961 210.45671 210.85681
 211.66091 212.85001 214.11112 215.90522 217.84432 219.89842 222.00453 224.09863
 226.16973 228.26483 230.37294 232.49004 234.63014 236.81324 239.08035 241.46145
 244.09355 246.35565 248.36875 250.14486 251.57296 252.70706 253.54016 253.86727
 253.91537 253.70047 253.07157 252.03068 250.64778 248.81988 246.73998 244.58409
 242.38619 240.20129 238.03239 235.88249 233.75360 231.63170 229.66880 227.83690
 226.13101 224.61411 223.25521 222.03831 220.93142 219.90252 219.01762 218.16972
 217.42283 216.61393 215.72303 215.09813 214.55923 215.04472 216.17609 216.66982
 216.76167 216.68575 216.52798 216.28134 217.14503 219.85364 223.77263 227.20859
 230.76552 235.19850 239.97530 244.44623 248.50534 252.24326 255.67177 258.76761
 261.63385 264.37357 267.00693 269.55106 272.19794 274.74680 276.74432 278.23083
 279.63763 280.89230 281.91504 282.60287 283.05847 283.82596 284.77051 285.62619
 286.39581 287.08115 287.67984 288.44281
 366.78100 356.34720 345.79141 334.66961 323.08482 311.29102 299.17323 286.98843
 274.71264 262.62184 250.64305 239.95625 230.09046 221.20666 213.40086 206.41507
 200.26127 195.21148 191.80568 189.85989 188.90909 188.98530 189.83250 191.15271
 192.88991 194.99712 197.27232 199.64353 202.10073 204.59293 206.69314 208.54734
 210.18555 211.34275 211.58396 211.82416 211.77337 211.49057 211.13578 210.77798
 210.40719 210.12939 209.94959 209.82580 209.76600 210.10921 210.50741 210.90862
 211.71382 212.90403 214.16623 215.96144 217.90164 219.95685 222.06405 224.15926
 226.23146 228.32766 230.43687 232.55507 234.69628 236.88048 239.14869 241.53089
 244.16410 246.42730 248.44151 250.21871 251.64792 252.78312 253.61732 253.94553
 253.99473 253.78094 253.15314 252.11335 250.73155 248.90476 246.82596 244.67117
 242.47437 240.29058 238.12278 235.97399 233.84619 231.72539 229.76360 227.93280
 226.22801 224.71221 223.35442 222.13862 221.03283 220.00503 219.12124 218.27444
 217.52865 216.72085 215.83105 215.20726 214.66946 215.10159 216.11153 216.65065
 216.77518 216.77679 216.63397 216.33107 217.13040 219.77591 223.63335 227.14384
 230.72810 235.24260 240.02765 244.50223 248.55959 252.29970 255.73416 258.83395
 261.70108 264.42636 267.04434 269.59943 272.26416 274.89737 276.99573 278.53726
 279.90231 281.12811 282.14694 282.65591 283.16486 284.09848 284.98026 285.77908
 286.49753 287.13733 287.69623 288.40851
 366.78100 356.34733 345.79167 334.67000 323.08533 311.29166 299.17400 286.98933
 274.71366 262.62300 250.64433 239.95766 230.09199 221.20833 213.40266 206.41699
 200.26333 195.21366 191.80799 189.86232 188.91166 188.98799 189.83532 191.15565
 192.89299 195.00032 197.27565 199.64699 202.10432 204.59665 206.69698 208.55132
 210.18965 211.34698 211.58832 211.82865 211.77798 211.49531 211.14065 210.78298
 210.41231 210.13465 209.95498 209.83131 209.77164 210.11498 210.51331 210.91464
 211.71998 212.91031 214.17264 215.96797 217.90831 219.96364 222.07097 224.16630
 226.23864 228.33497 230.44430 232.56264 234.70397 236.88830 239.15663 241.53897
 244.17230 246.43563 248.44997 250.22730 251.65663 252.79196 253.62630 253.95463
 254.00396 253.79030 253.16263 252.12296 250.74129 248.91463 246.83596 244.68129
 242.48463 240.30096 238.13329 235.98462 233.85696 231.73629 229.77462 227.94395
 226.23929 224.72362 223.36595 222.15029 221.04462 220.01695 219.13328 218.28662
 217.54095 216.73328 215.84362 215.21995 214.68228 215.09933 216.08032 216.67194
 216.76831 216.67410 216.59576 216.29549 217.05527 219.71071 223.59647 227.02711
 230.70679 235.26497 240.06735 244.52528 248.56252 252.27812 255.69778 258.80676
 261.69287 264.42294 267.01517 269.55597 272.30963 275.04233 277.18100 278.77484
 280.20776 281.44244 282.35306 282.87939 283.25375 283.91052 284.73340 285.48456
 286.16013 286.76175 287.28729 287.95706
 366.78100 356.34694 345.79088 334.66882 323.08375 311.28969 299.17163 286.98657
 274.71051 262.61945 250.64039 239.95332 230.08726 221.20320 213.39714 206.41108
 200.25702 195.20695 191.80089 189.85483 188.90377 188.97971 189.82665 191.14659
 192.88352 194.99046 197.26540 199.63634 202.09328 204.58522 206.68516 208.53909
 210.17703 211.33397 211.57491 211.81485 211.76379 211.48073 211.12566 210.76760
 210.39654 210.11848 209.93842 209.81436 209.75430 210.09723 210.49517 210.89611
 211.70105 212.89099 214.15293 215.94786 217.88780 219.94274 222.04968 224.14462
 226.21656 228.31250 230.42143 232.53937 234.68031 236.86425 239.13219 241.51413
 244.14707 246.41000 248.42394 250.20088 251.62982 252.76476 253.59870 253.92664
 253.97557 253.76151 253.13345 252.09339 250.71133 248.88427 246.80521 244.65014
 242.45308 240.26902 238.10096 235.95190 233.82384 231.70277 229.74071 227.90965
 226.20459 224.68853 223.33047 222.11441 221.00834 219.98028 219.09622 218.24916
 217.50310 216.69504 215.80498 215.18091 214.64285 215.06656 216.06602 216.65079
 217.08611 216.83762 216.53769 216.06776 216.78821 219.50308 223.55684 226.84261
 230.67937 235.28038 240.12347 244.57814 248.60977 252.31482 255.73309 258.84152
 261.72412 264.44135 267.01672 269.57852 272.31412 275.02701 277.19949 278.84726
 280.28656 281.48462 282.34094 282.88971 283.22299 283.52521 284.01782 284.70633
 285.42471 286.06442 286.62326 287.33542
 366.78100 356.34722 345.79143 334.66965 323.08487 311.29108 299.17330 286.98852
 274.71273 262.62195 250.64317 239.95638 230.09060 221.20682 213.40103 206.41525
 200.26146 195.21168 191.80590 189.86011 188.90933 188.98555 189.83276 191.15298
 192.89020 194.99741 197.27263 199.64385 202.10106 204.59328 206.69350 208.54771
 210.18593 211.34315 211.58436 211.82458 211.77380 211.49101 211.13623 210.77845
 210.40766 210.12988 209.95009 209.82631 209.76653 210.10974 210.50796 210.90918
 211.71439 212.90461 214.16683 215.96204 217.90226 219.95748 222.06469 224.15991
 226.23213 228.32834 230.43756 232.55578 234.69699 236.88121 239.14943 241.53164
 244.16486 246.42808 248.44229 250.21951 251.64872 252.78394 253.61816 253.94637
 253.99559 253.78181 253.15402 252.11424 250.73246 248.90567 246.82689 244.67211
 242.47532 240.29154 238.12376 235.97497 233.84719 231.72641 229.76462 227.93384
 226.22906 224.71327 223.35549 222.13971 221.03392 220.00614 219.12236 218.27557
 217.52979 216.72200 215.83222 215.20844 214.67065 215.07518 216.03093 216.59082
 217.26855 217.08971 216.54559 215.93602 216.62251 219.29343 223.40456 226.66803
 230.64482 235.31128 240.18636 244.65845 248.69783 252.41685 255.85046 258.95703
 261.82944 264.51843 267.03491 269.51791 272.23654 275.01358 277.22647 278.87668
 280.31128 281.49252 282.30621 282.78989 283.13083 283.40683 283.73871 284.23306
 284.83942 285.47064 286.02679 286.73557
 366.78100 356.34747 345.79194 334.67040 323.08587 311.29234 299.17481 286.99028
 274.71474 262.62421 250.64568 239.95915 230.09362 221.21008 213.40455 206.41902
 200.26549 195.21596 191.81042 189.86489 188.91436 188.99083 189.83830 191.15876
 192.89623 195.00370 197.27917 199.65064 202.10810 204.60057 206.70104 208.55551
 210.19398 211.35144 211.59291 211.83338 211.78285 211.50032 211.14578 210.78825
 210.41772 210.14019 209.96066 209.83712 209.77759 210.12106 210.51953 210.92100
 211.72646 212.91693 214.17940 215.97487 217.91534 219.97080 222.07827 224.17374
 226.24621 228.34268 230.45214 232.57061 234.71208 236.89655 239.16502 241.54748
 244.18095 246.44442 248.45889 250.23636 251.66582 252.80129 253.63576 253.96423
 254.01370 253.80016 253.17263 252.13310 250.75157 248.92504 246.84650 244.69197
 242.49544 240.31191 238.14438 235.99584 233.86831 231.74778 229.78625 227.95572
 226.25118 224.73565 223.37812 222.16259 221.05706 220.02952 219.14599 218.29946
 217.55393 216.74640 215.85686 215.23333 214.69580 215.08620 216.00854 216.59901
 217.23978 217.17741 216.59309 215.91896 216.54585 219.15115 223.24991 226.62979
 230.64262 235.34631 240.23170 244.72072 248.76596 252.48691 255.92943 259.04269
 261.91949 264.59634 267.07211 269.47980 272.15756 275.02805 277.29581 278.95111
 280.39493 281.55585 282.29681 282.69858 282.97894 283.21634 283.57248 284.10666
 284.66385 285.25473 285.78015 286.44977
 366.78100 356.34715 345.79130 334.66946 323.08461 311.29076 299.17291 286.98806
 274.71222 262.62137 250.64252 239.95567 230.08982 221.20598 213.40013 206.41428
 200.26043 195.21058 191.80474 189.85889 188.90804 188.98419 189.83134 191.15150
 192.88865 194.99580 197.27095 199.64210 202.09926 204.59141 206.69156 208.54571
 210.18386 211.34102 211.58217 211.82232 211.77147 211.48862 211.13378 210.77593
 210.40508 210.12723 209.94738 209.82354 209.76369 210.10684 210.50499 210.90614
 211.71130 212.90145 214.16360 215.95875 217.89890 219.95406 222.06121 224.15636
 226.22851 228.32466 230.43382 232.55197 234.69312 236.87727 239.14542 241.52758
 244.16073 246.42388 248.43803 250.21518 251.64434 252.77949 253.61364 253.94179
 253.99094 253.77710 253.14925 252.10940 250.72755 248.90070 246.82186 244.66701
 242.47016 240.28631 238.11846 235.96962 233.84177 231.72092 229.75907 227.92822
 226.22338 224.70753 223.34968 222.13383 221.02798 220.00014 219.11629 218.26944
 217.52359 216.71574 215.82590 215.20205 214.66420 215.06764 216.02083 216.63249
 217.19234 217.18913 216.61415 215.91362 216.49692 219.04742 223.12743 226.59720
 230.64571 235.37274 240.26428 244.75169 248.79161 252.51126 255.96269 259.09207
 261.98502 264.66412 267.12445 269.47589 272.07278 275.00732 277.38412 279.07736
 280.51431 281.64838 282.32764 282.62930 282.79877 282.94266 283.29028 283.87372
 284.41406 285.01324 285.57809 286.29794
 366.78100 356.34671 345.79042 334.66813 323.08284 311.28855 299.17026 286.98497
 274.70867 262.61738 250.63809 239.95080 230.08451 221.20022 213.39393 206.40764
 200.25335 195.20306 191.79677 189.85048 188.89919 188.97490 189.82161 191.14131
 192.87802 194.98473 197.25944 199.63015 202.08686 204.57857 206.67828 208.53199
 210.16970 211.32641 211.56712 211.80683 211.75554 211.47225 211.11695 210.75866
 210.38737 210.10908 209.92879 209.80450 209.74421 210.08692 210.48463 210.88534
 211.69005 212.87976 214.14147 215.93618 217.87589 219.93060 222.03730 224.13201
 226.20372 228.29943 230.40814 232.52585 234.66656 236.85027 239.11798 241.49969
 244.13240 246.39511 248.40882 250.18553 251.61424 252.74894 253.58265 253.91036
 253.95907 253.74478 253.11649 252.07620 250.69391 248.86662 246.78733 244.63204
 242.43475 240.25046 238.08217 235.93288 233.80458 231.68329 229.72100 227.88971
 226.18442 224.66813 223.30984 222.09355 220.98726 219.95897 219.07468 218.22739
 217.48110 216.67281 215.78252 215.15822 214.61993 215.04295 216.04237 216.65500
 217.20863 217.17657 216.59325 215.89030 216.44054 218.93208 222.97844 226.55936
 230.65492 235.40344 240.29216 244.77019 248.80995 252.54173 256.01099 259.15970
 262.06418 264.73407 267.16959 269.47583 272.01392 274.98373 277.46680 279.21454
 280.66690 281.79013 282.41623 282.60645 282.65186 282.70456 283.09146 283.63095
 284.15063 284.71927 285.28906 286.01517
 366.78100 356.34630 345.78959 334.66689 323.08118 311.28648 299.16777 286.98207
 274.70536 262.61366 250.63396 239.94625 230.07955 221.19484 213.38814 206.40143
 200.24673 195.19602 191.78932 189.84261 188.89091 188.96621 189.81250 191.13180
 192.86809 194.97439 197.24868 199.61898 202.07527 204.56657 206.66587 208.51916
 210.15646 211.31275 211.55305 211.79234 211.74064 211.45693 211.10123 210.74253
 210.37082 210.09212 209.91141 209.78671 209.72600 210.06830 210.46559 210.86589
 211.67019 212.85948 214.12078 215.91507 217.85437 219.90866 222.01496 224.10925
 226.18055 228.27584 230.38414 232.50144 234.64173 236.82503 239.09232 241.47362
 244.10591 246.36821 248.38150 250.15780 251.58610 252.72039 253.55369 253.88098
 253.92928 253.71457 253.08587 252.04516 250.66246 248.83476 246.75505 244.59935
 242.40164 240.21694 238.04823 235.89853 233.76982 231.64812 229.68541 227.85371
 226.14801 224.63130 223.27260 222.05589 220.94919 219.92048 219.03578 218.18807
 217.44137 216.63267 215.74196 215.11726 214.57855 215.02049 216.06462 216.68085
 217.24484 217.17091 216.50313 215.76952 216.34637 218.84152 222.88419 226.52548
 230.66118 235.43079 240.33141 244.81721 248.87334 252.62466 256.10834 259.25748
 262.15012 264.80078 267.21643 269.48026 271.93240 274.89856 277.51071 279.31363
 280.76099 281.88208 282.51324 282.65146 282.60699 282.60889 282.92407 283.41367
 283.94339 284.52005 285.08148 285.79694
 354.97500 345.04800 334.58700 324.11500 313.32600 302.53700 291.65000 280.76700
 269.93100 259.19300 248.62200 238.61700 229.08700 220.35500 212.54000 205.53500
 199.46400 194.49300 191.14300 189.19000 188.08900 188.01400 188.72400 189.90600
 191.46900 193.38200 195.40300 197.55600 199.80700 202.06000 204.28800 206.47900
 208.55200 210.37800 212.02500 213.65900 214.99800 216.11800 217.17200 218.25900
 219.49400 220.64500 221.67900 222.61400 223.54500 224.98200 226.57100 228.19000
 229.79700 231.81100 233.86500 235.97200 238.24200 240.55300 242.89900 245.25300
 247.48800 249.53500 251.36600 252.84800 254.09800 255.16700 256.02700 256.25300
 256.09500 255.54300 253.93500 252.56600 251.38400 250.24500 249.05200 247.70100
 246.01600 243.99600 241.78400 239.39300 236.81300 234.22300 231.65800 229.14400
 226.74000 224.47300 222.33500 220.32500 218.44000 216.67700 214.96200 213.47200
 212.20000 211.10800 210.26000 209.63900 209.24400 209.03100 209.05800 209.33300
 209.78400 210.62600 211.33100 212.39100 213.62500 214.84668 217.72949 219.47640
 220.32566 220.86828 220.88710 220.27371 219.43733 218.84250 219.04934 220.86203
 222.60583 225.72206 229.03064 232.61777 236.12270 239.51333 242.70767 245.68587
 248.41061 250.90679 253.19353 254.91714 256.48655 257.94920 259.39966 260.69384
 261.81714 262.77997 263.71679 264.54570 265.26305 265.89772 266.47676 267.00133
 267.47312 267.89325 268.26027 268.72800
