|-------------------------------------------------------------------------|
|   File Name : in_temp.dat
|   Subject   : temperature profiles used for initial guess atmosphere
|   File Type : input of gmtr
|   Data Type : atmospherical data
|   Author/s  : WRF-Chem
|   Date      : Fri Jul 26 15:39:24 2024
|-------------------------------------------------------------------------|

 WRF-Chem temperature
#
 values of T (K)    (8f10.5)
#
 354.97500 345.04800 334.58700 324.11500 313.32600 302.53700 291.65000 280.76700
 269.93100 259.19300 248.62200 238.61700 229.08700 220.35500 212.54000 205.53500
 199.46400 194.49300 191.14300 189.19000 188.08900 188.01400 188.72400 189.90600
 191.46900 193.38200 195.40300 197.55600 199.80700 202.06000 204.28800 206.47900
 208.55200 210.37800 212.02500 213.65900 214.99800 216.11800 217.17200 218.25900
 219.49400 220.64500 221.67900 222.61400 223.54500 224.98200 226.57100 228.19000
 229.79700 231.81100 233.86500 235.97200 238.24200 240.55300 242.89900 245.25300
 247.48800 249.53500 251.36600 252.84800 254.09800 255.16700 256.02700 256.25300
 256.09500 255.54300 253.93500 252.56600 251.38400 250.24500 249.05200 247.70100
 246.01600 243.99600 241.78400 239.39300 236.81300 234.22300 231.65800 229.14400
 226.74000 224.47300 222.33500 220.32500 218.44000 216.67700 214.96200 213.47200
 212.20000 211.10800 210.26000 209.63900 209.24400 209.03100 209.05800 209.33300
 209.78400 210.62600 211.33100 212.39100 213.62500 214.84668 217.72949 219.47640
 220.32566 220.86828 220.88710 220.27371 219.43733 218.84250 219.04934 220.86203
 222.60583 225.72206 229.03064 232.61777 236.12270 239.51333 242.70767 245.68587
 248.41061 250.90679 253.19353 254.91714 256.48655 257.94920 259.39966 260.69384
 261.81714 262.77997 263.71679 264.54570 265.26305 265.89772 266.47676 267.00133
 267.47312 267.89325 268.26027 268.72800
 366.78100 356.33500 345.76700 334.63300 323.03600 311.23000 299.10000 286.90300
 274.61500 262.51200 250.52100 239.82200 229.94400 221.04800 213.23000 206.23200
 200.06600 195.00400 191.58600 189.62800 188.66500 188.72900 189.56400 190.87200
 192.59700 194.69200 196.95500 199.31400 201.75900 204.23900 206.32700 208.16900
 209.79500 210.94000 211.16900 211.39700 211.33400 211.03900 210.67200 210.30200
 209.91900 209.62900 209.43700 209.30100 209.22900 209.56000 209.94600 210.33500
 211.12800 212.30600 213.55600 215.33900 217.26700 219.31000 221.40500 223.48800
 225.54800 227.63200 229.72900 231.83500 233.96400 236.13600 238.39200 240.76200
 243.38300 245.63400 247.63600 249.40100 250.81800 251.94100 252.76300 253.07900
 253.11600 252.89000 252.25000 251.19800 249.80400 247.96500 245.87400 243.70700
 241.49800 239.30200 237.12200 234.96100 232.82100 230.68800 228.71400 226.87100
 225.15400 223.62600 222.25600 221.02800 219.91000 218.87000 217.97400 217.11500
 216.35700 215.53700 214.63500 213.99900 213.44900 212.85855 212.01316 212.61654
 214.26826 216.08686 218.14273 220.53346 223.40855 226.78828 231.49734 235.90155
 239.42278 243.28576 247.23140 251.11907 254.80144 258.23331 261.38913 264.27520
 266.89312 269.26852 271.44504 273.08845 274.58484 275.98591 277.39845 278.65879
 279.75272 280.69038 281.56708 282.34086 283.01050 283.60295 284.14348 284.63317
 285.07358 285.46577 285.80838 286.24500
 381.81900 372.39900 361.20600 349.77600 337.62200 324.85300 311.81000 298.35300
 284.86000 271.32400 258.56100 246.30400 236.08700 226.79600 218.44800 211.29000
 205.52200 200.89400 197.38100 194.84800 193.01500 192.31500 192.25000 192.43100
 192.91200 193.53700 194.13600 194.71200 195.26200 195.83100 196.39300 196.97600
 197.60400 198.14900 198.58400 199.05700 199.69500 200.37800 201.05400 201.70800
 202.31300 202.85700 203.35500 203.86200 204.56900 205.29700 206.02600 206.98700
 208.19300 209.44100 210.96900 212.57600 214.46200 216.51300 218.63000 220.85300
 223.34100 225.96200 228.73900 231.69700 234.70600 237.70600 240.69200 243.65700
 246.73700 249.69900 252.52100 255.06300 257.29000 259.23300 260.63300 261.68000
 262.46100 262.79800 262.69100 262.22400 261.06900 259.52500 257.70700 255.50700
 253.00100 250.30200 247.39800 244.45200 241.65400 239.05400 236.73300 234.59000
 232.59500 230.72500 228.83400 226.82600 224.66600 222.38700 220.10400 217.71500
 215.45900 213.06600 210.54600 208.09300 205.35400 202.08130 196.05959 200.71215
 209.01611 216.90438 223.84126 229.78593 235.00632 240.20838 245.98943 250.68668
 254.32982 257.93487 261.55666 264.96801 268.15192 271.06452 273.76717 276.25691
 278.57680 280.74479 282.77456 284.60533 286.27232 287.81705 289.31715 290.65561
 291.81734 292.81312 293.70701 294.49387 295.17482 295.77730 296.32696 296.82492
 297.27278 297.67160 298.02000 298.46400
 399.33000 389.90700 379.81300 368.66800 357.52200 345.30100 333.07400 320.22700
 307.21600 293.84800 280.37600 267.29600 254.61000 242.98700 232.15100 221.97700
 212.67200 204.28600 197.66900 192.82100 189.48600 187.45200 186.81400 187.08900
 187.78100 189.05400 190.64800 192.54200 194.63000 196.75200 198.67100 200.15800
 201.53500 202.48700 202.97500 203.34000 203.53900 203.49700 203.38500 203.24700
 203.00500 202.78600 202.60300 202.43700 202.42600 202.88800 203.42000 203.95100
 204.89500 205.99200 207.30100 208.95800 210.73800 213.10000 215.56400 218.18000
 220.96600 223.91800 226.96100 230.09200 233.29300 236.55700 239.95500 243.53700
 246.84500 249.39000 251.54200 253.47400 255.19500 256.48400 257.43100 258.05900
 258.21200 258.04000 257.58200 256.64300 255.23900 253.50700 251.40800 249.05600
 246.57600 243.99400 241.38900 238.83000 236.34400 233.98600 231.96900 230.11800
 228.42300 226.89900 225.54800 224.29700 223.10500 221.96500 220.95800 220.11300
 219.49000 218.92000 218.32500 217.88100 217.42300 216.96366 216.35568 216.80261
 217.73415 218.28582 218.64258 219.10077 220.44626 222.53987 226.38451 230.35736
 233.59734 237.39164 241.29814 245.22796 248.98002 252.51130 255.78595 258.80109
 261.54781 264.05210 266.34239 268.04198 269.58951 271.01303 272.35754 273.55718
 274.59842 275.49092 276.28989 276.99307 277.60161 278.14001 278.63122 279.07623
 279.47646 279.83287 280.14422 280.54100
 399.73800 389.78500 379.66200 368.15100 356.64100 344.35000 331.79200 318.88800
 305.72600 292.49300 279.20900 266.73800 254.69600 244.21100 234.45700 225.43300
 217.56900 210.45100 204.30000 199.30600 195.45800 192.57600 191.02700 190.38600
 190.23900 190.53400 191.16600 191.92500 192.79500 193.76600 194.73200 195.31200
 195.80000 196.05200 196.11500 196.11500 196.03900 195.72300 195.34000 194.98900
 194.75100 194.79200 195.13300 195.59800 196.50600 198.13600 199.85800 201.56600
 204.17900 206.82300 209.89300 213.28400 216.82800 220.60500 224.38700 228.20900
 232.03200 235.82500 239.56000 243.25800 246.84500 250.20100 253.70900 257.46800
 261.53000 264.22100 266.60100 268.68100 270.32900 271.74100 272.83600 273.47400
 273.89800 274.00200 273.75700 273.28800 272.37100 271.10000 269.58900 267.77900
 265.81600 263.72100 261.39300 258.91600 256.29800 253.42300 250.33100 247.11400
 243.83700 240.52900 237.24900 233.99900 230.72800 227.51500 224.25400 220.95200
 217.62700 213.65600 210.12100 206.78900 204.01000 201.99491 199.07309 198.76551
 199.40006 200.48994 201.46112 202.31912 203.45100 204.96110 207.47502 210.85391
 213.70530 217.29629 220.99574 224.72316 228.28753 231.64854 234.68024 237.40893
 239.70644 241.60899 243.46854 245.67368 247.68154 249.52395 251.24767 252.78566
 254.12057 255.26479 256.23740 257.09036 257.82852 258.48160 259.07744 259.61723
 260.10271 260.53504 260.91270 261.39400
 399.73800 389.78500 379.66200 368.15100 356.64100 344.35000 331.79200 318.88800
 305.72600 292.49300 279.20900 266.73800 254.69600 244.21100 234.45700 225.43300
 217.56900 210.45100 204.30000 199.30600 195.45800 192.57600 191.02700 190.38600
 190.23900 190.53400 191.16600 191.92500 192.79500 193.76600 194.73200 195.31200
 195.80000 196.05200 196.11500 196.11500 196.03900 195.72300 195.34000 194.98900
 194.75100 194.79200 195.13300 195.59800 196.50600 198.13600 199.85800 201.56600
 204.17900 206.82300 209.89300 213.28400 216.82800 220.60500 224.38700 228.20900
 232.03200 235.82500 239.56000 243.25800 246.84500 250.20100 253.70900 257.46800
 261.53000 264.22100 266.60100 268.68100 270.32900 271.74100 272.83600 273.47400
 273.89800 274.00200 273.75700 273.28800 272.37100 271.10000 269.58900 267.77900
 265.81600 263.72100 261.39300 258.91600 256.29800 253.42300 250.33100 247.11400
 243.83700 240.52900 237.24900 233.99900 230.72800 227.51500 224.25400 220.95200
 217.62700 213.65600 210.12100 206.78900 204.01000 201.99491 199.07309 198.76551
 199.40006 200.48994 201.46112 202.31912 203.45100 204.96110 207.47502 210.85391
 213.70530 217.29629 220.99574 224.72316 228.28753 231.64854 234.68024 237.40893
 239.70644 241.60899 243.46854 245.67368 247.68154 249.52395 251.24767 252.78566
 254.12057 255.26479 256.23740 257.09036 257.82852 258.48160 259.07744 259.61723
 260.10271 260.53504 260.91270 261.39400
 399.33000 389.90700 379.81300 368.66800 357.52200 345.30100 333.07400 320.22700
 307.21600 293.84800 280.37600 267.29600 254.61000 242.98700 232.15100 221.97700
 212.67200 204.28600 197.66900 192.82100 189.48600 187.45200 186.81400 187.08900
 187.78100 189.05400 190.64800 192.54200 194.63000 196.75200 198.67100 200.15800
 201.53500 202.48700 202.97500 203.34000 203.53900 203.49700 203.38500 203.24700
 203.00500 202.78600 202.60300 202.43700 202.42600 202.88800 203.42000 203.95100
 204.89500 205.99200 207.30100 208.95800 210.73800 213.10000 215.56400 218.18000
 220.96600 223.91800 226.96100 230.09200 233.29300 236.55700 239.95500 243.53700
 246.84500 249.39000 251.54200 253.47400 255.19500 256.48400 257.43100 258.05900
 258.21200 258.04000 257.58200 256.64300 255.23900 253.50700 251.40800 249.05600
 246.57600 243.99400 241.38900 238.83000 236.34400 233.98600 231.96900 230.11800
 228.42300 226.89900 225.54800 224.29700 223.10500 221.96500 220.95800 220.11300
 219.49000 218.92000 218.32500 217.88100 217.42300 216.96366 216.35568 216.80261
 217.73415 218.28582 218.64258 219.10077 220.44626 222.53987 226.38451 230.35736
 233.59734 237.39164 241.29814 245.22796 248.98002 252.51130 255.78595 258.80109
 261.54781 264.05210 266.34239 268.04198 269.58951 271.01303 272.35754 273.55718
 274.59842 275.49092 276.28989 276.99307 277.60161 278.14001 278.63122 279.07623
 279.47646 279.83287 280.14422 280.54100
 381.81900 372.39900 361.20600 349.77600 337.62200 324.85300 311.81000 298.35300
 284.86000 271.32400 258.56100 246.30400 236.08700 226.79600 218.44800 211.29000
 205.52200 200.89400 197.38100 194.84800 193.01500 192.31500 192.25000 192.43100
 192.91200 193.53700 194.13600 194.71200 195.26200 195.83100 196.39300 196.97600
 197.60400 198.14900 198.58400 199.05700 199.69500 200.37800 201.05400 201.70800
 202.31300 202.85700 203.35500 203.86200 204.56900 205.29700 206.02600 206.98700
 208.19300 209.44100 210.96900 212.57600 214.46200 216.51300 218.63000 220.85300
 223.34100 225.96200 228.73900 231.69700 234.70600 237.70600 240.69200 243.65700
 246.73700 249.69900 252.52100 255.06300 257.29000 259.23300 260.63300 261.68000
 262.46100 262.79800 262.69100 262.22400 261.06900 259.52500 257.70700 255.50700
 253.00100 250.30200 247.39800 244.45200 241.65400 239.05400 236.73300 234.59000
 232.59500 230.72500 228.83400 226.82600 224.66600 222.38700 220.10400 217.71500
 215.45900 213.06600 210.54600 208.09300 205.35400 202.08130 196.05959 200.71215
 209.01611 216.90438 223.84126 229.78593 235.00632 240.20838 245.98943 250.68668
 254.32982 257.93487 261.55666 264.96801 268.15192 271.06452 273.76717 276.25691
 278.57680 280.74479 282.77456 284.60533 286.27232 287.81705 289.31715 290.65561
 291.81734 292.81312 293.70701 294.49387 295.17482 295.77730 296.32696 296.82492
 297.27278 297.67160 298.02000 298.46400
 366.78100 356.32784 345.75267 334.61151 323.00734 311.19418 299.05701 286.85285
 274.55768 262.44752 250.44935 239.74319 229.85802 220.95486 213.12969 206.12453
 199.95136 194.88220 191.45703 189.49187 188.52170 188.57854 189.40637 190.70721
 192.42504 194.51288 196.76871 199.12055 201.55838 204.03122 206.11205 207.94689
 209.56572 210.70356 210.92539 211.14623 211.07606 210.77390 210.39974 210.02257
 209.63241 209.33524 209.13608 208.99291 208.91375 209.23758 209.61642 209.99825
 210.78409 211.95492 213.19776 214.97359 216.89443 218.93026 221.01810 223.09393
 225.14677 227.22360 229.31344 231.41227 233.53411 235.69894 237.94778 240.31061
 242.92445 245.16828 247.16312 248.92095 250.33079 251.44662 252.26146 252.57029
 252.60013 252.36696 251.71980 250.66064 249.25947 247.41331 245.31514 243.14098
 240.92481 238.72165 236.53448 234.36632 232.21915 230.07899 228.09782 226.24766
 224.52349 222.98833 221.61116 220.37600 219.25083 218.20367 217.30050 216.43434
 215.66917 214.84201 213.93284 213.28968 212.73251 212.57617 212.21596 213.26820
 215.21854 217.47430 218.83984 219.02261 220.19461 223.37560 228.33789 232.88824
 236.67047 240.49655 244.18803 247.67665 250.95160 253.72842 256.02148 258.31085
 261.45425 264.42828 266.69724 268.47501 270.22232 272.09314 273.90982 275.52509
 276.88754 278.18961 279.55243 280.90015 282.08578 283.13831 284.10367 284.98676
 285.78677 286.50775 287.14679 288.00085
 366.78100 356.32803 345.75306 334.61209 323.00812 311.19515 299.05818 286.85421
 274.55924 262.44927 250.45130 239.74532 229.86035 220.95738 213.13241 206.12744
 199.95447 194.88550 191.46053 189.49556 188.52559 188.58262 189.41065 190.71168
 192.42971 194.51774 196.77377 199.12580 201.56383 204.03686 206.11789 207.95292
 209.57194 210.70997 210.93200 211.15303 211.08306 210.78109 210.40712 210.03015
 209.64018 209.34321 209.14424 209.00127 208.92230 209.24633 209.62536 210.00739
 210.79342 211.96445 213.20748 214.98351 216.90454 218.94057 221.02859 223.10462
 225.15765 227.23468 229.32471 231.42374 233.54577 235.71080 237.95983 240.32286
 242.93689 245.18092 247.17595 248.93398 250.34401 251.46004 252.27507 252.58410
 252.61413 252.38116 251.73419 250.67521 249.27424 247.42827 245.33030 243.15633
 240.94036 238.73739 236.55042 234.38245 232.23548 230.09551 228.11454 226.26457
 224.54060 223.00563 221.62866 220.39369 219.26872 218.22175 217.31878 216.45281
 215.68783 214.86086 213.95189 213.30892 212.75195 212.62070 212.31833 213.38893
 215.28310 217.52364 219.00014 219.26686 220.36458 223.41730 228.26875 232.75043
 236.48804 240.31004 244.02242 247.50882 250.73849 253.47737 255.80289 258.17551
 261.30438 264.25610 266.53482 268.33054 270.07101 271.92096 273.73526 275.37305
 276.77719 278.11859 279.49158 280.84027 282.02664 283.07913 284.04398 284.92700
 285.72614 286.44635 287.08435 287.93710
 366.78100 356.32821 345.75342 334.61263 323.00884 311.19605 299.05926 286.85547
 274.56068 262.45089 250.45310 239.74731 229.86252 220.95973 213.13494 206.13015
 199.95736 194.88857 191.46378 189.49899 188.52920 188.58641 189.41462 190.71583
 192.43404 194.52225 196.77846 199.13067 201.56888 204.04209 206.12330 207.95851
 209.57772 210.71593 210.93814 211.15935 211.08956 210.78777 210.41398 210.03719
 209.64740 209.35061 209.15182 209.00903 208.93024 209.25445 209.63365 210.01586
 210.80207 211.97328 213.21649 214.99270 216.91391 218.95012 221.03833 223.11454
 225.16775 227.24496 229.33517 231.43438 233.55659 235.72180 237.97101 240.33422
 242.94843 245.19264 247.18785 248.94606 250.35627 251.47248 252.28769 252.59690
 252.62711 252.39432 251.74753 250.68874 249.28795 247.44216 245.34437 243.17058
 240.95479 238.75200 236.56521 234.39742 232.25063 230.11084 228.13005 226.28026
 224.55647 223.02168 221.64489 220.41010 219.28531 218.23852 217.33573 216.46994
 215.70515 214.87836 213.96957 213.32678 212.76999 212.66563 212.42549 213.51604
 215.34174 217.58362 219.13313 219.51167 220.55150 223.47092 228.20740 232.59486
 236.29951 240.13004 243.85606 247.32535 250.50729 253.21954 255.58545 258.03940
 261.15262 264.08060 266.37128 268.18951 269.93008 271.76260 273.57205 275.22998
 276.67474 278.05176 279.43610 280.78729 281.97247 283.02560 283.99149 284.87173
 285.67148 286.39157 287.02966 287.88309
 366.78100 356.32822 345.75343 334.61265 323.00887 311.19608 299.05930 286.85551
 274.56073 262.45095 250.45316 239.74738 229.86260 220.95981 213.13503 206.13024
 199.95746 194.88868 191.46389 189.49911 188.52933 188.58654 189.41476 190.71597
 192.43419 194.52241 196.77862 199.13084 201.56906 204.04227 206.12349 207.95871
 209.57792 210.71614 210.93835 211.15957 211.08979 210.78800 210.41422 210.03744
 209.64765 209.35087 209.15208 209.00930 208.93052 209.25473 209.63395 210.01617
 210.80238 211.97360 213.21681 214.99303 216.91425 218.95046 221.03868 223.11490
 225.16811 227.24533 229.33555 231.43476 233.55698 235.72219 237.97141 240.33463
 242.94884 245.19306 247.18828 248.94649 250.35671 251.47292 252.28814 252.59736
 252.62757 252.39479 251.74801 250.68922 249.28844 247.44266 245.34487 243.17109
 240.95530 238.75252 236.56574 234.39795 232.25117 230.11139 228.13060 226.28082
 224.55703 223.02225 221.64547 220.41068 219.28590 218.23912 217.33633 216.47055
 215.70576 214.87898 213.97020 213.32741 212.77063 212.70303 212.54823 213.63585
 215.39922 217.64754 219.26649 219.74544 220.74533 223.53491 228.15358 232.43726
 236.11087 239.95149 243.68018 247.12497 250.26082 252.95433 255.36572 257.90100
 260.99985 263.90381 266.20547 268.04938 269.79721 271.61835 273.42255 275.09784
 276.58051 277.98666 279.38699 280.73856 281.92438 282.97855 283.94214 284.82278
 285.62277 286.34293 286.98135 287.83557
 366.78100 356.32825 345.75351 334.61276 323.00901 311.19627 299.05952 286.85577
 274.56103 262.45128 250.45353 239.74779 229.86304 220.96029 213.13555 206.13080
 199.95805 194.88930 191.46456 189.49981 188.53006 188.58732 189.41557 190.71682
 192.43508 194.52333 196.77958 199.13184 201.57009 204.04334 206.12460 207.95985
 209.57910 210.71736 210.93961 211.16086 211.09112 210.78937 210.41562 210.03888
 209.64913 209.35238 209.15364 209.01089 208.93214 209.25640 209.63565 210.01790
 210.80415 211.97541 213.21866 214.99491 216.91617 218.95242 221.04067 223.11693
 225.17018 227.24743 229.33769 231.43694 233.55919 235.72445 237.97370 240.33695
 242.95121 245.19546 247.19071 248.94897 250.35922 251.47547 252.29073 252.59998
 252.63023 252.39749 251.75074 250.69199 249.29125 247.44550 245.34775 243.17400
 240.95826 238.75551 236.56876 234.40102 232.25427 230.11452 228.13378 226.28403
 224.56028 223.02554 221.64879 220.41404 219.28930 218.24255 217.33980 216.47406
 215.70931 214.88256 213.97382 213.33107 212.77432 212.74301 212.67264 213.75543
 215.45784 217.70821 219.40437 219.96817 220.95119 223.61067 228.10255 232.29849
 235.93085 239.76892 243.48557 246.89967 249.99712 252.68147 255.14143 257.75760
 260.84430 263.72516 266.03821 267.90976 269.67313 271.49084 273.29184 274.98077
 276.49734 277.92523 279.34116 280.69495 281.88083 282.93451 283.89801 284.77948
 285.57852 286.29935 286.93744 287.79230
 366.78100 356.32839 345.75378 334.61318 323.00957 311.19696 299.06035 286.85675
 274.56214 262.45253 250.45492 239.74931 229.86471 220.96210 213.13749 206.13288
 199.96028 194.89167 191.46706 189.50245 188.53284 188.59024 189.41863 190.72002
 192.43841 194.52681 196.78320 199.13559 201.57398 204.04737 206.12877 207.96416
 209.58355 210.72194 210.94434 211.16573 211.09612 210.79451 210.42090 210.04430
 209.65469 209.35808 209.15947 209.01687 208.93826 209.26265 209.64204 210.02443
 210.81083 211.98222 213.22561 215.00200 216.92340 218.95979 221.04818 223.12457
 225.17797 227.25536 229.34575 231.44514 233.56753 235.73293 237.98232 240.34571
 242.96010 245.20450 247.19989 248.95828 250.36867 251.48506 252.30046 252.60985
 252.64024 252.40763 251.76103 250.70242 249.30181 247.45620 245.35859 243.18499
 240.96938 238.76677 236.58016 234.41256 232.26595 230.12634 228.14573 226.29612
 224.57252 223.03791 221.66130 220.42669 219.30209 218.25548 217.35287 216.48726
 215.72265 214.89605 213.98744 213.34483 212.78822 212.78867 212.79219 213.88216
 215.52081 217.76341 219.53857 220.18668 221.16891 223.69656 228.05562 232.17856
 235.76558 239.58534 243.27408 246.64622 249.70909 252.39684 254.91373 257.60757
 260.68329 263.54395 265.86697 267.76984 269.55756 271.38113 273.18170 274.88135
 276.42599 277.86783 279.29834 280.65308 281.83923 282.89316 283.85718 284.73724
 285.53705 286.25754 286.89664 287.75226
 366.78100 356.32869 345.75438 334.61407 323.01077 311.19846 299.06215 286.85884
 274.56453 262.45522 250.45791 239.75261 229.86830 220.96599 213.14168 206.13737
 199.96506 194.89675 191.47245 189.50814 188.53883 188.59652 189.42521 190.72690
 192.44559 194.53429 196.79098 199.14367 201.58236 204.05605 206.13774 207.97344
 209.59313 210.73182 210.95451 211.17620 211.10689 210.80558 210.43228 210.05597
 209.66666 209.37035 209.17204 209.02973 208.95142 209.27612 209.65581 210.03850
 210.82519 211.99688 213.24057 215.01726 216.93896 218.97565 221.06434 223.14103
 225.19472 227.27241 229.36310 231.46280 233.58549 235.75118 238.00087 240.36456
 242.97925 245.22394 247.21964 248.97833 250.38902 251.50571 252.32140 252.63109
 252.66178 252.42948 251.78317 250.72486 249.32455 247.47924 245.38193 243.20863
 240.99332 238.79101 236.60470 234.43739 232.29108 230.15177 228.17147 226.32216
 224.59885 223.06454 221.68823 220.45392 219.32961 218.28331 217.38100 216.51569
 215.75138 214.92507 214.01676 213.37445 212.81815 212.84256 212.90166 214.01332
 215.59872 217.81934 219.66446 220.39534 221.37811 223.78728 228.01691 232.06941
 235.61800 239.40854 243.05450 246.37019 249.39865 252.10124 254.68268 257.44968
 260.51755 263.35944 265.69348 267.63287 269.45178 271.28842 273.09006 274.79736
 276.36377 277.81589 279.25943 280.61511 281.80090 282.85379 283.81885 284.69913
 285.49918 286.22009 286.85962 287.71671
 366.78100 356.32912 345.75524 334.61536 323.01248 311.20059 299.06471 286.86183
 274.56795 262.45907 250.46219 239.75731 229.87343 220.97155 213.14766 206.14378
 199.97190 194.90402 191.48014 189.51626 188.54738 188.60550 189.43461 190.73673
 192.45585 194.54497 196.80209 199.15521 201.59433 204.06845 206.15057 207.98668
 209.60680 210.74592 210.96904 211.19116 211.12228 210.82140 210.44852 210.07264
 209.68375 209.38787 209.18999 209.04811 208.97023 209.29535 209.67547 210.05859
 210.84571 212.01782 213.26194 215.03906 216.96118 218.99830 221.08742 223.16454
 225.21866 227.29677 229.38789 231.48801 233.61113 235.77725 238.02737 240.39149
 243.00661 245.25173 247.24784 249.00696 250.41808 251.53520 252.35132 252.66144
 252.69256 252.46068 251.81480 250.75691 249.35703 247.51215 245.41527 243.24239
 241.02751 238.82563 236.63975 234.47287 232.32698 230.18810 228.20822 226.35934
 224.63646 223.10258 221.72670 220.49282 219.36893 218.32305 217.42117 216.55629
 215.79241 214.96653 214.05865 213.41677 212.86089 212.90289 213.00264 214.14682
 215.68559 217.88080 219.78516 220.59007 221.56866 223.88263 227.98993 231.96843
 235.48674 239.24391 242.83434 246.08029 249.07271 251.79552 254.44310 257.27905
 260.34305 263.17072 265.52066 267.50140 269.35922 271.21341 273.01431 274.72394
 276.30768 277.76520 279.22510 280.58316 281.76764 282.82104 283.78619 284.66675
 285.46710 286.18854 286.82980 287.68466
 366.78100 356.32950 345.75600 334.61650 323.01400 311.20250 299.06700 286.86450
 274.57100 262.46250 250.46600 239.76150 229.87799 220.97649 213.15299 206.14949
 199.97799 194.91049 191.48699 189.52349 188.55499 188.61349 189.44299 190.74549
 192.46499 194.55449 196.81199 199.16549 201.60499 204.07949 206.16199 207.99849
 209.61899 210.75849 210.98199 211.20448 211.13598 210.83548 210.46298 210.08748
 209.69898 209.40348 209.20598 209.06448 208.98698 209.31248 209.69298 210.07648
 210.86398 212.03648 213.28098 215.05848 216.98098 219.01848 221.10798 223.18548
 225.23998 227.31848 229.40997 231.51047 233.63397 235.80047 238.05097 240.41547
 243.03097 245.27647 247.27297 249.03247 250.44397 251.56147 252.37797 252.68847
 252.71997 252.48847 251.84297 250.78547 249.38597 247.54147 245.44497 243.27247
 241.05797 238.85646 236.67096 234.50446 232.35896 230.22046 228.24096 226.39246
 224.66996 223.13646 221.76096 220.52746 219.40396 218.35846 217.45696 216.59246
 215.82896 215.00346 214.09596 213.45446 212.89896 212.96042 213.10564 214.27895
 215.77460 217.94592 219.90211 220.77245 221.75616 223.98761 227.97626 231.88139
 235.37057 239.09117 242.61069 245.77396 248.73100 251.47702 254.18889 257.09286
 260.15887 262.98087 265.35367 267.38162 269.28152 271.15619 272.95435 274.65958
 276.25739 277.71359 279.19690 280.55719 281.74197 282.79526 283.76056 284.64099
 285.44189 286.16376 286.80463 287.66309
 366.78100 356.32983 345.75667 334.61750 323.01533 311.20416 299.06900 286.86683
 274.57366 262.46549 250.46933 239.76516 229.88199 220.98082 213.15766 206.15449
 199.98332 194.91616 191.49299 189.52982 188.56165 188.62049 189.45032 190.75315
 192.47298 194.56282 196.82065 199.17448 201.61431 204.08915 206.17198 208.00881
 209.62965 210.76948 210.99331 211.21614 211.14798 210.84781 210.47564 210.10047
 209.71231 209.41714 209.21997 209.07880 209.00164 209.32747 209.70830 210.09214
 210.87997 212.05280 213.29763 215.07547 216.99830 219.03613 221.12596 223.20380
 225.25863 227.33746 229.42929 231.53013 233.65396 235.82079 238.07163 240.43646
 243.05229 245.29812 247.29496 249.05479 250.46662 251.58445 252.40129 252.71212
 252.74395 252.51278 251.86762 250.81045 249.41128 247.56712 245.47095 243.29878
 241.08461 238.88345 236.69828 234.53211 232.38694 230.24878 228.26961 226.42144
 224.69927 223.16611 221.79094 220.55777 219.43460 218.38944 217.48827 216.62410
 215.86094 215.03577 214.12860 213.48743 212.93227 213.01483 213.20990 214.40813
 215.87054 218.00929 220.02057 220.95227 221.94977 224.09224 227.96817 231.80138
 235.25970 238.94383 242.38446 245.45700 248.37495 251.14220 253.91985 256.89529
 259.97504 262.79880 265.19693 267.27118 269.21497 271.11285 272.90707 274.60468
 276.21152 277.66681 279.16977 280.53506 281.72195 282.77548 283.74112 284.62222
 285.42352 286.14587 286.78717 287.64810
 366.78100 356.33005 345.75711 334.61816 323.01622 311.20527 299.07033 286.86838
 274.57544 262.46749 250.47155 239.76760 229.88466 220.98371 213.16077 206.15782
 199.98688 194.91993 191.49699 189.53404 188.56610 188.62515 189.45521 190.75826
 192.47832 194.56837 196.82643 199.18048 201.62054 204.09559 206.17864 208.01570
 209.63675 210.77681 211.00086 211.22392 211.15597 210.85603 210.48408 210.10914
 209.72119 209.42625 209.22930 209.08836 209.01141 209.33747 209.71852 210.10258
 210.89063 212.06369 213.30874 215.08680 217.00985 219.04791 221.13796 223.21602
 225.27107 227.35013 229.44218 231.54323 233.66729 235.83434 238.08540 240.45045
 243.06651 245.31256 247.30962 249.06967 250.48173 251.59978 252.41684 252.72789
 252.75995 252.52900 251.88406 250.82711 249.42817 247.58422 245.48828 243.31633
 241.10239 238.90144 236.71650 234.55055 232.40561 230.26766 228.28872 226.44077
 224.71883 223.18588 221.81093 220.57799 219.45504 218.41010 217.50915 216.64521
 215.88226 215.05732 214.15037 213.50943 212.95448 213.06238 213.31728 214.52802
 215.97458 218.09105 220.13742 221.13548 222.13232 224.17938 227.96172 231.74185
 235.16470 238.79652 242.13890 245.11176 247.99567 250.80313 253.66345 256.71356
 259.80420 262.62161 265.03790 267.16208 269.15427 271.08109 272.87143 274.55878
 276.17508 277.63864 279.14600 280.51379 281.70157 282.75668 283.72223 284.60632
 285.40710 286.13071 286.77237 287.63431
 366.78100 356.33048 345.75796 334.61944 323.01792 311.20740 299.07287 286.87135
 274.57883 262.47131 250.47579 239.77227 229.88975 220.98923 213.16671 206.16419
 199.99366 194.92714 191.50462 189.54210 188.57458 188.63406 189.46454 190.76802
 192.48850 194.57898 196.83745 199.19193 201.63241 204.10789 206.19137 208.02885
 209.65033 210.79081 211.01529 211.23877 211.17124 210.87172 210.50020 210.12568
 209.73816 209.44364 209.24712 209.10660 209.03008 209.35656 209.73804 210.12251
 210.91099 212.08447 213.32995 215.10843 217.03191 219.07039 221.16087 223.23935
 225.29483 227.37430 229.46678 231.56826 233.69274 235.86022 238.11170 240.47718
 243.09366 245.34014 247.33762 249.09809 250.51057 251.62905 252.44653 252.75801
 252.79049 252.55997 251.91545 250.85893 249.46041 247.61688 245.52136 243.34984
 241.13632 238.93580 236.75128 234.58576 232.44124 230.30372 228.32520 226.47768
 224.75615 223.22363 221.84911 220.61659 219.49407 218.44955 217.54903 216.68551
 215.92299 215.09847 214.19194 213.55142 212.99690 213.11861 213.40611 214.65170
 216.10133 218.16203 220.27806 221.33437 222.28101 224.25571 227.93578 231.65417
 235.05623 238.64288 241.89996 244.78252 247.63699 250.48560 253.41951 256.53030
 259.62363 262.43234 264.87369 267.05698 269.10669 271.06546 272.85126 274.52377
 276.14377 277.61792 279.12881 280.49701 281.68549 282.74115 283.70758 284.59000
 285.39429 286.11801 286.76053 287.62341
 366.78100 356.33080 345.75860 334.62040 323.01919 311.20899 299.07479 286.87359
 274.58139 262.47419 250.47899 239.77579 229.89358 220.99338 213.17118 206.16898
 199.99878 194.93258 191.51038 189.54818 188.58097 188.64077 189.47157 190.77537
 192.49617 194.58697 196.84577 199.20056 201.64136 204.11716 206.20096 208.03876
 209.66056 210.80136 211.02616 211.24995 211.18275 210.88355 210.51235 210.13815
 209.75095 209.45675 209.26055 209.12034 209.04414 209.37094 209.75274 210.13754
 210.92634 212.10014 213.34593 215.12473 217.04853 219.08733 221.17813 223.25693
 225.31273 227.39253 229.48532 231.58712 233.71192 235.87972 238.13152 240.49732
 243.11412 245.36092 247.35871 249.11951 250.53231 251.65111 252.46891 252.78071
 252.81351 252.58330 251.93910 250.88290 249.48470 247.64150 245.54630 243.37510
 241.16190 238.96169 236.77749 234.61229 232.46809 230.33089 228.35269 226.50549
 224.78429 223.25208 221.87788 220.64568 219.52348 218.47928 217.57908 216.71588
 215.95367 215.12947 214.22327 213.58307 213.02887 213.16762 213.49542 214.76540
 216.24480 218.25478 220.38800 221.55128 222.40204 224.26459 227.91322 231.61049
 234.98642 238.52469 241.68877 244.45509 247.26300 250.14624 253.15572 256.33435
 259.44199 262.25351 264.72507 266.96710 269.07147 271.06107 272.84067 274.49686
 276.11813 277.60046 279.11404 280.48288 281.67133 282.72766 283.69623 284.57944
 285.38254 286.10794 286.75296 287.61407
 366.78100 356.33149 345.75998 334.62247 323.02196 311.21245 299.07894 286.87843
 274.58692 262.48041 250.48589 239.78338 229.90187 221.00236 213.18085 206.17934
 200.00983 194.94432 191.52281 189.56130 188.59479 188.65528 189.48677 190.79126
 192.51275 194.60424 196.86373 199.21922 201.66070 204.13719 206.22168 208.06017
 209.68266 210.82415 211.04964 211.27413 211.20762 210.90911 210.53860 210.16509
 209.77858 209.48507 209.28956 209.15005 209.07454 209.40203 209.78452 210.17000
 210.95949 212.13398 213.38047 215.15996 217.08445 219.12394 221.21543 223.29492
 225.35141 227.43190 229.52539 231.62788 233.75337 235.92186 238.17435 240.54084
 243.15833 245.40582 247.40430 249.16579 250.57928 251.69877 252.51726 252.82975
 252.86324 252.63373 251.99022 250.93471 249.53720 247.69469 245.60018 243.42967
 241.21716 239.01765 236.83414 234.66963 232.52611 230.38960 228.41209 226.56558
 224.84507 223.31356 221.94005 220.70854 219.58703 218.54352 217.64401 216.78150
 216.01999 215.19648 214.29097 213.65146 213.09795 213.23305 213.55222 214.89742
 216.39557 218.37334 220.45212 221.75034 222.50175 224.25818 227.93051 231.62334
 234.95117 238.41997 241.46019 244.09465 246.86205 249.79262 252.88892 256.14456
 259.27417 262.09100 264.58994 266.88635 269.04376 271.06418 272.83530 274.47495
 276.09445 277.58624 279.10287 280.47168 281.66125 282.71802 283.68613 284.57053
 285.37479 286.10007 286.74353 287.60767
 366.78100 356.33208 345.76116 334.62424 323.02432 311.21540 299.08248 286.88256
 274.59164 262.48572 250.49180 239.78988 229.90896 221.01004 213.18912 206.18820
 200.01928 194.95436 191.53344 189.57252 188.60660 188.66768 189.49976 190.80484
 192.52692 194.61900 196.87908 199.23516 201.67724 204.15432 206.23940 208.07848
 209.70156 210.84364 211.06972 211.29480 211.22888 210.93096 210.56104 210.18813
 209.80221 209.50929 209.31437 209.17545 209.10053 209.42861 209.81169 210.19777
 210.98785 212.16293 213.41001 215.19009 217.11517 219.15525 221.24733 223.32741
 225.38449 227.46557 229.55965 231.66273 233.78881 235.95789 238.21097 240.57805
 243.19613 245.44421 247.44329 249.20537 250.61945 251.73953 252.55861 252.87169
 252.90577 252.67685 252.03393 250.97901 249.58209 247.74017 245.64625 243.47633
 241.26441 239.06549 236.88257 234.71865 232.57573 230.43981 228.46289 226.61697
 224.89705 223.36613 221.99321 220.76229 219.64137 218.59845 217.69953 216.83761
 216.07669 215.25377 214.34885 213.70993 213.15701 213.29095 213.60741 215.02652
 216.55046 218.49858 220.50151 221.91388 222.60495 224.27829 227.97496 231.61758
 234.88983 238.27147 241.18338 243.71622 246.46490 249.45377 252.64215 255.97543
 259.12747 261.94934 264.47333 266.81854 269.02466 271.07083 272.82684 274.44376
 276.05829 277.56027 279.09119 280.46216 281.65201 282.70926 283.67899 284.56421
 285.36981 286.09833 286.74652 287.60962
 366.78100 356.33245 345.76190 334.62534 323.02579 311.21724 299.08469 286.88513
 274.59458 262.48903 250.49548 239.79392 229.91337 221.01482 213.19427 206.19372
 200.02516 194.96061 191.54006 189.57951 188.61395 188.67540 189.50785 190.81330
 192.53575 194.62819 196.88864 199.24509 201.68754 204.16498 206.25043 208.08988
 209.71333 210.85577 211.08222 211.30767 211.24212 210.94457 210.57501 210.20246
 209.81691 209.52436 209.32980 209.19125 209.11670 209.44515 209.82859 210.21504
 211.00549 212.18094 213.42839 215.20883 217.13428 219.17473 221.26718 223.34762
 225.40507 227.48652 229.58097 231.68442 233.81086 235.98031 238.23376 240.60121
 243.21965 245.46810 247.46755 249.23000 250.64444 251.76489 252.58434 252.89779
 252.93224 252.70368 252.06113 251.00658 249.61003 247.76847 245.67492 243.50537
 241.29382 239.09526 236.91271 234.74916 232.60661 230.47106 228.49450 226.64895
 224.92940 223.39885 222.02629 220.79574 219.67519 218.63264 217.73409 216.87253
 216.11198 215.28943 214.38488 213.74632 213.19377 213.33797 213.68921 215.11002
 216.69421 218.63782 220.54340 222.01060 222.73955 224.29633 227.96454 231.57021
 234.78799 238.07492 240.87050 243.31981 246.06325 249.11537 252.40112 255.82593
 259.01428 261.84543 264.38748 266.77353 269.01794 271.07849 272.82397 274.42984
 276.02191 277.54453 279.09174 280.46271 281.65503 282.71609 283.69147 284.58600
 285.40842 286.15967 286.84290 287.71362
 366.78100 356.33274 345.76247 334.62621 323.02695 311.21869 299.08642 286.88716
 274.59690 262.49163 250.49837 239.79711 229.91684 221.01858 213.19832 206.19806
 200.02979 194.96553 191.54527 189.58500 188.61974 188.68148 189.51421 190.81995
 192.54269 194.63543 196.89616 199.25290 201.69564 204.17337 206.25911 208.09885
 209.72258 210.86532 211.09206 211.31780 211.25253 210.95527 210.58601 210.21374
 209.82848 209.53622 209.34195 209.20369 209.12943 209.45817 209.84190 210.22864
 211.01938 212.19511 213.44285 215.22359 217.14933 219.19006 221.28280 223.36354
 225.42127 227.50301 229.59775 231.70148 233.82822 235.99796 238.25170 240.61943
 243.23817 245.48691 247.48664 249.24938 250.66412 251.78485 252.60459 252.91833
 252.95307 252.72480 252.08254 251.02828 249.63201 247.79075 245.69749 243.52822
 241.31696 239.11870 236.93644 234.77317 232.63091 230.49565 228.51938 226.67412
 224.95486 223.42459 222.05233 220.82207 219.70181 218.65954 217.76128 216.90002
 216.13975 215.31749 214.41323 213.77497 213.22270 213.37683 213.75441 215.20868
 216.86717 218.80194 220.61366 222.06154 222.93510 224.41414 227.95575 231.53268
 234.68361 237.87013 240.56058 242.93558 245.67116 248.78650 252.16751 255.67627
 258.89230 261.72769 264.29306 266.73260 269.02292 271.10757 272.84793 274.43396
 276.00400 277.54227 279.09497 280.46753 281.66260 282.72726 283.70551 284.60464
 285.43332 286.19449 286.88272 287.75977
 366.78100 356.33287 345.76275 334.62662 323.02749 311.21936 299.08724 286.88811
 274.59798 262.49286 250.49973 239.79860 229.91847 221.02035 213.20022 206.20009
 200.03197 194.96784 191.54771 189.58758 188.62246 188.68433 189.51720 190.82307
 192.54595 194.63882 196.89969 199.25657 201.69944 204.17731 206.26318 208.10306
 209.72693 210.86980 211.09668 211.32255 211.25742 210.96029 210.59117 210.21904
 209.83391 209.54179 209.34766 209.20953 209.13540 209.46428 209.84815 210.23502
 211.02590 212.20177 213.44964 215.23051 217.15639 219.19726 221.29013 223.37101
 225.42888 227.51075 229.60562 231.70950 233.83637 236.00624 238.26012 240.62799
 243.24686 245.49573 247.49561 249.25848 250.67335 251.79422 252.61410 252.92797
 252.96284 252.73472 252.09259 251.03846 249.64233 247.80121 245.70808 243.53895
 241.32783 239.12970 236.94757 234.78444 232.64232 230.50719 228.53106 226.68594
 224.96681 223.43668 222.06455 220.83443 219.71430 218.67217 217.77405 216.91292
 216.15279 215.33066 214.42654 213.78841 213.23628 213.40050 213.78848 215.35352
 217.07773 218.98235 220.72649 222.11201 223.12865 224.63937 228.00870 231.50229
 234.57382 237.65358 240.24529 242.57161 245.30673 248.48418 251.95473 255.51678
 258.74078 261.58505 264.18472 266.67065 269.01019 271.13315 272.86606 274.42761
 276.01669 277.51556 279.06802 280.43942 281.63141 282.69128 283.66333 284.55179
 285.36108 286.09296 286.75162 287.62204
 366.78100 356.33308 345.76316 334.62725 323.02833 311.22041 299.08849 286.88957
 274.59966 262.49474 250.50182 239.80090 229.92098 221.02307 213.20315 206.20323
 200.03531 194.97139 191.55148 189.59156 188.62664 188.68872 189.52180 190.82789
 192.55097 194.64405 196.90513 199.26221 201.70530 204.18338 206.26946 208.10954
 209.73362 210.87671 211.10379 211.32987 211.26495 210.96803 210.59912 210.22720
 209.84228 209.55036 209.35644 209.21853 209.14461 209.47369 209.85777 210.24486
 211.03594 212.21202 213.46010 215.24118 217.16727 219.20835 221.30143 223.38251
 225.44059 227.52268 229.61776 231.72184 233.84892 236.01900 238.27309 240.64117
 243.26025 245.50933 247.50941 249.27250 250.68758 251.80866 252.62874 252.94282
 252.97791 252.74999 252.10807 251.05415 249.65823 247.81732 245.72440 243.55548
 241.34456 239.14664 236.96473 234.80181 232.65989 230.52497 228.54905 226.70414
 224.98522 223.45530 222.08338 220.85346 219.73355 218.69163 217.79371 216.93279
 216.17287 215.35096 214.44704 213.80912 213.25720 213.42815 213.83203 215.48639
 217.26581 219.14432 220.85356 222.17729 223.26413 224.82333 228.05843 231.45212
 234.42772 237.39633 239.88893 242.18526 244.94536 248.19539 251.75391 255.37669
 258.61957 261.47144 264.09317 266.60922 268.97946 271.11768 272.84998 274.41666
 276.01099 277.52917 279.05252 280.42270 281.61523 282.67343 283.64386 284.52997
 285.33652 286.06363 286.70923 287.58142
 366.78100 356.33323 345.76345 334.62768 323.02890 311.22113 299.08935 286.89058
 274.60081 262.49603 250.50326 239.80248 229.92271 221.02493 213.20516 206.20539
 200.03761 194.97384 191.55406 189.59429 188.62952 188.69174 189.52497 190.83119
 192.55442 194.64764 196.90887 199.26610 201.70932 204.18755 206.27377 208.11400
 209.73822 210.88145 211.10868 211.33490 211.27013 210.97335 210.60458 210.23280
 209.84803 209.55626 209.36248 209.22471 209.15093 209.48016 209.86438 210.25161
 211.04284 212.21906 213.46729 215.24851 217.17474 219.21597 221.30919 223.39042
 225.44864 227.53087 229.62609 231.73032 233.85755 236.02777 238.28200 240.65022
 243.26945 245.51867 247.51890 249.28213 250.69735 251.81858 252.63880 252.95303
 252.98825 252.76048 252.11871 251.06493 249.66916 247.82838 245.73561 243.56683
 241.35606 239.15829 236.97651 234.81374 232.67196 230.53719 228.56142 226.71664
 224.99787 223.46809 222.09632 220.86654 219.74677 218.70500 217.80722 216.94645
 216.18667 215.36490 214.46112 213.82335 213.27158 213.45215 213.87875 215.59099
 217.44588 219.31172 220.98286 222.25446 223.38374 224.99332 228.12070 231.40167
 234.26485 237.09500 239.48944 241.78526 244.59959 247.93019 251.57324 255.25684
 258.51923 261.37781 264.01675 266.55984 268.95654 271.11240 272.84103 274.39877
 275.98624 277.52112 279.04700 280.41791 281.60889 282.66846 283.63885 284.52420
 285.33167 286.05692 286.70511 287.57547
 366.78100 356.33314 345.76328 334.62743 323.02857 311.22071 299.08885 286.88999
 274.60014 262.49528 250.50242 239.80156 229.92170 221.02385 213.20399 206.20413
 200.03627 194.97241 191.55256 189.59270 188.62784 188.68998 189.52312 190.82927
 192.55241 194.64555 196.90669 199.26383 201.70698 204.18512 206.27126 208.11140
 209.73554 210.87869 211.10583 211.33197 211.26711 210.97025 210.60140 210.22954
 209.84468 209.55282 209.35896 209.22111 209.14725 209.47639 209.86053 210.24767
 211.03882 212.21496 213.46310 215.24424 217.17038 219.21153 221.30467 223.38581
 225.44395 227.52609 229.62124 231.72538 233.85252 236.02266 238.27680 240.64495
 243.26409 245.51323 247.51337 249.27651 250.69166 251.81280 252.63294 252.94708
 252.98222 252.75437 252.11251 251.05865 249.66279 247.82193 245.72908 243.56022
 241.34936 239.15150 236.96964 234.80679 232.66493 230.53007 228.55421 226.70935
 224.99049 223.46064 222.08878 220.85892 219.73906 218.69720 217.79935 216.93849
 216.17863 215.35677 214.45291 213.81506 213.26320 213.46239 213.93298 215.68633
 217.61778 219.50081 221.12859 222.33377 223.50212 225.16887 228.18947 231.34958
 234.08580 236.75099 239.05130 241.37901 244.27295 247.68907 251.40929 255.14545
 258.42911 261.29749 263.95288 266.51703 268.93475 271.10629 272.83844 274.38553
 275.94516 277.51376 279.04419 280.41483 281.60629 282.66306 283.63406 284.52032
 285.32635 286.05472 286.69922 287.57541
 366.78100 356.33292 345.76284 334.62675 323.02767 311.21959 299.08751 286.88842
 274.59834 262.49326 250.50018 239.79910 229.91901 221.02093 213.20085 206.20077
 200.03269 194.96860 191.54852 189.58844 188.62336 188.68527 189.51819 190.82411
 192.54703 194.63995 196.90086 199.25778 201.70070 204.17862 206.26454 208.10445
 209.72837 210.87129 211.09821 211.32412 211.25904 210.96196 210.59288 210.22080
 209.83571 209.54363 209.34955 209.21147 209.13738 209.46630 209.85022 210.23714
 211.02806 212.20397 213.45189 215.23281 217.15873 219.19965 221.29256 223.37348
 225.43140 227.51332 229.60823 231.71215 233.83907 236.00899 238.26291 240.63082
 243.24974 245.49866 247.49858 249.26150 250.67641 251.79733 252.61725 252.93117
 252.96608 252.73800 252.09592 251.04184 249.64576 247.80467 245.71159 243.54251
 241.33143 239.13334 236.95126 234.78818 232.64610 230.51102 228.53493 226.68985
 224.97077 223.44069 222.06861 220.83852 219.71844 218.67636 217.77828 216.91719
 216.15711 215.33503 214.43095 213.79287 213.24078 213.46327 213.98892 215.77913
 217.78764 219.69470 221.28156 222.41443 223.62762 225.35616 228.25696 231.28838
 233.88570 236.37247 238.58438 240.97369 243.96594 247.46992 251.26096 255.04228
 258.34665 261.22977 263.90088 266.47641 268.90594 271.08881 272.82852 274.37415
 275.92697 277.50107 279.03375 280.40277 281.59402 282.65228 283.62363 284.50897
 285.31589 286.04300 286.68912 287.56598
 366.78100 356.33270 345.76241 334.62611 323.02682 311.21852 299.08622 286.88693
 274.59663 262.49133 250.49804 239.79674 229.91645 221.01815 213.19785 206.19756
 200.02926 194.96496 191.54467 189.58437 188.61908 188.68078 189.51348 190.81919
 192.54189 194.63459 196.89530 199.25200 201.69471 204.17241 206.25811 208.09782
 209.72152 210.86422 211.09093 211.31663 211.25134 210.95404 210.58474 210.21245
 209.82715 209.53485 209.34056 209.20226 209.12797 209.45667 209.84037 210.22708
 211.01778 212.19348 213.44119 215.22189 217.14760 219.18830 221.28100 223.36171
 225.41941 227.50111 229.59582 231.69952 233.82623 235.99593 238.24963 240.61734
 243.23604 245.48474 247.48445 249.24715 250.66186 251.78256 252.60226 252.91597
 252.95067 252.72237 252.08008 251.02578 249.62949 247.78819 245.69489 243.52560
 241.31430 239.11600 236.93371 234.77041 232.62812 230.49282 228.51652 226.67123
 224.95193 223.42163 222.04934 220.81904 219.69875 218.65645 217.75815 216.89686
 216.13656 215.31426 214.40997 213.77167 213.21938 213.46259 214.03717 215.87610
 217.95938 219.88441 221.43340 222.49661 223.76651 225.56499 228.33086 231.20016
 233.64813 235.96373 238.10295 240.57655 243.67680 247.26955 251.12854 254.94954
 258.27408 261.17160 263.85501 266.43555 268.87131 271.06461 272.81995 274.37335
 275.91568 277.48669 279.01926 280.38956 281.57971 282.63770 283.60825 284.49466
 285.30109 286.02899 286.67535 287.55371
 366.78100 356.33261 345.76221 334.62582 323.02643 311.21803 299.08564 286.88625
 274.59585 262.49046 250.49707 239.79568 229.91528 221.01689 213.19650 206.19610
 200.02771 194.96332 191.54292 189.58253 188.61714 188.67874 189.51135 190.81696
 192.53956 194.63217 196.89278 199.24939 201.69199 204.16960 206.25521 208.09481
 209.71842 210.86103 211.08763 211.31324 211.24785 210.95045 210.58106 210.20867
 209.82327 209.53088 209.33649 209.19810 209.12370 209.45231 209.83592 210.22252
 211.01313 212.18874 213.43634 215.21695 217.14256 219.18316 221.27577 223.35638
 225.41398 227.49559 229.59020 231.69380 233.82041 235.99002 238.24363 240.61123
 243.22984 245.47845 247.47805 249.24066 250.65527 251.77587 252.59548 252.90909
 252.94369 252.71530 252.07291 251.01851 249.62212 247.78073 245.68734 243.51794
 241.30655 239.10816 236.92576 234.76237 232.61998 230.48458 228.50819 226.66280
 224.94340 223.41301 222.04062 220.81022 219.68983 218.64744 217.74905 216.88765
 216.12726 215.30487 214.40047 213.76208 213.20969 213.46599 214.07155 215.98257
 218.13277 220.05661 221.58205 222.60243 223.93544 225.76857 228.39131 231.12396
 233.41086 235.52057 237.58633 240.17447 243.40959 247.10034 251.01895 254.86456
 258.20435 261.11676 263.81223 266.39484 268.83258 271.03348 272.80569 274.36938
 275.98700 277.46191 278.98123 280.35483 281.54770 282.60895 283.58182 284.46979
 285.27869 286.00641 286.65399 287.53406
 366.78100 356.33259 345.76218 334.62576 323.02635 311.21794 299.08553 286.88611
 274.59570 262.49029 250.49688 239.79547 229.91505 221.01664 213.19623 206.19582
 200.02740 194.96299 191.54258 189.58217 188.61676 188.67834 189.51093 190.81652
 192.53911 194.63169 196.89228 199.24887 201.69146 204.16905 206.25463 208.09422
 209.71781 210.86040 211.08698 211.31257 211.24716 210.94975 210.58034 210.20792
 209.82251 209.53010 209.33569 209.19727 209.12286 209.45145 209.83504 210.22163
 211.01221 212.18780 213.43539 215.21598 217.14157 219.18215 221.27474 223.35533
 225.41292 227.49450 229.58909 231.69268 233.81927 235.98886 238.24244 240.61003
 243.22862 245.47721 247.47679 249.23938 250.65397 251.77456 252.59415 252.90773
 252.94232 252.71391 252.07150 251.01708 249.62067 247.77926 245.68585 243.51644
 241.30502 239.10661 236.92420 234.76079 232.61837 230.48296 228.50655 226.66114
 224.94173 223.41131 222.03890 220.80849 219.68808 218.64566 217.74725 216.88584
 216.12543 215.30302 214.39860 213.76019 213.20778 213.47139 214.09421 216.10570
 218.29218 220.21777 221.73688 222.71223 224.08342 225.99950 228.49840 231.02402
 233.10562 235.02258 237.04912 239.79697 243.18758 246.96034 250.92052 254.78221
 258.13632 261.06775 263.77597 266.35843 268.79489 271.00101 272.79138 274.36691
 275.82581 277.49527 279.02652 280.38559 281.56931 282.62057 283.58899 284.47430
 285.27872 286.00351 286.65228 287.53064
 366.78100 356.33187 345.76074 334.62361 323.02348 311.21435 299.08122 286.88108
 274.58995 262.48382 250.48969 239.78756 229.90643 221.00730 213.18617 206.18504
 200.01591 194.95078 191.52965 189.56852 188.60239 188.66325 189.49512 190.79999
 192.52186 194.61373 196.87360 199.22947 201.67134 204.14821 206.23308 208.07195
 209.69482 210.83669 211.06255 211.28742 211.22129 210.92316 210.55303 210.17990
 209.79377 209.50064 209.30551 209.16638 209.09125 209.41912 209.80199 210.18785
 210.97772 212.15259 213.39946 215.17933 217.10420 219.14407 221.23594 223.31581
 225.37268 227.45355 229.54742 231.65029 233.77616 235.94502 238.19789 240.56476
 243.18263 245.43050 247.42937 249.19124 250.60511 251.72498 252.54385 252.85672
 252.89059 252.66146 252.01832 250.96319 249.56606 247.72393 245.62980 243.45967
 241.24754 239.04841 236.86528 234.70115 232.55802 230.42189 228.44476 226.59863
 224.87849 223.34736 221.97423 220.74310 219.62197 218.57884 217.67971 216.81758
 216.05645 215.23332 214.32819 213.68906 213.13593 213.44066 214.16061 216.18254
 218.49515 220.35892 221.84486 222.81406 224.29269 226.24174 228.56873 230.91260
 232.81303 234.49420 236.51125 239.46597 242.98087 246.83423 250.84016 254.71150
 258.07611 261.02371 263.74246 266.32114 268.75296 270.96198 272.76944 274.36066
 275.92938 277.45065 278.97400 280.34387 281.53217 282.59009 283.56082 284.44730
 285.25336 285.98206 286.62662 287.50977
 366.78100 356.33125 345.75950 334.62175 323.02099 311.21124 299.07749 286.87674
 274.58499 262.47824 250.48349 239.78073 229.89898 220.99923 213.17748 206.17573
 200.00598 194.94022 191.51847 189.55672 188.58997 188.65022 189.48147 190.78572
 192.50696 194.59821 196.85746 199.21271 201.65396 204.13021 206.21446 208.05270
 209.67495 210.81620 211.04145 211.26570 211.19895 210.90020 210.52944 210.15569
 209.76894 209.47519 209.27944 209.13969 209.06394 209.39118 209.77343 210.15868
 210.94793 212.12218 213.36843 215.14767 217.07192 219.11117 221.20242 223.28167
 225.33792 227.41817 229.51141 231.61366 233.73891 235.90716 238.15941 240.52566
 243.14291 245.39015 247.38840 249.14965 250.56290 251.68215 252.50040 252.81265
 252.84589 252.61614 251.97239 250.91664 249.51889 247.67614 245.58138 243.41063
 241.19788 238.99813 236.81438 234.64963 232.50588 230.36912 228.39137 226.54462
 224.82387 223.29212 221.91837 220.68662 219.56486 218.52111 217.62136 216.75861
 215.99686 215.17311 214.26736 213.62760 213.07385 213.41338 214.21553 216.28258
 218.65657 220.52425 221.98505 222.92958 224.39728 226.41458 228.62114 230.84734
 232.58409 234.01353 235.99402 239.11407 242.79463 246.73994 250.77357 254.64224
 258.01373 260.97937 263.71051 266.28577 268.71155 270.92505 272.75549 274.36578
 275.92941 277.43518 278.95844 280.32980 281.51953 282.57980 283.55133 284.43863
 285.24652 285.97400 286.62094 287.50684
 366.78100 356.33043 345.75787 334.61930 323.01774 311.20717 299.07260 286.87104
 274.57847 262.47091 250.47534 239.77177 229.88921 220.98864 213.16608 206.16351
 199.99294 194.92638 191.50381 189.54125 188.57368 188.63311 189.46355 190.76698
 192.48742 194.57785 196.83628 199.19072 201.63115 204.10659 206.19002 208.02745
 209.64889 210.78932 211.01376 211.23719 211.16962 210.87006 210.49849 210.12393
 209.73636 209.44179 209.24523 209.10466 209.02810 209.35453 209.73596 210.12040
 210.90883 212.08227 213.32770 215.10613 217.02957 219.06800 221.15844 223.23687
 225.29230 227.37174 229.46417 231.56561 233.69004 235.85747 238.10891 240.47434
 243.09078 245.33721 247.33464 249.09508 250.50751 251.62595 252.44338 252.75481
 252.78725 252.55668 251.91212 250.85555 249.45698 247.61342 245.51785 243.34629
 241.13272 238.93215 236.74759 234.58202 232.43746 230.29989 228.32132 226.47376
 224.75219 223.21963 221.84506 220.61250 219.48993 218.44536 217.54480 216.68123
 215.91867 215.09410 214.18753 213.54697 212.99240 213.37546 214.28046 216.39307
 218.77597 220.71751 222.10107 223.11124 224.47552 226.45163 228.67905 230.85275
 232.38020 233.53867 235.50902 238.77502 242.62083 246.66360 250.71812 254.57709
 257.95264 260.93628 263.68063 266.25101 268.66992 270.88608 272.73380 274.35913
 275.95605 277.42154 278.94009 280.31281 281.50443 282.56400 283.53644 284.42709
 285.23300 285.96204 286.60870 287.49664
 366.78100 356.32965 345.75629 334.61694 323.01459 311.20323 299.06788 286.86553
 274.57217 262.46382 250.46747 239.76311 229.87976 220.97841 213.15506 206.15170
 199.98035 194.91300 191.48964 189.52629 188.55794 188.61658 189.44623 190.74888
 192.46852 194.55817 196.81582 199.16946 201.60911 204.08376 206.16640 208.00305
 209.62370 210.76334 210.98699 211.20964 211.14129 210.84093 210.46858 210.09323
 209.70487 209.40952 209.21217 209.07081 208.99346 209.31911 209.69975 210.08340
 210.87105 212.04369 213.28834 215.06599 216.98863 219.02628 221.11593 223.19357
 225.24822 227.32687 229.41851 231.51916 233.64281 235.80946 238.06010 240.42475
 243.04040 245.28604 247.28269 249.04234 250.45398 251.57163 252.38828 252.69892
 252.73057 252.49922 251.85386 250.79651 249.39716 247.55280 245.45645 243.28410
 241.06974 238.86839 236.68304 234.51669 232.37133 230.23298 228.25363 226.40527
 224.68292 223.14957 221.77421 220.54086 219.41751 218.37215 217.47080 216.60645
 215.84309 215.01774 214.11039 213.46903 212.91368 213.33908 214.34410 216.49318
 218.92162 220.87021 222.17668 223.29066 224.65231 226.47316 228.70485 230.85361
 232.16576 233.06203 235.03952 238.47929 242.46835 246.59044 250.66400 254.51378
 257.89713 260.90082 263.65747 266.22147 268.63080 270.84842 272.71585 274.35553
 275.81259 277.46585 278.98663 280.34137 281.52231 282.57413 283.54099 284.42508
 285.22937 285.95657 286.60214 287.48938
 366.78100 356.32902 345.75505 334.61507 323.01209 311.20011 299.06414 286.86116
 274.56718 262.45820 250.46123 239.75625 229.87227 220.97029 213.14632 206.14234
 199.97036 194.90238 191.47841 189.51443 188.54545 188.60347 189.43250 190.73452
 192.45354 194.54256 196.79959 199.15261 201.59163 204.06565 206.14768 207.98370
 209.60372 210.74274 210.96577 211.18779 211.11881 210.81784 210.44486 210.06888
 209.67990 209.38393 209.18595 209.04397 208.96599 209.29102 209.67104 210.05406
 210.84108 212.01311 213.25713 215.03415 216.95617 218.99320 221.08222 223.15924
 225.21326 227.29129 229.38231 231.48233 233.60535 235.77138 238.02140 240.38542
 243.00044 245.24547 247.24149 249.00051 250.41153 251.52856 252.34458 252.65460
 252.68563 252.45365 251.80767 250.74969 249.34972 247.50474 245.40776 243.23478
 241.01981 238.81783 236.63185 234.46487 232.31890 230.17992 228.19994 226.35096
 224.62799 223.09401 221.71803 220.48405 219.36008 218.31410 217.41212 216.54714
 215.78317 214.95719 214.04921 213.40723 212.85126 213.31113 214.39761 216.60530
 219.07304 220.96904 222.26675 223.44040 224.86003 226.53708 228.72321 230.81470
 231.91762 232.60220 234.58859 238.20476 242.33847 246.52869 250.61218 254.44881
 257.84045 260.86536 263.63669 266.19446 268.59439 270.81161 272.69629 274.35605
 275.90924 277.41769 278.93875 280.30765 281.49509 282.55118 283.52179 284.40891
 285.21381 285.94238 286.58954 287.48013
 366.78100 356.32832 345.75365 334.61297 323.00929 311.19661 299.05994 286.85626
 274.56158 262.45190 250.45423 239.74855 229.86387 220.96119 213.13652 206.13184
 199.95916 194.89049 191.46581 189.50113 188.53145 188.58878 189.41710 190.71842
 192.43674 194.52507 196.78139 199.13371 201.57203 204.04536 206.12668 207.96200
 209.58132 210.71965 210.94197 211.16329 211.09362 210.79194 210.41826 210.04158
 209.65191 209.35523 209.15655 209.01387 208.93520 209.25952 209.63884 210.02116
 210.80749 211.97881 213.22213 214.99846 216.91978 218.95610 221.04442 223.12075
 225.17407 227.25139 229.34171 231.44104 233.56336 235.72868 237.97800 240.34133
 242.95565 245.19997 247.19530 248.95362 250.36394 251.48026 252.29559 252.60491
 252.63523 252.40255 251.75588 250.69720 249.29652 247.45084 245.35317 243.17949
 240.96381 238.76113 236.57446 234.40678 232.26010 230.12043 228.13975 226.29007
 224.56639 223.03172 221.65504 220.42036 219.29568 218.24901 217.34633 216.48065
 215.71597 214.88930 213.98062 213.33794 212.78127 213.27905 214.45512 216.72794
 219.19502 221.05748 222.36462 223.58029 225.04347 226.62990 228.75284 230.72562
 231.63214 232.17531 234.18210 237.94972 242.22015 246.46992 250.55927 254.38260
 257.78326 260.83109 263.61835 266.17276 268.56293 270.77997 272.67914 274.35870
 275.93655 277.40479 278.92044 280.29062 281.47876 282.53604 283.50742 284.39694
 285.20273 285.93103 286.57812 287.47321
 366.78100 356.32746 345.75192 334.61037 323.00583 311.19229 299.05475 286.85021
 274.55466 262.44412 250.44558 239.73904 229.85350 220.94995 213.12441 206.11887
 199.94533 194.87578 191.45024 189.48470 188.51416 188.57062 189.39807 190.69853
 192.41599 194.50345 196.75891 199.11036 201.54782 204.02028 206.10074 207.93520
 209.55365 210.69111 210.91257 211.13303 211.06249 210.75994 210.38540 210.00786
 209.61732 209.31978 209.12023 208.97669 208.89715 209.22061 209.59907 209.98052
 210.76598 211.93644 213.17890 214.95435 216.87481 218.91027 220.99773 223.07319
 225.12564 227.20210 229.29156 231.39002 233.51148 235.67593 237.92439 240.28685
 242.90031 245.14377 247.13822 248.89568 250.30514 251.42060 252.23506 252.54351
 252.57297 252.33943 251.69189 250.63235 249.23080 247.38426 245.28572 243.11118
 240.89463 238.69109 236.50355 234.33501 232.18747 230.04692 228.06538 226.21484
 224.49030 222.95476 221.57721 220.34167 219.21613 218.16859 217.26505 216.39850
 215.63296 214.80542 213.89588 213.25234 212.69479 213.23904 214.52493 216.85399
 219.29132 221.14278 222.44746 223.72835 225.20653 226.72687 228.79321 230.58809
 231.31964 231.78302 233.81511 237.72247 242.11360 246.40959 250.49982 254.31685
 257.72720 260.79758 263.60242 266.15634 268.54019 270.75714 272.66696 274.35703
 275.93182 277.39136 278.90918 280.27847 281.46597 282.52225 283.49344 284.38113
 285.18790 285.91632 286.56549 287.46414
 366.78100 356.32649 345.74997 334.60746 323.00195 311.18743 299.04892 286.84340
 274.54689 262.43538 250.43586 239.72835 229.84184 220.93732 213.11081 206.10429
 199.92978 194.85927 191.43275 189.46624 188.49473 188.55021 189.37670 190.67618
 192.39267 194.47916 196.73364 199.08413 201.52062 203.99210 206.07159 207.90507
 209.52256 210.65905 210.87953 211.09902 211.02751 210.72399 210.34848 209.96996
 209.57845 209.27994 209.07942 208.93491 208.85440 209.17688 209.55437 209.93485
 210.71934 211.88883 213.13031 214.90480 216.82429 218.85877 220.94526 223.01974
 225.07123 227.14672 229.23520 231.33269 233.45318 235.61666 237.86415 240.22563
 242.83812 245.08061 247.07409 248.83058 250.23907 251.35355 252.16704 252.47452
 252.50301 252.26850 251.61998 250.55947 249.15696 247.30944 245.20993 243.03441
 240.81690 238.61239 236.42387 234.25436 232.10585 229.96433 227.98182 226.13030
 224.40479 222.86828 221.48976 220.25325 219.12674 218.07822 217.17371 216.30619
 215.53968 214.71117 213.80065 213.15614 212.59763 213.19440 214.60432 216.98480
 219.36823 221.20644 222.52528 223.88945 225.35641 226.81816 228.84402 230.41751
 230.99492 231.41920 233.48030 237.51851 242.01299 246.35384 250.44374 254.25349
 257.67236 260.76492 263.59122 266.14838 268.52539 270.73914 272.65054 274.34082
 275.87750 277.39191 278.92529 280.29694 281.48715 282.54712 283.52164 284.41479
 285.23331 285.97250 286.63043 287.53110
 366.78100 356.32540 345.74779 334.60419 322.99759 311.18198 299.04238 286.83578
 274.53818 262.42557 250.42497 239.71637 229.82876 220.92316 213.09556 206.08795
 199.91235 194.84075 191.41314 189.44554 188.47294 188.52734 189.35273 190.65113
 192.36653 194.45192 196.70532 199.05472 201.49011 203.96051 206.03891 207.87130
 209.48770 210.62310 210.84250 211.06089 210.98829 210.68369 210.30708 209.92748
 209.53488 209.23527 209.03367 208.88807 208.80647 209.12786 209.50426 209.88366
 210.66705 211.83545 213.07585 214.84924 216.76764 218.80104 220.88643 222.95983
 225.01023 227.08463 229.17202 231.26842 233.38782 235.55021 237.79661 240.15701
 242.76840 245.00980 247.00220 248.75759 250.16499 251.27839 252.09079 252.39718
 252.42458 252.18898 251.53937 250.47777 249.07417 247.22556 245.12496 242.94836
 240.72975 238.52415 236.33455 234.16395 232.01434 229.87174 227.88814 226.03553
 224.30893 222.77133 221.39172 220.15412 219.02652 217.97691 217.07131 216.20271
 215.43511 214.60550 213.69390 213.04830 212.48869 213.14418 214.69284 217.12061
 219.42616 221.24893 222.61530 224.05717 225.50105 226.90782 228.89380 230.23199
 230.67317 231.08311 233.18500 237.33415 241.92094 246.29526 250.38406 254.18492
 257.61432 260.73233 263.58380 266.15118 268.52670 270.73758 272.64954 274.33994
 275.76804 277.42371 278.96500 280.33093 281.51675 282.57138 283.54410 284.43607
 285.25247 285.99033 286.64539 287.54678
 366.78100 356.32430 345.74561 334.60091 322.99322 311.17652 299.03582 286.82813
 274.52943 262.41573 250.41404 239.70434 229.81565 220.90895 213.08025 206.07156
 199.89486 194.82216 191.39347 189.42477 188.45108 188.50438 189.32868 190.62599
 192.34029 194.42459 196.67690 199.02520 201.45951 203.92881 206.00611 207.83742
 209.45272 210.58703 210.80533 211.02263 210.94894 210.64324 210.26554 209.88485
 209.49115 209.19046 208.98776 208.84106 208.75837 209.07867 209.45397 209.83228
 210.61458 211.78189 213.02119 214.79349 216.71080 218.74310 220.82740 222.89971
 224.94901 227.02232 229.10862 231.20392 233.32223 235.48353 237.72884 240.08814
 242.69844 244.93875 246.93005 248.68435 250.09066 251.20296 252.01427 252.31957
 252.34587 252.10918 251.45848 250.39578 248.99109 247.14139 245.03970 242.86200
 240.64230 238.43561 236.24491 234.07321 231.92252 229.77882 227.79413 225.94043
 224.21273 222.67404 221.29334 220.05465 218.92595 217.87525 216.96856 216.09886
 215.33016 214.49947 213.58677 212.94008 212.37938 213.09534 214.78687 217.25371
 219.47285 221.28513 222.71104 224.21605 225.64279 226.99202 228.92195 230.04852
 230.35857 230.76114 232.92236 237.18858 241.83879 246.22946 250.31560 254.10916
 257.55228 260.69659 263.57523 266.15717 268.53552 270.74506 272.65378 274.34363
 275.80264 277.40866 278.94733 280.31573 281.50394 282.56140 283.53494 284.42599
 285.24509 285.98279 286.63672 287.53946
 366.78100 356.32326 345.74351 334.59777 322.98903 311.17129 299.02954 286.82080
 274.52106 262.40632 250.40357 239.69283 229.80309 220.89535 213.06560 206.05586
 199.87812 194.80438 191.37463 189.40489 188.43015 188.48241 189.30566 190.60192
 192.31518 194.39844 196.64969 198.99695 201.43021 203.89847 205.97472 207.80498
 209.41924 210.55250 210.76975 210.98601 210.91127 210.60453 210.22578 209.84404
 209.44930 209.14756 208.94381 208.79607 208.71233 209.03159 209.40584 209.78310
 210.56436 211.73062 212.96887 214.74013 216.65639 218.68765 220.77090 222.84216
 224.89042 226.96268 229.04793 231.14219 233.25945 235.41971 237.66396 240.02222
 242.63148 244.87074 246.86099 248.61425 250.01951 251.13077 251.94102 252.24528
 252.27054 252.03280 251.38105 250.31731 248.91157 247.06083 244.95808 242.77934
 240.55860 238.35086 236.15911 233.98637 231.83463 229.68989 227.70414 225.84940
 224.12066 222.58092 221.19917 219.95943 218.82969 217.77795 216.87020 215.99946
 215.22972 214.39798 213.48423 212.83649 212.27475 213.05066 214.88382 217.38335
 219.51401 221.31754 222.79982 224.35817 225.78490 227.07423 228.92596 229.87094
 230.06007 230.45927 232.69044 237.06390 241.76462 246.16582 250.24738 254.03178
 257.48895 260.66193 263.56979 266.16946 268.55093 270.75775 272.65765 274.33838
 275.88501 277.38513 278.90991 280.28195 281.47372 282.53406 283.50952 284.40280
 285.22266 285.96298 286.61832 287.52469
 366.78100 356.32217 345.74134 334.59451 322.98467 311.16584 299.02301 286.81318
 274.51235 262.39652 250.39268 239.68085 229.79002 220.88119 213.05036 206.03953
 199.86070 194.78586 191.35503 189.38420 188.40837 188.45954 189.28171 190.57687
 192.28904 194.37121 196.62138 198.96755 201.39972 203.86689 205.94205 207.77122
 209.38439 210.51656 210.73273 210.94790 210.87207 210.56423 210.18440 209.80157
 209.40574 209.10291 208.89808 208.74924 208.66441 208.98258 209.35575 209.73192
 210.51209 211.67726 212.91442 214.68459 216.59976 218.62993 220.71210 222.78227
 224.82943 226.90060 228.98477 231.07794 233.19411 235.35328 237.59645 239.95361
 242.56178 244.79995 246.78912 248.54129 249.94546 251.05562 251.86479 252.16796
 252.19213 251.95330 251.30047 250.23564 248.82880 246.97697 244.87314 242.69331
 240.47148 238.26265 236.06982 233.89598 231.74315 229.59732 227.61049 225.75466
 224.02483 222.48399 221.10116 219.86033 218.72950 217.67667 216.76784 215.89601
 215.12517 214.29234 213.37751 212.72868 212.16585 213.00533 214.98871 217.51178
 219.54942 221.34351 222.87459 224.48625 225.92339 227.15639 228.91858 229.70386
 229.77992 230.17633 232.48210 236.95796 241.69627 246.10257 250.17053 253.94881
 257.42499 260.63129 263.57169 266.19080 268.57843 270.78058 272.66675 274.33072
 275.77783 277.41974 278.94354 280.29840 281.48022 282.53351 283.50378 284.39447
 285.20944 285.94925 286.60309 287.51096
 366.78100 356.32106 345.73912 334.59118 322.98024 311.16030 299.01637 286.80543
 274.50349 262.38655 250.38161 239.66867 229.77673 220.86679 213.03485 206.02291
 199.84298 194.76704 191.33510 189.36316 188.38622 188.43628 189.25734 190.55140
 192.26246 194.34352 196.59259 198.93765 201.36871 203.83477 205.90883 207.73689
 209.34895 210.48001 210.69507 210.90913 210.83220 210.52326 210.14232 209.75838
 209.36144 209.05750 208.85156 208.70162 208.61568 208.93274 209.30481 209.67987
 210.45893 211.62299 212.85905 214.62811 216.54217 218.57123 220.65229 222.72135
 224.76742 226.83748 228.92054 231.01260 233.12766 235.28572 237.52778 239.88384
 242.49090 244.72796 246.71603 248.46709 249.87015 250.97921 251.78727 252.08933
 252.11239 251.87245 251.21851 250.15257 248.74464 246.89170 244.78676 242.60582
 240.38288 238.17294 235.97900 233.80406 231.65012 229.50318 227.51525 225.65831
 223.92737 222.38543 221.00149 219.75955 218.62761 217.57367 216.66373 215.79079
 215.01886 214.18492 213.26898 212.61904 212.05510 212.95979 215.09724 217.65009
 219.57246 221.35191 222.93578 224.61852 226.07233 227.24712 228.90065 229.52303
 229.50056 229.91277 232.31367 236.85892 241.62732 246.03271 250.09007 253.86751
 257.36328 260.60370 263.57703 266.21875 268.61102 270.80850 272.67825 274.32278
 275.75916 277.41110 278.93564 280.29034 281.47119 282.52356 283.49292 284.38321
 285.19861 285.93665 286.59164 287.50043
 366.78100 356.32042 345.73784 334.58926 322.97769 311.15711 299.01253 286.80095
 274.49837 262.38079 250.37521 239.66164 229.76906 220.85848 213.02590 206.01332
 199.83274 194.75617 191.32359 189.35101 188.37343 188.42285 189.24327 190.53669
 192.24712 194.32754 196.57596 198.92038 201.35080 203.81622 205.88964 207.71707
 209.32849 210.45891 210.67333 210.88675 210.80917 210.49960 210.11802 209.73344
 209.33586 209.03128 208.82470 208.67412 208.58755 208.90397 209.27539 209.64981
 210.42823 211.59165 212.82707 214.59550 216.50892 218.53734 220.61776 222.68618
 224.73160 226.80103 228.88345 230.97487 233.08929 235.24671 237.48813 239.84355
 242.44998 244.68640 246.67382 248.42424 249.82666 250.93508 251.74250 252.04393
 252.06635 251.82577 251.17119 250.10461 248.69603 246.84246 244.73688 242.55530
 240.33172 238.12114 235.92656 233.75098 231.59641 229.44883 227.46025 225.60267
 223.87109 222.32851 220.94393 219.70136 218.56878 217.51420 216.60362 215.73004
 214.95746 214.12289 213.20631 212.55573 211.99115 212.94034 215.18291 217.78595
 219.63806 221.36920 222.93651 224.65846 226.21266 227.37582 228.92369 229.40335
 229.22600 229.62114 232.14464 236.76689 241.55649 245.96587 250.02486 253.79959
 257.30829 260.57645 263.58136 266.24506 268.64413 270.83676 272.68735 274.31018
 275.75864 277.40292 278.92081 280.27274 281.45425 282.50720 283.47638 284.36642
 285.18213 285.92096 286.57568 287.48587
 366.78100 356.31951 345.73602 334.58653 322.97404 311.15255 299.00706 286.79457
 274.49108 262.37259 250.36610 239.65161 229.75812 220.84663 213.01314 205.99965
 199.81816 194.74067 191.30718 189.33369 188.35520 188.40372 189.22323 190.51574
 192.22525 194.30476 196.55227 198.89578 201.32529 203.78980 205.86231 207.68882
 209.29933 210.42884 210.64235 210.85486 210.77637 210.46588 210.08339 209.69790
 209.29941 208.99392 208.78643 208.63494 208.54745 208.86296 209.23347 209.60698
 210.38449 211.54700 212.78151 214.54902 216.46153 218.48904 220.56855 222.63606
 224.68057 226.74908 228.83059 230.92110 233.03461 235.19112 237.43164 239.78615
 242.39166 244.62717 246.61368 248.36319 249.76470 250.87221 251.67872 251.97923
 252.00074 251.75925 251.10376 250.03627 248.62678 246.77229 244.66580 242.48331
 240.25882 238.04733 235.85184 233.67535 231.51986 229.37137 227.38188 225.52339
 223.79090 222.24741 220.86192 219.61843 218.48494 217.42945 216.51796 215.64347
 214.86998 214.03449 213.11700 212.46551 211.90002 212.90874 215.29195 217.90538
 219.68097 221.40862 223.04721 224.68616 226.09496 227.40259 229.01007 229.49565
 229.08170 229.20468 231.95209 236.70679 241.51088 245.92685 249.96915 253.72600
 257.24609 260.54547 263.58563 266.27466 268.68344 270.87320 272.70474 274.30310
 275.72366 277.36569 278.90305 280.26620 281.45059 282.50482 283.47464 284.36554
 285.18115 285.92105 286.58087 287.49496
 366.78100 356.31872 345.73445 334.58417 322.97089 311.14862 299.00234 286.78906
 274.48479 262.36551 250.35824 239.64296 229.74868 220.83641 213.00213 205.98785
 199.80558 194.72730 191.29302 189.31875 188.33947 188.38719 189.20592 190.49764
 192.20636 194.28509 196.53181 198.87453 201.30326 203.76698 205.83871 207.66443
 209.27415 210.40288 210.61560 210.82732 210.74805 210.43677 210.05349 209.66722
 209.26794 208.96166 208.75339 208.60111 208.51283 208.82756 209.19728 209.57000
 210.34673 211.50845 212.74218 214.50890 216.42062 218.44735 220.52607 222.59279
 224.63652 226.70424 228.78496 230.87469 232.98741 235.14313 237.38286 239.73658
 242.34130 244.57603 246.56175 248.31047 249.71120 250.81792 251.62365 251.92337
 251.94409 251.70182 251.04554 249.97726 248.56699 246.71171 244.60443 242.42116
 240.19588 237.98360 235.78733 233.61005 231.45377 229.30450 227.31422 225.45494
 223.72167 222.17739 220.79112 219.54684 218.41256 217.35629 216.44401 215.56873
 214.79446 213.95818 213.03990 212.38763 211.82135 212.88522 215.39874 218.02725
 219.71082 221.44968 223.11002 224.79413 226.18027 227.42384 228.89856 229.42595
 228.95187 228.93092 231.81155 236.64903 241.47812 245.88914 249.90334 253.65007
 257.18445 260.51501 263.58856 266.30429 268.72495 270.91141 272.72293 274.29214
 275.82016 277.32565 278.84952 280.22263 281.41376 282.47330 283.44742 284.34183
 285.16089 285.90289 286.56030 287.48056
 366.78100 356.31826 345.73352 334.58279 322.96905 311.14631 298.99957 286.78583
 274.48110 262.36136 250.35362 239.63788 229.74314 220.83041 212.99567 205.98093
 199.79819 194.71946 191.28472 189.30998 188.33024 188.37750 189.19577 190.48703
 192.19529 194.27355 196.51981 198.86208 201.29034 203.75360 205.82486 207.65012
 209.25939 210.38765 210.59991 210.81117 210.73143 210.41970 210.03596 209.64922
 209.24948 208.94275 208.73401 208.58127 208.49253 208.80679 209.17606 209.54832
 210.32458 211.48584 212.71910 214.48537 216.39663 218.42289 220.50115 222.56741
 224.61068 226.67794 228.75820 230.84746 232.95972 235.11499 237.35425 239.70751
 242.31177 244.54603 246.53130 248.27956 249.67982 250.78608 251.59135 251.89061
 251.91087 251.66813 251.01139 249.94266 248.53192 246.67618 244.56844 242.38470
 240.15897 237.94623 235.74949 233.57175 231.41501 229.26528 227.27454 225.41480
 223.68106 222.13632 220.74959 219.50485 218.37011 217.31337 216.40064 215.52490
 214.75016 213.91342 212.99468 212.34195 211.77521 212.87994 215.49004 218.15639
 219.75140 221.48877 223.11610 224.85921 226.40726 227.53563 228.68559 229.23328
 228.79666 228.75545 231.71928 236.59984 241.44237 245.83986 249.83707 253.58176
 257.12952 260.48730 263.59229 266.33264 268.76413 270.94748 272.73901 274.27951
 275.70956 277.34900 278.87512 280.23160 281.41534 282.46808 283.43839 284.32947
 285.14551 285.88730 286.54306 287.46039
 366.78100 356.31784 345.73268 334.58152 322.96736 311.14420 298.99704 286.78288
 274.47772 262.35756 250.34940 239.63324 229.73808 220.82492 212.98976 205.97460
 199.79144 194.71228 191.27711 189.30195 188.32179 188.36863 189.18647 190.47731
 192.18515 194.26299 196.50883 198.85067 201.27851 203.74135 205.81219 207.63703
 209.24587 210.37371 210.58555 210.79639 210.71623 210.40407 210.01991 209.63275
 209.23259 208.92543 208.71627 208.56311 208.47395 208.78779 209.15663 209.52847
 210.30431 211.46515 212.69799 214.46383 216.37467 218.40050 220.47834 222.54418
 224.58702 226.65386 228.73370 230.82254 232.93438 235.08922 237.32806 239.68090
 242.28474 244.51858 246.50342 248.25126 249.65110 250.75694 251.56178 251.86062
 251.88046 251.63730 250.98014 249.91098 248.49982 246.64366 244.53550 242.35134
 240.12518 237.91202 235.71486 233.53670 231.37954 229.22938 227.23822 225.37805
 223.64389 222.09873 220.71157 219.46641 218.33125 217.27409 216.36093 215.48477
 214.70961 213.87245 212.95329 212.30013 211.73297 212.87831 215.58432 218.27760
 219.80061 221.51379 223.15656 224.90756 226.55925 227.62546 228.54422 229.02101
 228.57303 228.60724 231.66217 236.55701 241.40045 245.78729 249.77853 253.51921
 257.07574 260.45831 263.59305 266.35837 268.80017 270.98105 272.75427 274.26703
 275.68704 277.33624 278.86301 280.21790 281.40085 282.45282 283.42224 284.31198
 285.12805 285.86917 286.52563 287.44861
 366.78100 356.31747 345.73194 334.58041 322.96588 311.14235 298.99482 286.78029
 274.47476 262.35424 250.34571 239.62918 229.73365 220.82012 212.98459 205.96906
 199.78553 194.70600 191.27047 189.29494 188.31441 188.36088 189.17835 190.46882
 192.17629 194.25377 196.49924 198.84071 201.26818 203.73065 205.80112 207.62559
 209.23406 210.36153 210.57300 210.78347 210.70294 210.39041 210.00588 209.61835
 209.21782 208.91029 208.70077 208.54724 208.45771 208.77118 209.13965 209.51112
 210.28659 211.44706 212.67953 214.44500 216.35547 218.38094 220.45841 222.52388
 224.56635 226.63282 228.71229 230.80077 232.91224 235.06671 237.30518 239.65765
 242.26112 244.49459 246.47906 248.22653 249.62600 250.73147 251.53594 251.83441
 251.85388 251.61035 250.95282 249.88330 248.47177 246.61524 244.50671 242.32218
 240.09565 237.88212 235.68459 233.50606 231.34853 229.19800 227.20647 225.34594
 223.61141 222.06588 220.67835 219.43282 218.29730 217.23977 216.32624 215.44971
 214.67418 213.83665 212.91712 212.26359 211.69606 212.88135 215.68172 218.38287
 219.85939 221.54079 223.22943 224.97141 226.60655 227.63811 228.49393 228.82272
 228.30153 228.46295 231.62790 236.52133 241.35168 245.73557 249.72575 253.46211
 257.02487 260.42831 263.59009 266.37939 268.83289 271.01208 272.76978 274.25824
 275.65839 277.29596 278.83786 280.20468 281.39108 282.44690 283.41629 284.30713
 285.12378 285.86609 286.52380 287.44839
 366.78100 356.31740 345.73179 334.58019 322.96559 311.14198 298.99438 286.77978
 274.47417 262.35357 250.34497 239.62836 229.73276 220.81916 212.98355 205.96795
 199.78435 194.70474 191.26914 189.29354 188.31293 188.35933 189.17673 190.46713
 192.17452 194.25192 196.49732 198.83871 201.26611 203.72851 205.79890 207.62330
 209.23170 210.35909 210.57049 210.78089 210.70028 210.38768 210.00308 209.61547
 209.21487 208.90727 208.69766 208.54406 208.45446 208.76785 209.13625 209.50765
 210.28304 211.44344 212.67584 214.44123 216.35163 218.37703 220.45442 222.51982
 224.56222 226.62861 228.70801 230.79641 232.90780 235.06220 237.30060 239.65300
 242.25639 244.48979 246.47419 248.22158 249.62098 250.72638 251.53077 251.82917
 251.84857 251.60496 250.94736 249.87776 248.46615 246.60955 244.50095 242.31634
 240.08974 237.87614 235.67853 233.49993 231.34233 229.19172 227.20012 225.33952
 223.60491 222.05931 220.67171 219.42610 218.29050 217.23290 216.31929 215.44269
 214.66709 213.82948 212.90988 212.25628 211.68867 212.90123 215.76599 218.48010
 219.93050 221.58125 223.29887 225.03517 226.60622 227.62009 228.47704 228.63074
 228.02672 228.33257 231.60754 236.48549 241.29840 245.68416 249.67622 253.41144
 256.97940 260.39810 263.58228 266.39301 268.85724 271.03452 272.77777 274.24222
 275.63034 277.29187 278.82849 280.18890 281.37396 282.42899 283.39813 284.28772
 285.10373 285.84500 286.50211 287.42780
 366.78100 356.31762 345.73224 334.58086 322.96648 311.14310 298.99572 286.78134
 274.47596 262.35559 250.34721 239.63083 229.73545 220.82207 212.98669 205.97131
 199.78793 194.70855 191.27317 189.29779 188.31741 188.36403 189.18165 190.47227
 192.17989 194.25751 196.50314 198.84476 201.27238 203.73500 205.80562 207.63024
 209.23886 210.36648 210.57810 210.78872 210.70834 210.39596 210.01158 209.62420
 209.22382 208.91644 208.70707 208.55369 208.46431 208.77793 209.14655 209.51817
 210.29379 211.45441 212.68703 214.45265 216.36327 218.38889 220.46651 222.53213
 224.57475 226.64137 228.72099 230.80962 232.92124 235.07586 237.31448 239.66710
 242.27072 244.50434 246.48896 248.23658 249.63620 250.74182 251.54644 251.84506
 251.86468 251.62130 250.96392 249.89454 248.48317 246.62679 244.51841 242.33403
 240.10765 237.89427 235.69689 233.51851 231.36113 229.21075 227.21937 225.35899
 223.62461 222.07923 220.69185 219.44647 218.31109 217.25372 216.34034 215.46396
 214.68858 213.85120 212.93182 212.27844 211.71106 212.93806 215.83699 218.57076
 220.01556 221.63155 223.35948 225.09311 226.58795 227.59966 228.46034 228.44417
 227.77403 228.22418 231.58780 236.44403 241.24194 245.63104 249.62889 253.36743
 256.93954 260.36899 263.57095 266.40027 268.87424 271.05008 272.78232 274.22916
 275.60892 277.25961 278.80560 280.17368 281.36127 282.41669 283.38571 284.27707
 285.09378 285.83664 286.49414 287.42038
 366.78100 356.31800 345.73300 334.58200 322.96799 311.14499 298.99799 286.78399
 274.47899 262.35899 250.35099 239.63499 229.73998 220.82698 212.99198 205.97698
 199.79398 194.71498 191.27998 189.30498 188.32497 188.37197 189.18997 190.48097
 192.18897 194.26697 196.51297 198.85497 201.28296 203.74596 205.81696 207.64196
 209.25096 210.37896 210.59096 210.80195 210.72195 210.40995 210.02595 209.63895
 209.23895 208.93195 208.72295 208.56994 208.48094 208.79494 209.16394 209.53594
 210.31194 211.47294 212.70594 214.47193 216.38293 218.40893 220.48693 222.55293
 224.59593 226.66293 228.74293 230.83192 232.94392 235.09892 237.33792 239.69092
 242.29492 244.52892 246.51391 248.26191 249.66191 250.76791 251.57291 251.87191
 251.89191 251.64891 250.99190 249.92290 248.51190 246.65590 244.54790 242.36390
 240.13790 237.92490 235.72789 233.54989 231.39289 229.24289 227.25189 225.39189
 223.65789 222.11289 220.72588 219.48088 218.34588 217.28888 216.37588 215.49988
 214.72488 213.88787 212.96887 212.31587 211.74887 212.98386 215.90163 218.64842
 220.10997 221.69191 223.41805 225.14571 226.56157 227.57225 228.43240 228.26979
 227.55586 228.13846 231.56168 236.39494 241.18155 245.57645 249.58549 253.32983
 256.90424 260.34064 263.55609 266.40018 268.88199 271.05511 272.77859 274.21207
 275.58694 277.25244 278.79401 280.15668 281.34180 282.39719 283.36697 284.25568
 285.07263 285.81375 286.47116 287.40063
 366.78100 356.31849 345.73399 334.58348 322.96998 311.14747 299.00096 286.78746
 274.48295 262.36345 250.35594 239.64043 229.74593 220.83342 212.99892 205.98441
 199.80190 194.72340 191.28889 189.31439 188.33488 188.38237 189.20087 190.49236
 192.20086 194.27935 196.52584 198.86834 201.29683 203.76033 205.83182 207.65731
 209.26681 210.39530 210.60780 210.81929 210.73978 210.42828 210.04477 209.65827
 209.25876 208.95225 208.74375 208.59124 208.50274 208.81723 209.18672 209.55922
 210.33571 211.49721 212.73070 214.49719 216.40869 218.43518 220.51368 222.58017
 224.62366 226.69116 228.77165 230.86115 232.97364 235.12913 237.36863 239.72212
 242.32662 244.56111 246.54660 248.29510 249.69559 250.80209 251.60758 251.90707
 251.92757 251.68506 251.02856 249.96005 248.54954 246.69404 244.58653 242.40303
 240.17752 237.96501 235.76851 233.59100 231.43450 229.28499 227.29448 225.43498
 223.70147 222.15697 220.77046 219.52595 218.39145 217.33494 216.42244 215.54693
 214.77242 213.93592 213.01741 212.36491 211.79840 213.03656 215.96182 218.71327
 220.20862 221.76686 223.48244 225.18939 226.53317 227.53708 228.38837 228.11227
 227.37253 228.07074 231.53087 236.33691 241.11539 245.52139 249.54619 253.29803
 256.87320 260.31284 263.53799 266.39395 268.88232 271.05353 272.77304 274.20013
 275.56238 277.22363 278.77362 280.14148 281.32990 282.38611 283.35684 284.24741
 285.06534 285.80515 286.46588 287.39499
 366.78100 356.31913 345.73527 334.58540 322.97253 311.15066 299.00480 286.79193
 274.48806 262.36920 250.36233 239.64746 229.75359 220.84173 213.00786 205.99399
 199.81213 194.73426 191.30039 189.32652 188.34766 188.39579 189.21492 190.50706
 192.21619 194.29532 196.54246 198.88559 201.31472 203.77885 205.85099 207.67712
 209.28725 210.41639 210.62952 210.84165 210.76278 210.45192 210.06905 209.68318
 209.28432 208.97845 208.77058 208.61871 208.53085 208.84598 209.21611 209.58925
 210.36638 211.52851 212.76264 214.52978 216.44191 218.46904 220.54818 222.61531
 224.65944 226.72757 228.80871 230.89884 233.01197 235.16811 237.40824 239.76237
 242.36751 244.60264 246.58877 248.33790 249.73904 250.84617 251.65230 251.95244
 251.97357 251.73170 251.07583 250.00797 248.59810 246.74323 244.63637 242.45350
 240.22863 238.01676 235.82090 233.64403 231.48816 229.33930 227.34943 225.49056
 223.75769 222.21383 220.82796 219.58409 218.45023 217.39436 216.48249 215.60762
 214.83376 213.99789 213.08002 212.42816 211.86229 213.09760 216.01613 218.76912
 220.30536 221.85800 223.55611 225.22623 226.50737 227.49896 228.32523 227.96782
 227.22159 228.01564 231.49464 236.27165 241.04572 245.46770 249.51140 253.27280
 256.84705 260.28558 263.51639 266.38327 268.87671 271.04446 272.76147 274.18491
 275.54977 277.21912 278.76358 280.12799 281.31445 282.37207 283.34167 284.23340
 285.04861 285.79034 286.44739 287.38101
 366.78100 356.31990 345.73680 334.58770 322.97560 311.15450 299.00940 286.79730
 274.49420 262.37610 250.37000 239.65590 229.76280 220.85170 213.01860 206.00550
 199.82440 194.74730 191.31420 189.34110 188.36301 188.41191 189.23181 190.52471
 192.23461 194.31451 196.56241 198.90631 201.33621 203.80111 205.87401 207.70091
 209.31181 210.44171 210.65561 210.86851 210.79041 210.48031 210.09821 209.71311
 209.31501 209.00991 208.80281 208.65171 208.56461 208.88051 209.25141 209.62531
 210.40321 211.56611 212.80101 214.56891 216.48181 218.50971 220.58961 222.65751
 224.70241 226.77131 228.85322 230.94412 233.05802 235.21492 237.45582 239.81072
 242.41662 244.65252 246.63942 248.38932 249.79122 250.89912 251.70602 252.00692
 252.02882 251.78772 251.13262 250.06552 248.65642 246.80232 244.69622 242.51412
 240.29002 238.07892 235.88382 233.70772 231.55262 229.40452 227.41542 225.55732
 223.82522 222.28212 220.89702 219.65392 218.52082 217.46572 216.55462 215.68052
 214.90742 214.07233 213.15523 212.50413 211.93903 213.16591 216.06458 218.81412
 220.40195 221.96127 223.63905 225.25307 226.48767 227.46425 228.25208 227.82726
 227.08379 227.97154 231.45953 236.20146 240.97285 245.41373 249.47937 253.25374
 256.82803 260.26227 263.49478 266.36911 268.86572 271.02789 272.74203 274.16660
 275.52652 277.20132 278.75085 280.11905 281.30737 282.36533 283.33713 284.22824
 285.04434 285.78751 286.44409 287.38065
 366.78100 356.32056 345.73812 334.58968 322.97824 311.15780 299.01336 286.80192
 274.49947 262.38203 250.37659 239.66315 229.77071 220.86027 213.02783 206.01539
 199.83495 194.75851 191.32607 189.35363 188.37619 188.42575 189.24630 190.53986
 192.25042 194.33098 196.57954 198.92410 201.35466 203.82022 205.89378 207.72134
 209.33290 210.46346 210.67802 210.89158 210.81413 210.50469 210.12325 209.73881
 209.34137 209.03693 208.83049 208.68005 208.59361 208.91017 209.28173 209.65629
 210.43485 211.59841 212.83396 214.60252 216.51608 218.54464 220.62520 222.69376
 224.73932 226.80888 228.89144 230.98300 233.09756 235.25512 237.49668 239.85224
 242.45879 244.69535 246.68291 248.43347 249.83603 250.94459 251.75215 252.05371
 252.07627 251.83583 251.18139 250.11495 248.70651 246.85307 244.74762 242.56618
 240.34274 238.13230 235.93786 233.76242 231.60798 229.46054 227.47210 225.61466
 223.88322 222.34078 220.95634 219.71390 218.58145 217.52701 216.61657 215.74313
 214.97069 214.13625 213.21981 212.56937 212.00493 213.22935 216.12218 218.83572
 220.50421 222.08110 223.71432 225.28633 226.47096 227.43294 228.17560 227.68184
 226.95955 227.93753 231.41766 236.12604 240.89639 245.35760 249.45236 253.24580
 256.81915 260.24490 263.47385 266.35205 268.84784 271.00168 272.71201 274.14117
 275.49704 277.18430 278.74057 280.11182 281.30249 282.36285 283.33572 284.22836
 285.04556 285.78717 286.44464 287.38495
 366.78100 356.32167 345.74033 334.59300 322.98267 311.16334 299.02000 286.80967
 274.50834 262.39201 250.38767 239.67534 229.78401 220.87468 213.04334 206.03201
 199.85268 194.77735 191.34601 189.37468 188.39835 188.44901 189.27068 190.56535
 192.27702 194.35868 196.60835 198.95402 201.38569 203.85235 205.92702 207.75569
 209.36836 210.50002 210.71569 210.93036 210.85403 210.54569 210.16536 209.78203
 209.38570 209.08236 208.87703 208.72770 208.64236 208.96003 209.33270 209.70837
 210.48803 211.65270 212.88937 214.65904 216.57370 218.60337 220.68504 222.75471
 224.80137 226.87204 228.95571 231.04838 233.16404 235.32271 237.56538 239.92204
 242.52971 244.76738 246.75605 248.50771 249.91138 251.02105 251.82972 252.13238
 252.15605 251.91672 251.26339 250.19805 248.79072 246.93839 244.83406 242.65372
 240.43139 238.22206 236.02873 233.85439 231.70106 229.55473 227.56739 225.71106
 223.98073 222.43940 221.05606 219.81473 218.68340 217.63007 216.72073 215.84840
 215.07707 214.24374 213.32840 212.67907 212.11574 213.31544 216.14992 218.88248
 220.57481 222.20744 223.81343 225.30878 226.47844 227.40480 228.08334 227.57642
 226.85912 227.87601 231.36960 236.04922 240.81729 245.30704 249.43864 253.24873
 256.81558 260.22821 263.45065 266.33115 268.82373 270.96625 272.67209 274.10867
 275.47922 277.17377 278.73267 280.10538 281.29846 282.35925 283.33218 284.22476
 285.04050 285.78275 286.43692 287.37619
 366.78100 356.32272 345.74244 334.59616 322.98688 311.16860 299.02632 286.81704
 274.51676 262.40148 250.39820 239.68692 229.79664 220.88836 213.05808 206.04780
 199.86952 194.79524 191.36496 189.39468 188.41940 188.47112 189.29384 190.58956
 192.30228 194.38500 196.63572 198.98244 201.41516 203.88288 205.95860 207.78832
 209.40204 210.53476 210.75148 210.96720 210.89192 210.58464 210.20536 209.82308
 209.42780 209.12552 208.92124 208.77296 208.68868 209.00740 209.38112 209.75784
 210.53856 211.70428 212.94200 214.71272 216.62844 218.65916 220.74188 222.81260
 224.86032 226.93204 229.01676 231.11048 233.22720 235.38692 237.63064 239.98836
 242.59708 244.83580 246.82552 248.57824 249.98296 251.09368 251.90340 252.20712
 252.23183 251.99355 251.34127 250.27699 248.87071 247.01943 244.91615 242.73687
 240.51559 238.30731 236.11503 233.94175 231.78947 229.64419 227.65791 225.80263
 224.07335 222.53307 221.15079 219.91051 218.78023 217.72795 216.81967 215.94839
 215.17811 214.34583 213.43155 212.78327 212.22099 213.39914 216.18268 218.90973
 220.65874 222.31268 223.94046 225.36453 226.41071 227.35612 228.08717 227.42630
 226.66637 227.82462 231.31776 235.96176 240.74341 245.27008 249.43472 253.25456
 256.81339 260.21390 263.42902 266.30966 268.79919 270.92807 272.62988 274.07449
 275.46579 277.16467 278.72501 280.09952 281.29257 282.35400 283.32761 284.22070
 285.03598 285.77744 286.43265 287.37564
 366.78100 356.32374 345.74447 334.59921 322.99094 311.17368 299.03241 286.82415
 274.52488 262.41062 250.40835 239.69809 229.80882 220.90156 213.07229 206.06303
 199.88576 194.81250 191.38323 189.41397 188.43970 188.49244 189.31617 190.61291
 192.32664 194.41038 196.66211 199.00985 201.44358 203.91232 205.98905 207.81979
 209.43452 210.56826 210.78599 211.00273 210.92846 210.62220 210.24393 209.86267
 209.46840 209.16714 208.96387 208.81661 208.73334 209.05308 209.42781 209.80555
 210.58728 211.75402 212.99275 214.76449 216.68123 218.71296 220.79670 222.86843
 224.91717 226.98990 229.07564 231.17037 233.28811 235.44884 237.69358 240.05231
 242.66205 244.90178 246.89252 248.64625 250.05199 251.16372 251.97446 252.27919
 252.30493 252.06766 251.41640 250.35313 248.94787 247.09760 244.99534 242.81707
 240.59681 238.38954 236.19828 234.02601 231.87475 229.73048 227.74522 225.89095
 224.16269 222.62342 221.24216 220.00289 218.87363 217.82236 216.91510 216.04483
 215.27557 214.44430 213.53104 212.88377 212.32251 213.48125 216.21890 218.93053
 220.74669 222.38274 224.09003 225.50766 226.38837 227.27486 227.98186 227.43501
 226.61787 227.63281 231.23506 235.91322 240.69211 245.24368 249.43158 253.26260
 256.81635 260.20505 263.41202 266.29172 268.77380 270.88562 272.58084 274.03513
 275.45151 277.15579 278.71649 280.09082 281.28531 282.34671 283.32324 284.21451
 285.03079 285.77332 286.42773 287.36942
 366.78100 356.32472 345.74644 334.60216 322.99488 311.17860 299.03832 286.83104
 274.53276 262.41948 250.41820 239.70892 229.82064 220.91436 213.08608 206.07780
 199.90152 194.82924 191.40096 189.43268 188.45940 188.51312 189.33784 190.63556
 192.35028 194.43500 196.68772 199.03644 201.47116 203.94088 206.01860 207.85032
 209.46604 210.60076 210.81948 211.03720 210.96392 210.65864 210.28136 209.90108
 209.50780 209.20752 209.00524 208.85896 208.77668 209.09740 209.47312 209.85184
 210.63456 211.80228 213.04200 214.81472 216.73244 218.76516 220.84988 222.92260
 224.97232 227.04604 229.13276 231.22848 233.34720 235.50892 237.75464 240.11436
 242.72508 244.96580 246.95752 248.71224 250.11896 251.23168 252.04340 252.34912
 252.37584 252.13956 251.48928 250.42700 249.02272 247.17344 245.07216 242.89488
 240.67560 238.46932 236.27904 234.10776 231.95748 229.81420 227.82992 225.97664
 224.24936 222.71108 221.33080 220.09252 218.96424 217.91396 217.00768 216.13840
 215.37013 214.53985 213.62757 212.98129 212.42101 213.56136 216.25554 218.94905
 220.82895 222.47830 224.16100 225.59836 226.49245 227.25008 227.79286 227.39346
 226.62445 227.51405 231.17360 235.86891 240.63524 245.20714 249.42509 253.27589
 256.82663 260.20114 263.39801 266.27435 268.74530 270.83603 272.52145 273.98563
 275.43457 277.14404 278.70599 280.08121 281.27609 282.33994 283.31458 284.20795
 285.02472 285.76346 286.42157 287.36343
 366.78100 356.32560 345.74820 334.60480 322.99840 311.18299 299.04359 286.83719
 274.53979 262.42739 250.42699 239.71859 229.83119 220.92578 213.09838 206.09098
 199.91558 194.84418 191.41678 189.44938 188.47698 188.53157 189.35717 190.65577
 192.37137 194.45697 196.71057 199.06017 201.49577 203.96637 206.04496 207.87756
 209.49416 210.62976 210.84936 211.06796 210.99556 210.69116 210.31475 209.93535
 209.54295 209.24355 209.04215 208.89675 208.81535 209.13695 209.51355 209.89314
 210.67674 211.84534 213.08594 214.85954 216.77814 218.81174 220.89734 222.97093
 225.02153 227.09613 229.18373 231.28033 233.39993 235.56253 237.80913 240.16972
 242.78132 245.02292 247.01552 248.77112 250.17872 251.29232 252.10492 252.41152
 252.43911 252.20371 251.55431 250.49291 249.08951 247.24111 245.14071 242.96431
 240.74590 238.54050 236.35110 234.18070 232.03130 229.88890 227.90550 226.05310
 224.32669 222.78929 221.40989 220.17249 219.04509 217.99569 217.09029 216.22189
 215.45449 214.62508 213.71368 213.06828 212.50888 213.63541 216.29698 218.96243
 220.90199 222.60155 224.19586 225.63208 226.63753 227.27457 227.62228 227.30890
 226.60010 227.43318 231.11810 235.81084 240.57260 245.17212 249.42499 253.29547
 256.83957 260.19882 263.38483 266.25674 268.71530 270.78146 272.45425 273.92947
 275.41354 277.13025 278.69284 280.06873 281.26419 282.32803 283.30386 284.19720
 285.01288 285.75284 286.41092 287.35297
 366.78100 356.32638 345.74976 334.60715 323.00153 311.18691 299.04829 286.84268
 274.54606 262.43444 250.43482 239.72721 229.84059 220.93597 213.10935 206.10274
 199.92812 194.85750 191.43088 189.46426 188.49265 188.54803 189.37441 190.67379
 192.39018 194.47656 196.73094 199.08132 201.51771 203.98909 206.06847 207.90185
 209.51924 210.65562 210.87600 211.09538 211.02376 210.72015 210.34453 209.96591
 209.57429 209.27568 209.07506 208.93044 208.84982 209.17221 209.54959 209.92997
 210.71435 211.88373 213.12512 214.89950 216.81888 218.85326 220.93965 223.01403
 225.06541 227.14079 229.22918 231.32656 233.44694 235.61032 237.85771 240.21909
 242.83147 245.07385 247.06723 248.82362 250.23200 251.34638 252.15976 252.46715
 252.49553 252.26091 251.61229 250.55168 249.14906 247.30144 245.20182 243.02621
 240.80859 238.60397 236.41535 234.24573 232.09712 229.95550 227.97288 226.12126
 224.39565 222.85903 221.48041 220.24379 219.11718 218.06856 217.16394 216.29632
 215.52971 214.70109 213.79047 213.14585 212.58723 213.70409 216.34274 218.97464
 220.97095 222.71526 224.23215 225.66298 226.76645 227.31950 227.48170 227.18204
 226.53397 227.37308 231.06705 235.75255 240.51826 245.14619 249.43073 253.31586
 256.85226 260.19669 263.37149 266.23886 268.68307 270.72311 272.38309 273.86884
 275.38971 277.11285 278.67636 280.05328 281.24887 282.31296 283.28870 284.18246
 284.99838 285.73932 286.39374 287.34442
 366.78100 356.32715 345.75131 334.60946 323.00461 311.19077 299.05292 286.84807
 274.55223 262.44138 250.44253 239.73569 229.84984 220.94599 213.12015 206.11430
 199.94045 194.87060 191.44476 189.47891 188.50806 188.56422 189.39137 190.69152
 192.40868 194.49583 196.75098 199.10214 201.53929 204.01144 206.09160 207.92575
 209.54390 210.68106 210.90221 211.12236 211.05152 210.74867 210.37382 209.99598
 209.60513 209.30728 209.10744 208.96359 208.88374 209.20689 209.58505 209.96620
 210.75135 211.92151 213.16366 214.93881 216.85897 218.89412 220.98127 223.05643
 225.10858 227.18473 229.27389 231.37204 233.49319 235.65735 237.90550 240.26765
 242.88081 245.12396 247.11811 248.87527 250.28442 251.39957 252.21373 252.52188
 252.55103 252.31718 251.66934 250.60949 249.20764 247.36080 245.26195 243.08710
 240.87026 238.66641 236.47856 234.30972 232.16187 230.02102 228.03918 226.18833
 224.46348 222.92764 221.54979 220.31394 219.18810 218.14025 217.23640 216.36956
 215.60371 214.77586 213.86602 213.22217 212.66432 213.77138 216.38689 218.99345
 221.03464 222.80083 224.27740 225.71645 226.87526 227.36426 227.37045 227.02295
 226.42747 227.32791 231.02802 235.70383 240.47346 245.12532 249.43744 253.33643
 256.86615 260.19614 263.35916 266.21924 268.64734 270.66019 272.30673 273.80249
 275.36090 277.09244 278.65512 280.03235 281.22900 282.29318 283.26996 284.16489
 284.97803 285.72012 286.37543 287.32486
 366.78100 356.32799 345.75297 334.61196 323.00794 311.19493 299.05791 286.85390
 274.55888 262.44887 250.45086 239.74484 229.85983 220.95681 213.13180 206.12678
 199.95377 194.88475 191.45974 189.49473 188.52471 188.58170 189.40968 190.71067
 192.42865 194.51664 196.77263 199.12461 201.56260 204.03558 206.11657 207.95155
 209.57054 210.70852 210.93051 211.15150 211.08148 210.77947 210.40545 210.02844
 209.63842 209.34141 209.14239 208.99938 208.92037 209.24435 209.62334 210.00532
 210.79131 211.96229 213.20528 214.98126 216.90225 218.93824 221.02622 223.10221
 225.15519 227.23218 229.32216 231.42115 233.54314 235.70812 237.95711 240.32009
 242.93408 245.17806 247.17305 248.93103 250.34102 251.45701 252.27199 252.58098
 252.61096 252.37795 251.73093 250.67192 249.27090 247.42489 245.32688 243.15286
 240.93685 238.73383 236.54682 234.37880 232.23179 230.09177 228.11076 226.26075
 224.53673 223.00172 221.62470 220.38969 219.26467 218.21766 217.31465 216.44863
 215.68362 214.85660 213.94759 213.30457 212.74756 213.84120 216.42506 219.02046
 221.09654 222.85620 224.32802 225.78952 226.96506 227.40857 227.28793 226.83868
 226.28600 227.28697 230.99725 235.66725 240.44087 245.11116 249.44849 253.35988
 256.88049 260.19415 263.34464 266.19583 268.60440 270.58923 272.22211 273.72858
 275.32788 277.06549 278.62912 280.00635 281.20267 282.26752 283.24469 284.13889
 284.95288 285.69519 286.35129 287.29984
 366.78100 356.32869 345.75439 334.61408 323.01078 311.19847 299.06217 286.85886
 274.56456 262.45525 250.45795 239.75264 229.86834 220.96603 213.14173 206.13742
 199.96511 194.89681 191.47250 189.50820 188.53889 188.59659 189.42528 190.72698
 192.44567 194.53437 196.79106 199.14376 201.58245 204.05615 206.13784 207.97353
 209.59323 210.73192 210.95462 211.17631 211.10701 210.80570 210.43240 210.05609
 209.66679 209.37048 209.17218 209.02987 208.95157 209.27626 209.65595 210.03865
 210.82534 211.99704 213.24073 215.01743 216.93912 218.97582 221.06451 223.14121
 225.19490 227.27260 229.36329 231.46299 233.58568 235.75137 238.00107 240.36476
 242.97946 245.22415 247.21985 248.97854 250.38924 251.50593 252.32163 252.63132
 252.66202 252.42971 251.78340 250.72510 249.32479 247.47949 245.38218 243.20888
 240.99357 238.79127 236.60496 234.43766 232.29135 230.15205 228.17174 226.32244
 224.59913 223.06482 221.68852 220.45421 219.32991 218.28360 217.38130 216.51599
 215.75169 214.92538 214.01708 213.37477 212.81847 213.90417 216.46928 219.04832
 221.14656 222.90872 224.38293 225.86331 227.03932 227.44725 227.22418 226.63850
 226.11377 227.25580 230.98494 235.64516 240.41879 245.10181 249.45743 253.37910
 256.89227 260.19012 263.32779 266.17023 268.56049 270.51797 272.13715 273.65088
 275.28958 277.03436 278.59818 279.97446 281.17200 282.23657 283.21381 284.10791
 284.92310 285.66470 286.32025 287.27130
 366.78100 356.32937 345.75573 334.61610 323.01347 311.20183 299.06620 286.86357
 274.56993 262.46130 250.46467 239.76003 229.87640 220.97476 213.15113 206.14750
 199.97586 194.90823 191.48460 189.52096 188.55233 188.61070 189.44006 190.74243
 192.46180 194.55116 196.80853 199.16190 201.60126 204.07563 206.15800 207.99436
 209.61473 210.75409 210.97746 211.19983 211.13119 210.83056 210.45793 210.08229
 209.69366 209.39803 209.20039 209.05876 208.98113 209.30649 209.68686 210.07023
 210.85759 212.02996 213.27433 215.05169 216.97406 219.01142 221.10079 223.17816
 225.23252 227.31089 229.40226 231.50262 233.62599 235.79236 238.04272 240.40709
 243.02246 245.26782 247.26419 249.02356 250.43492 251.55229 252.36866 252.67902
 252.71039 252.47875 251.83312 250.77549 249.37585 247.53122 245.43459 243.26195
 241.04732 238.84569 236.66005 234.49342 232.34779 230.20915 228.22952 226.38089
 224.65825 223.12462 221.74899 220.51535 219.39172 218.34609 217.44445 216.57982
 215.81618 214.99055 214.08292 213.44128 212.88565 213.96494 216.51483 219.07918
 221.18866 222.95110 224.44589 225.93633 227.09978 227.48366 227.16855 226.43716
 225.93118 227.23033 230.98624 235.63359 240.40536 245.09538 249.46498 253.39362
 256.89798 260.18039 263.30569 266.13889 268.51389 270.44940 272.05600 273.57758
 275.24600 276.99481 278.55832 279.93539 281.13248 282.19806 283.17392 284.06851
 284.88489 285.62704 286.28018 287.23474
 366.78100 356.33002 345.75703 334.61805 323.01607 311.20508 299.07010 286.86812
 274.57513 262.46715 250.47117 239.76719 229.88420 220.98322 213.16024 206.15725
 199.98627 194.91929 191.49630 189.53332 188.56534 188.62435 189.45437 190.75739
 192.47740 194.56742 196.82544 199.17945 201.61947 204.09449 206.17751 208.01452
 209.63554 210.77556 210.99957 211.22259 211.15461 210.85462 210.48264 210.10766
 209.71967 209.42469 209.22771 209.08672 209.00974 209.33576 209.71677 210.10079
 210.88881 212.06182 213.30684 215.08486 217.00788 219.04589 221.13591 223.21393
 225.26894 227.34796 229.43998 231.54099 233.66501 235.83203 238.08304 240.44806
 243.06408 245.31009 247.30711 249.06713 250.47914 251.59716 252.41418 252.72520
 252.75721 252.52623 251.88125 250.82426 249.42528 247.58130 245.48531 243.31333
 241.09935 238.89836 236.71338 234.54740 232.40241 230.26443 228.28545 226.43746
 224.71548 223.18250 221.80752 220.57453 219.45155 218.40657 217.50558 216.64160
 215.87862 215.05363 214.14665 213.50567 212.95068 214.02403 216.55991 219.11526
 221.22458 222.97899 224.50945 226.01097 227.15656 227.52426 227.11681 226.24318
 225.75435 227.20168 230.98624 235.62947 240.40256 245.09477 249.47276 253.40527
 256.89847 260.16287 263.27533 266.09927 268.46033 270.37991 271.97906 273.51144
 275.19678 276.94824 278.51163 279.88751 281.08414 282.14890 283.12671 284.01999
 284.83740 285.57828 286.23654 287.18646
 366.78100 356.33058 345.75815 334.61973 323.01831 311.20788 299.07346 286.87204
 274.57961 262.47219 250.47677 239.77334 229.89092 220.99049 213.16807 206.16565
 199.99522 194.92880 191.50638 189.54395 188.57653 188.63611 189.46668 190.77026
 192.49084 194.58141 196.83999 199.19457 201.63514 204.11072 206.19430 208.03187
 209.65345 210.79403 211.01860 211.24218 211.17476 210.87533 210.50391 210.12948
 209.74206 209.44764 209.25121 209.11079 209.03437 209.36094 209.74252 210.12710
 210.91567 212.08925 213.33483 215.11340 217.03698 219.07556 221.16613 223.24471
 225.30029 227.37986 229.47244 231.57402 233.69859 235.86617 238.11774 240.48332
 243.09990 245.34647 247.34405 249.10463 250.51720 251.63578 252.45336 252.76493
 252.79751 252.56709 251.92266 250.86624 249.46782 247.62439 245.52897 243.35755
 241.14412 238.94370 236.75928 234.59385 232.44943 230.31200 228.33358 226.48616
 224.76473 223.23231 221.85789 220.62546 219.50304 218.45862 217.55819 216.69477
 215.93235 215.10792 214.20150 213.56108 213.00665 214.07722 216.60660 219.15500
 221.25043 223.00180 224.56714 226.07695 227.21933 227.57741 227.07188 226.05128
 225.58009 227.17085 230.98291 235.63400 240.41257 245.10104 249.47940 253.41002
 256.89032 260.13739 263.23883 266.05545 268.40347 270.31024 271.90826 273.45074
 275.14291 276.89407 278.45663 279.83209 281.02777 282.09314 283.07095 283.96573
 284.78168 285.52594 286.18066 287.13577
 366.78100 356.33100 345.75899 334.62099 323.01998 311.20998 299.07597 286.87497
 274.58297 262.47596 250.48096 239.77795 229.89595 220.99594 213.17394 206.17194
 200.00193 194.93593 191.51392 189.55192 188.58491 188.64491 189.47591 190.77990
 192.50090 194.59189 196.85089 199.20588 201.64688 204.12287 206.20687 208.04487
 209.66686 210.80786 211.03285 211.25685 211.18984 210.89084 210.51984 210.14583
 209.75883 209.46482 209.26882 209.12881 209.05281 209.37981 209.76180 210.14680
 210.93579 212.10979 213.35578 215.13478 217.05878 219.09777 221.18877 223.26776
 225.32376 227.40375 229.49675 231.59875 233.72374 235.89174 238.14373 240.50973
 243.12672 245.37372 247.37172 249.13271 250.54571 251.66470 252.48270 252.79469
 252.82769 252.59769 251.95368 250.89768 249.49967 247.65667 245.56166 243.39066
 241.17765 238.97765 236.79365 234.62864 232.48464 230.34763 228.36963 226.52262
 224.80162 223.26962 221.89561 220.66361 219.54160 218.49760 217.59759 216.73459
 215.97259 215.14858 214.24258 213.60257 213.04857 214.12177 216.65733 219.19539
 221.27248 223.01805 224.61746 226.13907 227.28015 227.63959 227.04539 225.85809
 225.39127 227.14291 230.99042 235.64821 240.42839 245.10561 249.47797 253.40469
 256.87277 260.10562 263.19888 266.01038 268.35110 270.24692 271.84695 273.39914
 275.08395 276.83310 278.39523 279.77002 280.96478 282.02963 283.00735 283.90158
 284.71759 285.46255 286.11969 287.07028
 366.78100 356.33160 345.76021 334.62281 323.02242 311.21302 299.07963 286.87923
 274.58784 262.48144 250.48705 239.78465 229.90326 221.00386 213.18247 206.18107
 200.01168 194.94628 191.52489 189.56349 188.59710 188.65770 189.48931 190.79391
 192.51552 194.60712 196.86673 199.22233 201.66393 204.14054 206.22514 208.06375
 209.68635 210.82796 211.05356 211.27817 211.21177 210.91338 210.54298 210.16959
 209.78319 209.48980 209.29440 209.15501 209.07961 209.40722 209.78982 210.17543
 210.96503 212.13964 213.38624 215.16585 217.09045 219.13006 221.22166 223.30126
 225.35787 227.43847 229.53208 231.63468 233.76029 235.92889 238.18150 240.54810
 243.16571 245.41331 247.41192 249.17352 250.58713 251.70673 252.52534 252.83794
 252.87155 252.64215 251.99876 250.94336 249.54597 247.70357 245.60918 243.43878
 241.22639 239.02699 236.84360 234.67920 232.53580 230.39941 228.42201 226.57562
 224.85522 223.32383 221.95043 220.71904 219.59764 218.55425 217.65485 216.79246
 216.03106 215.20767 214.30227 213.66288 213.10948 214.17409 216.68933 219.24870
 221.29665 223.02283 224.64317 226.18129 227.36485 227.73784 227.02177 225.66156
 225.21426 227.11491 230.98392 235.66243 240.45033 245.11420 249.47696 253.39764
 256.85165 260.06952 263.15411 265.96185 268.29626 270.18304 271.78433 273.34775
 275.02023 276.76547 278.32666 279.70099 280.89539 281.95966 282.93665 283.83060
 284.64807 285.39325 286.05130 287.00159
 366.78100 356.33223 345.76145 334.62468 323.02490 311.21613 299.08335 286.88358
 274.59280 262.48703 250.49325 239.79148 229.91070 221.01193 213.19116 206.19038
 200.02161 194.95683 191.53606 189.57528 188.60951 188.67073 189.50296 190.80818
 192.53041 194.62263 196.88286 199.23909 201.68131 204.15854 206.24376 208.08299
 209.70621 210.84844 211.07466 211.29989 211.23411 210.93634 210.56656 210.19379
 209.80802 209.51524 209.32047 209.18169 209.10692 209.43514 209.81837 210.20459
 210.99482 212.17004 213.41727 215.19750 217.12272 219.16295 221.25517 223.33540
 225.39262 227.47385 229.56807 231.67130 233.79752 235.96675 238.21997 240.58720
 243.20543 245.45365 247.45288 249.21510 250.62933 251.74955 252.56878 252.88200
 252.91623 252.68745 252.04468 250.98990 249.59313 247.75136 245.65758 243.48781
 241.27603 239.07726 236.89448 234.73071 232.58793 230.45216 228.47538 226.62961
 224.90983 223.37906 222.00629 220.77551 219.65474 218.61196 217.71319 216.85141
 216.09064 215.26786 214.36309 213.72431 213.17154 214.22594 216.71709 219.29881
 221.33611 223.00513 224.67564 226.20694 227.40352 227.86383 227.08772 225.38472
 224.87523 227.09164 231.04697 235.71519 240.49072 245.12709 249.46909 253.37659
 256.81665 260.02188 263.10278 265.90948 268.24026 270.12466 271.72833 273.30136
 274.95349 276.69333 278.25278 279.62646 280.81995 281.88309 282.85989 283.75470
 284.57123 285.31635 285.97635 286.92758
 366.78100 356.33237 345.76173 334.62510 323.02546 311.21683 299.08419 286.88456
 274.59392 262.48829 250.49465 239.79302 229.91239 221.01375 213.19312 206.19248
 200.02385 194.95921 191.53858 189.57794 188.61231 188.67367 189.50604 190.81141
 192.53377 194.62614 196.88650 199.24287 201.68523 204.16260 206.24796 208.08733
 209.71069 210.85306 211.07943 211.30479 211.23916 210.94152 210.57189 210.19925
 209.81362 209.52098 209.32635 209.18772 209.11308 209.44145 209.82481 210.21118
 211.00154 212.17691 213.42427 215.20464 217.13000 219.17037 221.26274 223.34310
 225.40047 227.48183 229.57620 231.67956 233.80593 235.97529 238.22866 240.59602
 243.21439 245.46276 247.46212 249.22449 250.63885 251.75922 252.57858 252.89195
 252.92631 252.69768 252.05504 251.00041 249.60378 247.76214 245.66851 243.49887
 241.28724 239.08860 236.90597 234.74233 232.59970 230.46406 228.48743 226.64180
 224.92216 223.39153 222.01889 220.78826 219.66762 218.62499 217.72635 216.86472
 216.10408 215.28145 214.37682 213.73818 213.18555 214.25352 216.77672 219.31543
 221.39291 223.01903 224.62633 226.23645 227.49837 227.95729 227.10260 225.28314
 224.72240 227.02536 231.05786 235.74744 240.51344 245.12424 249.44943 253.34763
 256.77722 259.97452 263.05350 265.85849 268.18930 270.07538 271.68411 273.26166
 274.88672 276.61856 278.17557 279.54855 280.74115 281.80331 282.77969 283.67368
 284.49179 285.23975 285.89926 286.85089
 366.78100 356.33251 345.76203 334.62554 323.02605 311.21756 299.08508 286.88559
 274.59510 262.48961 250.49613 239.79464 229.91415 221.01567 213.19518 206.19469
 200.02620 194.96172 191.54123 189.58074 188.61525 188.67677 189.50928 190.81479
 192.53731 194.62982 196.89033 199.24684 201.68936 204.16687 206.25238 208.09189
 209.71541 210.85792 211.08443 211.30995 211.24446 210.94697 210.57748 210.20500
 209.81951 209.52702 209.33253 209.19405 209.11956 209.44807 209.83158 210.21810
 211.00861 212.18412 213.43164 215.21215 217.13766 219.17817 221.27069 223.35120
 225.40871 227.49022 229.58474 231.68825 233.81476 235.98428 238.23779 240.60530
 243.22381 245.47233 247.47184 249.23435 250.64886 251.76938 252.58889 252.90240
 252.93692 252.70843 252.06594 251.01145 249.61497 247.77348 245.67999 243.51050
 241.29902 239.10053 236.91804 234.75456 232.61207 230.47658 228.50009 226.65461
 224.93512 223.40463 222.03214 220.80166 219.68117 218.63868 217.74020 216.87871
 216.11822 215.29573 214.39125 213.75276 213.20027 214.27969 216.82994 219.34688
 221.41653 223.04977 224.64111 226.29341 227.57251 227.95894 227.06546 225.28357
 224.68674 226.94397 231.02390 235.75900 240.52789 245.12125 249.43384 253.32484
 256.74539 259.93265 263.00674 265.81018 268.14087 270.02985 271.64618 273.23047
 274.81799 276.54193 278.09750 279.46857 280.65887 281.71964 282.69467 283.58795
 284.40509 285.15283 285.81610 286.76370
 366.78100 356.33286 345.76272 334.62659 323.02745 311.21931 299.08717 286.88803
 274.59789 262.49276 250.49962 239.79848 229.91834 221.02020 213.20007 206.19993
 200.03179 194.96765 191.54751 189.58737 188.62224 188.68410 189.51696 190.82282
 192.54568 194.63855 196.89941 199.25627 201.69913 204.17699 206.26286 208.10272
 209.72658 210.86944 211.09630 211.32216 211.25703 210.95989 210.59075 210.21861
 209.83347 209.54134 209.34720 209.20906 209.13492 209.46378 209.84764 210.23451
 211.02537 212.20123 213.44909 215.22995 217.15582 219.19668 221.28954 223.37040
 225.42826 227.51012 229.60499 231.70885 233.83571 236.00557 238.25943 240.62730
 243.24616 245.49502 247.49488 249.25774 250.67260 251.79347 252.61333 252.92719
 252.96205 252.73391 252.09178 251.03764 249.64150 247.80036 245.70722 243.53809
 241.32695 239.12881 236.94667 234.78353 232.64139 230.50626 228.53012 226.68498
 224.96584 223.43570 222.06357 220.83343 219.71329 218.67115 217.77301 216.91187
 216.15174 215.32960 214.42546 213.78732 213.23518 214.31334 216.86058 219.39484
 221.43646 223.07274 224.67258 226.33524 227.61075 227.96449 227.04385 225.29041
 224.66655 226.86099 230.98152 235.77600 240.54961 245.12279 249.42102 253.30417
 256.71436 259.88998 262.95999 265.76187 268.09375 269.98590 271.61108 273.20337
 274.77661 276.47040 278.01154 279.37659 280.56400 281.62326 282.59854 283.49207
 284.31100 285.05814 285.72171 286.67264
 366.78100 356.33321 345.76343 334.62764 323.02885 311.22107 299.08928 286.89049
 274.60071 262.49592 250.50314 239.80235 229.92256 221.02478 213.20499 206.20520
 200.03742 194.97363 191.55384 189.59406 188.62927 188.69148 189.52470 190.83091
 192.55413 194.64734 196.90855 199.26577 201.70898 204.18719 206.27341 208.11362
 209.73783 210.88105 211.10826 211.33447 211.26969 210.97290 210.60411 210.23233
 209.84754 209.55576 209.36197 209.22418 209.15040 209.47961 209.86382 210.25104
 211.04225 212.21846 213.46668 215.24789 217.17410 219.21532 221.30853 223.38975
 225.44796 227.53017 229.62539 231.72960 233.85681 236.02703 238.28124 240.64945
 243.26867 245.51788 247.51809 249.28131 250.69652 251.81774 252.63795 252.95216
 252.98738 252.75959 252.11780 251.06402 249.66823 247.82744 245.73466 243.56587
 241.35508 239.15730 236.97551 234.81272 232.67094 230.53615 228.56037 226.71558
 224.99679 223.46701 222.09522 220.86543 219.74565 218.70386 217.80607 216.94529
 216.18550 215.36371 214.45993 213.82214 213.27036 214.34532 216.88507 219.43547
 221.46559 223.09802 224.69589 226.34958 227.61833 228.00114 227.04321 225.27158
 224.63251 226.78864 230.95320 235.80380 240.57452 245.12390 249.40669 253.28215
 256.68289 259.84839 262.91556 265.71643 268.05072 269.94800 271.58270 273.17947
 274.80035 276.36896 277.89624 279.26782 280.46030 281.52127 282.49731 283.39340
 284.21271 284.96149 285.62695 286.57550
 366.78100 356.33351 345.76402 334.62853 323.03004 311.22256 299.09107 286.89258
 274.60309 262.49860 250.50611 239.80562 229.92613 221.02864 213.20916 206.20967
 200.04218 194.97869 191.55920 189.59971 188.63522 188.69773 189.53124 190.83776
 192.56127 194.65478 196.91629 199.27380 201.71731 204.19582 206.28233 208.12284
 209.74736 210.89087 211.11838 211.34489 211.28040 210.98391 210.61542 210.24393
 209.85944 209.56796 209.37447 209.23698 209.16349 209.49300 209.87751 210.26502
 211.05653 212.23304 213.48155 215.26307 217.18958 219.23109 221.32460 223.40611
 225.46462 227.54713 229.64264 231.74715 233.87467 236.04518 238.29969 240.66820
 243.28771 245.53722 247.53773 249.30124 250.71675 251.83827 252.65878 252.97329
 253.00880 252.78131 252.13982 251.08633 249.69084 247.85035 245.75787 243.58938
 241.37889 239.18140 236.99991 234.83742 232.69593 230.56144 228.58595 226.74147
 225.02298 223.49349 222.12200 220.89251 219.77302 218.73153 217.83404 216.97355
 216.21407 215.39258 214.48909 213.85160 213.30011 214.37430 216.91222 219.46970
 221.50648 223.12770 224.70851 226.34131 227.61798 228.04257 227.04750 225.24896
 224.58679 226.72507 230.94473 235.83571 240.59642 245.12355 249.39209 253.26189
 256.65417 259.81155 262.87686 265.67902 268.01602 269.91626 271.55743 273.14648
 274.74295 276.28906 277.81104 279.18213 280.37335 281.43512 282.41327 283.30899
 284.12854 284.88199 285.54715 286.49567
 366.78100 356.33382 345.76464 334.62946 323.03128 311.22411 299.09293 286.89475
 274.60557 262.50139 250.50921 239.80903 229.92985 221.03268 213.21350 206.21432
 200.04714 194.98396 191.56478 189.60560 188.64142 188.70424 189.53807 190.84489
 192.56871 194.66253 196.92435 199.28217 201.72599 204.20481 206.29163 208.13246
 209.75728 210.90110 211.12892 211.35574 211.29156 210.99538 210.62720 210.25603
 209.87185 209.58067 209.38749 209.25031 209.17713 209.50695 209.89177 210.27959
 211.07142 212.24824 213.49706 215.27888 217.20570 219.24752 221.34134 223.42316
 225.48198 227.56481 229.66063 231.76545 233.89327 236.06409 238.31891 240.68773
 243.30755 245.55738 247.55820 249.32202 250.73784 251.85966 252.68048 252.99530
 253.03112 252.80394 252.16277 251.10959 249.71441 247.87423 245.78205 243.61387
 241.40369 239.20651 237.02533 234.86316 232.72198 230.58780 228.61262 226.76844
 225.05026 223.52108 222.14990 220.92073 219.80155 218.76037 217.86319 217.00301
 216.24383 215.42265 214.51947 213.88229 213.33112 214.40292 216.93521 219.50114
 221.55473 223.16243 224.71255 226.31644 227.62181 228.07260 227.04982 225.23961
 224.54314 226.66927 230.94859 235.86597 240.61577 245.12430 249.38007 253.24365
 256.62827 259.78040 262.84491 265.64615 267.98740 269.89114 271.53549 273.11887
 274.68375 276.21701 277.73425 279.10455 280.29395 281.35550 282.33154 283.22699
 284.04767 284.80121 285.46753 286.41608
 366.78100 356.33417 345.76535 334.63052 323.03269 311.22587 299.09504 286.89721
 274.60839 262.50456 250.51273 239.81291 229.93408 221.03725 213.21843 206.21960
 200.05277 194.98995 191.57112 189.61229 188.64847 188.71164 189.54581 190.85299
 192.57716 194.67133 196.93351 199.29168 201.73585 204.21503 206.30220 208.14337
 209.76855 210.91272 211.14089 211.36807 211.30424 211.00841 210.64059 210.26976
 209.88593 209.59511 209.40228 209.26545 209.19263 209.52280 209.90797 210.29615
 211.08832 212.26549 213.51467 215.29684 217.22401 219.26619 221.36036 223.44253
 225.50171 227.58488 229.68105 231.78623 233.91440 236.08557 238.34075 240.70992
 243.33009 245.58027 247.58144 249.34561 250.76179 251.88396 252.70513 253.02031
 253.05648 252.82965 252.18883 251.13600 249.74117 247.90135 245.80952 243.64169
 241.43187 239.23504 237.05421 234.89239 232.75156 230.61773 228.64291 226.79908
 225.08125 223.55243 222.18160 220.95277 219.83395 218.79312 217.89629 217.03647
 216.27764 215.45681 214.55399 213.91716 213.36633 214.43184 216.94919 219.52876
 221.60202 223.20436 224.71544 226.28659 227.62358 228.08699 227.05026 225.24167
 224.51111 226.62312 230.95531 235.89458 240.63152 245.12418 249.37033 253.22859
 256.61017 259.75781 262.81781 265.61639 267.95987 269.87015 271.51682 273.09818
 274.64499 276.14481 277.65625 279.02612 280.21539 281.27603 282.25128 283.14801
 283.96960 284.72018 285.38770 286.33047
 366.78100 356.33451 345.76602 334.63153 323.03404 311.22755 299.09706 286.89957
 274.61108 262.50759 250.51610 239.81661 229.93812 221.04163 213.22314 206.22465
 200.05816 194.99567 191.57718 189.61869 188.65520 188.71871 189.55322 190.86073
 192.58524 194.67975 196.94226 199.30077 201.74528 204.22479 206.31230 208.15381
 209.77932 210.92383 211.15234 211.37985 211.31636 211.02087 210.65338 210.28289
 209.89940 209.60891 209.41642 209.27993 209.20744 209.53795 209.92346 210.31197
 211.10448 212.28199 213.53150 215.31401 217.24152 219.28403 221.37854 223.46105
 225.52056 227.60407 229.70058 231.80609 233.93460 236.10611 238.36162 240.73113
 243.35164 245.60215 247.60366 249.36817 250.78468 251.90719 252.72870 253.04421
 253.08072 252.85423 252.21374 251.16125 249.76676 247.92727 245.83578 243.66829
 241.45880 239.26231 237.08181 234.92032 232.77983 230.64634 228.67185 226.82836
 225.11087 223.58238 222.21189 220.98340 219.86491 218.82442 217.92793 217.06844
 216.30995 215.48946 214.58697 213.95048 213.39999 214.45956 216.96291 219.55217
 221.64719 223.25090 224.71864 226.25763 227.61200 228.08208 227.04778 225.25311
 224.49420 226.58636 230.96172 235.92307 240.65135 245.12363 249.35954 253.21875
 256.59726 259.73987 262.79333 265.58856 267.93588 269.85144 271.50375 273.07785
 274.60345 276.07776 277.58408 278.95270 280.14279 281.20270 282.17792 283.07523
 283.89551 284.64566 285.31583 286.24734
 366.78100 356.33481 345.76663 334.63244 323.03525 311.22906 299.09888 286.90169
 274.61350 262.51031 250.51913 239.81994 229.94175 221.04556 213.22738 206.22919
 200.06300 195.00082 191.58263 189.62444 188.66125 188.72507 189.55988 190.86769
 192.59250 194.68732 196.95013 199.30894 201.75375 204.23357 206.32138 208.16319
 209.78901 210.93382 211.16263 211.39044 211.32726 211.03207 210.66488 210.29469
 209.91151 209.62132 209.42913 209.29294 209.22076 209.55157 209.93738 210.32620
 211.11901 212.29682 213.54663 215.32945 217.25726 219.30007 221.39488 223.47770
 225.53751 227.62132 229.71814 231.82395 233.95276 236.12457 238.38039 240.75020
 243.37101 245.62182 247.62364 249.38845 250.80526 251.92807 252.74989 253.06570
 253.10251 252.87633 252.23614 251.18395 249.78976 247.95058 245.85939 243.69220
 241.48301 239.28683 237.10664 234.94545 232.80526 230.67208 228.69789 226.85470
 225.13752 223.60933 222.23914 221.01095 219.89277 218.85258 217.95639 217.09720
 216.33902 215.51883 214.61664 213.98045 213.43027 214.48566 216.97911 219.56635
 221.69405 223.30313 224.72215 226.23021 227.58702 228.06181 227.03990 225.27591
 224.49577 226.55399 230.97375 235.95261 240.66298 245.12714 249.35812 253.20915
 256.58676 259.72528 262.77274 265.56512 267.91611 269.83737 271.49579 273.06140
 274.56082 276.01819 277.52066 278.88843 280.07812 281.13693 282.11353 283.01016
 283.83011 284.58282 285.25153 286.18109
 366.78100 356.33512 345.76724 334.63337 323.03649 311.23061 299.10073 286.90386
 274.61598 262.51310 250.52222 239.82335 229.94547 221.04959 213.23171 206.23383
 200.06796 195.00608 191.58820 189.63032 188.66745 188.73157 189.56669 190.87481
 192.59993 194.69506 196.95818 199.31730 201.76242 204.24255 206.33067 208.17279
 209.79891 210.94404 211.17316 211.40128 211.33840 211.04352 210.67665 210.30677
 209.92389 209.63401 209.44214 209.30626 209.23438 209.56550 209.95162 210.34075
 211.13387 212.31199 213.56211 215.34524 217.27336 219.31648 221.41160 223.49473
 225.55485 227.63897 229.73609 231.84221 233.97134 236.14346 238.39958 240.76970
 243.39083 245.64195 247.64407 249.40919 250.82631 251.94944 252.77156 253.08768
 253.12480 252.89893 252.25905 251.20717 249.81329 247.97442 245.88354 243.71666
 241.50778 239.31190 237.13203 234.97115 232.83127 230.69839 228.72452 226.88164
 225.16476 223.63688 222.26700 221.03913 219.92125 218.88137 217.98549 217.12662
 216.36874 215.54886 214.64698 214.01111 213.46123 214.51260 216.99657 219.57497
 221.74002 223.36034 224.72957 226.20251 227.55098 228.02827 227.02277 225.30025
 224.51302 226.53000 230.98807 236.00102 240.67409 245.12453 249.35106 253.20279
 256.57928 259.71481 262.75668 265.54428 267.89667 269.82196 271.48663 273.05057
 274.52609 275.96225 277.46024 278.82620 280.01596 281.07550 282.05115 282.94958
 283.76886 284.52136 285.18878 286.11392
 366.78100 356.33545 345.76790 334.63435 323.03780 311.23225 299.10270 286.90615
 274.61860 262.51605 250.52550 239.82696 229.94941 221.05386 213.23631 206.23876
 200.07321 195.01166 191.59411 189.63656 188.67401 188.73846 189.57391 190.88236
 192.60781 194.70326 196.96671 199.32616 201.77161 204.25206 206.34051 208.18297
 209.80942 210.95487 211.18432 211.41277 211.35022 211.05567 210.68912 210.31957
 209.93702 209.64747 209.45592 209.32037 209.24882 209.58027 209.96672 210.35617
 211.14962 212.32807 213.57852 215.36198 217.29043 219.33388 221.42933 223.51278
 225.57323 227.65768 229.75513 231.86158 233.99103 236.16348 238.41993 240.79038
 243.41183 245.66328 247.66573 249.43118 250.84863 251.97208 252.79453 253.11098
 253.14844 252.92289 252.28334 251.23179 249.83824 247.99969 245.90914 243.74259
 241.53404 239.33849 237.15894 234.99839 232.85884 230.72629 228.75274 226.91019
 225.19364 223.66609 222.29654 221.06899 219.95145 218.91190 218.01635 217.15780
 216.40025 215.58070 214.67915 214.04360 213.49405 214.53999 217.01117 219.58177
 221.78159 223.41936 224.74670 226.17896 227.50397 227.97647 226.99658 225.32736
 224.55695 226.53023 230.98323 236.02740 240.70029 245.12050 249.34775 253.19518
 256.57214 259.70587 262.74054 265.52383 267.88007 269.81454 271.48462 273.04974
 274.51163 275.90750 277.39606 278.76221 279.95132 281.01004 281.98676 282.88345
 283.70526 284.45721 285.12433 286.03632
 366.78100 356.33574 345.76848 334.63522 323.03895 311.23369 299.10443 286.90817
 274.62091 262.51865 250.52838 239.83012 229.95286 221.05760 213.24034 206.24308
 200.07781 195.01655 191.59929 189.64203 188.67977 188.74451 189.58025 190.88898
 192.61472 194.71046 196.97420 199.33394 201.77968 204.26041 206.34915 208.19189
 209.81863 210.96437 211.19411 211.42284 211.36058 211.06632 210.70006 210.33080
 209.94854 209.65928 209.46801 209.33275 209.26149 209.59323 209.97997 210.36971
 211.16344 212.34218 213.59292 215.37666 217.30540 219.34914 221.44487 223.52861
 225.58935 227.67409 229.77183 231.87857 234.00831 236.18104 238.43778 240.80852
 243.43026 245.68200 247.68474 249.45047 250.86821 251.99195 252.81469 253.13143
 253.16917 252.94390 252.30464 251.25338 249.86012 248.02186 245.93160 243.76534
 241.55707 239.36181 237.18255 235.02229 232.88303 230.75077 228.77750 226.93524
 225.21898 223.69172 222.32246 221.09520 219.97794 218.93867 218.04341 217.18515
 216.42789 215.60863 214.70737 214.07210 213.52284 214.56497 217.02710 219.58817
 221.81607 223.47720 224.77817 226.16742 227.44612 227.90228 226.95956 225.34955
 224.61023 226.55489 230.98055 236.04428 240.73396 245.12344 249.33719 253.18256
 256.56021 259.69382 262.72034 265.49963 267.86493 269.81567 271.49164 273.05453
 274.50717 275.85928 277.33530 278.69943 279.88727 280.94626 281.92236 282.81989
 283.64032 284.39209 285.06067 285.96237
 366.78100 356.33570 345.76840 334.63510 323.03880 311.23350 299.10420 286.90790
 274.62060 262.51830 250.52800 239.82969 229.95239 221.05709 213.23979 206.24249
 200.07719 195.01589 191.59859 189.64129 188.67899 188.74369 189.57939 190.88809
 192.61379 194.70949 196.97319 199.33289 201.77859 204.25929 206.34799 208.19068
 209.81738 210.96308 211.19278 211.42148 211.35918 211.06488 210.69858 210.32928
 209.94698 209.65768 209.46638 209.33108 209.25978 209.59148 209.97818 210.36788
 211.16158 212.34028 213.59098 215.37468 217.30337 219.34707 221.44277 223.52647
 225.58717 227.67187 229.76957 231.87627 234.00597 236.17867 238.43537 240.80607
 243.42777 245.67947 247.68217 249.44787 250.86557 251.98927 252.81197 253.12867
 253.16637 252.94106 252.30176 251.25046 249.85716 248.01886 245.92856 243.76226
 241.55396 239.35866 237.17936 235.01906 232.87976 230.74746 228.77416 226.93186
 225.21556 223.68826 222.31896 221.09166 219.97436 218.93505 218.03975 217.18145
 216.42415 215.60485 214.70355 214.06825 213.51895 214.57306 217.06351 219.58182
 221.83591 223.54575 224.81557 226.16058 227.38895 227.80737 226.90631 225.38664
 224.68005 226.58472 230.98465 236.05353 240.75041 245.14006 249.34113 253.16455
 256.54291 259.67511 262.69412 265.46985 267.84796 269.81940 271.50443 273.05869
 274.49765 275.82422 277.28012 278.63968 279.82675 280.88620 281.86090 282.75684
 283.57736 284.32812 284.99118 285.88510
 366.78100 356.33611 345.76922 334.63633 323.04044 311.23555 299.10666 286.91077
 274.62388 262.52199 250.53210 239.83421 229.95732 221.06243 213.24554 206.24865
 200.08376 195.02287 191.60598 189.64909 188.68720 188.75231 189.58842 190.89753
 192.62364 194.71975 196.98386 199.34397 201.79008 204.27119 206.36030 208.20341
 209.83052 210.97663 211.20674 211.43585 211.37396 211.08007 210.71418 210.34529
 209.96340 209.67451 209.48362 209.34873 209.27784 209.60995 209.99706 210.38717
 211.18128 212.36039 213.61150 215.39561 217.32472 219.36883 221.46494 223.54905
 225.61016 227.69527 229.79338 231.90049 234.03060 236.20371 238.46082 240.83193
 243.45404 245.70615 247.70926 249.47537 250.89348 252.01759 252.84070 253.15781
 253.19592 252.97103 252.33214 251.28125 249.88836 248.05047 245.96058 243.79469
 241.58680 239.39191 237.21302 235.05313 232.91424 230.78235 228.80946 226.96757
 225.25168 223.72479 222.35590 221.12901 220.01212 218.97323 218.07834 217.22045
 216.46356 215.64467 214.74378 214.10889 213.56000 214.60406 217.07079 219.60193
 221.83763 223.59718 224.89534 226.17026 227.28813 227.68031 226.86803 225.44290
 224.74576 226.60870 230.99338 236.04642 240.76308 245.17311 249.34813 253.14771
 256.52353 259.65335 262.66339 265.43555 267.82538 269.81851 271.51291 273.05490
 274.47772 275.80023 277.22849 278.58264 279.76981 280.82898 281.80374 282.69897
 283.52106 284.26743 284.93143 285.80682
 366.78100 356.33657 345.77014 334.63772 323.04229 311.23786 299.10943 286.91400
 274.62757 262.52615 250.53672 239.83929 229.96286 221.06843 213.25200 206.25558
 200.09115 195.03072 191.61429 189.65786 188.69643 188.76201 189.59858 190.90815
 192.63472 194.73129 196.99586 199.35644 201.80301 204.28458 206.37415 208.21772
 209.84529 210.99187 211.22244 211.45201 211.39058 211.09715 210.73172 210.36330
 209.98187 209.69344 209.50301 209.36858 209.29816 209.63073 210.01830 210.40887
 211.20344 212.38301 213.63459 215.41916 217.34873 219.39330 221.48987 223.57444
 225.63602 227.72159 229.82016 231.92773 234.05830 236.23187 238.48945 240.86102
 243.48359 245.73616 247.73973 249.50630 250.92488 252.04945 252.87302 253.19059
 253.22916 253.00473 252.36631 251.31588 249.92345 248.08602 245.99659 243.83116
 241.62374 239.42931 237.25088 235.09145 232.95302 230.82160 228.84917 227.00774
 225.29231 223.76588 222.39745 221.17103 220.05460 219.01617 218.12174 217.26431
 216.50788 215.68946 214.78903 214.15460 213.60617 214.63812 217.07620 219.61581
 221.84941 223.65942 224.94153 226.15160 227.19899 227.57152 226.83972 225.49132
 224.80067 226.63669 230.99113 236.03313 240.78523 245.20818 249.35982 253.13512
 256.50168 259.62909 262.63019 265.39703 267.79773 269.81216 271.51645 273.04730
 274.45401 275.77890 277.17990 278.52856 279.71609 280.77469 281.74963 282.64478
 283.46448 284.21124 284.87076 285.73657
 366.78100 356.33697 345.77094 334.63892 323.04389 311.23986 299.11183 286.91680
 274.63078 262.52975 250.54072 239.84369 229.96767 221.07364 213.25761 206.26158
 200.09755 195.03753 191.62150 189.66547 188.70444 188.77041 189.60739 190.91736
 192.64433 194.74130 197.00627 199.36725 201.81422 204.29619 206.38616 208.23014
 209.85811 211.00508 211.23605 211.46602 211.40500 211.11197 210.74694 210.37891
 209.99788 209.70986 209.51983 209.38580 209.31577 209.64874 210.03672 210.42769
 211.22266 212.40263 213.65460 215.43958 217.36955 219.41452 221.51149 223.59647
 225.65844 227.74441 229.84338 231.95135 234.08233 236.25630 238.51427 240.88624
 243.50921 245.76219 247.76616 249.53313 250.95210 252.07707 252.90105 253.21902
 253.25799 253.03396 252.39594 251.34591 249.95388 248.11685 246.02782 243.86280
 241.65577 239.46174 237.28371 235.12468 232.98666 230.85563 228.88360 227.04257
 225.32754 223.80152 222.43349 221.20746 220.09143 219.05341 218.15938 217.30235
 216.54632 215.72829 214.82827 214.19424 213.64621 214.66805 217.08224 219.62991
 221.84869 223.69406 225.02744 226.16422 227.09586 227.44553 226.80411 225.52357
 224.85989 226.67464 230.97632 236.03122 240.81651 245.24269 249.37450 253.12149
 256.47592 259.59900 262.59161 265.35428 267.76627 269.80313 271.51831 273.03976
 274.43024 275.75061 277.13284 278.47824 279.66565 280.72394 281.69983 282.59363
 283.41245 284.15588 284.81494 285.66879
 366.78100 356.33723 345.77146 334.63970 323.04493 311.24116 299.11339 286.91862
 274.63286 262.53209 250.54332 239.84655 229.97078 221.07702 213.26125 206.26548
 200.10171 195.04194 191.62618 189.67041 188.70964 188.77587 189.61310 190.92333
 192.65057 194.74780 197.01303 199.37426 201.82149 204.30373 206.39396 208.23819
 209.86642 211.01365 211.24489 211.47512 211.41435 211.12158 210.75681 210.38905
 210.00828 209.72051 209.53074 209.39697 209.32721 209.66044 210.04867 210.43990
 211.23513 212.41537 213.66760 215.45283 217.38306 219.42829 221.52553 223.61076
 225.67299 227.75922 229.85845 231.96669 234.09792 236.27215 238.53038 240.90261
 243.52585 245.77908 247.78331 249.55054 250.96977 252.09500 252.91924 253.23747
 253.27670 253.05293 252.41516 251.36540 249.97363 248.13686 246.04809 243.88332
 241.67656 239.48279 237.30502 235.14625 233.00848 230.87772 228.90595 227.06518
 225.35041 223.82464 222.45688 221.23111 220.11534 219.07757 218.18380 217.32704
 216.57127 215.75350 214.85373 214.21996 213.67220 214.68929 217.09227 219.63789
 221.86366 223.70470 225.10851 226.18062 226.98795 227.33051 226.77058 225.54184
 224.91888 226.71930 230.96913 236.03470 240.84502 245.27527 249.38914 253.10793
 256.44724 259.56421 262.54922 265.30801 267.73102 269.78973 271.51584 273.03156
 274.40952 275.72482 277.08719 278.42853 279.61530 280.67477 281.64801 282.54172
 283.35892 284.10333 284.75946 285.60211
 366.78100 356.33735 345.77169 334.64004 323.04539 311.24174 299.11408 286.91943
 274.63378 262.53312 250.54447 239.84782 229.97217 221.07851 213.26286 206.26721
 200.10355 195.04390 191.62825 189.67260 188.71194 188.77829 189.61564 190.92598
 192.65333 194.75068 197.01603 199.37737 201.82472 204.30707 206.39741 208.24176
 209.87011 211.01746 211.24880 211.47915 211.41850 211.12584 210.76119 210.39354
 210.01289 209.72523 209.53558 209.40193 209.33227 209.66562 210.05397 210.44532
 211.24066 212.42101 213.67336 215.45871 217.38905 219.43440 221.53175 223.61709
 225.67944 227.76579 229.86514 231.97348 234.10483 236.27918 238.53752 240.90987
 243.53322 245.78657 247.79091 249.55826 250.97761 252.10295 252.92730 253.24565
 253.28500 253.06134 252.42369 251.37404 249.98238 248.14573 246.05708 243.89243
 241.68577 239.49212 237.31447 235.15581 233.01816 230.88751 228.91586 227.07520
 225.36055 223.83490 222.46724 221.24159 220.12594 219.08829 218.19463 217.33798
 216.58233 215.76467 214.86502 214.23137 213.68372 214.70193 217.10760 219.64290
 221.88493 223.72105 225.15544 226.18213 226.90250 227.23990 226.73402 225.54552
 224.96602 226.76561 230.97336 236.04105 240.87033 245.30611 249.40407 253.09398
 256.41568 259.52487 262.50189 265.25665 267.69177 269.77155 271.50854 273.01761
 274.38446 275.69202 277.04230 278.38101 279.56836 280.62668 281.60040 282.49353
 283.31189 284.05368 284.70819 285.54715
 366.78100 356.33742 345.77183 334.64025 323.04566 311.24208 299.11449 286.91991
 274.63432 262.53374 250.54515 239.84857 229.97298 221.07940 213.26381 206.26823
 200.10464 195.04506 191.62947 189.67389 188.71330 188.77972 189.61713 190.92755
 192.65496 194.75238 197.01779 199.37921 201.82662 204.30904 206.39945 208.24387
 209.87228 211.01970 211.25111 211.48153 211.42094 211.12836 210.76377 210.39619
 210.01560 209.72802 209.53843 209.40485 209.33526 209.66868 210.05709 210.44851
 211.24392 212.42434 213.67675 215.46217 217.39258 219.43800 221.53541 223.62083
 225.68324 227.76966 229.86907 231.97749 234.10890 236.28332 238.54173 240.91415
 243.53756 245.79098 247.79539 249.56281 250.98222 252.10764 252.93205 253.25047
 253.28988 253.06630 252.42871 251.37913 249.98754 248.15096 246.06237 243.89779
 241.69120 239.49762 237.32003 235.16145 233.02387 230.89328 228.92170 227.08111
 225.36653 223.84094 222.47336 221.24777 220.13219 219.09460 218.20102 217.34443
 216.58885 215.77126 214.87168 214.23809 213.69051 214.71013 217.11906 219.64911
 221.89961 223.74759 225.17467 226.16985 226.84341 227.16985 226.69646 225.54175
 224.99963 226.80995 230.98788 236.05037 240.89377 245.33464 249.41658 253.07928
 256.38531 259.48740 262.45691 265.20758 267.65015 269.74515 271.48697 272.98947
 274.34891 275.65637 276.99725 278.33377 279.52084 280.58032 281.55212 282.44678
 283.26260 284.00488 284.65875 285.49634
 366.78100 356.33762 345.77223 334.64085 323.04646 311.24308 299.11570 286.92131
 274.63593 262.53554 250.54716 239.85078 229.97539 221.08201 213.26662 206.27124
 200.10786 195.04847 191.63309 189.67770 188.71732 188.78394 189.62155 190.93217
 192.65978 194.75740 197.02302 199.38463 201.83225 204.31486 206.40548 208.25010
 209.87871 211.02633 211.25794 211.48856 211.42818 211.13579 210.77141 210.40402
 210.02364 209.73626 209.54687 209.41349 209.34410 209.67772 210.06634 210.45795
 211.25357 212.43418 213.68680 215.47242 217.40303 219.44865 221.54626 223.63188
 225.69450 227.78111 229.88073 231.98935 234.12096 236.29558 238.55419 240.92681
 243.55043 245.80404 247.80866 249.57627 250.99589 252.12151 252.94612 253.26474
 253.30435 253.08097 252.44359 251.39420 250.00282 248.16643 246.07805 243.91367
 241.70728 239.51390 237.33651 235.17813 233.04075 230.91036 228.93898 227.09859
 225.38421 223.85883 222.49144 221.26606 220.15067 219.11329 218.21991 217.36352
 216.60814 215.79075 214.89137 214.25799 213.71060 214.72743 217.12978 219.65132
 221.90764 223.77013 225.17130 226.14668 226.80505 227.12090 226.66531 225.53571
 225.02063 226.84875 231.00940 236.05981 240.91176 245.35744 249.42805 253.06891
 256.35764 259.45041 262.41064 265.15414 267.59943 269.70438 271.44888 272.94678
 274.30118 275.60974 276.94983 278.28580 279.47293 280.53214 281.50446 282.39703
 283.21402 283.95374 284.60757 285.44348
 366.78100 356.33807 345.77314 334.64221 323.04828 311.24535 299.11842 286.92449
 274.63956 262.53963 250.55170 239.85577 229.98084 221.08791 213.27298 206.27804
 200.11511 195.05618 191.64125 189.68632 188.72639 188.79346 189.63153 190.94260
 192.67067 194.76874 197.03481 199.39688 201.84495 204.32802 206.41909 208.26416
 209.89323 211.04130 211.27337 211.50444 211.44451 211.15258 210.78865 210.42172
 210.04179 209.75486 209.56593 209.43300 209.36407 209.69813 210.08720 210.47927
 211.27534 212.45641 213.70948 215.49555 217.42662 219.47269 221.57076 223.65683
 225.71990 227.80697 229.90704 232.01611 234.14818 236.32325 238.58232 240.95539
 243.57946 245.83353 247.83860 249.60667 251.02674 252.15281 252.97788 253.29695
 253.33702 253.11409 252.47715 251.42822 250.03729 248.20136 246.11343 243.94950
 241.74357 239.55064 237.37371 235.21578 233.07885 230.94892 228.97799 227.13806
 225.42413 223.89920 222.53227 221.30734 220.19241 219.15548 218.26255 217.40662
 216.65169 215.83476 214.93583 214.30290 213.75597 214.75880 217.12813 219.65147
 221.93404 223.78876 225.14055 226.09534 226.76483 227.09042 226.65277 225.53073
 225.03360 226.88860 231.03561 236.06773 240.91907 245.36758 249.43086 253.06001
 256.34543 259.43472 262.38531 265.11588 267.55447 269.65408 271.37619 272.85123
 274.20398 275.53757 276.89749 278.23874 279.42596 280.48364 281.45651 282.34836
 283.16479 283.90860 284.55875 285.39746
 366.78100 356.33851 345.77403 334.64354 323.05005 311.24756 299.12108 286.92759
 274.64310 262.54361 250.55613 239.86064 229.98615 221.09366 213.27918 206.28469
 200.12220 195.06371 191.64923 189.69474 188.73525 188.80277 189.64128 190.95279
 192.68130 194.77982 197.04633 199.40884 201.85735 204.34087 206.43238 208.27789
 209.90740 211.05592 211.28843 211.51994 211.46045 211.16897 210.80548 210.43899
 210.05950 209.77302 209.58453 209.45204 209.38356 209.71807 210.10758 210.50009
 211.29661 212.47812 213.73163 215.51814 217.44966 219.49617 221.59468 223.68119
 225.74471 227.83222 229.93273 232.04224 234.17476 236.35027 238.60978 240.98330
 243.60781 245.86232 247.86783 249.63635 251.05686 252.18337 253.00888 253.32840
 253.36891 253.14642 252.50993 251.46145 250.07096 248.23547 246.14798 243.98450
 241.77901 239.58652 237.41004 235.25255 233.11606 230.98657 229.01609 227.17660
 225.46311 223.93862 222.57214 221.34765 220.23316 219.19667 218.30419 217.44870
 216.69421 215.87772 214.97924 214.34675 213.80026 214.79147 217.13333 219.63278
 221.94202 223.77280 225.07042 226.02954 226.73502 227.07411 226.65187 225.55598
 225.06248 226.90625 231.05310 236.07449 240.91632 245.36354 249.43112 253.06259
 256.34225 259.43076 262.37836 265.10437 267.54657 269.65573 271.36151 272.79935
 274.11435 275.44431 276.83377 278.18430 279.37198 280.43234 281.40976 282.30899
 283.13159 283.88611 284.56744 285.43619
 366.78100 356.33847 345.77394 334.64341 323.04988 311.24735 299.12082 286.92730
 274.64277 262.54324 250.55571 239.86018 229.98565 221.09312 213.27859 206.28406
 200.12153 195.06300 191.64847 189.69395 188.73442 188.80189 189.64036 190.95183
 192.68030 194.77877 197.04524 199.40771 201.85618 204.33965 206.43112 208.27660
 209.90607 211.05454 211.28701 211.51848 211.45895 211.16742 210.80389 210.43736
 210.05783 209.77130 209.58277 209.45025 209.38172 209.71619 210.10566 210.49813
 211.29460 212.47607 213.72954 215.51601 217.44748 219.49395 221.59242 223.67889
 225.74237 227.82984 229.93031 232.03978 234.17225 236.34772 238.60719 240.98066
 243.60513 245.85960 247.86507 249.63354 251.05402 252.18049 253.00596 253.32543
 253.36590 253.14337 252.50684 251.45831 250.06778 248.23225 246.14472 243.98119
 241.77567 239.58314 237.40661 235.24908 233.11255 230.98302 229.01249 227.17296
 225.45943 223.93490 222.56837 221.34384 220.22932 219.19279 218.30026 217.44473
 216.69020 215.87367 214.97514 214.34261 213.79608 214.79495 217.15492 219.60820
 221.93240 223.74690 225.00417 225.99191 226.73689 227.05113 226.63100 225.57748
 225.10556 226.96010 231.07211 236.06868 240.86371 245.33800 249.42241 253.04269
 256.34238 259.39944 262.35669 265.07913 267.52411 269.65121 271.41107 272.88406
 274.19846 275.48798 276.79520 278.05548 279.19949 280.24597 281.20947 282.08997
 282.89148 283.63852 284.30078 285.14478
 366.78100 356.33850 345.77400 334.64350 323.05000 311.24750 299.12100 286.92750
 274.64300 262.54351 250.55601 239.86051 229.98601 221.09351 213.27901 206.28451
 200.12201 195.06351 191.64901 189.69451 188.73501 188.80251 189.64101 190.95251
 192.68101 194.77951 197.04601 199.40852 201.85702 204.34052 206.43202 208.27752
 209.90702 211.05552 211.28802 211.51952 211.46002 211.16852 210.80502 210.43852
 210.05902 209.77252 209.58402 209.45152 209.38303 209.71753 210.10703 210.49953
 211.29603 212.47753 213.73103 215.51753 217.44903 219.49553 221.59403 223.68053
 225.74403 227.83153 229.93203 232.04153 234.17403 236.34953 238.60904 240.98254
 243.60704 245.86154 247.86704 249.63554 251.05604 252.18254 253.00804 253.32754
 253.36804 253.14554 252.50904 251.46054 250.07004 248.23454 246.14704 243.98355
 241.77805 239.58555 237.40905 235.25155 233.11505 230.98555 229.01505 227.17555
 225.46205 223.93755 222.57105 221.34655 220.23205 219.19555 218.30305 217.44755
 216.69305 215.87656 214.97806 214.34556 213.79906 214.79997 217.16476 219.61400
 221.94844 223.74992 224.95816 225.96431 226.72812 227.01497 226.58032 225.54810
 225.20551 227.06529 231.10341 236.04144 240.85954 245.26781 249.41701 253.04890
 256.31476 259.37509 262.31287 265.02246 267.47211 269.60770 271.40366 272.91708
 274.26230 275.53143 276.76331 277.93417 279.05591 280.10272 281.06458 281.95096
 282.76221 283.52942 284.22385 285.10883
 366.78100 356.33879 345.77457 334.64436 323.05114 311.24893 299.12271 286.92950
 274.64528 262.54607 250.55886 239.86364 229.98943 221.09721 213.28300 206.28878
 200.12657 195.06836 191.65414 189.69993 188.74071 188.80850 189.64728 190.95907
 192.68785 194.78664 197.05343 199.41621 201.86500 204.34878 206.44057 208.28635
 209.91614 211.06492 211.29771 211.52950 211.47028 211.17907 210.81585 210.44964
 210.07042 209.78421 209.59600 209.46378 209.39557 209.73035 210.12014 210.51292
 211.30971 212.49149 213.74528 215.53207 217.46385 219.51064 221.60942 223.69621
 225.75999 227.84778 229.94857 232.05835 234.19114 236.36692 238.62671 241.00049
 243.62528 245.88006 247.88585 249.65464 251.07542 252.20221 253.02799 253.34778
 253.38856 253.16635 252.53013 251.48192 250.09171 248.25649 246.16928 244.00606
 241.80085 239.60863 237.43242 235.27521 233.13899 231.00978 229.03956 227.20035
 225.48713 223.96292 222.59670 221.37249 220.25828 219.22206 218.32985 217.47463
 216.72042 215.90420 215.00599 214.37377 213.82756 214.81931 217.16243 219.63383
 221.96167 223.73999 224.91376 225.91095 226.69968 226.97673 226.52107 225.53374
 225.29521 227.17279 231.15042 236.03882 240.72725 245.27310 249.42580 253.05318
 256.35580 259.38956 262.32755 264.98410 267.39175 269.50186 271.27496 272.79562
 274.17072 275.47046 276.69522 277.89719 279.05368 280.11172 281.09311 281.99542
 282.81006 283.55383 284.21802 285.06445
 366.78100 356.33867 345.77433 334.64400 323.05067 311.24834 299.12200 286.92867
 274.64434 262.54500 250.55767 239.86234 229.98800 221.09567 213.28134 206.28701
 200.12467 195.06634 191.65201 189.69767 188.73834 188.80601 189.64467 190.95634
 192.68501 194.78368 197.05034 199.41301 201.86168 204.34534 206.43701 208.28268
 209.91235 211.06101 211.29368 211.52535 211.46601 211.17468 210.81135 210.44501
 210.06568 209.77935 209.59102 209.45868 209.39035 209.72502 210.11468 210.50735
 211.30402 212.48569 213.73935 215.52602 217.45769 219.50435 221.60302 223.68969
 225.75335 227.84102 229.94169 232.05136 234.18402 236.35969 238.61936 240.99302
 243.61769 245.87236 247.87802 249.64669 251.06736 252.19403 253.01969 253.33936
 253.38003 253.15769 252.52136 251.47303 250.08270 248.24736 246.16003 243.99670
 241.79136 239.59903 237.42270 235.26536 233.12903 230.99970 229.02937 227.19003
 225.47670 223.95237 222.58603 221.36170 220.24737 219.21104 218.31870 217.46337
 216.70904 215.89270 214.99437 214.36204 213.81570 214.81744 217.18414 219.61809
 221.96788 223.71831 224.83815 225.87355 226.67397 226.93556 226.45618 225.53119
 225.38554 227.24429 231.17372 236.01590 240.74632 245.15297 249.44301 253.08473
 256.41382 259.45059 262.34421 264.97128 267.33224 269.42505 271.17133 272.67419
 274.05768 275.37051 276.60928 277.86475 279.04404 280.10394 281.09048 281.99954
 282.81668 283.56384 284.21976 285.05566
 366.78100 356.33837 345.77374 334.64311 323.04948 311.24686 299.12023 286.92660
 274.64197 262.54234 250.55471 239.85908 229.98445 221.09183 213.27720 206.28257
 200.11994 195.06131 191.64668 189.69205 188.73242 188.79979 189.63817 190.94954
 192.67791 194.77628 197.04265 199.40502 201.85339 204.33676 206.42814 208.27351
 209.90288 211.05125 211.28362 211.51499 211.45536 211.16373 210.80010 210.43348
 210.05385 209.76722 209.57859 209.44596 209.37733 209.71170 210.10107 210.49345
 211.28982 212.47119 213.72456 215.51093 217.44230 219.48867 221.58704 223.67341
 225.73679 227.82416 229.92453 232.03390 234.16627 236.34164 238.60101 240.97438
 243.59876 245.85313 247.85850 249.62687 251.04724 252.17361 252.99898 253.31835
 253.35872 253.13610 252.49947 251.45084 250.06021 248.22458 246.13695 243.97332
 241.76769 239.57507 237.39844 235.24081 233.10418 230.97455 229.00392 227.16429
 225.45066 223.92603 222.55941 221.33478 220.22015 219.18352 218.29089 217.43526
 216.68063 215.86400 214.96538 214.33275 213.78612 214.81055 217.23653 219.58719
 221.92050 223.66104 224.72681 225.82623 226.69865 226.87967 226.33952 225.65390
 225.45085 227.28548 231.17287 235.97873 240.76302 245.09415 249.37802 253.10101
 256.41711 259.46014 262.36505 264.96783 267.30716 269.38351 271.12070 272.60245
 273.94989 275.26669 276.53564 277.84161 279.03299 280.09973 281.09436 282.00922
 282.87634 283.65445 284.33417 285.20041
 366.78100 356.33899 345.77498 334.64497 323.05196 311.24995 299.12394 286.93093
 274.64692 262.54791 250.56091 239.86590 229.99189 221.09988 213.28587 206.29186
 200.12985 195.07184 191.65783 189.70382 188.74481 188.81280 189.65179 190.96378
 192.69277 194.79176 197.05875 199.42174 201.87073 204.35473 206.44672 208.29271
 209.92270 211.07169 211.30468 211.53667 211.47766 211.18665 210.82364 210.45763
 210.07862 209.79261 209.60460 209.47259 209.40458 209.73957 210.12956 210.52255
 211.31955 212.50154 213.75553 215.54252 217.47451 219.52150 221.62049 223.70748
 225.77147 227.85946 229.96045 232.07044 234.20343 236.37942 238.63941 241.01340
 243.63839 245.89338 247.89937 249.66837 251.08936 252.21635 253.04234 253.36233
 253.40332 253.18131 252.54530 251.49729 250.10728 248.27227 246.18526 244.02225
 241.81724 239.62523 237.44922 235.29221 233.15620 231.02720 229.05719 227.21818
 225.50517 223.98116 222.61515 221.39114 220.27713 219.24112 218.34911 217.49410
 216.74009 215.92408 215.02607 214.39406 213.84805 214.84880 217.23764 219.64529
 221.76628 223.46837 224.70972 225.83739 226.64909 226.77817 226.19598 225.86732
 225.59821 227.03262 231.18840 235.96690 240.75525 245.18373 249.32321 253.02827
 256.35629 259.47424 262.36176 264.97217 267.31830 269.39578 271.12512 272.58975
 273.91711 275.19473 276.49582 277.76303 278.95142 280.03058 281.07028 282.06122
 282.95245 283.74609 284.43942 285.32297
 366.78100 356.33978 345.77657 334.64735 323.05514 311.25392 299.12870 286.93649
 274.65327 262.55505 250.56884 239.87462 230.00141 221.11019 213.29697 206.30376
 200.14254 195.08533 191.67211 189.71889 188.76068 188.82946 189.66924 190.98203
 192.71181 194.81160 197.07938 199.44316 201.89295 204.37773 206.47052 208.31730
 209.94808 211.09787 211.33165 211.56443 211.50622 211.21600 210.85379 210.48857
 210.11035 209.82514 209.63792 209.50670 209.43949 209.77527 210.16606 210.55984
 211.35762 212.54041 213.79519 215.58298 217.51576 219.56354 221.66333 223.75111
 225.81589 227.90468 230.00646 232.11725 234.25103 236.42781 238.68860 241.06338
 243.68917 245.94495 247.95173 249.72152 251.14330 252.27108 253.09787 253.41865
 253.46044 253.23922 252.60400 251.55679 250.16757 248.33336 246.24714 244.08492
 241.88071 239.68949 237.51427 235.35806 233.22284 231.09463 229.12541 227.28719
 225.57498 224.05176 222.68655 221.46333 220.35011 219.31490 218.42368 217.56946
 216.81625 216.00103 215.10382 214.47260 213.92738 214.89655 217.22778 219.67882
 221.72374 223.40244 224.80025 225.85327 226.53534 226.67674 226.12816 225.90456
 225.77783 227.13300 231.25766 235.98523 240.75278 245.22911 249.35857 253.06950
 256.34579 259.49030 262.38678 264.94360 267.24716 269.32397 271.07281 272.53928
 273.87262 275.16409 276.45496 277.80167 279.01703 280.15012 281.25909 282.26373
 283.16730 283.97192 284.67480 285.57059
 366.78100 356.33979 345.77658 334.64737 323.05516 311.25395 299.12874 286.93653
 274.65332 262.55511 250.56889 239.87468 230.00147 221.11026 213.29705 206.30384
 200.14263 195.08542 191.67221 189.71900 188.76079 188.82958 189.66937 190.98216
 192.71195 194.81174 197.07953 199.44332 201.89311 204.37789 206.47068 208.31747
 209.94826 211.09805 211.33184 211.56463 211.50642 211.21621 210.85400 210.48879
 210.11058 209.82537 209.63816 209.50695 209.43974 209.77553 210.16632 210.56011
 211.35790 212.54068 213.79547 215.58326 217.51605 219.56384 221.66363 223.75142
 225.81621 227.90500 230.00679 232.11758 234.25137 236.42816 238.68895 241.06374
 243.68953 245.94532 247.95211 249.72190 251.14368 252.27147 253.09826 253.41905
 253.46084 253.23963 252.60442 251.55721 250.16800 248.33379 246.24758 244.08537
 241.88116 239.68995 237.51474 235.35853 233.22332 231.09511 229.12590 227.28768
 225.57547 224.05226 222.68705 221.46384 220.35063 219.31542 218.42421 217.57000
 216.81679 216.00158 215.10437 214.47316 213.92795 214.90263 217.24998 219.66222
 221.73064 223.40121 224.86551 225.83299 226.36362 226.50893 226.04482 225.88808
 225.87576 227.32523 231.33798 236.00690 240.74408 245.24709 249.39633 253.13751
 256.44217 259.54944 262.38217 264.87662 267.17767 269.24512 270.99216 272.46970
 273.81879 275.10294 276.49692 277.87421 279.10913 280.26999 281.35242 282.33304
 283.21497 284.00037 284.68643 285.56079
 366.78100 356.33967 345.77633 334.64700 323.05466 311.25333 299.12799 286.93566
 274.65232 262.55399 250.56765 239.87332 229.99998 221.10865 213.29531 206.30198
 200.14064 195.08331 191.66997 189.71664 188.75831 188.82697 189.66664 190.97930
 192.70897 194.80863 197.07630 199.43996 201.88963 204.37429 206.46696 208.31362
 209.94429 211.09395 211.32762 211.56028 211.50195 211.21162 210.84928 210.48395
 210.10561 209.82028 209.63294 209.50161 209.43427 209.76994 210.16060 210.55427
 211.35193 212.53460 213.78926 215.57693 217.50959 219.55726 221.65692 223.74459
 225.80926 227.89792 229.99959 232.11025 234.24392 236.42058 238.68125 241.05591
 243.68158 245.93724 247.94391 249.71357 251.13524 252.26290 253.08957 253.41023
 253.45190 253.23056 252.59523 251.54790 250.15856 248.32423 246.23789 244.07556
 241.87122 239.67989 237.50455 235.34822 233.21288 231.08455 229.11521 227.27688
 225.56454 224.04121 222.67587 221.45254 220.33921 219.30387 218.41254 217.55820
 216.80487 215.98953 215.09220 214.46086 213.91553 214.90187 217.27283 219.65355
 221.69945 223.39859 224.86438 225.77943 226.20009 226.33772 225.92104 225.82834
 225.92435 227.53496 231.41966 236.02931 240.74866 245.27217 249.43228 253.18652
 256.55469 259.65021 262.45126 264.76572 267.10507 269.21118 270.92596 272.39001
 273.73755 275.05399 276.53342 277.91412 279.16254 280.35272 281.46521 282.47305
 283.37952 284.18671 284.89185 285.79047
 366.78100 356.34053 345.77807 334.64960 323.05813 311.25766 299.13320 286.94173
 274.65926 262.56180 250.57633 239.88286 230.01039 221.11993 213.30746 206.31499
 200.15453 195.09806 191.68559 189.73312 188.77566 188.84519 189.68572 190.99926
 192.72979 194.83032 197.09886 199.46339 201.91392 204.39945 206.49299 208.34052
 209.97205 211.12259 211.35712 211.59065 211.53318 211.24372 210.88225 210.51778
 210.14032 209.85585 209.66938 209.53891 209.47245 209.80898 210.20051 210.59505
 211.39358 212.57711 213.83264 215.62118 217.55471 219.60324 221.70378 223.79231
 225.85784 227.94737 230.04991 232.16144 234.29597 236.47351 238.73504 241.11057
 243.73710 245.99364 248.00117 249.77170 251.19424 252.32277 253.15030 253.47184
 253.51437 253.29390 252.65943 251.61297 250.22450 248.39103 246.30557 244.14410
 241.94063 239.75016 237.57570 235.42023 233.28576 231.15830 229.18983 227.35236
 225.64089 224.11843 222.75396 221.53149 220.41903 219.38456 218.49409 217.64062
 216.88816 216.07369 215.17722 214.54676 214.00229 214.95016 217.24161 219.68947
 221.65628 223.42326 224.86269 225.65736 226.10638 226.16275 225.74738 225.77373
 225.98157 227.76164 231.50883 236.07036 240.77953 245.31570 249.48431 253.24370
 256.64227 259.75424 262.59427 264.90353 267.08469 269.08600 270.69574 272.12555
 273.52875 274.98633 276.54434 277.94229 279.19513 280.38544 281.49811 282.50613
 283.41272 284.22003 284.92529 285.82407
 366.78100 356.34180 345.78060 334.65341 323.06321 311.26401 299.14081 286.95061
 274.66941 262.57322 250.58902 239.89682 230.02562 221.13642 213.32523 206.33403
 200.17483 195.11963 191.70843 189.75723 188.80104 188.87184 189.71364 191.02844
 192.76024 194.86205 197.13185 199.49765 201.94945 204.43625 206.53105 208.37986
 210.01266 211.16446 211.40026 211.63506 211.57887 211.29067 210.93047 210.56727
 210.19107 209.90787 209.72268 209.59348 209.52828 209.86608 210.25888 210.65469
 211.45449 212.63929 213.89609 215.68589 217.62069 219.67050 221.77230 223.86210
 225.92890 228.01970 230.12350 232.23631 234.37211 236.55091 238.81371 241.19051
 243.81832 246.07612 248.08492 249.85672 251.28052 252.41032 253.23913 253.56193
 253.60573 253.38653 252.75333 251.70814 250.32094 248.48874 246.40454 244.24434
 242.04214 239.85295 237.67975 235.52555 233.39235 231.26615 229.29896 227.46276
 225.75256 224.23136 222.86816 221.64696 220.53577 219.50257 218.61337 217.76117
 217.00997 216.19678 215.30158 214.67238 214.12918 215.02055 217.20436 219.73596
 221.61017 223.49431 224.91756 225.47304 225.99907 226.03642 225.54118 225.67706
 226.07541 227.96655 231.63718 236.14398 240.83658 245.37805 249.55804 253.32622
 256.72464 259.81723 262.62573 265.00125 267.16406 269.12076 270.68390 272.04468
 273.36823 275.04309 276.61374 278.03928 279.35263 280.59833 281.73483 282.76443
 283.69046 284.51508 285.23544 286.15347
 366.78100 356.34164 345.78029 334.65293 323.06257 311.26321 299.13986 286.94950
 274.66814 262.57179 250.58743 239.89507 230.02372 221.13436 213.32300 206.33164
 200.17229 195.11693 191.70557 189.75422 188.79786 188.86850 189.71015 191.02479
 192.75643 194.85807 197.12772 199.49336 201.94500 204.43165 206.52629 208.37493
 210.00757 211.15922 211.39486 211.62950 211.57315 211.28479 210.92443 210.56108
 210.18472 209.90136 209.71600 209.58665 209.52129 209.85893 210.25158 210.64722
 211.44686 212.63151 213.88815 215.67779 217.61243 219.66208 221.76372 223.85336
 225.92001 228.01065 230.11429 232.22693 234.36258 236.54122 238.80386 241.18051
 243.80815 246.06579 248.07444 249.84608 251.26972 252.39936 253.22801 253.55065
 253.59429 253.37494 252.74158 251.69622 250.30887 248.47651 246.39215 244.23179
 242.02944 239.84008 237.66672 235.51237 233.37901 231.25265 229.28529 227.44894
 225.73858 224.21722 222.85387 221.63251 220.52115 219.48780 218.59844 217.74608
 216.99472 216.18137 215.28601 214.65665 214.11330 215.01852 217.22528 219.72713
 221.60165 223.44571 224.90007 225.31677 225.84837 225.90773 225.32843 225.53812
 226.11235 228.07849 231.77007 236.24071 240.91452 245.45683 249.64740 253.43073
 256.82947 259.88889 262.61932 264.97186 267.13876 269.17853 270.84659 272.19891
 273.45190 275.05792 276.62848 278.04514 279.32477 280.57336 281.71533 282.74988
 283.68033 284.50891 285.23273 286.15515
 366.78100 356.34054 345.77809 334.64963 323.05818 311.25772 299.13327 286.94181
 274.65936 262.56190 250.57645 239.88299 230.01054 221.12008 213.30763 206.31517
 200.15472 195.09826 191.68581 189.73335 188.77590 188.84544 189.68599 190.99953
 192.73008 194.83062 197.09917 199.46371 201.91426 204.39980 206.49335 208.34089
 209.97244 211.12298 211.35753 211.59107 211.53362 211.24416 210.88271 210.51825
 210.14080 209.85634 209.66989 209.53943 209.47298 209.80952 210.20107 210.59561
 211.39416 212.57770 213.83325 215.62179 217.55534 219.60388 221.70443 223.79297
 225.85852 227.94806 230.05061 232.16215 234.29670 236.47424 238.73579 241.11133
 243.73788 245.99442 248.00197 249.77251 251.19506 252.32360 253.15115 253.47269
 253.51524 253.29478 252.66033 251.61387 250.22542 248.39196 246.30651 244.14505
 241.94160 239.75114 237.57669 235.42123 233.28678 231.15932 229.19087 227.35341
 225.64195 224.11950 222.75504 221.53259 220.42013 219.38568 218.49522 217.64177
 216.88931 216.07486 215.17840 214.54795 214.00349 214.96825 217.28758 219.67319
 221.64871 223.29761 224.79834 225.25603 225.73386 225.63564 225.14064 225.35410
 226.08478 228.16956 231.91919 236.35335 241.01079 245.54568 249.72929 253.52312
 256.93390 259.98929 262.68704 264.97284 267.03925 269.05844 270.80865 272.23697
 273.53757 275.04465 276.60217 277.99969 279.24951 280.41180 281.50497 282.49530
 283.38596 284.17914 284.87201 285.75500
 366.78100 356.34091 345.77881 334.65072 323.05963 311.25954 299.13544 286.94435
 274.66226 262.56516 250.58007 239.88698 230.01488 221.12479 213.31270 206.32061
 200.16051 195.10442 191.69233 189.74023 188.78314 188.85305 189.69395 191.00786
 192.73877 194.83968 197.10858 199.47349 201.92440 204.41030 206.50421 208.35212
 209.98403 211.13493 211.36984 211.60375 211.54665 211.25756 210.89647 210.53237
 210.15528 209.87119 209.68510 209.55500 209.48891 209.82582 210.21772 210.61263
 211.41154 212.59544 213.85135 215.64026 217.57417 219.62307 221.72398 223.81289
 225.87879 227.96870 230.07161 232.18351 234.31842 236.49633 238.75824 241.13414
 243.76105 246.01796 248.02586 249.79677 251.21968 252.34859 253.17649 253.49840
 253.54131 253.32121 252.68712 251.64103 250.25293 248.41984 246.33475 244.17366
 241.97056 239.78047 237.60638 235.45128 233.31719 231.19010 229.22200 227.38491
 225.67382 224.15173 222.78763 221.56554 220.45345 219.41935 218.52926 217.67617
 216.92408 216.10998 215.21389 214.58380 214.03970 214.98856 217.26424 219.70000
 221.64859 223.16631 224.66931 225.23959 225.60477 225.33789 224.92552 225.21094
 226.01312 228.24156 232.08345 236.49774 241.13591 245.65456 249.81818 253.60913
 257.01981 260.06705 262.75803 265.03561 267.05554 268.98843 270.70068 272.15106
 273.48096 274.96762 276.52252 277.90857 279.13129 280.24591 281.30688 282.27710
 283.14972 283.92679 284.60562 285.47070
 366.78100 356.34156 345.78012 334.65268 323.06224 311.26280 299.13936 286.94892
 274.66748 262.57105 250.58661 239.89417 230.02273 221.13329 213.32185 206.33041
 200.17097 195.11553 191.70409 189.75265 188.79621 188.86677 189.70833 191.02289
 192.75445 194.85601 197.12557 199.49114 201.94270 204.42926 206.52382 208.37238
 210.00494 211.15650 211.39206 211.62662 211.57018 211.28174 210.92130 210.55786
 210.18142 209.89798 209.71254 209.58310 209.51766 209.85523 210.24779 210.64335
 211.44291 212.62747 213.88403 215.67359 217.60815 219.65771 221.75927 223.84883
 225.91539 228.00595 230.10951 232.22207 234.35763 236.53619 238.79876 241.17532
 243.80288 246.06044 248.06900 249.84056 251.26412 252.39368 253.22224 253.54480
 253.58836 253.36892 252.73548 251.69004 250.30260 248.47016 246.38572 244.22528
 242.02285 239.83341 237.65997 235.50553 233.37209 231.24565 229.27821 227.44177
 225.73133 224.20989 222.84645 221.62501 220.51357 219.48013 218.59069 217.73825
 216.98681 216.17338 215.27794 214.64850 214.10506 215.02400 217.22145 219.72922
 221.68938 223.19281 224.55794 225.14540 225.43117 225.09288 224.71742 225.07324
 226.02698 228.26370 232.23254 236.66301 241.29175 245.79034 249.92558 253.70964
 257.11148 260.13437 262.79868 265.08264 267.11423 269.00247 270.66141 272.10876
 273.47794 274.88373 276.41235 277.79105 279.00098 280.10190 281.13889 282.11713
 282.99695 283.78046 284.46490 285.33716
 366.78100 356.34166 345.78033 334.65299 323.06266 311.26332 299.13999 286.94965
 274.66832 262.57198 250.58765 239.89531 230.02398 221.13464 213.32330 206.33197
 200.17263 195.11730 191.70596 189.75463 188.79829 188.86896 189.71062 191.02529
 192.75695 194.85862 197.12828 199.49395 201.94561 204.43227 206.52694 208.37560
 210.00827 211.15993 211.39560 211.63026 211.57393 211.28559 210.92526 210.56192
 210.18559 209.90225 209.71691 209.58758 209.52224 209.85991 210.25257 210.64824
 211.44790 212.63257 213.88923 215.67890 217.61356 219.66323 221.76489 223.85455
 225.92122 228.01188 230.11555 232.22821 234.36388 236.54254 238.80521 241.18187
 243.80954 246.06720 248.07587 249.84753 251.27120 252.40086 253.22952 253.55219
 253.59585 253.37652 252.74318 251.69785 250.31051 248.47818 246.39384 244.23351
 242.03117 239.84184 237.66850 235.51416 233.38083 231.25449 229.28716 227.45082
 225.74049 224.21915 222.85582 221.63448 220.52315 219.48981 218.60048 217.74814
 216.99680 216.18347 215.28813 214.65880 214.11546 215.03362 217.22264 219.71590
 221.72598 223.24213 224.44243 225.03557 225.28828 224.82387 224.52159 224.88278
 226.02588 228.39944 232.37369 236.84273 241.46468 245.93558 250.03824 253.81346
 257.20303 260.20023 262.84668 265.13364 267.16968 269.03583 270.64130 272.06409
 273.44061 274.84106 276.32458 277.70471 278.92078 280.01718 281.03293 281.98392
 282.84555 283.61285 284.28314 285.13733
 366.78100 356.34220 345.78140 334.65460 323.06481 311.26601 299.14321 286.95341
 274.67261 262.57681 250.59302 239.90122 230.03042 221.14162 213.33082 206.34002
 200.18123 195.12643 191.71563 189.76483 188.80903 188.88023 189.72243 191.03764
 192.76984 194.87204 197.14224 199.50844 201.96064 204.44785 206.54305 208.39225
 210.02545 211.17765 211.41385 211.64906 211.59326 211.30546 210.94566 210.58286
 210.20706 209.92427 209.73947 209.61067 209.54587 209.88407 210.27727 210.67347
 211.47368 212.65888 213.91608 215.70628 217.64148 219.69168 221.79389 223.88409
 225.95129 228.04249 230.14669 232.25989 234.39610 236.57530 238.83850 241.21570
 243.84390 246.10210 248.11130 249.88351 251.30771 252.43791 253.26711 253.59031
 253.63451 253.41572 252.78292 251.73812 250.35132 248.51952 246.43572 244.27593
 242.07413 239.88533 237.71253 235.55873 233.42593 231.30014 229.33334 227.49754
 225.78774 224.26694 222.90414 221.68334 220.57255 219.53975 218.65095 217.79915
 217.04835 216.23555 215.34076 214.71196 214.16916 215.06534 217.20621 219.73608
 221.71216 223.18924 224.36621 224.95399 225.14261 224.55151 224.31915 224.61841
 225.96762 228.51549 232.53288 237.04262 241.64888 246.08377 250.15965 253.91885
 257.29327 260.26361 262.89368 265.19193 267.23865 269.09369 270.65399 272.05722
 273.43427 274.78867 276.25574 277.63226 278.84644 279.94498 280.96588 281.91907
 282.77835 283.54355 284.21201 285.06390
 366.78100 356.34287 345.78274 334.65661 323.06748 311.26935 299.14722 286.95809
 274.67796 262.58283 250.59970 239.90857 230.03844 221.15031 213.34018 206.35005
 200.19192 195.13779 191.72766 189.77753 188.82240 188.89427 189.73715 191.05302
 192.78589 194.88876 197.15963 199.52650 201.97937 204.46724 206.56311 208.41298
 210.04685 211.19972 211.43659 211.67246 211.61733 211.33020 210.97107 210.60894
 210.23381 209.95168 209.76755 209.63942 209.57529 209.91416 210.30803 210.70490
 211.50577 212.69164 213.94951 215.74038 217.67625 219.72712 221.82999 223.92086
 225.98873 228.08060 230.18547 232.29934 234.43621 236.61608 238.87995 241.25782
 243.88669 246.14556 248.15544 249.92831 251.35318 252.48405 253.31392 253.63779
 253.68266 253.46453 252.83240 251.78827 250.40214 248.57101 246.48788 244.32875
 242.12762 239.93949 237.76736 235.61423 233.48210 231.35697 229.39084 227.55571
 225.84658 224.32645 222.96432 221.74419 220.63406 219.60193 218.71380 217.86267
 217.11254 216.30041 215.40628 214.77815 214.23602 215.10210 217.17197 219.77637
 221.69888 223.17055 224.30304 224.81216 225.00946 224.29529 224.07495 224.31825
 225.96996 228.64948 232.72629 237.26022 241.84769 246.24474 250.28561 254.02634
 257.39014 260.32999 262.93463 265.24832 267.31967 269.15536 270.68942 272.07101
 273.43680 274.76669 276.18646 277.55823 278.76514 279.85422 280.86591 281.80634
 282.65561 283.41187 284.07254 284.91446
 366.78100 356.34205 345.78110 334.65415 323.06420 311.26525 299.14230 286.95235
 274.67140 262.57545 250.59150 239.89955 230.02860 221.13965 213.32870 206.33775
 200.17880 195.12385 191.71290 189.76195 188.80600 188.87705 189.71909 191.03414
 192.76619 194.86824 197.13829 199.50434 201.95639 204.44344 206.53849 208.38754
 210.02059 211.17264 211.40869 211.64374 211.58779 211.29984 210.93989 210.57694
 210.20099 209.91804 209.73309 209.60414 209.53919 209.87724 210.27029 210.66634
 211.46639 212.65144 213.90849 215.69854 217.63359 219.68364 221.78569 223.87574
 225.94279 228.03384 230.13789 232.25094 234.38699 236.56604 238.82909 241.20614
 243.83418 246.09223 248.10128 249.87333 251.29738 252.42743 253.25648 253.57953
 253.62358 253.40463 252.77168 251.72673 250.33978 248.50783 246.42388 244.26393
 242.06198 239.87303 237.70008 235.54613 233.41318 231.28723 229.32028 227.48433
 225.77438 224.25343 222.89048 221.66953 220.55858 219.52563 218.63668 217.78473
 217.03378 216.22083 215.32588 214.69693 214.15398 215.06483 217.23215 219.71144
 221.76236 223.19542 224.11542 224.76462 224.85306 224.02176 223.74123 224.13559
 225.99237 228.80743 232.94780 237.48964 242.05435 246.41023 250.40414 254.12454
 257.47351 260.38943 262.99432 265.32990 267.42508 269.25302 270.73837 272.08286
 273.43185 274.73837 276.02136 277.36624 278.56696 279.64871 280.65414 281.58887
 282.44098 283.19980 283.86267 284.70743
 366.78100 356.34199 345.78098 334.65397 323.06396 311.26495 299.14194 286.95193
 274.67092 262.57491 250.59090 239.89889 230.02788 221.13887 213.32786 206.33684
 200.17783 195.12282 191.71181 189.76080 188.80479 188.87578 189.71777 191.03276
 192.76475 194.86674 197.13673 199.50272 201.95471 204.44170 206.53669 208.38568
 210.01867 211.17066 211.40665 211.64164 211.58563 211.29762 210.93761 210.57460
 210.19859 209.91558 209.73057 209.60155 209.53654 209.87453 210.26752 210.66351
 211.46350 212.64849 213.90548 215.69547 217.63046 219.68045 221.78244 223.87243
 225.93942 228.03041 230.13440 232.24739 234.38338 236.56237 238.82536 241.20235
 243.83034 246.08833 248.09732 249.86931 251.29330 252.42329 253.25228 253.57526
 253.61925 253.40024 252.76723 251.72222 250.33521 248.50320 246.41919 244.25918
 242.05717 239.86816 237.69515 235.54114 233.40813 231.28212 229.31511 227.47910
 225.76909 224.24808 222.88507 221.66406 220.55305 219.52004 218.63103 217.77902
 217.02801 216.21500 215.31999 214.69097 214.14796 215.07350 217.30119 219.66547
 221.73523 223.03720 224.15161 224.78299 224.65863 223.74391 223.40941 224.06178
 225.81589 229.00089 233.21820 237.73752 242.26410 246.55684 250.51480 254.21744
 257.53204 260.44882 263.08936 265.46570 267.55136 269.32990 270.78354 272.08298
 273.40338 274.68701 275.99188 277.35706 278.59427 279.78067 280.91528 281.94321
 282.86768 283.69092 284.41010 285.32663
 366.78100 356.34272 345.78244 334.65616 323.06687 311.26859 299.14631 286.95703
 274.67675 262.58147 250.59818 239.90690 230.03662 221.14834 213.33806 206.34778
 200.18949 195.13521 191.72493 189.77465 188.81937 188.89109 189.73380 191.04952
 192.78224 194.88496 197.15568 199.52240 201.97512 204.46283 206.55855 208.40827
 210.04199 211.19471 211.43143 211.66714 211.61186 211.32458 210.96530 210.60302
 210.22774 209.94545 209.76117 209.63289 209.56861 209.90733 210.30105 210.69777
 211.49848 212.68420 213.94192 215.73264 217.66836 219.71908 221.82179 223.91251
 225.98023 228.07195 230.17667 232.29039 234.42710 236.60682 238.87054 241.24826
 243.87698 246.13570 248.14541 249.91813 251.34285 252.47357 253.30329 253.62701
 253.67173 253.45344 252.82116 251.77688 250.39060 248.55932 246.47604 244.31675
 242.11547 239.92719 237.75491 235.60163 233.46935 231.34406 229.37778 227.54250
 225.83322 224.31294 222.95066 221.73037 220.62009 219.58781 218.69953 217.84825
 217.09797 216.28569 215.39140 214.76312 214.22084 215.12265 217.32875 219.67413
 221.68712 223.23349 224.33241 224.52879 224.37712 223.66728 223.22975 223.89391
 225.72513 229.11415 233.41418 237.95921 242.47641 246.73619 250.65997 254.36974
 257.64810 260.52972 263.17154 265.57889 267.68619 269.44244 270.86624 272.15393
 273.43390 274.83368 276.41693 277.93307 279.37576 280.65213 281.81665 282.87161
 283.82047 284.66541 285.40350 286.34415
 366.78100 356.34366 345.78431 334.65897 323.07063 311.27328 299.15194 286.96360
 274.68426 262.58991 250.60757 239.91723 230.04788 221.16054 213.35120 206.36185
 200.20451 195.15117 191.74183 189.79248 188.83814 188.91080 189.75445 191.07111
 192.80477 194.90842 197.18008 199.54774 202.00140 204.49005 206.58671 208.43737
 210.07202 211.22568 211.46334 211.69999 211.64565 211.35931 211.00096 210.63962
 210.26528 209.98394 209.80059 209.67325 209.60991 209.94956 210.34422 210.74188
 211.54353 212.73019 213.98885 215.78051 217.71716 219.76882 221.87248 223.96413
 226.03279 228.12545 230.23110 232.34576 234.48342 236.66408 238.92873 241.30739
 243.93705 246.19670 248.20736 249.98102 251.40667 252.53833 253.36899 253.69365
 253.73930 253.52196 252.89062 251.84727 250.46193 248.63159 246.54924 244.39090
 242.19056 240.00321 237.83187 235.67953 233.54819 231.42384 229.45850 227.62416
 225.91581 224.39647 223.03513 221.81578 220.70644 219.67510 218.78776 217.93741
 217.18807 216.37673 215.48338 214.85604 214.31470 215.17061 217.28500 219.72992
 221.61829 223.21622 224.23415 224.36494 224.20102 223.46739 222.98651 223.58119
 225.61659 229.19577 233.63229 238.20924 242.69704 246.92294 250.80815 254.52580
 257.79684 260.62030 263.24146 265.70148 267.87784 269.56250 270.91092 272.21082
 273.61301 275.01129 276.60507 278.07974 279.47281 280.70807 281.83502 282.85599
 283.77423 284.59192 285.30624 286.21655
 366.78100 356.34391 345.78481 334.65972 323.07162 311.27453 299.15343 286.96534
 274.68624 262.59215 250.61005 239.91996 230.05086 221.16377 213.35467 206.36558
 200.20848 195.15539 191.74629 189.79720 188.84310 188.91601 189.75992 191.07682
 192.81073 194.91463 197.18654 199.55444 202.00835 204.49725 206.59416 208.44506
 210.07997 211.23387 211.47178 211.70868 211.65459 211.36849 211.01040 210.64930
 210.27521 209.99411 209.81102 209.68393 209.62083 209.96074 210.35564 210.75355
 211.55545 212.74236 214.00126 215.79317 217.73007 219.78198 221.88588 223.97779
 226.04669 228.13960 230.24550 232.36041 234.49831 236.67922 238.94412 241.32303
 243.95293 246.21284 248.22375 249.99765 251.42356 252.55546 253.38637 253.71127
 253.75718 253.54008 252.90899 251.86589 250.48080 248.65070 246.56861 244.41051
 242.21042 240.02332 237.85223 235.70013 233.56904 231.44494 229.47985 227.64576
 225.93766 224.41857 223.05747 221.83838 220.72928 219.69819 218.81109 217.96100
 217.21190 216.40081 215.50771 214.88062 214.33952 215.19229 217.31439 219.71233
 221.63242 223.25259 224.19734 224.24541 223.91534 223.12901 222.71376 223.48808
 225.64098 229.34613 233.86186 238.45633 242.93677 247.12383 250.93515 254.60297
 257.87405 260.71594 263.35294 265.86526 268.10431 269.78903 270.94217 272.15717
 273.63574 274.99478 276.58521 278.14261 279.52448 280.74707 281.86249 282.87299
 283.78183 284.59116 285.29816 286.19916
 366.78100 356.34374 345.78447 334.65921 323.07095 311.27368 299.15242 286.96416
 274.68489 262.59063 250.60837 239.91810 230.04884 221.16158 213.35231 206.36305
 200.20579 195.15253 191.74326 189.79400 188.83974 188.91247 189.75621 191.07295
 192.80668 194.91042 197.18216 199.54989 202.00363 204.49237 206.58910 208.43984
 210.07458 211.22831 211.46605 211.70279 211.64852 211.36226 211.00400 210.64273
 210.26847 209.98721 209.80394 209.67668 209.61342 209.95315 210.34789 210.74563
 211.54737 212.73410 213.99284 215.78458 217.72131 219.77305 221.87679 223.96852
 226.03726 228.13000 230.23573 232.35047 234.48821 236.66894 238.93368 241.31242
 243.94215 246.20189 248.21263 249.98636 251.41210 252.54384 253.37457 253.69931
 253.74505 253.52778 252.89652 251.85326 250.46799 248.63773 246.55547 244.39721
 242.19694 240.00968 237.83842 235.68615 233.55489 231.43063 229.46536 227.63110
 225.92284 224.40357 223.04231 221.82305 220.71378 219.68252 218.79526 217.94499
 217.19573 216.38447 215.49120 214.86394 214.32268 215.19955 217.38409 219.66019
 221.65555 223.36798 224.19727 224.03665 223.62042 222.87004 222.59785 223.17542
 225.46379 229.41791 234.04482 238.65990 243.12622 247.27193 251.09167 254.73946
 257.99792 260.83505 263.46912 266.01169 268.33047 270.12057 270.84021 272.45929
 273.91394 275.34979 277.08459 278.61356 279.93674 281.10739 282.17548 283.14307
 284.01331 284.78824 285.46524 286.32797
 366.78100 356.34359 345.78419 334.65878 323.07037 311.27297 299.15156 286.96315
 274.68375 262.58934 250.60693 239.91653 230.04712 221.15971 213.35031 206.36090
 200.20349 195.15009 191.74068 189.79127 188.83687 188.90946 189.75305 191.06965
 192.80324 194.90683 197.17843 199.54602 201.99961 204.48821 206.58480 208.43539
 210.06999 211.22358 211.46117 211.69777 211.64336 211.35695 210.99855 210.63714
 210.26273 209.98133 209.79792 209.67051 209.60711 209.94670 210.34129 210.73889
 211.54048 212.72707 213.98567 215.77726 217.71385 219.76545 221.86904 223.96063
 226.02923 228.12182 230.22741 232.34201 234.47960 236.66019 238.92479 241.30338
 243.93297 246.19257 248.20316 249.97675 251.40235 252.53394 253.36453 253.68913
 253.73472 253.51731 252.88591 251.84250 250.45709 248.62669 246.54428 244.38587
 242.18547 239.99806 237.82665 235.67425 233.54284 231.41843 229.45303 227.61862
 225.91021 224.39081 223.02940 221.80999 220.70059 219.66918 218.78177 217.93137
 217.18196 216.37055 215.47715 214.84974 214.30833 215.19551 217.39076 219.65207
 221.61240 223.31709 224.16496 223.79613 223.37859 222.67223 222.32442 223.09895
 225.47952 229.55876 234.22946 238.85133 243.30275 247.43027 251.26030 254.90240
 258.15137 260.97498 263.59369 266.13904 268.43463 270.34564 270.94916 272.65915
 273.98050 275.04675 276.65283 278.14404 279.43457 280.57632 281.61804 282.56174
 283.41049 284.16632 284.82660 285.66806
 366.78100 356.34384 345.78468 334.65952 323.07136 311.27420 299.15304 286.96488
 274.68572 262.59156 250.60940 239.91924 230.05008 221.16292 213.35376 206.36460
 200.20744 195.15428 191.74512 189.79596 188.84180 188.91464 189.75848 191.07531
 192.80915 194.91299 197.18483 199.55267 202.00651 204.49535 206.59219 208.44303
 210.07787 211.23171 211.46955 211.70639 211.65223 211.36607 211.00791 210.64675
 210.27259 209.99143 209.80827 209.68111 209.61795 209.95779 210.35263 210.75047
 211.55231 212.73915 213.99799 215.78983 217.72667 219.77851 221.88235 223.97419
 226.04303 228.13587 230.24171 232.35655 234.49439 236.67523 238.94007 241.31891
 243.94875 246.20859 248.21943 249.99326 251.41910 252.55094 253.38178 253.70662
 253.75246 253.53530 252.90414 251.86098 250.47582 248.64566 246.56350 244.40534
 242.20518 240.01802 237.84686 235.69470 233.56354 231.43938 229.47422 227.64006
 225.93190 224.41274 223.05158 221.83242 220.72326 219.69210 218.80494 217.95478
 217.20562 216.39446 215.50130 214.87414 214.33298 215.20372 217.34636 219.69104
 221.53416 223.12126 224.09299 223.66122 223.13017 222.39565 221.91377 223.13818
 225.55696 229.70248 234.43867 239.07729 243.50037 247.60077 251.40932 255.06622
 258.29016 261.09686 263.73349 266.28592 268.60144 270.43604 271.69269 272.66687
 273.97659 274.81143 275.76535 277.16483 278.42499 279.53989 280.55707 281.47858
 282.30737 283.04541 283.69012 284.51178
 366.78100 356.34407 345.78515 334.66022 323.07229 311.27537 299.15444 286.96651
 274.68759 262.59366 250.61174 239.92181 230.05288 221.16596 213.35703 206.36810
 200.21118 195.15825 191.74932 189.80040 188.84647 188.91954 189.76362 191.08069
 192.81476 194.91884 197.19091 199.55899 202.01306 204.50213 206.59921 208.45028
 210.08535 211.23943 211.47750 211.71457 211.66065 211.37472 211.01679 210.65587
 210.28194 210.00102 209.81809 209.69116 209.62824 209.96831 210.36338 210.76146
 211.56353 212.75060 214.00968 215.80175 217.73882 219.79090 221.89497 223.98704
 226.05612 228.14919 230.25527 232.37034 234.50841 236.68949 238.95456 241.33363
 243.96371 246.22378 248.23485 250.00893 251.43500 252.56707 253.39815 253.72322
 253.76929 253.55237 252.92144 251.87852 250.49359 248.66366 246.58174 244.42381
 242.22388 240.03696 237.86603 235.71410 233.58318 231.45925 229.49432 227.66040
 225.95247 224.43354 223.07262 221.85369 220.74477 219.71384 218.82691 217.97699
 217.22806 216.41713 215.52421 214.89728 214.35635 215.21233 217.29988 219.74294
 221.47327 222.90233 223.96445 223.57024 222.94916 221.99570 221.48843 223.05429
 225.58136 229.82184 234.63805 239.31328 243.69138 247.75533 251.55986 255.19322
 258.40396 261.20505 263.84775 266.43814 268.76852 270.67081 271.55316 272.97107
 274.10660 274.90546 275.61273 276.55527 277.53198 278.59897 279.57837 280.46567
 281.26367 281.97427 282.59506 283.38620
 366.78100 356.34439 345.78577 334.66116 323.07354 311.27693 299.15631 286.96870
 274.69008 262.59647 250.61485 239.92524 230.05663 221.17001 213.36140 206.37278
 200.21617 195.16355 191.75494 189.80632 188.85271 188.92609 189.77048 191.08786
 192.82225 194.92664 197.19902 199.56741 202.02179 204.51118 206.60856 208.45995
 210.09533 211.24972 211.48810 211.72549 211.67188 211.38626 211.02865 210.66803
 210.29442 210.01380 209.83119 209.70457 209.64196 209.98234 210.37773 210.77612
 211.57850 212.76589 214.02527 215.81766 217.75504 219.80743 221.91181 224.00420
 226.07358 228.16697 230.27335 232.38874 234.52713 236.70851 238.97390 241.35328
 243.98367 246.24405 248.25544 250.02982 251.45621 252.58859 253.41998 253.74537
 253.79175 253.57514 252.94452 251.90191 250.51729 248.68768 246.60606 244.44845
 242.24883 240.06222 237.89161 235.73999 233.60938 231.48576 229.52115 227.68753
 225.97992 224.46130 223.10069 221.88207 220.77346 219.74284 218.85623 218.00662
 217.25800 216.44739 215.55477 214.92816 214.38754 215.22615 217.24875 219.79950
 221.46661 222.60460 223.85669 223.51862 222.69736 221.60254 221.03828 222.85309
 225.57487 229.94035 234.81795 239.54605 243.91486 247.91524 251.69916 255.31287
 258.52859 261.34500 263.99710 266.57794 268.90814 270.76715 271.92276 273.09512
 274.25244 275.06152 275.75742 276.50903 277.24133 277.92569 278.80518 279.68152
 280.46970 281.17157 281.78470 282.56607
 366.78100 356.34370 345.78440 334.65910 323.07080 311.27350 299.15220 286.96390
 274.68460 262.59030 250.60800 239.91769 230.04839 221.16109 213.35179 206.36249
 200.20519 195.15189 191.74259 189.79329 188.83899 188.91169 189.75539 191.07209
 192.80579 194.90949 197.18119 199.54889 202.00259 204.49129 206.58799 208.43869
 210.07339 211.22708 211.46478 211.70148 211.64718 211.36088 211.00258 210.64128
 210.26698 209.98568 209.80238 209.67508 209.61178 209.95148 210.34618 210.74388
 211.54558 212.73228 213.99098 215.78268 217.71938 219.77108 221.87478 223.96647
 226.03517 228.12787 230.23357 232.34827 234.48597 236.66667 238.93137 241.31007
 243.93977 246.19947 248.21017 249.98387 251.40957 252.54127 253.37197 253.69667
 253.74237 253.52507 252.89377 251.85047 250.46517 248.63486 246.55256 244.39426
 242.19396 240.00666 237.83536 235.68306 233.55176 231.42746 229.46216 227.62786
 225.91956 224.40026 223.03896 221.81966 220.71036 219.67906 218.79176 217.94146
 217.19216 216.38086 215.48756 214.86025 214.31895 215.19214 217.26186 219.76320
 221.61232 222.72467 223.72804 223.34879 222.42885 221.28870 220.86139 222.71623
 225.65170 230.08316 235.00682 239.76794 244.18600 248.06081 251.81499 255.45070
 258.67258 261.49155 264.14883 266.70425 268.99158 270.82700 271.92209 273.26987
 274.43497 275.28409 275.98480 276.60388 277.31277 277.82034 278.34573 279.01031
 279.80038 280.50394 281.11856 281.90182
 366.78100 356.34281 345.78261 334.65642 323.06723 311.26903 299.14684 286.95765
 274.67745 262.58226 250.59907 239.90787 230.03768 221.14949 213.33929 206.34910
 200.19091 195.13671 191.72652 189.77633 188.82114 188.89294 189.73575 191.05156
 192.78436 194.88717 197.15798 199.52478 201.97759 204.46540 206.56120 208.41101
 210.04482 211.19762 211.43443 211.67024 211.61504 211.32785 210.96866 210.60646
 210.23127 209.94908 209.76488 209.63669 209.57250 209.91130 210.30511 210.70192
 211.50272 212.68853 213.94634 215.73714 217.67295 219.72376 221.82656 223.91737
 225.98518 228.07698 230.18179 232.29560 234.43241 236.61221 238.87602 241.25383
 243.88263 246.14144 248.15125 249.92405 251.34886 252.47967 253.30947 253.63328
 253.67809 253.45989 252.82770 251.78351 250.39731 248.56612 246.48293 244.32373
 242.12254 239.93435 237.76215 235.60896 233.47677 231.35157 229.38538 227.55019
 225.84099 224.32080 222.95861 221.73841 220.62822 219.59603 218.70783 217.85664
 217.10645 216.29426 215.40006 214.77187 214.22968 215.14801 217.31769 219.69398
 221.69513 222.86230 223.60228 223.19730 222.20198 220.96974 220.67429 222.63704
 225.78033 230.25435 235.18076 239.94862 244.40363 248.23625 251.91289 255.60458
 258.81580 261.61597 264.26031 266.82822 269.11487 270.88675 272.08185 273.37079
 274.59195 275.49179 276.21881 276.81113 277.41342 277.96204 278.36127 278.77380
 279.30188 279.94308 280.54013 281.30103
 366.78100 356.34274 345.78248 334.65621 323.06695 311.26869 299.14643 286.95717
 274.67691 262.58164 250.59838 239.90712 230.03686 221.14860 213.33834 206.34807
 200.18981 195.13555 191.72529 189.77503 188.81976 188.89150 189.73424 191.04998
 192.78272 194.88546 197.15619 199.52293 201.97567 204.46341 206.55915 208.40889
 210.04262 211.19536 211.43210 211.66784 211.61258 211.32531 210.96605 210.60379
 210.22853 209.94627 209.76201 209.63374 209.56948 209.90822 210.30196 210.69870
 211.49944 212.68517 213.94291 215.73365 217.66939 219.72013 221.82287 223.91360
 225.98134 228.07308 230.17782 232.29156 234.42829 236.60803 238.87177 241.24951
 243.87825 246.13699 248.14672 249.91946 251.34420 252.47494 253.30468 253.62842
 253.67315 253.45489 252.82263 251.77837 250.39211 248.56084 246.47758 244.31832
 242.11706 239.92880 237.75654 235.60327 233.47101 231.34575 229.37949 227.54423
 225.83497 224.31470 222.95244 221.73218 220.62192 219.58966 218.70139 217.85013
 217.09987 216.28761 215.39335 214.76509 214.22282 215.14790 217.33350 219.67154
 221.70815 222.89217 223.50580 223.11777 221.99940 220.62666 220.38510 222.56024
 225.86086 230.40422 235.36086 240.13867 244.58070 248.46860 252.02638 255.70375
 258.91592 261.73679 264.37787 266.93387 269.18085 270.94034 272.06461 273.55319
 274.77798 275.75397 276.52026 277.12234 277.56036 278.03033 278.42542 278.77060
 279.14499 279.58017 280.13986 280.91074
 366.78100 356.34295 345.78290 334.65685 323.06780 311.26976 299.14771 286.95866
 274.67861 262.58356 250.60051 239.90946 230.03941 221.15136 213.34132 206.35127
 200.19322 195.13917 191.72912 189.77907 188.82402 188.89597 189.73892 191.05488
 192.78783 194.89078 197.16173 199.52868 201.98163 204.46958 206.56553 208.41548
 210.04944 211.20239 211.43934 211.67529 211.62024 211.33319 210.97414 210.61209
 210.23704 209.95500 209.77095 209.64290 209.57885 209.91780 210.31175 210.70870
 211.50965 212.69560 213.95356 215.74451 217.68046 219.73141 221.83436 223.92531
 225.99326 228.08521 230.19016 232.30411 234.44107 236.62102 238.88497 241.26292
 243.89187 246.15082 248.16077 249.93372 251.35867 252.48963 253.31958 253.64353
 253.68848 253.47043 252.83838 251.79433 250.40828 248.57723 246.49419 244.33514
 242.13409 239.94604 237.77399 235.62094 233.48889 231.36384 229.39779 227.56275
 225.85370 224.33365 222.97160 221.75155 220.64150 219.60945 218.72140 217.87035
 217.12031 216.30826 215.41421 214.78616 214.24411 215.16293 217.33376 219.66310
 221.69739 222.87433 223.40968 223.02777 221.88174 220.32401 220.01103 222.45879
 225.92535 230.54521 235.54501 240.33633 244.76309 248.69733 252.18539 255.77130
 259.02075 261.84888 264.47614 267.00388 269.21341 270.90451 272.22104 273.70071
 274.97446 276.00522 276.80594 277.39929 277.79541 278.08423 278.48267 278.79932
 279.09540 279.36295 279.90067 280.67166
 366.78100 356.34323 345.78346 334.65770 323.06893 311.27116 299.14939 286.96063
 274.68086 262.58609 250.60332 239.91256 230.04279 221.15502 213.34525 206.35549
 200.19772 195.14395 191.73418 189.78442 188.82965 188.90188 189.74511 191.06135
 192.79458 194.89781 197.16904 199.53628 201.98951 204.47774 206.57397 208.42421
 210.05844 211.21167 211.44890 211.68514 211.63037 211.34360 210.98483 210.62307
 210.24830 209.96653 209.78276 209.65500 209.59123 209.93046 210.32469 210.72193
 211.52316 212.70939 213.96762 215.75886 217.69509 219.74632 221.84955 223.94079
 226.00902 228.10125 230.20648 232.32072 234.45795 236.63818 238.90241 241.28065
 243.90988 246.16911 248.17934 249.95258 251.37781 252.50904 253.33927 253.66351
 253.70874 253.49097 252.85920 251.81544 250.42967 248.59890 246.51613 244.35737
 242.15660 239.96883 237.79706 235.64430 233.51253 231.38776 229.42199 227.58723
 225.87846 224.35869 222.99692 221.77716 220.66739 219.63562 218.74785 217.89708
 217.14732 216.33555 215.44178 214.81401 214.27225 215.18147 217.32962 219.65781
 221.67114 222.85995 223.30716 222.92316 221.70988 219.89522 219.76604 222.40193
 225.96523 230.68733 235.71982 240.51660 244.93945 248.90796 252.42088 255.84590
 259.09665 261.94241 264.55249 267.05630 269.22601 270.89636 272.32455 273.86230
 275.18253 276.24115 277.06964 277.67529 278.07333 278.34778 278.63766 278.96274
 279.19580 279.41565 279.88528 280.65872
 366.78100 356.34365 345.78431 334.65896 323.07062 311.27327 299.15193 286.96358
 274.68424 262.58989 250.60755 239.91720 230.04786 221.16051 213.35117 206.36182
 200.20447 195.15113 191.74178 189.79244 188.83809 188.91075 189.75440 191.07106
 192.80471 194.90837 197.18002 199.54768 202.00133 204.48999 206.58664 208.43730
 210.07195 211.22560 211.46326 211.69991 211.64557 211.35922 211.00088 210.63953
 210.26519 209.98384 209.80050 209.67315 209.60981 209.94946 210.34412 210.74177
 211.54342 212.73008 213.98873 215.78039 217.71704 219.76870 221.87235 223.96401
 226.03266 228.12532 230.23097 232.34563 234.48328 236.66394 238.92859 241.30725
 243.93690 246.19655 248.20721 249.98086 251.40652 252.53817 253.36883 253.69348
 253.73914 253.52179 252.89045 251.84710 250.46176 248.63141 246.54907 244.39072
 242.19037 240.00303 237.83168 235.67934 233.54799 231.42365 229.45830 227.62396
 225.91561 224.39627 223.03492 221.81558 220.70623 219.67489 218.78754 217.93719
 217.18785 216.37650 215.48316 214.85581 214.31447 215.20802 217.31914 219.66440
 221.62700 222.85258 223.22258 222.76512 221.55008 219.59149 219.44736 222.27344
 226.04579 230.84822 235.88280 240.68761 245.11287 249.10945 252.67851 255.98994
 259.14532 262.00656 264.60931 267.09085 269.22552 270.79391 272.46893 274.08548
 275.39279 276.46512 277.30832 277.93677 278.36511 278.66409 278.89926 279.18851
 279.45929 279.72314 280.08182 280.84128
 366.78100 356.34400 345.78499 334.65999 323.07198 311.27498 299.15398 286.96597
 274.68697 262.59296 250.61096 239.92096 230.05195 221.16495 213.35594 206.36694
 200.20994 195.15693 191.74793 189.79892 188.84492 188.91792 189.76191 191.07891
 192.81290 194.91690 197.18890 199.55689 202.01089 204.49988 206.59688 208.44788
 210.08287 211.23687 211.47486 211.71186 211.65786 211.37185 211.01385 210.65284
 210.27884 209.99784 209.81483 209.68783 209.62483 209.96482 210.35982 210.75781
 211.55981 212.74681 214.00580 215.79780 217.73479 219.78679 221.89079 223.98278
 226.05178 228.14477 230.25077 232.36577 234.50376 236.68476 238.94975 241.32875
 243.95875 246.21874 248.22974 250.00373 251.42973 252.56173 253.39272 253.71772
 253.76371 253.54671 252.91571 251.87270 250.48770 248.65769 246.57569 244.41769
 242.21768 240.03068 237.85967 235.70767 233.57667 231.45266 229.48766 227.65365
 225.94565 224.42665 223.06564 221.84664 220.73763 219.70663 218.81963 217.96962
 217.22062 216.40961 215.51661 214.88961 214.34860 215.23003 217.31250 219.66600
 221.58473 222.83818 223.16177 222.57224 221.34995 219.36580 219.16679 222.12892
 226.09883 230.99057 236.03703 240.84959 245.28102 249.30840 252.92180 256.20117
 259.20474 262.03922 264.64557 267.07208 269.10556 270.86453 272.63574 274.28488
 275.59979 276.67630 277.54391 278.20596 278.66675 278.99673 279.25891 279.47635
 279.77353 280.06638 280.35873 281.09326
 366.78100 356.34414 345.78529 334.66043 323.07258 311.27572 299.15487 286.96701
 274.68816 262.59430 250.61245 239.92259 230.05374 221.16688 213.35803 206.36917
 200.21231 195.15946 191.75060 189.80175 188.84789 188.92104 189.76518 191.08233
 192.81647 194.92062 197.19276 199.56091 202.01505 204.50419 206.60134 208.45248
 210.08763 211.24177 211.47992 211.71706 211.66321 211.37735 211.01950 210.65864
 210.28479 210.00393 209.82108 209.69422 209.63136 209.97151 210.36665 210.76480
 211.56694 212.75409 214.01323 215.80538 217.74252 219.79467 221.89881 223.99096
 226.06010 228.15324 230.25939 232.37453 234.51268 236.69382 238.95897 241.33811
 243.96826 246.22840 248.23955 250.01369 251.43984 252.57198 253.40313 253.72827
 253.77441 253.55756 252.92670 251.88385 250.49899 248.66914 246.58728 244.42943
 242.22957 240.04272 237.87186 235.72001 233.58915 231.46529 229.50044 227.66658
 225.95873 224.43987 223.07902 221.86016 220.75131 219.72045 218.83360 217.98374
 217.23489 216.42403 215.53118 214.90432 214.36346 215.24034 217.31206 219.66141
 221.54974 222.81340 223.10904 222.39421 221.10184 219.14775 218.92461 222.00237
 226.16362 231.12772 236.17763 241.00125 245.43689 249.49033 253.14481 256.41699
 259.33167 262.04532 264.64410 267.04376 269.06018 270.97803 272.80078 274.45160
 275.76212 276.85242 277.74637 278.43686 278.91504 279.24777 279.49951 279.71066
 279.96027 280.32486 280.65479 281.28766
 366.78100 356.34430 345.78559 334.66089 323.07319 311.27648 299.15578 286.96808
 274.68938 262.59567 250.61397 239.92427 230.05556 221.16886 213.36016 206.37145
 200.21475 195.16205 191.75334 189.80464 188.85094 188.92424 189.76853 191.08583
 192.82013 194.92442 197.19672 199.56502 202.01931 204.50861 206.60591 208.45720
 210.09250 211.24680 211.48510 211.72239 211.66869 211.38299 211.02528 210.66458
 210.29088 210.01017 209.82747 209.70077 209.63806 209.97836 210.37366 210.77196
 211.57425 212.76155 214.02085 215.81314 217.75044 219.80274 221.90703 223.99933
 226.06863 228.16192 230.26822 232.38352 234.52182 236.70311 238.96841 241.34771
 243.97800 246.23830 248.24960 250.02389 251.45019 252.58249 253.41378 253.73908
 253.78538 253.56868 252.93797 251.89527 250.51057 248.68086 246.59916 244.44146
 242.24175 240.05505 237.88435 235.73264 233.60194 231.47824 229.51354 227.67983
 225.97213 224.45343 223.09272 221.87402 220.76532 219.73461 218.84791 217.99821
 217.24950 216.43880 215.54610 214.91940 214.37869 215.25070 217.31094 219.65605
 221.52344 222.77148 223.06844 222.24658 220.82164 218.92085 218.69505 221.89607
 226.23653 231.27290 236.31557 241.14027 245.56938 249.64311 253.33290 256.60397
 259.48892 262.15277 264.73566 267.08444 269.19009 271.15103 272.95627 274.56107
 275.85959 276.95752 277.87808 278.57693 279.06039 279.41156 279.68539 279.91425
 280.13010 280.46439 280.81192 281.40445
 366.78100 356.34449 345.78598 334.66147 323.07396 311.27745 299.15694 286.96943
 274.69092 262.59741 250.61590 239.92639 230.05788 221.17137 213.36286 206.37435
 200.21784 195.16533 191.75682 189.80831 188.85480 188.92829 189.77278 191.09027
 192.82476 194.92925 197.20174 199.57023 202.02472 204.51421 206.61170 208.46319
 210.09868 211.25317 211.49166 211.72915 211.67564 211.39013 211.03262 210.67211
 210.29860 210.01809 209.83558 209.70907 209.64656 209.98705 210.38254 210.78103
 211.58352 212.77101 214.03050 215.82299 217.76048 219.81297 221.91746 224.00995
 226.07944 228.17293 230.27942 232.39491 234.53340 236.71489 238.98038 241.35987
 243.99036 246.25085 248.26234 250.03683 251.46332 252.59581 253.42730 253.75279
 253.79928 253.58277 252.95226 251.90975 250.52524 248.69573 246.61422 244.45671
 242.25720 240.07069 237.90018 235.74867 233.61816 231.49465 229.53014 227.69663
 225.98912 224.47061 223.11010 221.89159 220.78308 219.75257 218.86606 218.01655
 217.26804 216.45753 215.56502 214.93851 214.39799 215.26321 217.30737 219.65265
 221.49606 222.73288 223.00055 222.10413 220.58511 218.67726 218.43863 221.82657
 226.31369 231.43987 236.47475 241.27725 245.68547 249.77020 253.49298 256.76437
 259.65704 262.33789 264.88290 267.21005 269.29172 271.20447 272.93442 274.52536
 275.87378 277.05289 277.98914 278.67288 279.15363 279.50836 279.78809 280.02466
 280.27042 280.58899 280.89352 281.48071
 354.97500 345.04800 334.58700 324.11500 313.32600 302.53700 291.65000 280.76700
 269.93100 259.19300 248.62200 238.61700 229.08700 220.35500 212.54000 205.53500
 199.46400 194.49300 191.14300 189.19000 188.08900 188.01400 188.72400 189.90600
 191.46900 193.38200 195.40300 197.55600 199.80700 202.06000 204.28800 206.47900
 208.55200 210.37800 212.02500 213.65900 214.99800 216.11800 217.17200 218.25900
 219.49400 220.64500 221.67900 222.61400 223.54500 224.98200 226.57100 228.19000
 229.79700 231.81100 233.86500 235.97200 238.24200 240.55300 242.89900 245.25300
 247.48800 249.53500 251.36600 252.84800 254.09800 255.16700 256.02700 256.25300
 256.09500 255.54300 253.93500 252.56600 251.38400 250.24500 249.05200 247.70100
 246.01600 243.99600 241.78400 239.39300 236.81300 234.22300 231.65800 229.14400
 226.74000 224.47300 222.33500 220.32500 218.44000 216.67700 214.96200 213.47200
 212.20000 211.10800 210.26000 209.63900 209.24400 209.03100 209.05800 209.33300
 209.78400 210.62600 211.33100 212.39100 213.62500 214.84668 217.72949 219.47640
 220.32566 220.86828 220.88710 220.27371 219.43733 218.84250 219.04934 220.86203
 222.60583 225.72206 229.03064 232.61777 236.12270 239.51333 242.70767 245.68587
 248.41061 250.90679 253.19353 254.91714 256.48655 257.94920 259.39966 260.69384
 261.81714 262.77997 263.71679 264.54570 265.26305 265.89772 266.47676 267.00133
 267.47312 267.89325 268.26027 268.72800
