|-------------------------------------------------------------------------|
|   File Name : in_temp.dat
|   Subject   : temperature profiles used for initial guess atmosphere
|   File Type : input of gmtr
|   Data Type : atmospherical data
|   Author/s  : WRF-Chem
|   Date      : Fri Jul 26 15:39:24 2024
|-------------------------------------------------------------------------|

 WRF-Chem temperature
#
 values of T (K)    (8f10.5)
#
 354.97500 345.04800 334.58700 324.11500 313.32600 302.53700 291.65000 280.76700
 269.93100 259.19300 248.62200 238.61700 229.08700 220.35500 212.54000 205.53500
 199.46400 194.49300 191.14300 189.19000 188.08900 188.01400 188.72400 189.90600
 191.46900 193.38200 195.40300 197.55600 199.80700 202.06000 204.28800 206.47900
 208.55200 210.37800 212.02500 213.65900 214.99800 216.11800 217.17200 218.25900
 219.49400 220.64500 221.67900 222.61400 223.54500 224.98200 226.57100 228.19000
 229.79700 231.81100 233.86500 235.97200 238.24200 240.55300 242.89900 245.25300
 247.48800 249.53500 251.36600 252.84800 254.09800 255.16700 256.02700 256.25300
 256.09500 255.54300 253.93500 252.56600 251.38400 250.24500 249.05200 247.70100
 246.01600 243.99600 241.78400 239.39300 236.81300 234.22300 231.65800 229.14400
 226.74000 224.47300 222.33500 220.32500 218.44000 216.67700 214.96200 213.47200
 212.20000 211.10800 210.26000 209.63900 209.24400 209.03100 209.05800 209.33300
 209.78400 210.62600 211.33100 212.39100 213.62500 214.84668 217.72949 219.47640
 220.32566 220.86828 220.88710 220.27371 219.43733 218.84250 219.04934 220.86203
 222.60583 225.72206 229.03064 232.61777 236.12270 239.51333 242.70767 245.68587
 248.41061 250.90679 253.19353 254.91714 256.48655 257.94920 259.39966 260.69384
 261.81714 262.77997 263.71679 264.54570 265.26305 265.89772 266.47676 267.00133
 267.47312 267.89325 268.26027 268.72800
 366.78100 356.33500 345.76700 334.63300 323.03600 311.23000 299.10000 286.90300
 274.61500 262.51200 250.52100 239.82200 229.94400 221.04800 213.23000 206.23200
 200.06600 195.00400 191.58600 189.62800 188.66500 188.72900 189.56400 190.87200
 192.59700 194.69200 196.95500 199.31400 201.75900 204.23900 206.32700 208.16900
 209.79500 210.94000 211.16900 211.39700 211.33400 211.03900 210.67200 210.30200
 209.91900 209.62900 209.43700 209.30100 209.22900 209.56000 209.94600 210.33500
 211.12800 212.30600 213.55600 215.33900 217.26700 219.31000 221.40500 223.48800
 225.54800 227.63200 229.72900 231.83500 233.96400 236.13600 238.39200 240.76200
 243.38300 245.63400 247.63600 249.40100 250.81800 251.94100 252.76300 253.07900
 253.11600 252.89000 252.25000 251.19800 249.80400 247.96500 245.87400 243.70700
 241.49800 239.30200 237.12200 234.96100 232.82100 230.68800 228.71400 226.87100
 225.15400 223.62600 222.25600 221.02800 219.91000 218.87000 217.97400 217.11500
 216.35700 215.53700 214.63500 213.99900 213.44900 212.85855 212.01316 212.61654
 214.26826 216.08686 218.14273 220.53346 223.40855 226.78828 231.49734 235.90155
 239.42278 243.28576 247.23140 251.11907 254.80144 258.23331 261.38913 264.27520
 266.89312 269.26852 271.44504 273.08845 274.58484 275.98591 277.39845 278.65879
 279.75272 280.69038 281.56708 282.34086 283.01050 283.60295 284.14348 284.63317
 285.07358 285.46577 285.80838 286.24500
 381.81900 372.39900 361.20600 349.77600 337.62200 324.85300 311.81000 298.35300
 284.86000 271.32400 258.56100 246.30400 236.08700 226.79600 218.44800 211.29000
 205.52200 200.89400 197.38100 194.84800 193.01500 192.31500 192.25000 192.43100
 192.91200 193.53700 194.13600 194.71200 195.26200 195.83100 196.39300 196.97600
 197.60400 198.14900 198.58400 199.05700 199.69500 200.37800 201.05400 201.70800
 202.31300 202.85700 203.35500 203.86200 204.56900 205.29700 206.02600 206.98700
 208.19300 209.44100 210.96900 212.57600 214.46200 216.51300 218.63000 220.85300
 223.34100 225.96200 228.73900 231.69700 234.70600 237.70600 240.69200 243.65700
 246.73700 249.69900 252.52100 255.06300 257.29000 259.23300 260.63300 261.68000
 262.46100 262.79800 262.69100 262.22400 261.06900 259.52500 257.70700 255.50700
 253.00100 250.30200 247.39800 244.45200 241.65400 239.05400 236.73300 234.59000
 232.59500 230.72500 228.83400 226.82600 224.66600 222.38700 220.10400 217.71500
 215.45900 213.06600 210.54600 208.09300 205.35400 202.08130 196.05959 200.71215
 209.01611 216.90438 223.84126 229.78593 235.00632 240.20838 245.98943 250.68668
 254.32982 257.93487 261.55666 264.96801 268.15192 271.06452 273.76717 276.25691
 278.57680 280.74479 282.77456 284.60533 286.27232 287.81705 289.31715 290.65561
 291.81734 292.81312 293.70701 294.49387 295.17482 295.77730 296.32696 296.82492
 297.27278 297.67160 298.02000 298.46400
 399.33000 389.90700 379.81300 368.66800 357.52200 345.30100 333.07400 320.22700
 307.21600 293.84800 280.37600 267.29600 254.61000 242.98700 232.15100 221.97700
 212.67200 204.28600 197.66900 192.82100 189.48600 187.45200 186.81400 187.08900
 187.78100 189.05400 190.64800 192.54200 194.63000 196.75200 198.67100 200.15800
 201.53500 202.48700 202.97500 203.34000 203.53900 203.49700 203.38500 203.24700
 203.00500 202.78600 202.60300 202.43700 202.42600 202.88800 203.42000 203.95100
 204.89500 205.99200 207.30100 208.95800 210.73800 213.10000 215.56400 218.18000
 220.96600 223.91800 226.96100 230.09200 233.29300 236.55700 239.95500 243.53700
 246.84500 249.39000 251.54200 253.47400 255.19500 256.48400 257.43100 258.05900
 258.21200 258.04000 257.58200 256.64300 255.23900 253.50700 251.40800 249.05600
 246.57600 243.99400 241.38900 238.83000 236.34400 233.98600 231.96900 230.11800
 228.42300 226.89900 225.54800 224.29700 223.10500 221.96500 220.95800 220.11300
 219.49000 218.92000 218.32500 217.88100 217.42300 216.96366 216.35568 216.80261
 217.73415 218.28582 218.64258 219.10077 220.44626 222.53987 226.38451 230.35736
 233.59734 237.39164 241.29814 245.22796 248.98002 252.51130 255.78595 258.80109
 261.54781 264.05210 266.34239 268.04198 269.58951 271.01303 272.35754 273.55718
 274.59842 275.49092 276.28989 276.99307 277.60161 278.14001 278.63122 279.07623
 279.47646 279.83287 280.14422 280.54100
 399.73800 389.78500 379.66200 368.15100 356.64100 344.35000 331.79200 318.88800
 305.72600 292.49300 279.20900 266.73800 254.69600 244.21100 234.45700 225.43300
 217.56900 210.45100 204.30000 199.30600 195.45800 192.57600 191.02700 190.38600
 190.23900 190.53400 191.16600 191.92500 192.79500 193.76600 194.73200 195.31200
 195.80000 196.05200 196.11500 196.11500 196.03900 195.72300 195.34000 194.98900
 194.75100 194.79200 195.13300 195.59800 196.50600 198.13600 199.85800 201.56600
 204.17900 206.82300 209.89300 213.28400 216.82800 220.60500 224.38700 228.20900
 232.03200 235.82500 239.56000 243.25800 246.84500 250.20100 253.70900 257.46800
 261.53000 264.22100 266.60100 268.68100 270.32900 271.74100 272.83600 273.47400
 273.89800 274.00200 273.75700 273.28800 272.37100 271.10000 269.58900 267.77900
 265.81600 263.72100 261.39300 258.91600 256.29800 253.42300 250.33100 247.11400
 243.83700 240.52900 237.24900 233.99900 230.72800 227.51500 224.25400 220.95200
 217.62700 213.65600 210.12100 206.78900 204.01000 201.99491 199.07309 198.76551
 199.40006 200.48994 201.46112 202.31912 203.45100 204.96110 207.47502 210.85391
 213.70530 217.29629 220.99574 224.72316 228.28753 231.64854 234.68024 237.40893
 239.70644 241.60899 243.46854 245.67368 247.68154 249.52395 251.24767 252.78566
 254.12057 255.26479 256.23740 257.09036 257.82852 258.48160 259.07744 259.61723
 260.10271 260.53504 260.91270 261.39400
 399.73800 389.78500 379.66200 368.15100 356.64100 344.35000 331.79200 318.88800
 305.72600 292.49300 279.20900 266.73800 254.69600 244.21100 234.45700 225.43300
 217.56900 210.45100 204.30000 199.30600 195.45800 192.57600 191.02700 190.38600
 190.23900 190.53400 191.16600 191.92500 192.79500 193.76600 194.73200 195.31200
 195.80000 196.05200 196.11500 196.11500 196.03900 195.72300 195.34000 194.98900
 194.75100 194.79200 195.13300 195.59800 196.50600 198.13600 199.85800 201.56600
 204.17900 206.82300 209.89300 213.28400 216.82800 220.60500 224.38700 228.20900
 232.03200 235.82500 239.56000 243.25800 246.84500 250.20100 253.70900 257.46800
 261.53000 264.22100 266.60100 268.68100 270.32900 271.74100 272.83600 273.47400
 273.89800 274.00200 273.75700 273.28800 272.37100 271.10000 269.58900 267.77900
 265.81600 263.72100 261.39300 258.91600 256.29800 253.42300 250.33100 247.11400
 243.83700 240.52900 237.24900 233.99900 230.72800 227.51500 224.25400 220.95200
 217.62700 213.65600 210.12100 206.78900 204.01000 201.99491 199.07309 198.76551
 199.40006 200.48994 201.46112 202.31912 203.45100 204.96110 207.47502 210.85391
 213.70530 217.29629 220.99574 224.72316 228.28753 231.64854 234.68024 237.40893
 239.70644 241.60899 243.46854 245.67368 247.68154 249.52395 251.24767 252.78566
 254.12057 255.26479 256.23740 257.09036 257.82852 258.48160 259.07744 259.61723
 260.10271 260.53504 260.91270 261.39400
 399.33000 389.90700 379.81300 368.66800 357.52200 345.30100 333.07400 320.22700
 307.21600 293.84800 280.37600 267.29600 254.61000 242.98700 232.15100 221.97700
 212.67200 204.28600 197.66900 192.82100 189.48600 187.45200 186.81400 187.08900
 187.78100 189.05400 190.64800 192.54200 194.63000 196.75200 198.67100 200.15800
 201.53500 202.48700 202.97500 203.34000 203.53900 203.49700 203.38500 203.24700
 203.00500 202.78600 202.60300 202.43700 202.42600 202.88800 203.42000 203.95100
 204.89500 205.99200 207.30100 208.95800 210.73800 213.10000 215.56400 218.18000
 220.96600 223.91800 226.96100 230.09200 233.29300 236.55700 239.95500 243.53700
 246.84500 249.39000 251.54200 253.47400 255.19500 256.48400 257.43100 258.05900
 258.21200 258.04000 257.58200 256.64300 255.23900 253.50700 251.40800 249.05600
 246.57600 243.99400 241.38900 238.83000 236.34400 233.98600 231.96900 230.11800
 228.42300 226.89900 225.54800 224.29700 223.10500 221.96500 220.95800 220.11300
 219.49000 218.92000 218.32500 217.88100 217.42300 216.96366 216.35568 216.80261
 217.73415 218.28582 218.64258 219.10077 220.44626 222.53987 226.38451 230.35736
 233.59734 237.39164 241.29814 245.22796 248.98002 252.51130 255.78595 258.80109
 261.54781 264.05210 266.34239 268.04198 269.58951 271.01303 272.35754 273.55718
 274.59842 275.49092 276.28989 276.99307 277.60161 278.14001 278.63122 279.07623
 279.47646 279.83287 280.14422 280.54100
 381.81900 372.39900 361.20600 349.77600 337.62200 324.85300 311.81000 298.35300
 284.86000 271.32400 258.56100 246.30400 236.08700 226.79600 218.44800 211.29000
 205.52200 200.89400 197.38100 194.84800 193.01500 192.31500 192.25000 192.43100
 192.91200 193.53700 194.13600 194.71200 195.26200 195.83100 196.39300 196.97600
 197.60400 198.14900 198.58400 199.05700 199.69500 200.37800 201.05400 201.70800
 202.31300 202.85700 203.35500 203.86200 204.56900 205.29700 206.02600 206.98700
 208.19300 209.44100 210.96900 212.57600 214.46200 216.51300 218.63000 220.85300
 223.34100 225.96200 228.73900 231.69700 234.70600 237.70600 240.69200 243.65700
 246.73700 249.69900 252.52100 255.06300 257.29000 259.23300 260.63300 261.68000
 262.46100 262.79800 262.69100 262.22400 261.06900 259.52500 257.70700 255.50700
 253.00100 250.30200 247.39800 244.45200 241.65400 239.05400 236.73300 234.59000
 232.59500 230.72500 228.83400 226.82600 224.66600 222.38700 220.10400 217.71500
 215.45900 213.06600 210.54600 208.09300 205.35400 202.08130 196.05959 200.71215
 209.01611 216.90438 223.84126 229.78593 235.00632 240.20838 245.98943 250.68668
 254.32982 257.93487 261.55666 264.96801 268.15192 271.06452 273.76717 276.25691
 278.57680 280.74479 282.77456 284.60533 286.27232 287.81705 289.31715 290.65561
 291.81734 292.81312 293.70701 294.49387 295.17482 295.77730 296.32696 296.82492
 297.27278 297.67160 298.02000 298.46400
 366.78100 356.34080 345.77861 334.65041 323.05922 311.25902 299.13483 286.94363
 274.66144 262.56424 250.57905 239.88585 230.01366 221.12346 213.31127 206.31907
 200.15888 195.10268 191.69049 189.73829 188.78110 188.85090 189.69171 191.00551
 192.73632 194.83712 197.10593 199.47073 201.92154 204.40734 206.50115 208.34895
 209.98076 211.13156 211.36637 211.60017 211.54298 211.25378 210.89259 210.52839
 210.15120 209.86700 209.68081 209.55061 209.48442 209.82122 210.21303 210.60783
 211.40664 212.59044 213.84625 215.63505 217.56886 219.61766 221.71847 223.80727
 225.87308 227.96288 230.06569 232.17749 234.31230 236.49010 238.75191 241.12771
 243.75452 246.01132 248.01913 249.78993 251.21274 252.34154 253.16935 253.49115
 253.53396 253.31376 252.67957 251.63337 250.24518 248.41198 246.32679 244.16559
 241.96240 239.77220 237.59801 235.44281 233.30862 231.18142 229.21323 227.37603
 225.66484 224.14264 222.77845 221.55625 220.44406 219.40986 218.51967 217.66647
 216.91428 216.10008 215.20389 214.57369 214.02950 212.99284 210.55730 209.83986
 210.34456 210.50781 211.75999 215.25691 219.60228 224.37636 230.16100 235.16034
 239.00998 243.01842 247.27365 251.44975 255.15053 258.43784 261.17950 263.62909
 266.45596 269.17264 271.76331 274.35043 276.49533 278.15717 279.43637 280.96817
 282.87048 284.65735 286.20560 287.56549 288.74191 289.78375 290.73264 291.59131
 292.36145 293.04611 293.64081 294.38892
 366.78100 356.34090 345.77881 334.65071 323.05961 311.25952 299.13542 286.94432
 274.66223 262.56513 250.58004 239.88694 230.01484 221.12475 213.31265 206.32055
 200.16046 195.10436 191.69226 189.74017 188.78307 188.85297 189.69388 191.00778
 192.73868 194.83959 197.10849 199.47340 201.92430 204.41020 206.50411 208.35201
 209.98391 211.13482 211.36972 211.60362 211.54653 211.25743 210.89633 210.53224
 210.15514 209.87104 209.68495 209.55485 209.48876 209.82566 210.21756 210.61247
 211.41137 212.59527 213.85118 215.64008 217.57398 219.62289 221.72379 223.81269
 225.87860 227.96850 230.07140 232.18331 234.31821 236.49611 238.75802 241.13392
 243.76083 246.01773 248.02563 249.79654 251.21944 252.34834 253.17625 253.49815
 253.54105 253.32096 252.68686 251.64076 250.25267 248.41957 246.33447 244.17338
 241.97028 239.78019 237.60609 235.45099 233.31690 231.18980 229.22170 227.38461
 225.67351 224.15141 222.78732 221.56522 220.45312 219.41903 218.52893 217.67583
 216.92374 216.10964 215.21355 214.58345 214.03935 213.02373 210.63664 209.91121
 210.35149 210.58015 211.78009 215.18687 219.56099 224.34050 230.07358 235.06340
 238.90964 242.91739 247.18117 251.36470 255.07706 258.40396 261.17450 263.62289
 266.43994 269.14014 271.70865 274.26938 276.40036 278.06790 279.37534 280.92477
 282.81113 284.59106 286.13580 287.49463 288.67123 289.71344 290.66190 291.51965
 292.29160 292.97665 293.57288 294.32455
 366.78100 356.34127 345.77955 334.65182 323.06110 311.26137 299.13764 286.94692
 274.66519 262.56847 250.58374 239.89101 230.01929 221.12956 213.31784 206.32611
 200.16638 195.11066 191.69893 189.74721 188.79048 188.86075 189.70203 191.01630
 192.74758 194.84885 197.11812 199.48340 201.93467 204.42095 206.51522 208.36349
 209.99577 211.14704 211.38232 211.61659 211.55986 211.27114 210.91041 210.54669
 210.16996 209.88623 209.70051 209.57078 209.50506 209.84233 210.23460 210.62988
 211.42915 212.61343 213.86970 215.65897 217.59325 219.64252 221.74380 223.83307
 225.89934 227.98962 230.09289 232.20517 234.34044 236.51871 238.78099 241.15726
 243.78454 246.04181 248.05008 249.82136 251.24463 252.37391 253.20218 253.52445
 253.56773 253.34800 252.71428 251.66855 250.28082 248.44810 246.36337 244.20265
 241.99992 239.81019 237.63647 235.48174 233.34802 231.22129 229.25356 227.41684
 225.70611 224.18439 222.82066 221.59893 220.48721 219.45348 218.56376 217.71103
 216.95930 216.14558 215.24985 214.62013 214.07640 213.06679 210.69356 209.99608
 210.36742 210.64087 211.81818 215.13667 219.50620 224.27602 229.98456 234.97366
 238.81917 242.82581 247.09386 251.28137 255.00157 258.36371 261.16165 263.61050
 266.42020 269.10535 271.65140 274.18707 276.30597 277.98230 279.31882 280.88434
 282.75967 284.52191 286.06302 287.42203 288.59961 289.64047 290.59125 291.45041
 292.22116 292.90753 293.50476 294.26028
 366.78100 356.34163 345.78025 334.65288 323.06250 311.26313 299.13976 286.94938
 274.66801 262.57164 250.58726 239.89489 230.02351 221.13414 213.32277 206.33139
 200.17202 195.11665 191.70527 189.75390 188.79752 188.86815 189.70978 191.02440
 192.75603 194.85765 197.12728 199.49291 201.94453 204.43116 206.52579 208.37441
 210.00704 211.15866 211.39429 211.62892 211.57254 211.28417 210.92379 210.56042
 210.18405 209.90067 209.71530 209.58593 209.52055 209.85818 210.25080 210.64643
 211.44606 212.63068 213.88731 215.67694 217.61156 219.66119 221.76281 223.85244
 225.91907 228.00969 230.11332 232.22594 234.36157 236.54020 238.80282 241.17945
 243.80708 246.06470 248.07333 249.84495 251.26858 252.39821 253.22683 253.54946
 253.59308 253.37371 252.74034 251.69496 250.30759 248.47522 246.39084 244.23047
 242.02809 239.83872 237.66535 235.51097 233.37760 231.25123 229.28385 227.44748
 225.73710 224.21573 222.85236 221.63098 220.51961 219.48623 218.59686 217.74449
 216.99311 216.17974 215.28437 214.65499 214.11162 213.10762 210.74725 210.07854
 210.39450 210.69637 211.86261 215.09914 219.44002 224.20335 229.90131 234.89157
 238.73459 242.73647 247.00534 251.19460 254.92279 258.31989 261.14386 263.59372
 266.39679 269.06747 271.59155 274.10287 276.21265 277.89844 279.26520 280.84485
 282.71201 284.45358 285.99179 287.35065 288.52798 289.57101 290.52048 291.38062
 292.15253 292.83942 293.43713 294.19824
 366.78100 356.34192 345.78083 334.65375 323.06367 311.26458 299.14150 286.95142
 274.67033 262.57425 250.59017 239.89808 230.02700 221.13792 213.32683 206.33575
 200.17666 195.12158 191.71050 189.75941 188.80333 188.87425 189.71616 191.03108
 192.76300 194.86491 197.13483 199.50075 201.95266 204.43958 206.53450 208.38341
 210.01633 211.16825 211.40416 211.63908 211.58300 211.29491 210.93483 210.57175
 210.19566 209.91258 209.72750 209.59841 209.53333 209.87124 210.26416 210.66008
 211.45999 212.64491 213.90183 215.69174 217.62666 219.67658 221.77849 223.86841
 225.93533 228.02624 230.13016 232.24308 234.37899 236.55791 238.82083 241.19774
 243.82566 246.08358 248.09249 249.86441 251.28833 252.41824 253.24716 253.57008
 253.61399 253.39491 252.76183 251.71674 250.32966 248.49757 246.41349 244.25341
 242.05132 239.86224 237.68916 235.53507 233.40199 231.27591 229.30882 227.47274
 225.76266 224.24157 222.87849 221.65741 220.54632 219.51324 218.62416 217.77207
 217.02099 216.20791 215.31282 214.68374 214.14066 213.14412 210.80087 210.15543
 210.43419 210.75230 211.90656 215.07159 219.36743 224.12915 229.82292 234.81174
 238.64993 242.64703 246.91595 251.10646 254.84412 258.27451 261.12195 263.57138
 266.36890 269.02502 271.52869 274.01517 276.11948 277.81711 279.21384 280.80704
 282.66678 284.38882 285.92340 287.28122 288.45929 289.50146 290.45218 291.31290
 292.08499 292.77368 293.37106 294.13284
 366.78100 356.34221 345.78143 334.65464 323.06485 311.26607 299.14328 286.95349
 274.67270 262.57692 250.59313 239.90134 230.03056 221.14177 213.33098 206.34020
 200.18141 195.12662 191.71583 189.76505 188.80926 188.88047 189.72269 191.03790
 192.77011 194.87233 197.14254 199.50875 201.96096 204.44818 206.54339 208.39260
 210.02582 211.17803 211.41424 211.64946 211.59367 211.30588 210.94610 210.58331
 210.20752 209.92473 209.73995 209.61116 209.54637 209.88459 210.27780 210.67401
 211.47423 212.65944 213.91665 215.70686 217.64208 219.69229 221.79450 223.88472
 225.95193 228.04314 230.14736 232.26057 234.39678 236.57600 238.83921 241.21642
 243.84463 246.10285 248.11206 249.88427 251.30849 252.43870 253.26791 253.59113
 253.63534 253.41655 252.78376 251.73898 250.35219 248.52040 246.43662 244.27683
 242.07504 239.88626 237.71347 235.55968 233.42689 231.30111 229.33432 227.49853
 225.78875 224.26796 222.90517 221.68439 220.57360 219.54081 218.65203 217.80024
 217.04945 216.23666 215.34188 214.71309 214.17030 213.17995 210.85080 210.23010
 210.48366 210.80994 211.94836 215.05266 219.29173 224.05244 229.74760 234.73138
 238.56421 242.55725 246.82721 251.01936 254.76683 258.22787 261.09442 263.54266
 266.33481 268.97745 271.46231 273.92584 276.02652 277.74106 279.16544 280.77087
 282.62299 284.32892 285.85886 287.21701 288.39487 289.43799 290.38739 291.24881
 292.02124 292.70880 293.30853 294.07233
 366.78100 356.34256 345.78211 334.65567 323.06622 311.26778 299.14533 286.95589
 274.67545 262.58000 250.59656 239.90511 230.03467 221.14622 213.33578 206.34534
 200.18689 195.13245 191.72200 189.77156 188.81611 188.88767 189.73023 191.04578
 192.77834 194.88089 197.15145 199.51801 201.97056 204.45812 206.55367 208.40323
 210.03678 211.18934 211.42590 211.66145 211.60601 211.31856 210.95912 210.59667
 210.22123 209.93879 209.75434 209.62590 209.56145 209.90001 210.29356 210.69012
 211.49068 212.67623 213.93379 215.72434 217.65990 219.71045 221.81301 223.90357
 225.97112 228.06268 230.16723 232.28079 234.41734 236.59690 238.86046 241.23801
 243.86657 246.12512 248.13468 249.90723 251.33179 252.46235 253.29190 253.61546
 253.66001 253.44157 252.80913 251.76468 250.37824 248.54679 246.46335 244.30390
 242.10246 239.91402 237.74157 235.58813 233.45568 231.33024 229.36379 227.52835
 225.81891 224.29846 222.93602 221.71557 220.60513 219.57268 218.68424 217.83280
 217.08235 216.26991 215.37546 214.74702 214.20457 213.21704 210.89424 210.30746
 210.53839 210.86977 211.98985 215.04057 219.21384 223.97301 229.67558 234.64957
 238.47673 242.46738 246.73917 250.93376 254.69148 258.17957 261.06052 263.50681
 266.29538 268.92581 271.39166 273.83527 275.93674 277.66855 279.11859 280.73517
 282.58047 284.27417 285.79889 287.15707 288.33453 289.37665 290.32797 291.18832
 291.96060 292.64676 293.24603 294.00806
 366.78100 356.34298 345.78295 334.65693 323.06791 311.26988 299.14786 286.95884
 274.67881 262.58379 250.60077 239.90974 230.03972 221.15170 213.34167 206.35165
 200.19363 195.13960 191.72958 189.77956 188.82453 188.89651 189.73949 191.05546
 192.78844 194.89142 197.16240 199.52937 201.98235 204.47033 206.56630 208.41628
 210.05026 211.20323 211.44021 211.67619 211.62116 211.33414 210.97512 210.61309
 210.23807 209.95605 209.77202 209.64400 209.57998 209.91895 210.31293 210.70991
 211.51088 212.69686 213.95484 215.74581 217.68179 219.73277 221.83574 223.92672
 225.99470 228.08667 230.19165 232.30563 234.44260 236.62258 238.88656 241.26453
 243.89351 246.15249 248.16246 249.93544 251.36042 252.49139 253.32137 253.64535
 253.69032 253.47230 252.84028 251.79626 250.41023 248.57921 246.49619 244.33716
 242.13614 239.94812 237.77609 235.62307 233.49105 231.36602 229.40000 227.56498
 225.85595 224.33593 222.97391 221.75388 220.64386 219.61184 218.72381 217.87279
 217.12277 216.31074 215.41672 214.78870 214.24667 213.25722 210.92957 210.38197
 210.60735 210.93283 212.02570 215.03484 219.13344 223.88809 229.60268 234.56696
 238.38901 242.37874 246.65207 250.84959 254.61830 258.13058 261.02200 263.46494
 266.25226 268.87103 271.31735 273.74164 275.84760 277.59949 279.07211 280.69931
 282.53918 284.22302 285.74493 287.10098 288.27917 289.32089 290.27185 291.13110
 291.90240 292.58789 293.18533 293.94336
 366.78100 356.34360 345.78421 334.65881 323.07041 311.27302 299.15162 286.96322
 274.68383 262.58943 250.60703 239.91664 230.04724 221.15984 213.35045 206.36105
 200.20365 195.15026 191.74086 189.79146 188.83707 188.90967 189.75327 191.06988
 192.80348 194.90708 197.17868 199.54629 201.99989 204.48849 206.58510 208.43570
 210.07030 211.22391 211.46151 211.69811 211.64372 211.35732 210.99892 210.63753
 210.26313 209.98173 209.79834 209.67094 209.60754 209.94715 210.34175 210.73935
 211.54096 212.72756 213.98616 215.77777 217.71437 219.76597 221.86958 223.96118
 226.02978 228.12239 230.22799 232.34259 234.48020 236.66080 238.92540 241.30401
 243.93361 246.19321 248.20382 249.97742 251.40302 252.53463 253.36523 253.68983
 253.73543 253.51804 252.88664 251.84324 250.45785 248.62745 246.54505 244.38666
 242.18626 239.99886 237.82747 235.67507 233.54367 231.41928 229.45388 227.61948
 225.91109 224.39169 223.03029 221.81090 220.70150 219.67010 218.78271 217.93231
 217.18291 216.37152 215.47812 214.85072 214.30933 213.30690 210.94867 210.46704
 210.68019 210.99348 212.07135 215.02849 219.04723 223.79939 229.53294 234.48454
 238.30112 242.29097 246.56555 250.76498 254.54617 258.08151 260.98154 263.41910
 266.20660 268.81241 271.23929 273.64526 275.75830 277.53180 279.02536 280.66125
 282.49768 284.17422 285.69376 287.05011 288.22845 289.26865 290.21786 291.07605
 291.84375 292.52881 293.12411 293.87744
 366.78100 356.34399 345.78498 334.65996 323.07195 311.27494 299.15393 286.96591
 274.68690 262.59289 250.61088 239.92086 230.05185 221.16484 213.35583 206.36681
 200.20980 195.15679 191.74778 189.79876 188.84475 188.91774 189.76173 191.07872
 192.81270 194.91669 197.18868 199.55667 202.01065 204.49964 206.59663 208.44762
 210.08260 211.23659 211.47458 211.71157 211.65755 211.37154 211.01353 210.65252
 210.27851 209.99749 209.81448 209.68747 209.62446 209.96444 210.35943 210.75742
 211.55941 212.74639 214.00538 215.79737 217.73436 219.78634 221.89033 223.98232
 226.05131 228.14429 230.25028 232.36527 234.50326 236.68425 238.94923 241.32822
 243.95821 246.21820 248.22918 250.00317 251.42916 252.56115 253.39213 253.71712
 253.76311 253.54610 252.91508 251.87207 250.48706 248.65705 246.57504 244.41702
 242.21701 240.03000 237.85899 235.70697 233.57596 231.45195 229.48694 227.65292
 225.94491 224.42590 223.06489 221.84587 220.73686 219.70585 218.81884 217.96882
 217.21981 216.40880 215.51579 214.88878 214.34776 213.34387 210.98177 210.53242
 210.76785 211.07491 212.09627 215.02812 218.97754 223.70096 229.45226 234.39365
 238.21046 242.20409 246.48015 250.68343 254.47935 258.03848 260.94662 263.37497
 266.16110 268.75143 271.15527 273.54257 275.66489 277.45898 278.97119 280.61853
 282.45349 284.12607 285.64691 287.00287 288.18063 289.22156 290.17078 291.03040
 291.80176 292.48734 293.08350 293.82486
 366.78100 356.34534 345.78769 334.66403 323.07737 311.28171 299.16206 286.97540
 274.69774 262.60509 250.62443 239.93577 230.06811 221.18246 213.37480 206.38714
 200.23149 195.17983 191.77217 189.82452 188.87186 188.94620 189.79154 191.10989
 192.84523 194.95057 197.22392 199.59326 202.04860 204.53894 206.63729 208.48963
 210.12597 211.28132 211.52066 211.75900 211.70634 211.42169 211.06503 210.70537
 210.33272 210.05306 209.87140 209.74575 209.68409 210.02543 210.42177 210.82112
 211.62446 212.81280 214.07315 215.86649 217.80483 219.85817 221.96352 224.05686
 226.12720 228.22155 230.32889 232.44523 234.58457 236.76692 239.03326 241.41360
 244.04495 246.30629 248.31863 250.09398 251.52132 252.65466 253.48700 253.81335
 253.86069 253.64503 253.01538 251.97372 250.59006 248.76140 246.68075 244.52409
 242.32543 240.13978 237.97012 235.81946 233.68980 231.56715 229.60349 227.77083
 226.06418 224.54652 223.18686 221.96921 220.86155 219.83189 218.94623 218.09758
 217.34992 216.54026 215.64861 215.02295 214.48329 213.42862 210.94739 210.63509
 210.88486 211.13394 212.15826 215.00453 218.85269 223.58853 229.37805 234.31265
 238.12962 242.12798 246.40396 250.60979 254.41949 258.00018 260.91315 263.32782
 266.11124 268.68469 271.06436 273.43387 275.56909 277.38354 278.91113 280.57205
 282.40686 284.07602 285.60464 286.96176 288.13852 289.17929 290.12946 290.98810
 291.75977 292.44647 293.04105 293.77365
 366.78100 356.34714 345.79128 334.66942 323.08457 311.29071 299.17285 286.98799
 274.71213 262.62127 250.64241 239.95556 230.08970 221.20584 213.39998 206.41412
 200.26026 195.21040 191.80455 189.85869 188.90783 188.98397 189.83111 191.15125
 192.88840 194.99554 197.27068 199.64182 202.09896 204.59110 206.69124 208.54539
 210.18353 211.34067 211.58181 211.82195 211.77109 211.48823 211.13338 210.77552
 210.40466 210.12680 209.94694 209.82308 209.76322 210.10637 210.50451 210.90565
 211.71079 212.90093 214.16307 215.95821 217.89836 219.95350 222.06064 224.15578
 226.22792 228.32406 230.43321 232.55135 234.69249 236.87663 239.14477 241.52691
 244.16005 246.42320 248.43734 250.21448 251.64362 252.77876 253.61290 253.94104
 253.99019 253.77633 253.14847 252.10861 250.72675 248.89989 246.82103 244.66618
 242.46932 240.28546 238.11760 235.96874 233.84088 231.72002 229.75817 227.92731
 226.22245 224.70659 223.34873 222.13287 221.02702 219.99916 219.11530 218.26844
 217.52258 216.71472 215.82486 215.20101 214.66315 213.53845 210.89230 210.68622
 211.11226 211.21486 212.07385 214.96530 218.80963 223.49983 229.30878 234.23375
 238.05081 242.05444 246.32925 250.53760 254.36011 257.95874 260.87280 263.27319
 266.05518 268.61264 270.96982 273.32410 275.47598 277.31311 278.85287 280.52484
 282.35934 284.02557 285.56442 286.92197 288.09818 289.13815 290.08762 290.94601
 291.71774 292.40305 292.99725 293.71936
 366.78100 356.34800 345.79301 334.67201 323.08802 311.29502 299.17802 286.99403
 274.71903 262.62904 250.65104 239.96504 230.10005 221.21705 213.41205 206.42706
 200.27406 195.22507 191.82007 189.87507 188.92508 189.00208 189.85009 191.17109
 192.90909 195.01710 197.29310 199.66511 202.12311 204.61611 206.71712 208.57212
 210.21112 211.36913 211.61113 211.85214 211.80214 211.52014 211.16615 210.80915
 210.43916 210.16216 209.98316 209.86017 209.80117 210.14518 210.54418 210.94618
 211.75219 212.94319 214.20619 216.00220 217.94320 219.99921 222.10721 224.20321
 226.27622 228.37322 230.48323 232.60223 234.74423 236.92924 239.19824 241.58125
 244.21525 246.47925 248.49426 250.27226 251.70226 252.83827 253.67327 254.00228
 254.05228 253.83928 253.21229 252.17329 250.79230 248.96630 246.88830 244.73431
 242.53831 240.35532 238.18832 236.04032 233.91333 231.79333 229.83234 228.00234
 226.29834 224.78335 223.42635 222.21135 221.10636 220.07936 219.19637 218.35037
 217.60537 216.79838 215.90938 215.28639 214.74939 213.60181 210.90067 210.67921
 211.31984 211.36385 212.05403 214.90642 218.69377 223.38414 229.23030 234.15236
 237.97731 241.98993 246.26262 250.47147 254.30449 257.91660 260.82806 263.21371
 265.99615 268.53851 270.87308 273.21594 275.38785 277.24771 278.79880 280.47922
 282.31244 283.97949 285.52319 286.88095 288.05756 289.09726 290.04535 290.90302
 291.67444 292.35974 292.95309 293.66461
 366.78100 356.34810 345.79320 334.67229 323.08839 311.29549 299.17859 286.99468
 274.71978 262.62988 250.65198 239.96608 230.10117 221.21827 213.41337 206.42847
 200.27556 195.22666 191.82176 189.87686 188.92695 189.00405 189.85215 191.17325
 192.91135 195.01944 197.29554 199.66764 202.12574 204.61883 206.71993 208.57503
 210.21413 211.37223 211.61432 211.85542 211.80552 211.52362 211.16971 210.81281
 210.44291 210.16601 209.98710 209.86420 209.80530 210.14940 210.54850 210.95059
 211.75669 212.94779 214.21089 216.00698 217.94808 220.00418 222.11228 224.20838
 226.28147 228.37857 230.48867 232.60777 234.74986 236.93496 239.20406 241.58716
 244.22126 246.48535 248.50045 250.27855 251.70865 252.84474 253.67984 254.00894
 254.05904 253.84613 253.21923 252.18033 250.79943 248.97353 246.89562 244.74172
 242.54582 240.36292 238.19601 236.04811 233.92121 231.80131 229.84041 228.01050
 226.30660 224.79170 223.43480 222.21989 221.11499 220.08809 219.20519 218.35929
 217.61438 216.80748 215.91858 215.29568 214.75877 213.62671 210.96063 210.66319
 211.36160 211.48628 212.20833 214.87570 218.55550 223.29387 229.17070 234.09790
 237.92442 241.94099 246.20337 250.40730 254.24838 257.86908 260.77640 263.14954
 265.93405 268.46066 270.77557 273.10831 275.30148 277.18381 278.74341 280.43225
 282.26642 283.93753 285.48331 286.84158 288.01639 289.05481 289.99988 290.85681
 291.62943 292.31223 292.89319 293.56592
 366.78100 356.34845 345.79391 334.67336 323.08982 311.29727 299.18073 286.99718
 274.72264 262.63309 250.65554 239.97000 230.10545 221.22291 213.41836 206.43382
 200.28127 195.23273 191.82818 189.88364 188.93409 189.01154 189.86000 191.18145
 192.91991 195.02836 197.30482 199.67727 202.13573 204.62918 206.73063 208.58609
 210.22554 211.38400 211.62645 211.86791 211.81836 211.53682 211.18327 210.82673
 210.45718 210.18063 210.00209 209.87954 209.82100 210.16545 210.56491 210.96736
 211.77382 212.96527 214.22872 216.02518 217.96663 220.02309 222.13154 224.22800
 226.30145 228.39891 230.50936 232.62881 234.77127 236.95672 239.22618 241.60963
 244.24409 246.50854 248.52400 250.30245 251.73291 252.86936 253.70481 254.03427
 254.08472 253.87218 253.24563 252.20709 250.82654 249.00100 246.92345 244.76990
 242.57436 240.39181 238.22527 236.07772 233.95118 231.83163 229.87109 228.04154
 226.33799 224.82345 223.46690 222.25236 221.14781 220.12127 219.23872 218.39318
 217.64863 216.84209 215.95354 215.33099 214.79445 213.66402 211.00067 210.67097
 211.39211 211.55051 212.33537 214.88509 218.47295 223.23080 229.12695 234.05559
 237.87444 241.88716 246.13678 250.33527 254.18581 257.81671 260.72256 263.08630
 265.87320 268.38474 270.67877 273.00214 275.21606 277.11841 278.68390 280.38226
 282.21954 283.89642 285.44296 286.80096 287.97156 289.00723 289.95227 290.80933
 291.58167 292.26776 292.84299 293.47476
 366.78100 356.34907 345.79514 334.67521 323.09228 311.30034 299.18441 287.00148
 274.72755 262.63862 250.66169 239.97676 230.11283 221.23089 213.42696 206.44303
 200.29110 195.24317 191.83924 189.89531 188.94638 189.02444 189.87351 191.19558
 192.93465 195.04372 197.32079 199.69386 202.15293 204.64700 206.74906 208.60513
 210.24520 211.40427 211.64734 211.88941 211.84048 211.55955 211.20661 210.85068
 210.48175 210.20582 210.02789 209.90596 209.84803 210.19310 210.59317 210.99623
 211.80330 212.99537 214.25944 216.05651 217.99858 220.05565 222.16472 224.26178
 226.33585 228.43392 230.54499 232.66506 234.80813 236.99420 239.26427 241.64833
 244.28340 246.54847 248.56454 250.34361 251.77468 252.91175 253.74782 254.07789
 254.12895 253.91702 253.29109 252.25316 250.87323 249.04830 246.97137 244.81844
 242.62350 240.44157 238.27564 236.12871 234.00278 231.88385 229.92392 228.09499
 226.39206 224.87812 223.52219 222.30826 221.20433 220.17840 219.29647 218.45154
 217.70761 216.90167 216.01374 215.39181 214.85588 213.71443 211.02412 210.67981
 211.45213 211.61089 212.42035 214.90193 218.42055 223.17242 229.08493 234.00552
 237.81351 241.82210 246.06448 250.26030 254.12404 257.76703 260.67300 263.02771
 265.81354 268.30814 270.58035 272.89682 275.13144 277.05188 278.62411 280.33286
 282.17169 283.85449 285.40131 286.75830 287.92773 288.95865 289.90018 290.75946
 291.53366 292.22058 292.80103 293.39453
 366.78100 356.34964 345.79627 334.67691 323.09454 311.30318 299.18781 287.00545
 274.73209 262.64372 250.66736 239.98299 230.11963 221.23827 213.43490 206.45154
 200.30017 195.25281 191.84944 189.90608 188.95772 189.03635 189.88599 191.20862
 192.94826 195.05790 197.33553 199.70917 202.16880 204.66344 206.76607 208.62271
 210.26335 211.42298 211.66662 211.90925 211.86089 211.58053 211.22816 210.87280
 210.50443 210.22907 210.05170 209.93034 209.87298 210.21861 210.61925 211.02288
 211.83052 213.02316 214.28779 216.08543 218.02806 220.08570 222.19533 224.29297
 226.36761 228.46624 230.57788 232.69851 234.84215 237.02879 239.29942 241.68406
 244.31969 246.58533 248.60196 250.38160 251.81324 252.95087 253.78751 254.11814
 254.16978 253.95842 253.33305 252.29569 250.91632 249.09196 247.01559 244.86323
 242.66887 240.48750 238.32214 236.17577 234.05041 231.93205 229.97268 228.14432
 226.44195 224.92859 223.57322 222.35986 221.25650 220.23113 219.34977 218.50540
 217.76204 216.95667 216.06931 215.44795 214.91258 213.76216 211.04964 210.68372
 211.50838 211.68898 212.49661 214.91591 218.37975 223.11113 229.04073 233.94675
 237.74614 241.75587 245.99384 250.19061 254.06934 257.72275 260.62848 262.97263
 265.75214 268.22781 270.47992 272.79092 275.04535 276.97910 278.55890 280.28000
 282.12292 283.81082 285.35889 286.71555 287.87881 288.90588 289.84622 290.70218
 291.47968 292.16415 292.68390 293.20251
 366.78100 356.35017 345.79733 334.67850 323.09667 311.30583 299.19100 287.00917
 274.73634 262.64850 250.67267 239.98884 230.12600 221.24517 213.44234 206.45950
 200.30867 195.26184 191.85901 189.91617 188.96834 189.04751 189.89767 191.22084
 192.96101 195.07117 197.34934 199.72351 202.18368 204.67884 206.78201 208.63918
 210.28034 211.44051 211.68468 211.92784 211.88001 211.60018 211.24835 210.89351
 210.52568 210.25085 210.07401 209.95318 209.89635 210.24251 210.64368 211.04785
 211.85602 213.04918 214.31435 216.11252 218.05568 220.11385 222.22402 224.32218
 226.39735 228.49652 230.60868 232.72985 234.87402 237.06119 239.33235 241.71752
 244.35369 246.61985 248.63702 250.41719 251.84935 252.98752 253.82469 254.15586
 254.20802 253.99719 253.37236 252.33552 250.95669 249.13286 247.05702 244.90519
 242.71136 240.53053 238.36569 236.21986 234.09503 231.97719 230.01836 228.19053
 226.48869 224.97586 223.62103 222.40820 221.30536 220.28053 219.39970 218.55586
 217.81303 217.00820 216.12136 215.50053 214.96570 213.80812 211.07765 210.67841
 211.55272 211.78334 212.57648 214.93256 218.34236 223.04694 228.99216 233.88326
 237.67648 241.69067 245.92592 250.12424 254.01878 257.68192 260.59042 262.91666
 265.69244 268.14517 270.37677 272.68640 274.95840 276.90677 278.49854 280.23380
 282.07629 283.76376 285.31271 286.66995 287.82684 288.84494 289.78522 290.64154
 291.42065 292.10687 292.56039 292.99890
 366.78100 356.35082 345.79863 334.68045 323.09926 311.30908 299.19490 287.01371
 274.74153 262.65434 250.67916 239.99598 230.13379 221.25361 213.45143 206.46924
 200.31906 195.27287 191.87069 189.92851 188.98132 189.06114 189.91195 191.23577
 192.97659 195.08740 197.36622 199.74103 202.20185 204.69767 206.80148 208.65930
 210.30111 211.46193 211.70675 211.95056 211.90338 211.62420 211.27301 210.91883
 210.55164 210.27746 210.10128 209.98109 209.92491 210.27172 210.67354 211.07836
 211.88717 213.08099 214.34680 216.14562 218.08944 220.14825 222.25907 224.35789
 226.43370 228.53352 230.64633 232.76815 234.91297 237.10078 239.37260 241.75841
 244.39523 246.66205 248.67986 250.46068 251.89349 253.03231 253.87013 254.20194
 254.25476 254.04457 253.42039 252.38421 251.00602 249.18284 247.10766 244.95647
 242.76329 240.58310 238.41892 236.27374 234.14955 232.03237 230.07418 228.24700
 226.54582 225.03363 223.67945 222.46726 221.36508 220.34090 219.46071 218.61753
 217.87534 217.07116 216.18498 215.56479 215.03061 213.86172 211.10358 210.66229
 211.58961 211.87491 212.65565 214.96661 218.31619 222.99158 228.94370 233.82454
 237.60962 241.62840 245.85995 250.05956 253.96686 257.63376 260.52783 262.87402
 265.61908 268.06149 270.28549 272.59430 274.88599 276.84415 278.43671 280.18030
 282.02792 283.72360 285.27386 286.62772 287.77557 288.78467 289.72348 290.58167
 291.35757 292.03629 292.42380 292.78159
 366.78100 356.35144 345.79988 334.68232 323.10176 311.31219 299.19863 287.01807
 274.74651 262.65995 250.68539 240.00283 230.14127 221.26170 213.46014 206.47858
 200.32902 195.28346 191.88190 189.94034 188.99378 189.07421 189.92565 191.25009
 192.99153 195.10297 197.38241 199.75785 202.21929 204.71573 206.82016 208.67860
 210.32104 211.48248 211.72792 211.97236 211.92580 211.64724 211.29667 210.94311
 210.57655 210.30299 210.12743 210.00787 209.95231 210.29975 210.70218 211.10762
 211.91706 213.11150 214.37794 216.17738 218.12182 220.18126 222.29270 224.39213
 226.46857 228.56901 230.68245 232.80489 234.95033 237.13877 239.41121 241.79764
 244.43508 246.70252 248.72096 250.50240 251.93584 253.07528 253.91372 254.24615
 254.29959 254.09003 253.46647 252.43091 251.05335 249.23079 247.15623 245.00567
 242.81310 240.63354 238.46998 236.32542 234.20186 232.08530 230.12774 228.30118
 226.60061 225.08905 223.73549 222.52393 221.42237 220.39881 219.51925 218.67669
 217.93513 217.13156 216.24600 215.62644 215.09288 213.91570 211.13690 210.64560
 211.62204 211.97708 212.76143 215.00014 218.26672 222.92842 228.89334 233.76872
 237.54884 241.57382 245.80463 250.00966 253.93440 257.60638 260.51025 262.79678
 265.56876 267.98129 270.18576 272.49261 274.78635 276.74597 278.36389 280.12772
 281.97495 283.67001 285.21912 286.56674 287.70517 288.70456 289.63879 290.49509
 291.27399 291.93289 292.29208 292.61234
 366.78100 356.35176 345.80052 334.68329 323.10305 311.31381 299.20057 287.02034
 274.74910 262.66286 250.68862 240.00639 230.14515 221.26591 213.46467 206.48343
 200.33420 195.28896 191.88772 189.94648 189.00025 189.08101 189.93277 191.25753
 192.99929 195.11106 197.39082 199.76658 202.22834 204.72511 206.82987 208.68863
 210.33139 211.49316 211.73892 211.98368 211.93744 211.65920 211.30897 210.95573
 210.58949 210.31625 210.14102 210.02178 209.96654 210.31430 210.71707 211.12283
 211.93259 213.12735 214.39411 216.19388 218.13864 220.19840 222.31016 224.40993
 226.48669 228.58745 230.70121 232.82398 234.96974 237.15850 239.43126 241.81802
 244.45579 246.72355 248.74231 250.52407 251.95784 253.09760 253.93636 254.26912
 254.32288 254.11365 253.49041 252.45517 251.07793 249.25570 247.18146 245.03122
 242.83898 240.65975 238.49651 236.35227 234.22903 232.11279 230.15556 228.32932
 226.62908 225.11784 223.76461 222.55337 221.45213 220.42889 219.54966 218.70742
 217.96618 217.16294 216.27770 215.65847 215.12523 213.95374 211.18988 210.65984
 211.64244 212.03494 212.84303 215.03210 218.23135 222.87833 228.84258 233.71678
 237.48875 241.52365 245.75456 249.96736 253.91586 257.59473 260.50598 262.82623
 265.51447 267.90552 270.09225 272.39786 274.70340 276.66440 278.29941 280.08636
 281.93173 283.62695 285.16513 286.50311 287.63510 288.63583 289.56345 290.42209
 291.19263 291.78540 292.08652 292.35306
 366.78100 356.35152 345.80003 334.68255 323.10206 311.31258 299.19909 287.01861
 274.74712 262.66064 250.68616 240.00367 230.14219 221.26270 213.46122 206.47973
 200.33025 195.28476 191.88328 189.94180 188.99531 189.07583 189.92734 191.25186
 192.99337 195.10489 197.38440 199.75992 202.22144 204.71795 206.82247 208.68098
 210.32350 211.48501 211.73053 211.97504 211.92856 211.65008 211.29959 210.94611
 210.57962 210.30614 210.13065 210.01117 209.95568 210.30320 210.70572 211.11123
 211.92075 213.11526 214.38178 216.18129 218.12581 220.18532 222.29684 224.39636
 226.47287 228.57339 230.68690 232.80942 234.95493 237.14345 239.41596 241.80248
 244.44000 246.70751 248.72603 250.50754 251.94106 253.08057 253.91909 254.25160
 254.30512 254.09564 253.47215 252.43667 251.05918 249.23670 247.16221 245.01173
 242.81924 240.63976 238.47628 236.33179 234.20831 232.09182 230.13434 228.30785
 226.60737 225.09588 223.74240 222.53092 221.42943 220.40595 219.52646 218.68398
 217.94249 217.13901 216.25352 215.63404 215.10056 213.95645 211.25429 210.69933
 211.67836 212.09367 212.87772 215.02444 218.17502 222.82677 228.79362 233.64513
 237.41643 241.46213 245.70079 249.92758 253.89970 257.60355 260.51810 262.86304
 265.49695 267.87540 270.03973 272.33566 274.67007 276.64792 278.24832 280.03439
 281.88864 283.58481 285.12018 286.44928 287.56015 288.52667 289.43738 290.30188
 291.09454 291.66632 291.94153 292.19193
 366.78100 356.35100 345.79900 334.68101 323.10001 311.31001 299.19601 287.01501
 274.74301 262.65602 250.68102 239.99802 230.13602 221.25602 213.45403 206.47203
 200.32203 195.27603 191.87403 189.93203 188.98504 189.06504 189.91604 191.24004
 192.98104 195.09204 197.37105 199.74605 202.20705 204.70305 206.80705 208.66506
 210.30706 211.46806 211.71306 211.95706 211.91006 211.63107 211.28007 210.92607
 210.55907 210.28507 210.10908 209.98908 209.93308 210.28008 210.68208 211.08708
 211.89609 213.09009 214.35609 216.15509 218.09909 220.15809 222.26910 224.36810
 226.44410 228.54410 230.65710 232.77911 234.92411 237.11211 239.38411 241.77011
 244.40711 246.67412 248.69212 250.47312 251.90612 253.04512 253.88313 254.21513
 254.26813 254.05813 253.43413 252.39813 251.02014 249.19714 247.12214 244.97114
 242.77814 240.59815 238.43415 236.28915 234.16515 232.04815 230.09015 228.26316
 226.56216 225.05016 223.69616 222.48416 221.38216 220.35817 219.47817 218.63517
 217.89317 217.08917 216.20318 215.58318 215.04918 213.93825 211.31400 210.78099
 211.70850 212.11438 212.90327 214.99814 218.11629 222.77042 228.73271 233.55951
 237.33644 241.39227 245.64091 249.88228 253.87918 257.59235 260.51740 262.87964
 265.48978 267.86307 270.02396 272.30902 274.64212 276.61417 278.20627 280.00204
 281.86072 283.55655 285.07968 286.38895 287.48090 288.46713 289.41547 290.27353
 291.02249 291.52060 291.76678 292.05292
 366.78100 356.35046 345.79792 334.67938 323.09784 311.30730 299.19276 287.01122
 274.73868 262.65114 250.67560 239.99206 230.12952 221.24898 213.44644 206.46390
 200.31336 195.26682 191.86428 189.92174 188.97420 189.05366 189.90412 191.22758
 192.96804 195.07849 197.35695 199.73141 202.19187 204.68733 206.79079 208.64825
 210.28971 211.45017 211.69463 211.93809 211.89055 211.61101 211.25947 210.90493
 210.53739 210.26285 210.08631 209.96577 209.90923 210.25569 210.65715 211.06161
 211.87007 213.06353 214.32899 216.12745 218.07091 220.12937 222.23983 224.33829
 226.41375 228.51321 230.62567 232.74713 234.89159 237.07905 239.35051 241.73597
 244.37243 246.63889 248.65635 250.43681 251.86927 253.00773 253.84519 254.17665
 254.22911 254.01857 253.39403 252.35748 250.97894 249.15540 247.07986 244.92832
 242.73478 240.55424 238.38970 236.24416 234.11962 232.00208 230.04354 228.21600
 226.51446 225.00192 223.64738 222.43484 221.33230 220.30776 219.42722 218.58368
 217.84114 217.03660 216.15006 215.52952 214.99498 213.91779 211.37279 210.84474
 211.75366 212.15669 212.93509 214.98250 218.06799 222.70981 228.66946 233.48112
 237.26149 241.32088 245.57834 249.83360 253.85078 257.55951 260.50906 262.83362
 265.46686 267.82315 269.97745 272.26651 274.58554 276.55057 278.18832 279.99695
 281.83881 283.51227 285.01178 286.30286 287.39285 288.39975 289.35406 290.20779
 290.91403 291.37366 291.62839 291.99084
 366.78100 356.35010 345.79719 334.67829 323.09638 311.30548 299.19058 287.00867
 274.73577 262.64786 250.67196 239.98805 230.12515 221.24425 213.44134 206.45844
 200.30753 195.26063 191.85773 189.91482 188.96692 189.04601 189.89611 191.21921
 192.95930 195.06940 197.34749 199.72159 202.18168 204.67678 206.77988 208.63697
 210.27807 211.43816 211.68226 211.92536 211.87745 211.59755 211.24564 210.89074
 210.52284 210.24793 210.07103 209.95012 209.89322 210.23931 210.64041 211.04451
 211.85260 213.04570 214.31079 216.10889 218.05199 220.11008 222.22018 224.31827
 226.39337 228.49246 230.60456 232.72566 234.86975 237.05685 239.32794 241.71304
 244.34914 246.61523 248.63233 250.41242 251.84452 252.98262 253.81971 254.15081
 254.20290 253.99200 253.36709 252.33019 250.95129 249.12738 247.05148 244.89957
 242.70567 240.52477 238.35986 236.21396 234.08905 231.97115 230.01225 228.18434
 226.48244 224.96953 223.61463 222.40172 221.29882 220.27392 219.39301 218.54911
 217.80620 217.00130 216.11440 215.49349 214.95859 213.90865 211.42804 210.90489
 211.76500 212.21332 213.02463 214.99315 218.02016 222.64238 228.61726 233.42705
 237.19975 241.26494 245.52853 249.79692 253.83282 257.52524 260.46140 262.76273
 265.40048 267.71902 269.88443 272.18994 274.49313 276.47116 278.16995 279.98212
 281.79501 283.44791 284.93024 286.20898 287.30405 288.32623 289.27682 290.12036
 290.76602 291.20889 291.49420 291.93790
 366.78100 356.34964 345.79628 334.67692 323.09456 311.30320 299.18783 287.00547
 274.73211 262.64375 250.66739 239.98303 230.11967 221.23831 213.43495 206.45159
 200.30022 195.25286 191.84950 189.90614 188.95778 189.03642 189.88606 191.20870
 192.94834 195.05798 197.33561 199.70925 202.16889 204.66353 206.76617 208.62281
 210.26345 211.42309 211.66673 211.90937 211.86101 211.58064 211.22828 210.87292
 210.50456 210.22920 210.05184 209.93048 209.87312 210.21876 210.61940 211.02303
 211.83067 213.02331 214.28795 216.08559 218.02823 220.08587 222.19551 224.29315
 226.36779 228.46642 230.57806 232.69870 234.84234 237.02898 239.29962 241.68426
 244.31990 246.58554 248.60218 250.38181 251.81345 252.95109 253.78773 254.11837
 254.17001 253.95865 253.33329 252.29593 250.91657 249.09221 247.01584 244.86348
 242.66912 240.48776 238.32240 236.17604 234.05068 231.93232 229.97296 228.14460
 226.44223 224.92887 223.57351 222.36015 221.25679 220.23143 219.35007 218.50571
 217.76235 216.95699 216.06962 215.44826 214.91290 213.89520 211.49075 210.95293
 211.85278 212.24513 212.98570 214.95432 217.99783 222.63907 228.59505 233.40598
 237.16370 241.23378 245.49976 249.78113 253.83742 257.54263 260.45624 262.73407
 265.33533 267.62756 269.78534 272.10718 274.41779 276.39301 278.12543 279.96237
 281.75729 283.37314 284.83682 286.09964 287.19168 288.22025 289.16153 289.98376
 290.57739 291.00577 291.32211 291.80792
 366.78100 356.34828 345.79355 334.67283 323.08910 311.29638 299.17965 286.99593
 274.72121 262.63148 250.65376 239.96803 230.10331 221.22059 213.41586 206.43114
 200.27841 195.22969 191.82496 189.88024 188.93052 189.00779 189.85607 191.17734
 192.91562 195.02390 197.30017 199.67245 202.13072 204.62400 206.72527 208.58055
 210.21983 211.37810 211.62038 211.86165 211.81193 211.53020 211.17648 210.81976
 210.45003 210.17331 209.99458 209.87186 209.81314 210.15741 210.55669 210.95896
 211.76524 212.95651 214.21979 216.01607 217.95734 220.01362 222.12189 224.21817
 226.29145 228.38872 230.49900 232.61827 234.76055 236.94582 239.21510 241.59838
 244.23265 246.49693 248.51220 250.29048 251.72075 252.85703 253.69231 254.02158
 254.07186 253.85913 253.23241 252.19369 250.81296 248.98724 246.90951 244.75579
 242.56006 240.37734 238.21062 236.06289 233.93617 231.81644 229.85572 228.02600
 226.32227 224.80755 223.45082 222.23610 221.13137 220.10465 219.22193 218.37620
 217.63148 216.82475 215.93603 215.31331 214.77658 213.83395 211.61298 211.02948
 211.87439 212.23972 212.94926 214.93791 218.00078 222.56476 228.52625 233.34956
 237.08766 241.17155 245.44804 249.74939 253.83415 257.50613 260.55490 262.78149
 265.28821 267.61972 269.79318 272.08859 274.38394 276.37674 278.11868 279.91751
 281.68842 283.32788 284.76761 286.01913 287.12668 288.15616 289.05630 289.74832
 290.26492 290.66864 291.09167 291.71796
 366.78100 356.34708 345.79115 334.66923 323.08431 311.29038 299.17246 286.98754
 274.71162 262.62069 250.64177 239.95485 230.08892 221.20500 213.39908 206.41315
 200.25923 195.20931 191.80338 189.85746 188.90654 188.98262 189.82969 191.14977
 192.88685 194.99392 197.26900 199.64008 202.09715 204.58923 206.68931 208.54338
 210.18146 211.33854 211.57962 211.81969 211.76877 211.48585 211.13092 210.77300
 210.40208 210.12415 209.94423 209.82031 209.76038 210.10346 210.50154 210.90262
 211.70769 212.89777 214.15985 215.95492 217.89500 219.95008 222.05715 224.15223
 226.22431 228.32038 230.42946 232.54754 234.68862 236.87269 239.14077 241.52285
 244.15592 246.41900 248.43308 250.21015 251.63923 252.77431 253.60838 253.93646
 253.98554 253.77162 253.14369 252.10377 250.72185 248.89492 246.81600 244.66108
 242.46415 240.28023 238.11231 235.96338 233.83546 231.71454 229.75262 227.92169
 226.21677 224.70085 223.34292 222.12700 221.02108 219.99315 219.10923 218.26231
 217.51638 216.70846 215.81854 215.19462 214.65669 213.77785 211.71217 211.12874
 211.90581 212.22948 212.94453 214.94633 217.93747 222.45195 228.45427 233.28265
 237.00273 241.09586 245.38516 249.69710 253.80464 257.48822 260.36197 262.93741
 265.41055 267.71533 269.88882 272.13943 274.38547 276.36322 278.12103 279.92242
 281.65109 283.19510 284.59534 285.81583 286.91516 287.92783 288.76093 289.34512
 289.85162 290.41412 290.96857 291.67511
 366.78100 356.34681 345.79063 334.66844 323.08325 311.28906 299.17088 286.98569
 274.70950 262.61831 250.63913 239.95194 230.08575 221.20156 213.39538 206.40919
 200.25500 195.20481 191.79863 189.85244 188.90125 188.97707 189.82388 191.14369
 192.88050 194.98732 197.26213 199.63294 202.08975 204.58157 206.68138 208.53519
 210.17300 211.32982 211.57063 211.81044 211.75926 211.47607 211.12088 210.76269
 210.39151 210.11332 209.93313 209.80894 209.74876 210.09157 210.48938 210.89019
 211.69501 212.88482 214.14663 215.94144 217.88126 219.93607 222.04288 224.13770
 226.20951 228.30532 230.41413 232.53195 234.67276 236.85657 239.12438 241.50620
 244.13901 246.40182 248.41563 250.19245 251.62126 252.75607 253.58988 253.91770
 253.96651 253.75232 253.12414 252.08395 250.70176 248.87457 246.79539 244.64020
 242.44301 240.25882 238.09064 235.94145 233.81326 231.69207 229.72989 227.89870
 226.19351 224.67733 223.31914 222.10295 220.99676 219.96858 219.08439 218.23720
 217.49101 216.68283 215.79264 215.16845 214.63026 213.77542 211.77568 211.19534
 211.99519 212.27022 212.94931 214.93967 217.88106 222.36015 228.37732 233.21555
 236.91302 241.01549 245.32301 249.66010 253.76186 257.37491 260.42310 263.10471
 265.54083 267.77570 269.91153 272.10837 274.30737 276.24069 278.05722 279.82700
 281.48758 283.02231 284.36591 285.55917 286.64136 287.55881 288.25931 288.88284
 289.56985 290.20956 290.76843 291.48065
 366.78100 356.34688 345.79076 334.66864 323.08353 311.28941 299.17129 286.98617
 274.71005 262.61893 250.63981 239.95270 230.08658 221.20246 213.39634 206.41022
 200.25610 195.20598 191.79987 189.85375 188.90263 188.97851 189.82539 191.14527
 192.88216 194.98904 197.26392 199.63480 202.09168 204.58356 206.68344 208.53733
 210.17521 211.33209 211.57297 211.81285 211.76173 211.47861 211.12350 210.76538
 210.39426 210.11614 209.93602 209.81190 209.75178 210.09467 210.49255 210.89343
 211.69831 212.88819 214.15007 215.94495 217.88484 219.93972 222.04660 224.14148
 226.21336 228.30924 230.41812 232.53601 234.67689 236.86077 239.12865 241.51053
 244.14341 246.40629 248.42018 250.19706 251.62594 252.76082 253.59470 253.92258
 253.97147 253.75735 253.12923 252.08911 250.70699 248.87987 246.80075 244.64564
 242.44852 240.26440 238.09628 235.94716 233.81904 231.69792 229.73581 227.90469
 226.19957 224.68345 223.32533 222.10921 221.00309 219.97498 219.09086 218.24374
 217.49762 216.68950 215.79938 215.17526 214.63715 213.79730 211.84828 211.23373
 212.00758 212.33382 213.05826 214.93506 217.85938 222.31808 228.26244 233.08031
 236.76404 240.87541 245.19685 249.55107 253.58505 257.25357 260.53113 263.22729
 265.60925 267.79523 269.91351 272.07745 274.19635 276.06711 278.18375 279.82635
 281.27878 282.75583 284.03961 285.20618 286.17245 286.93335 287.74097 288.49670
 289.17099 289.77145 290.29602 290.96451
 366.78100 356.34722 345.79145 334.66967 323.08489 311.29112 299.17334 286.98856
 274.71279 262.62201 250.64323 239.95646 230.09068 221.20690 213.40113 206.41535
 200.26157 195.21180 191.80602 189.86024 188.90947 188.98569 189.83292 191.15314
 192.89036 194.99759 197.27281 199.64403 202.10126 204.59348 206.69370 208.54793
 210.18615 211.34337 211.58460 211.82482 211.77404 211.49127 211.13649 210.77871
 210.40794 210.13016 209.95038 209.82661 209.76683 210.11005 210.50828 210.90950
 211.71472 212.90495 214.16717 215.96239 217.90262 219.95784 222.06506 224.16029
 226.23251 228.32873 230.43796 232.55618 234.69740 236.88163 239.14985 241.53207
 244.16530 246.42852 248.44275 250.21997 251.64919 252.78442 253.61864 253.94686
 253.99609 253.78231 253.15453 252.11476 250.73298 248.90620 246.82743 244.67265
 242.47587 240.29210 238.12432 235.97554 233.84777 231.72699 229.76521 227.93444
 226.22966 224.71388 223.35611 222.14033 221.03455 220.00678 219.12300 218.27622
 217.53045 216.72267 215.83289 215.20912 214.67134 213.83429 211.89650 211.24422
 211.96912 212.39725 213.19749 215.01678 217.90886 222.30246 228.18907 232.97542
 236.64897 240.75844 245.07774 249.45117 253.51491 257.16360 260.45667 263.22049
 265.57642 267.75281 269.90509 272.07043 274.19101 276.06113 278.14413 279.76019
 281.24207 282.69836 283.95309 285.06689 285.97403 286.82294 287.72189 288.54968
 289.29422 289.95721 290.53638 291.27451
 366.78100 356.34846 345.79391 334.67337 323.08983 311.29728 299.18074 286.99720
 274.72265 262.63311 250.65557 239.97002 230.10548 221.22294 213.41839 206.43385
 200.28131 195.23276 191.82822 189.88368 188.93413 189.01159 189.86005 191.18150
 192.91996 195.02842 197.30487 199.67733 202.13579 204.62924 206.73070 208.58616
 210.22561 211.38407 211.62653 211.86798 211.81844 211.53690 211.18335 210.82681
 210.45726 210.18072 210.00218 209.87963 209.82109 210.16555 210.56500 210.96746
 211.77392 212.96537 214.22883 216.02529 217.96674 220.02320 222.13166 224.22811
 226.30157 228.39903 230.50948 232.62894 234.77140 236.95685 239.22631 241.60977
 244.24422 246.50868 248.52414 250.30259 251.73305 252.86951 253.70496 254.03442
 254.08488 253.87233 253.24579 252.20725 250.82670 249.00116 246.92362 244.77007
 242.57453 240.39199 238.22544 236.07790 233.95136 231.83181 229.87127 228.04173
 226.33818 224.82364 223.46710 222.25255 221.14801 220.12147 219.23892 218.39338
 217.64884 216.84229 215.95375 215.33121 214.79466 213.91649 211.88385 211.23021
 212.00719 212.48880 213.27295 215.09213 217.96863 222.28654 228.15120 232.93217
 236.58708 240.69051 245.01891 249.38551 253.47415 257.11633 260.34152 263.14825
 265.59009 267.80267 269.95279 272.10056 274.22705 276.06870 278.09171 279.77814
 281.25620 282.67227 283.90176 284.98474 285.91864 286.80295 287.69839 288.52225
 289.26321 289.92303 290.49945 291.23404
 366.78100 356.34966 345.79632 334.67697 323.09463 311.30329 299.18795 287.00561
 274.73226 262.64392 250.66758 239.98324 230.11990 221.23855 213.43521 206.45187
 200.30053 195.25319 191.84984 189.90650 188.95816 189.03682 189.88647 191.20913
 192.94879 195.05845 197.33611 199.70976 202.16942 204.66408 206.76674 208.62340
 210.26405 211.42371 211.66737 211.91003 211.86169 211.58134 211.22900 210.87366
 210.50532 210.22998 210.05263 209.93129 209.87395 210.21961 210.62027 211.02392
 211.83158 213.02424 214.28890 216.08656 218.02921 220.08687 222.19653 224.29419
 226.36885 228.46750 230.57916 232.69982 234.84348 237.03013 239.30079 241.68545
 244.32111 246.58677 248.60342 250.38308 251.81474 252.95240 253.78906 254.11971
 254.17137 253.96003 253.33469 252.29735 250.91800 249.09366 247.01732 244.86498
 242.67064 240.48929 238.32395 236.17761 234.05227 231.93393 229.97458 228.14624
 226.44390 224.93056 223.57522 222.36187 221.25853 220.23319 219.35185 218.50751
 217.76416 216.95882 216.07148 215.45014 214.91479 213.99889 211.88069 211.21741
 211.99826 212.52260 213.31660 215.15575 218.03236 222.31038 228.13101 232.90709
 236.56563 240.67705 245.01730 249.39148 253.47316 257.07025 260.22989 263.15836
 265.62540 267.82834 269.99750 272.11874 274.24347 276.09854 278.07990 279.78726
 281.24792 282.62665 283.83054 284.89120 285.81525 286.72504 287.64783 288.50269
 289.27151 289.95618 290.55429 291.31653
 366.78100 356.34971 345.79642 334.67713 323.09484 311.30355 299.18825 287.00596
 274.73267 262.64438 250.66809 239.98380 230.12051 221.23922 213.43593 206.45264
 200.30135 195.25405 191.85076 189.90747 188.95918 189.03789 189.88760 191.21031
 192.95002 195.05973 197.33744 199.71114 202.17085 204.66556 206.76827 208.62498
 210.26569 211.42540 211.66911 211.91182 211.86353 211.58324 211.23094 210.87565
 210.50736 210.23207 210.05478 209.93349 209.87620 210.22191 210.62262 211.02633
 211.83404 213.02674 214.29145 216.08916 218.03187 220.08958 222.19929 224.29700
 226.37171 228.47042 230.58213 232.70283 234.84654 237.03325 239.30396 241.68867
 244.32438 246.59009 248.60680 250.38651 251.81822 252.95593 253.79263 254.12334
 254.17505 253.96376 253.33847 252.30118 250.92189 249.09760 247.02131 244.86902
 242.67473 240.49343 238.32814 236.18185 234.05656 231.93827 229.97898 228.15069
 226.44840 224.93511 223.57982 222.36653 221.26323 220.23794 219.35665 218.51236
 217.76907 216.96378 216.07649 215.45520 214.91991 214.01546 211.91484 211.22966
 211.98381 212.64592 213.45197 215.19945 218.02168 222.26921 228.10645 232.87294
 236.52287 240.64365 244.99034 249.36919 253.44315 257.01636 260.17920 262.96848
 265.44742 267.73608 269.96027 272.16080 274.31754 276.24313 278.08301 280.01337
 281.44235 282.78903 283.99603 285.04224 285.94608 286.87683 287.82410 288.74634
 289.59824 290.35681 291.01953 291.86404
 366.78100 356.34921 345.79541 334.67562 323.09283 311.30104 299.18524 287.00245
 274.72866 262.63986 250.66307 239.97828 230.11449 221.23269 213.42890 206.44511
 200.29332 195.24552 191.84173 189.89794 188.94914 189.02735 189.87656 191.19877
 192.93797 195.04718 197.32439 199.69759 202.15680 204.65101 206.75322 208.60942
 210.24963 211.40884 211.65204 211.89425 211.84546 211.56467 211.21187 210.85608
 210.48729 210.21150 210.03370 209.91191 209.85412 210.19932 210.59953 211.00274
 211.80995 213.00215 214.26636 216.06357 218.00577 220.06298 222.17219 224.26940
 226.34360 228.44181 230.55302 232.67323 234.81643 237.00264 239.27285 241.65705
 244.29226 246.55747 248.57368 250.35288 251.78409 252.92130 253.75750 254.08771
 254.13892 253.92713 253.30133 252.26354 250.88375 249.05895 246.98216 244.82937
 242.63458 240.45278 238.28699 236.14020 234.01441 231.89561 229.93582 228.10703
 226.40423 224.89044 223.53465 222.32086 221.21706 220.19127 219.30948 218.46468
 217.72089 216.91510 216.02731 215.40551 214.86972 213.99861 211.95372 211.22960
 212.05666 212.83626 213.59564 215.19180 217.94846 222.16858 228.08542 232.81281
 236.45212 240.58229 244.93924 249.30959 253.39613 256.88031 259.96454 262.68848
 265.24829 267.52951 269.80304 272.06702 274.27356 276.32703 278.21887 280.05029
 281.60062 282.91910 284.13132 285.19595 286.09705 286.92474 287.74731 288.57080
 289.33386 290.03555 290.65353 291.44110
 366.78100 356.34739 345.79177 334.67016 323.08554 311.29193 299.17431 286.98970
 274.71408 262.62347 250.64486 239.95824 230.09263 221.20901 213.40340 206.41778
 200.26417 195.21456 191.80894 189.86333 188.91271 188.98910 189.83648 191.15687
 192.89425 195.00164 197.27703 199.64841 202.10580 204.59818 206.69857 208.55295
 210.19134 211.34873 211.59011 211.83050 211.77988 211.49727 211.14265 210.78504
 210.41442 210.13681 209.95720 209.83358 209.77397 210.11735 210.51574 210.91712
 211.72251 212.91289 214.17528 215.97067 217.91105 219.96644 222.07382 224.16921
 226.24159 228.33798 230.44737 232.56575 234.70714 236.89152 239.15991 241.54229
 244.17568 246.43906 248.45345 250.23084 251.66022 252.79561 253.62999 253.95838
 254.00776 253.79415 253.16654 252.12692 250.74531 248.91869 246.84008 244.68546
 242.48885 240.30523 238.13762 235.98901 233.86139 231.74078 229.77916 227.94855
 226.24393 224.72832 223.37070 222.15509 221.04948 220.02186 219.13825 218.29163
 217.54602 216.73840 215.84879 215.22518 214.68756 213.91310 212.08336 211.22627
 212.02362 212.87169 213.63036 215.20505 217.91589 222.13412 228.11810 232.79549
 236.39877 240.54691 244.93747 249.35834 253.51543 256.94696 260.00256 262.55539
 265.09839 267.29117 269.55429 271.83267 274.10556 276.20932 278.16669 279.97739
 281.55341 282.87634 284.13586 285.21735 286.10876 286.93481 287.70465 288.42480
 289.13531 289.79333 290.39035 291.20474
 366.78100 356.34607 345.78915 334.66622 323.08030 311.28537 299.16645 286.98052
 274.70360 262.61167 250.63174 239.94382 230.07689 221.19197 213.38504 206.39812
 200.24319 195.19227 191.78534 189.83841 188.88649 188.96156 189.80764 191.12671
 192.86279 194.96886 197.24293 199.61301 202.06908 204.56016 206.65923 208.51231
 210.14938 211.30546 211.54553 211.78460 211.73268 211.44875 211.09283 210.73390
 210.36198 210.08305 209.90213 209.77720 209.71627 210.05835 210.45542 210.85550
 211.65957 212.84865 214.10972 215.90380 217.84287 219.89694 222.00302 224.09709
 226.16817 228.26324 230.37132 232.48839 234.62847 236.81154 239.07861 241.45969
 244.09176 246.35384 248.36691 250.14299 251.57106 252.70514 253.53821 253.86528
 253.91336 253.69843 253.06951 252.02858 250.64566 248.81773 246.73780 244.58188
 242.38395 240.19903 238.03010 235.88018 233.75125 231.62933 229.66640 227.83447
 226.12855 224.61162 223.25270 222.03577 220.92885 219.89992 219.01500 218.16707
 217.42014 216.61122 215.72029 215.09537 214.55644 213.84726 212.17174 211.38110
 211.98575 212.74832 213.51880 215.15898 217.89404 222.13962 228.08943 232.73825
 236.34993 240.51738 244.93611 249.40565 253.63927 257.11984 260.10208 262.64108
 265.10922 267.28836 269.48798 271.75714 274.01553 276.25064 278.12283 279.83444
 281.42267 282.77307 284.03198 285.07669 285.93390 286.86368 287.60892 288.26276
 288.91562 289.57657 290.17725 290.99475
 366.78100 356.34792 345.79285 334.67177 323.08770 311.29462 299.17754 286.99347
 274.71839 262.62832 250.65024 239.96417 230.09909 221.21601 213.41094 206.42586
 200.27279 195.22371 191.81863 189.87356 188.92348 189.00041 189.84833 191.16925
 192.90718 195.01510 197.29103 199.66295 202.12087 204.61380 206.71472 208.56965
 210.20857 211.36650 211.60842 211.84934 211.79927 211.51719 211.16312 210.80604
 210.43596 210.15889 209.97981 209.85674 209.79766 210.14158 210.54051 210.94243
 211.74836 212.93928 214.20220 215.99813 217.93905 219.99498 222.10290 224.19883
 226.27175 228.36867 230.47860 232.59752 234.73945 236.92437 239.19329 241.57622
 244.21014 246.47407 248.48899 250.26691 251.69684 252.83276 253.66769 253.99661
 254.04653 253.83346 253.20638 252.16731 250.78623 248.96016 246.88208 244.72800
 242.53193 240.34885 238.18178 236.03370 233.90662 231.78655 229.82547 227.99540
 226.29132 224.77624 223.41917 222.20409 221.09902 220.07194 219.18886 218.34279
 217.59771 216.79064 215.90156 215.27849 214.74141 213.95172 212.09296 211.51219
 212.20572 212.74556 213.46367 215.07869 217.82280 222.08141 227.96559 232.62842
 236.25018 240.42480 244.85905 249.33858 253.57214 257.17120 260.27176 262.73422
 265.09595 267.30765 269.52655 271.79123 274.08569 276.26682 278.17941 279.70581
 281.14246 282.55280 283.78674 284.75531 285.64609 286.53848 287.29324 287.94992
 288.69901 289.39658 290.03009 290.83740
 366.78100 356.34760 345.79220 334.67079 323.08639 311.29299 299.17559 286.99119
 274.71579 262.62538 250.64698 239.96058 230.09518 221.21178 213.40638 206.42097
 200.26757 195.21817 191.81277 189.86737 188.91697 188.99356 189.84116 191.16176
 192.89936 195.00696 197.28256 199.65415 202.11175 204.60435 206.70495 208.55955
 210.19815 211.35574 211.59734 211.83794 211.78754 211.50514 211.15074 210.79333
 210.42293 210.14553 209.96613 209.84273 209.78333 210.12692 210.52552 210.92712
 211.73272 212.92332 214.18592 215.98151 217.92211 219.97771 222.08531 224.18091
 226.25351 228.35010 230.45970 232.57830 234.71990 236.90450 239.17310 241.55569
 244.18929 246.45289 248.46749 250.24509 251.67469 252.81028 253.64488 253.97348
 254.02308 253.80968 253.18228 252.14287 250.76147 248.93507 246.85667 244.70227
 242.50587 240.32246 238.15506 236.00666 233.87926 231.75886 229.79746 227.96705
 226.26265 224.74725 223.38985 222.17445 221.06905 220.04164 219.15824 218.31184
 217.56644 216.75904 215.86964 215.24623 214.70883 213.97388 212.25713 211.50522
 212.19632 212.70593 213.48607 215.14037 217.89095 222.11469 227.81894 232.49850
 236.14085 240.31178 244.74385 249.19481 253.31734 256.84805 260.01379 262.80139
 265.17413 267.42087 269.66830 271.86975 274.14597 276.37241 278.17938 279.65701
 281.03784 282.39996 283.51910 284.51324 285.28748 286.10352 286.97363 287.78925
 288.52277 289.17599 289.74664 290.47388
 366.78100 356.34558 345.78816 334.66474 323.07833 311.28291 299.16349 286.97707
 274.69965 262.60723 250.62681 239.93839 230.07098 221.18556 213.37814 206.39072
 200.23530 195.18388 191.77646 189.82904 188.87663 188.95121 189.79679 191.11537
 192.85095 194.95653 197.23011 199.59969 202.05528 204.54586 206.64444 208.49702
 210.13360 211.28918 211.52876 211.76734 211.71493 211.43051 211.07409 210.71467
 210.34225 210.06283 209.88141 209.75599 209.69458 210.03616 210.43274 210.83232
 211.63590 212.82448 214.08506 215.87864 217.81723 219.87081 221.97639 224.06997
 226.14055 228.23513 230.34271 232.45929 234.59888 236.78146 239.04804 241.42862
 244.06020 246.32178 248.33436 250.10994 251.53753 252.67111 253.50369 253.83027
 253.87785 253.66243 253.03301 251.99159 250.60818 248.77976 246.69934 244.54292
 242.34450 240.15908 237.98966 235.83924 233.70983 231.58741 229.62399 227.79157
 226.08515 224.56773 223.20831 221.99089 220.88348 219.85406 218.96864 218.12022
 217.37280 216.56338 215.67196 215.04654 214.50713 213.89517 212.45395 211.60159
 211.93301 212.70969 213.68712 215.29996 217.97769 222.12273 227.77174 232.43272
 236.07785 240.24411 244.66875 249.09276 253.15710 256.63846 259.91470 262.69550
 265.08795 267.42450 269.70331 271.88199 274.20111 276.36298 278.15201 279.59967
 281.12994 282.44196 283.51672 284.36749 285.15872 286.14835 287.07587 287.91562
 288.67087 289.34344 289.93097 290.67972
 366.78100 356.34416 345.78533 334.66049 323.07266 311.27582 299.15498 286.96715
 274.68831 262.59447 250.61264 239.92280 230.05397 221.16713 213.35829 206.36946
 200.21262 195.15979 191.75095 189.80211 188.84828 188.92144 189.76561 191.08277
 192.81693 194.92110 197.19326 199.56142 202.01559 204.50475 206.60192 208.45308
 210.08824 211.24241 211.48057 211.71774 211.66390 211.37806 211.02023 210.65939
 210.28555 210.00472 209.82188 209.69505 209.63221 209.97237 210.36754 210.76570
 211.56787 212.75503 214.01419 215.80636 217.74352 219.79569 221.89985 223.99201
 226.06118 228.15434 230.26050 232.37567 234.51383 236.69500 238.96016 241.33932
 243.96949 246.22965 248.24082 250.01498 251.44114 252.57331 253.40447 253.72963
 253.77580 253.55896 252.92813 251.88529 250.50045 248.67062 246.58878 244.43095
 242.23111 240.04427 237.87344 235.72160 233.59077 231.46693 229.50209 227.66826
 225.96042 224.44158 223.08075 221.86191 220.75308 219.72224 218.83540 217.98557
 217.23673 216.42590 215.53306 214.90622 214.36539 213.84213 212.59271 211.64572
 211.82062 212.70071 213.92949 215.47716 218.00180 222.07809 227.74530 232.39983
 236.01106 240.17297 244.61142 249.05307 253.11800 256.60486 259.53815 262.64273
 265.13443 267.33896 269.60242 271.84024 274.15356 276.28833 278.13260 279.52606
 280.94070 282.33600 283.49478 284.32263 285.15875 286.17282 287.07596 287.89417
 288.63004 289.28534 289.85779 290.58731
 366.78100 356.34279 345.78258 334.65638 323.06717 311.26896 299.14675 286.95754
 274.67734 262.58213 250.59892 239.90771 230.03750 221.14930 213.33909 206.34888
 200.19067 195.13646 191.72626 189.77605 188.82084 188.89263 189.73542 191.05121
 192.78401 194.88680 197.15759 199.52438 201.97717 204.46497 206.56076 208.41055
 210.04434 211.19713 211.43393 211.66972 211.61451 211.32730 210.96809 210.60589
 210.23068 209.94847 209.76426 209.63605 209.57185 209.91064 210.30443 210.70122
 211.50201 212.68781 213.94560 215.73639 217.67218 219.72297 221.82577 223.91656
 225.98435 228.07614 230.18093 232.29473 234.43152 236.61131 238.87510 241.25289
 243.88168 246.14048 248.15027 249.92306 251.34785 252.47864 253.30844 253.63223
 253.67702 253.45881 252.82660 251.78240 250.39619 248.56498 246.48177 244.32256
 242.12136 239.93315 237.76094 235.60773 233.47552 231.35032 229.38411 227.54890
 225.83969 224.31948 222.95728 221.73707 220.62686 219.59465 218.70644 217.85524
 217.10503 216.29282 215.39861 214.77040 214.22820 213.82515 212.77124 211.62250
 211.76271 212.71638 214.20401 215.87326 218.27228 222.23761 227.80627 232.40292
 236.04591 240.19472 244.61867 249.04979 253.11256 256.55249 259.40805 262.28479
 265.06067 267.47705 269.70499 271.89197 274.23969 276.33484 278.06604 279.42703
 280.67114 281.84891 282.81726 284.15527 285.34232 286.39252 287.35071 288.21872
 288.99942 289.69464 290.30197 291.07593
 366.78100 356.34057 345.77813 334.64970 323.05827 311.25783 299.13340 286.94197
 274.65954 262.56210 250.57667 239.88324 230.01080 221.12037 213.30794 206.31550
 200.15507 195.09864 191.68620 189.73377 188.77634 188.84591 189.68647 191.00004
 192.73061 194.83117 197.09974 199.46431 201.91487 204.40044 206.49401 208.34157
 209.97314 211.12371 211.35828 211.59184 211.53441 211.24498 210.88354 210.51911
 210.14168 209.85724 209.67081 209.54038 209.47394 209.81051 210.20208 210.59665
 211.39521 212.57878 213.83435 215.62291 217.55648 219.60505 221.70561 223.79418
 225.85975 227.94931 230.05188 232.16345 234.29801 236.47558 238.73715 241.11272
 243.73928 245.99585 248.00342 249.77398 251.19655 252.32512 253.15268 253.47425
 253.51682 253.29638 252.66195 251.61552 250.22709 248.39365 246.30822 244.14679
 241.94335 239.75292 237.57849 235.42305 233.28862 231.16119 229.19275 227.35532
 225.64389 224.12146 222.75702 221.53459 220.42216 219.38772 218.49729 217.64386
 216.89142 216.07699 215.18056 214.55012 214.00569 213.76961 212.96191 211.67230
 211.62791 212.61906 214.22432 215.94757 218.36539 222.19064 227.82005 232.44739
 236.14836 240.31024 244.72568 249.14511 253.22031 256.65839 259.55447 262.37836
 265.16306 267.60889 269.77267 271.94543 274.37091 276.32501 277.94040 279.30066
 280.60760 281.65356 282.56863 283.37213 284.06750 284.68271 285.24399 285.75247
 286.20981 286.61707 286.97284 287.42621
 366.78100 356.34120 345.77939 334.65159 323.06079 311.26098 299.13718 286.94638
 274.66457 262.56777 250.58297 239.89016 230.01836 221.12856 213.31676 206.32495
 200.16515 195.10935 191.69754 189.74574 188.78894 188.85913 189.70033 191.01453
 192.74572 194.84692 197.11612 199.48131 201.93251 204.41871 206.51290 208.36110
 209.99330 211.14449 211.37969 211.61389 211.55708 211.26828 210.90748 210.54368
 210.16687 209.88307 209.69727 209.56746 209.50166 209.83886 210.23105 210.62625
 211.42545 212.60964 213.86584 215.65504 217.58923 219.63843 221.73963 223.82882
 225.89502 227.98522 230.08841 232.20061 234.33581 236.51400 238.77620 241.15240
 243.77960 246.03679 248.04499 249.81619 251.23938 252.36858 253.19678 253.51897
 253.56217 253.34237 252.70856 251.66276 250.27496 248.44215 246.35735 244.19655
 241.99374 239.80394 237.63014 235.47533 233.34153 231.21473 229.24692 227.41012
 225.69932 224.17752 222.81371 221.59191 220.48011 219.44630 218.55650 217.70370
 216.95189 216.13809 215.24229 214.61248 214.06868 213.81628 213.01064 211.80898
 211.68256 212.59552 214.15221 215.83145 218.22935 222.12466 227.76122 232.35359
 236.04672 240.23412 244.68259 249.13120 253.22061 256.68140 259.60727 262.32254
 265.13855 267.68369 269.84744 271.99924 274.32309 276.34683 277.96442 279.32837
 280.90054 282.70795 284.28336 285.66666 286.86380 287.92294 288.88928 289.76471
 290.55203 291.25317 291.86566 292.64621
 366.78100 356.34257 345.78213 334.65570 323.06627 311.26784 299.14540 286.95597
 274.67554 262.58011 250.59667 239.90524 230.03481 221.14638 213.33594 206.34551
 200.18708 195.13265 191.72221 189.77178 188.81635 188.88792 189.73048 191.04605
 192.77862 194.88119 197.15175 199.51832 201.97089 204.45846 206.55402 208.40359
 210.03716 211.18973 211.42629 211.66186 211.60643 211.31900 210.95956 210.59713
 210.22170 209.93927 209.75483 209.62640 209.56197 209.90054 210.29410 210.69067
 211.49124 212.67681 213.93437 215.72494 217.66051 219.71108 221.81364 223.90421
 225.97178 228.06335 230.16791 232.28148 234.41805 236.59762 238.86118 241.23875
 243.86732 246.12589 248.13545 249.90802 251.33259 252.46316 253.29272 253.61629
 253.66086 253.44243 252.80999 251.76556 250.37913 248.54770 246.46426 244.30483
 242.10340 239.91497 237.74253 235.58910 233.45667 231.33124 229.36480 227.52937
 225.81994 224.29951 222.93707 221.71664 220.60621 219.57378 218.68534 217.83391
 217.08348 216.27105 215.37661 214.74818 214.20575 213.89838 213.01109 211.87471
 211.69337 212.62979 214.23711 215.95706 218.24397 222.10156 227.69582 232.25552
 235.93106 240.11290 244.54904 248.95764 253.02408 256.46295 259.33072 262.01517
 264.93350 267.61603 269.89557 271.97992 274.26749 276.29095 277.93387 279.43661
 281.15564 283.05374 284.71381 286.17148 287.43295 288.54904 289.56729 290.48978
 291.31943 292.05826 292.70367 293.52618
 366.78100 356.34297 345.78294 334.65691 323.06788 311.26985 299.14782 286.95879
 274.67876 262.58373 250.60070 239.90968 230.03965 221.15162 213.34159 206.35156
 200.19353 195.13950 191.72947 189.77944 188.82441 188.89638 189.73935 191.05532
 192.78829 194.89126 197.16223 199.52920 201.98217 204.47014 206.56611 208.41608
 210.05006 211.20303 211.44000 211.67597 211.62094 211.33391 210.97488 210.61285
 210.23782 209.95579 209.77176 209.64373 209.57970 209.91867 210.31264 210.70961
 211.51058 212.69655 213.95452 215.74549 217.68146 219.73244 221.83541 223.92638
 225.99435 228.08632 230.19129 232.30526 234.44223 236.62220 238.88617 241.26414
 243.89311 246.15208 248.16205 249.93502 251.35999 252.49096 253.32093 253.64490
 253.68987 253.47185 252.83982 251.79579 250.40976 248.57873 246.49570 244.33667
 242.13564 239.94761 237.77558 235.62255 233.49052 231.36549 229.39946 227.56443
 225.85540 224.33537 222.97334 221.75331 220.64328 219.61125 218.72323 217.87220
 217.12217 216.31014 215.41611 214.78808 214.24605 213.93950 213.06107 211.91786
 211.56412 212.46504 214.22346 216.12183 218.42755 222.19366 227.73558 232.29100
 235.96762 240.14249 244.55988 248.92975 252.97208 256.43185 259.34283 262.00452
 264.86398 267.55502 269.90375 271.99600 274.25293 276.24991 277.88812 279.48361
 281.33347 283.27533 284.97198 286.46179 287.75110 288.89182 289.93253 290.87534
 291.72330 292.47842 293.13806 293.97873
 366.78100 356.34296 345.78291 334.65687 323.06782 311.26978 299.14773 286.95869
 274.67865 262.58360 250.60056 239.90951 230.03947 221.15142 213.34138 206.35134
 200.19329 195.13925 191.72920 189.77916 188.82411 188.89607 189.73902 191.05498
 192.78794 194.89089 197.16185 199.52880 201.98176 204.46971 206.56567 208.41563
 210.04958 211.20254 211.43949 211.67545 211.62040 211.33336 210.97432 210.61227
 210.23723 209.95518 209.77114 209.64309 209.57905 209.91801 210.31196 210.70892
 211.50987 212.69583 213.95378 215.74474 217.68070 219.73165 221.83461 223.92556
 225.99352 228.08547 230.19043 232.30439 234.44134 236.62130 238.88525 241.26321
 243.89216 246.15112 248.16107 249.93403 251.35899 252.48994 253.31990 253.64385
 253.68881 253.47076 252.83872 251.79468 250.40863 248.57759 246.49454 244.33550
 242.13445 239.94641 237.77437 235.62132 233.48928 231.36423 229.39819 227.56314
 225.85410 224.33406 222.97201 221.75197 220.64192 219.60988 218.72183 217.87079
 217.12075 216.30870 215.41466 214.78661 214.24457 213.95482 213.13240 212.01476
 211.50290 212.22562 214.09338 216.14819 218.50392 222.26523 227.80939 232.35983
 236.02116 240.18417 244.60333 248.97121 253.00008 256.45038 259.35617 262.00974
 264.91403 267.58972 269.93964 271.95239 274.21799 276.20081 277.82230 279.45160
 281.23633 283.07639 284.73758 286.19623 287.45853 288.57538 289.59433 290.51740
 291.34763 292.08694 292.73279 293.55585
 366.78100 356.34093 345.77886 334.65079 323.05972 311.25965 299.13558 286.94451
 274.66244 262.56537 250.58030 239.88723 230.01516 221.12509 213.31302 206.32095
 200.16088 195.10481 191.69274 189.74067 188.78360 188.85353 189.69446 191.00840
 192.73933 194.84026 197.10919 199.47412 201.92505 204.41098 206.50491 208.35284
 209.98477 211.13570 211.37063 211.60456 211.54749 211.25842 210.89735 210.53328
 210.15621 209.87214 209.68607 209.55600 209.48993 209.82686 210.21879 210.61372
 211.41265 212.59658 213.85251 215.64144 217.57537 219.62430 221.72523 223.81416
 225.88009 227.97002 230.07295 232.18488 234.31981 236.49774 238.75967 241.13560
 243.76253 246.01946 248.02739 249.79833 251.22126 252.35019 253.17812 253.50005
 253.54298 253.32291 252.68884 251.64277 250.25470 248.42163 246.33656 244.17549
 241.97242 239.78235 237.60828 235.45321 233.31914 231.19207 229.22400 227.38693
 225.67586 224.15379 222.78972 221.56765 220.45558 219.42151 218.53144 217.67837
 216.92630 216.11223 215.21616 214.58609 214.04202 213.87833 213.29787 212.10353
 211.47572 212.04596 213.92992 216.09207 218.59286 222.33125 227.84370 232.39757
 236.05901 240.20946 244.61894 248.98796 253.00977 256.40750 259.18961 261.81516
 264.87552 267.64178 269.96643 271.87234 274.22302 276.14706 277.75400 279.36938
 281.03036 282.84656 284.48355 285.92096 287.16489 288.26547 289.26959 290.17923
 290.99738 291.72592 292.36237 293.17343
 366.78100 356.34025 345.77751 334.64876 323.05702 311.25627 299.13153 286.93978
 274.65703 262.55929 250.57354 239.87980 230.00705 221.11631 213.30356 206.31081
 200.15007 195.09332 191.68058 189.72783 188.77009 188.83934 189.67959 190.99285
 192.72310 194.82336 197.09161 199.45587 201.90612 204.39137 206.48463 208.33188
 209.96314 211.11339 211.34764 211.58090 211.52315 211.23341 210.87166 210.50692
 210.12917 209.84442 209.65768 209.52693 209.46019 209.79644 210.18770 210.58195
 211.38020 212.56346 213.81871 215.60697 217.54022 219.58848 221.68873 223.77698
 225.84224 227.93149 230.03375 232.14500 234.27926 236.45651 238.71776 241.09302
 243.71927 245.97553 247.98278 249.75304 251.17529 252.30354 253.13080 253.45205
 253.49431 253.27356 252.63882 251.59207 250.20332 248.36958 246.28383 244.12209
 241.91834 239.72760 237.55285 235.39710 233.26236 231.13461 229.16587 227.32812
 225.61638 224.09363 222.72888 221.50614 220.39339 219.35865 218.46790 217.61415
 216.86141 216.04666 215.14992 214.51917 213.97443 213.86302 213.38789 212.20164
 211.51486 211.95203 213.70844 215.91211 218.55925 222.33211 227.83203 232.41995
 236.10106 240.25740 244.66551 249.04178 253.08138 256.49380 259.24023 261.90198
 264.84311 267.53629 269.91006 271.90482 274.17212 276.10693 277.70966 279.28000
 281.13547 283.06073 284.74948 286.23230 287.51556 288.65091 289.68677 290.62515
 291.46915 292.22073 292.87729 293.71399
 366.78100 356.34535 345.78770 334.66406 323.07741 311.28176 299.16211 286.97546
 274.69781 262.60517 250.62452 239.93587 230.06822 221.18257 213.37492 206.38728
 200.23163 195.17998 191.77233 189.82468 188.87204 188.94639 189.79174 191.11009
 192.84544 194.95079 197.22415 199.59350 202.04885 204.53920 206.63755 208.48990
 210.12626 211.28161 211.52096 211.75931 211.70666 211.42202 211.06537 210.70572
 210.33307 210.05342 209.87177 209.74613 209.68448 210.02583 210.42218 210.82153
 211.62488 212.81324 214.07359 215.86694 217.80529 219.85864 221.96400 224.05735
 226.12770 228.22205 230.32940 232.44575 234.58511 236.76746 239.03381 241.41416
 244.04551 246.30686 248.31922 250.09457 251.52192 252.65527 253.48762 253.81398
 253.86133 253.64568 253.01603 251.97438 250.59073 248.76209 246.68144 244.52479
 242.32614 240.14049 237.97084 235.82020 233.69055 231.56790 229.60425 227.77160
 226.06496 224.54731 223.18766 221.97001 220.86236 219.83271 218.94707 218.09842
 217.35077 216.54112 215.64947 215.02382 214.48418 214.11290 213.19095 212.32941
 211.79544 212.07030 213.54570 215.58875 218.28271 222.33272 227.66545 232.33751
 236.04089 240.21893 244.64180 249.03207 253.08018 256.50909 259.33258 262.00650
 264.84561 267.55460 269.84647 271.86084 274.12802 276.05142 277.72232 279.53873
 281.38516 283.19806 284.88870 286.37320 287.65793 288.79459 289.83160 290.77106
 291.61600 292.36844 293.02576 293.86340
 366.78100 356.34891 345.79482 334.67473 323.09164 311.29955 299.18345 287.00036
 274.72627 262.63718 250.66009 239.97500 230.11091 221.22882 213.42473 206.44064
 200.28854 195.24045 191.83636 189.89227 188.94318 189.02109 189.87000 191.19191
 192.93082 195.03973 197.31664 199.68954 202.14845 204.64236 206.74427 208.60018
 210.24009 211.39900 211.64191 211.88382 211.83473 211.55363 211.20054 210.84445
 210.47536 210.19927 210.02118 209.89909 209.84100 210.18591 210.58582 210.98873
 211.79563 212.98754 214.25145 216.04836 217.99027 220.04718 222.15609 224.25300
 226.32691 228.42482 230.53572 232.65563 234.79854 236.98445 239.25436 241.63827
 244.27318 246.53809 248.55400 250.33291 251.76382 252.90072 253.73663 254.06654
 254.11745 253.90536 253.27927 252.24118 250.86109 249.03600 246.95891 244.80581
 242.61072 240.42863 238.26254 236.11545 233.98936 231.87027 229.91018 228.08109
 226.37800 224.86391 223.50781 222.29372 221.18963 220.16354 219.28145 218.43636
 217.69227 216.88618 215.99809 215.37600 214.83990 214.29955 213.03743 212.29860
 212.03052 212.29890 213.53381 215.49525 218.27107 222.30333 227.44424 232.16341
 235.85905 240.08798 244.54507 248.93408 252.92937 256.32559 259.20731 261.93921
 264.72449 267.37805 269.67059 271.90192 274.09741 275.99191 277.75537 279.66830
 281.42795 282.99060 284.39127 285.69418 286.88077 287.93057 288.88837 289.75607
 290.53647 291.23141 291.83850 292.61218
 366.78100 356.34554 345.78807 334.66461 323.07815 311.28269 299.16322 286.97676
 274.69930 262.60683 250.62637 239.93791 230.07045 221.18498 213.37752 206.39006
 200.23459 195.18313 191.77567 189.82821 188.87574 188.95028 189.79582 191.11435
 192.84989 194.95543 197.22897 199.59850 202.05404 204.54458 206.64311 208.49565
 210.13219 211.28773 211.52726 211.76580 211.71334 211.42887 211.07241 210.71295
 210.34049 210.06102 209.87956 209.75410 209.69264 210.03417 210.43071 210.83025
 211.63378 212.82232 214.08286 215.87640 217.81493 219.86847 221.97401 224.06754
 226.13808 228.23262 230.34016 232.45669 234.59623 236.77877 239.04530 241.42584
 244.05738 246.31892 248.33145 250.10699 251.53453 252.66806 253.50060 253.82714
 253.87468 253.65921 253.02975 251.98829 250.60482 248.77636 246.69590 244.53944
 242.34097 240.15551 237.98605 235.83558 233.70612 231.58366 229.62020 227.78773
 226.08127 224.56381 223.20434 221.98688 220.87942 219.84996 218.96449 218.11603
 217.36857 216.55910 215.66764 215.04218 214.50272 214.12498 213.22044 212.36543
 211.76378 212.07944 213.49557 215.56268 218.32439 222.26131 227.42735 231.98904
 235.78247 239.98550 244.42194 248.74934 252.69179 256.09979 259.05515 261.82977
 264.62094 267.28378 269.63535 271.90079 274.05841 275.96393 277.82901 279.71942
 281.45901 282.89447 284.04410 285.14398 286.04218 286.99710 287.97366 288.87845
 289.69220 290.41684 291.04990 291.85663
 366.78100 356.34314 345.78328 334.65741 323.06855 311.27069 299.14883 286.95997
 274.68011 262.58524 250.60238 239.91152 230.04166 221.15380 213.34394 206.35407
 200.19621 195.14235 191.73249 189.78263 188.82777 188.89990 189.74304 191.05918
 192.79232 194.89546 197.16660 199.53373 201.98687 204.47501 206.57115 208.42129
 210.05543 211.20856 211.44570 211.68184 211.62698 211.34012 210.98126 210.61939
 210.24453 209.96267 209.77881 209.65095 209.58709 209.92622 210.32036 210.71750
 211.51864 212.70478 213.96292 215.75405 217.69019 219.74133 221.84447 223.93561
 226.00375 228.09588 230.20102 232.31516 234.45230 236.63244 238.89658 241.27471
 243.90385 246.16299 248.17313 249.94627 251.37141 252.50254 253.33268 253.65682
 253.70196 253.48410 252.85224 251.80837 250.42251 248.59165 246.50879 244.34993
 242.14907 239.96120 237.78934 235.63648 233.50462 231.37976 229.41390 227.57903
 225.87017 224.35031 222.98845 221.76859 220.65873 219.62686 218.73900 217.88814
 217.13828 216.32642 215.43256 214.80469 214.26283 213.98747 213.33226 212.57495
 211.71965 211.93008 213.49326 215.64496 218.39787 222.30270 227.55028 231.95116
 235.76529 239.92815 244.36221 248.66747 252.59140 255.99481 258.95526 261.73718
 264.51810 267.17154 269.63358 271.90503 274.00320 275.91284 277.79007 279.74197
 281.49612 282.95544 284.04391 285.11905 286.02658 286.68961 287.36847 288.18961
 288.97653 289.72180 290.37283 291.20251
 366.78100 356.34434 345.78568 334.66102 323.07336 311.27670 299.15604 286.96838
 274.68972 262.59606 250.61440 239.92474 230.05608 221.16942 213.36076 206.37210
 200.21544 195.16278 191.75412 189.80546 188.85180 188.92514 189.76948 191.08682
 192.82116 194.92550 197.19784 199.56618 202.02052 204.50986 206.60720 208.45854
 210.09388 211.24822 211.48656 211.72390 211.67024 211.38458 211.02692 210.66626
 210.29260 210.01194 209.82928 209.70262 209.63996 209.98030 210.37564 210.77398
 211.57632 212.76366 214.02300 215.81534 217.75268 219.80502 221.90936 224.00170
 226.07104 228.16438 230.27072 232.38606 234.52440 236.70574 238.97108 241.35042
 243.98076 246.24110 248.25244 250.02678 251.45312 252.58546 253.41680 253.74214
 253.78848 253.57182 252.94116 251.89850 250.51384 248.68418 246.60252 244.44486
 242.24520 240.05854 237.88788 235.73622 233.60556 231.48190 229.51724 227.68358
 225.97592 224.45726 223.09660 221.87794 220.76928 219.73862 218.85196 218.00230
 217.25364 216.44298 215.55032 214.92366 214.38300 214.05609 213.28310 212.61131
 211.85213 211.87408 213.43816 215.65173 218.39545 222.31619 227.61789 232.00511
 235.75409 239.91551 244.34395 248.64186 252.55264 255.93860 258.87766 261.63943
 264.45377 267.15762 269.63745 271.88651 273.98178 275.82712 277.70288 279.67310
 281.41870 282.79950 283.82803 284.94330 285.87302 286.49725 287.14105 287.96085
 288.73523 289.45166 290.09622 290.91766
 366.78100 356.34468 345.78636 334.66204 323.07472 311.27841 299.15809 286.97077
 274.69245 262.59913 250.61781 239.92849 230.06017 221.17385 213.36554 206.37722
 200.22090 195.16858 191.76026 189.81194 188.85862 188.93230 189.77699 191.09467
 192.82935 194.93403 197.20671 199.57539 202.03007 204.51975 206.61743 208.46912
 210.10480 211.25948 211.49816 211.73584 211.68252 211.39720 211.03988 210.67956
 210.30625 210.02593 209.84361 209.71729 209.65497 209.99565 210.39133 210.79001
 211.59269 212.78038 214.04006 215.83274 217.77042 219.82310 221.92778 224.02046
 226.09014 228.18383 230.29051 232.40619 234.54487 236.72655 238.99223 241.37191
 244.00259 246.26327 248.27496 250.04964 251.47632 252.60900 253.44068 253.76636
 253.81304 253.59672 252.96640 251.92409 250.53977 248.71045 246.62913 244.47181
 242.27249 240.08617 237.91585 235.76453 233.63422 231.51090 229.54658 227.71326
 226.00594 224.48762 223.12730 221.90898 220.80067 219.77035 218.88403 218.03471
 217.28639 216.47607 215.58375 214.95743 214.41711 214.09766 213.33771 212.54474
 211.91397 211.95044 213.43575 215.62401 218.35207 222.27193 227.54401 232.00262
 235.71245 239.90877 244.32625 248.61931 252.52251 255.91270 258.85922 261.62897
 264.42850 267.13907 269.65048 271.90460 273.92087 275.71130 277.63123 279.58862
 281.28043 282.58130 283.50500 284.71008 285.63361 286.29565 287.07083 287.89771
 288.68237 289.39685 290.02097 290.81638
 366.78100 356.34142 345.77984 334.65226 323.06169 311.26211 299.13853 286.94795
 274.66637 262.56979 250.58521 239.89263 230.02106 221.13148 213.31990 206.32832
 200.16874 195.11316 191.70158 189.75000 188.79343 188.86385 189.70527 191.01969
 192.75111 194.85253 197.12195 199.48737 201.93880 204.42522 206.51964 208.36806
 210.00048 211.15190 211.38732 211.62174 211.56517 211.27659 210.91601 210.55243
 210.17585 209.89227 209.70669 209.57711 209.51154 209.84896 210.24138 210.63680
 211.43622 212.62064 213.87706 215.66648 217.60091 219.65033 221.75175 223.84117
 225.90759 227.99801 230.10143 232.21385 234.34928 236.52770 238.79012 241.16654
 243.79396 246.05138 248.05980 249.83122 251.25465 252.38407 253.21249 253.53491
 253.57833 253.35875 252.72517 251.67959 250.29202 248.45944 246.37486 244.21428
 242.01170 239.82212 237.64854 235.49396 233.36039 231.23381 229.26623 227.42965
 225.71907 224.19749 222.83391 221.61233 220.50076 219.46718 218.57760 217.72502
 216.97344 216.15986 215.26428 214.63470 214.09113 213.96339 213.60434 212.47659
 211.71049 211.89319 213.46628 215.70813 218.46013 222.29318 227.43625 231.94897
 235.66249 239.89662 244.31206 248.59633 252.49173 255.88701 258.85031 261.62918
 264.40036 267.15247 269.68158 271.91998 273.85327 275.58737 277.51178 279.42770
 281.06439 282.33997 283.44989 284.44995 285.34753 286.28857 287.22562 288.08463
 288.85718 289.54517 290.14615 290.91205
 366.78100 356.34026 345.77752 334.64878 323.05705 311.25631 299.13157 286.93983
 274.65709 262.55935 250.57361 239.87987 230.00714 221.11640 213.30366 206.31092
 200.15018 195.09344 191.68070 189.72796 188.77023 188.83949 189.67975 190.99301
 192.72327 194.82353 197.09179 199.45605 201.90632 204.39158 206.48484 208.33210
 209.96336 211.11362 211.34788 211.58114 211.52341 211.23367 210.87193 210.50719
 210.12945 209.84471 209.65797 209.52724 209.46050 209.79676 210.18802 210.58228
 211.38054 212.56380 213.81906 215.60733 217.54059 219.58885 221.68911 223.77737
 225.84263 227.93189 230.03415 232.14542 234.27968 236.45694 238.71820 241.09346
 243.71972 245.97598 247.98324 249.75351 251.17577 252.30403 253.13129 253.45255
 253.49481 253.27407 252.63933 251.59260 250.20386 248.37012 246.28438 244.12264
 241.91890 239.72816 237.55343 235.39769 233.26295 231.13521 229.16647 227.32873
 225.61699 224.09425 222.72952 221.50678 220.39404 219.35930 218.46856 217.61482
 216.86208 216.04734 215.15061 214.51987 213.97513 213.93744 213.70668 212.53375
 211.69530 212.00916 213.68062 215.95158 218.66194 222.40025 227.43973 231.86008
 235.60445 239.86317 244.29381 248.56862 252.43475 255.80869 258.79709 261.61017
 264.39783 267.16125 269.70215 271.90652 273.76807 275.50577 277.46399 279.32233
 280.85724 282.15387 283.21994 284.53549 285.73065 286.78806 287.75278 288.62677
 289.41281 290.11279 290.72427 291.50354
 366.78100 356.34333 345.78366 334.65800 323.06933 311.27166 299.14999 286.96133
 274.68166 262.58699 250.60432 239.91366 230.04399 221.15632 213.34665 206.35699
 200.19932 195.14565 191.73598 189.78632 188.83165 188.90398 189.74731 191.06365
 192.79698 194.90031 197.17164 199.53898 201.99231 204.48064 206.57697 208.42730
 210.06164 211.21497 211.45230 211.68863 211.63397 211.34730 210.98863 210.62696
 210.25230 209.97063 209.78696 209.65929 209.59563 209.93496 210.32929 210.72662
 211.52796 212.71429 213.97262 215.76395 217.70029 219.75162 221.85495 223.94628
 226.01462 228.10695 230.21228 232.32661 234.46395 236.64428 238.90861 241.28694
 243.91627 246.17561 248.18594 249.95927 251.38460 252.51594 253.34627 253.67060
 253.71593 253.49827 252.86660 251.82293 250.43726 248.60660 246.52393 244.36526
 242.16459 239.97693 237.80526 235.65259 233.52092 231.39626 229.43059 227.59592
 225.88725 224.36759 223.00592 221.78625 220.67658 219.64491 218.75725 217.90658
 217.15691 216.34524 215.45158 214.82391 214.28224 214.10832 213.59741 212.62776
 211.74088 211.99594 213.71899 216.04675 218.69516 222.36710 227.43755 231.84526
 235.58954 239.83591 244.24220 248.49062 252.34491 255.74237 258.78635 261.64584
 264.41434 267.15808 269.70804 271.88773 273.71115 275.51419 277.53275 279.30823
 280.71674 282.23712 283.88559 285.33304 286.58572 287.69400 288.70514 289.62115
 290.44501 291.17868 291.81958 292.63635
 366.78100 356.34552 345.78803 334.66455 323.07807 311.28258 299.16310 286.97662
 274.69913 262.60665 250.62617 239.93768 230.07020 221.18472 213.37723 206.38975
 200.23427 195.18278 191.77530 189.82782 188.87533 188.94985 189.79537 191.11388
 192.84940 194.95492 197.22843 199.59795 202.05347 204.54398 206.64250 208.49502
 210.13153 211.28705 211.52657 211.76508 211.71260 211.42812 211.07164 210.71215
 210.33967 210.06019 209.87870 209.75322 209.69174 210.03325 210.42977 210.82929
 211.63280 212.82132 214.08184 215.87535 217.81387 219.86739 221.97290 224.06642
 226.13694 228.23145 230.33897 232.45549 234.59500 236.77752 239.04404 241.42455
 244.05607 246.31759 248.33010 250.10562 251.53314 252.66665 253.49917 253.82569
 253.87320 253.65772 253.02824 251.98675 250.60327 248.77479 246.69430 244.53782
 242.33934 240.15385 237.98437 235.83389 233.70440 231.58192 229.61844 227.78595
 226.07947 224.56199 223.20250 221.98502 220.87754 219.84805 218.96257 218.11409
 217.36660 216.55712 215.66564 215.04015 214.50067 214.22113 213.51947 212.71187
 211.86368 211.95363 213.64285 216.00201 218.66713 222.37402 227.39626 231.80711
 235.54813 239.80176 244.20996 248.44846 252.29251 255.70078 258.78891 261.71829
 264.50320 267.14456 269.70667 271.88678 273.69482 275.57794 277.53983 279.25595
 280.79691 282.54282 284.19876 285.65677 286.91858 288.03497 289.05347 289.97620
 290.80606 291.54507 292.19067 293.01337
 366.78100 356.34497 345.78694 334.66291 323.07588 311.27985 299.15982 286.97279
 274.69476 262.60173 250.62070 239.93167 230.06364 221.17761 213.36958 206.38155
 200.22552 195.17349 191.76546 189.81743 188.86440 188.93837 189.78334 191.10131
 192.83628 194.94125 197.21422 199.58319 202.03816 204.52813 206.62610 208.47807
 210.11404 211.26901 211.50798 211.74596 211.69293 211.40790 211.05087 210.69084
 210.31781 210.03778 209.85575 209.72972 209.66769 210.00866 210.40463 210.80360
 211.60657 212.79454 214.05451 215.84748 217.78545 219.83842 221.94339 224.03636
 226.10633 228.20030 230.30727 232.42324 234.56221 236.74418 239.01015 241.39012
 244.02109 246.28206 248.29403 250.06900 251.49597 252.62894 253.46091 253.78688
 253.83385 253.61782 252.98779 251.94576 250.56173 248.73270 246.65167 244.49464
 242.29561 240.10958 237.93955 235.78852 233.65849 231.53546 229.57143 227.73840
 226.03137 224.51334 223.15331 221.93528 220.82725 219.79722 218.91119 218.06216
 217.31413 216.50410 215.61207 214.98604 214.44601 214.19769 213.55769 212.75352
 211.98756 211.96761 213.56281 215.91104 218.61176 222.36391 227.32997 231.75221
 235.49362 239.75734 244.17232 248.40231 252.23050 255.63930 258.75546 261.72000
 264.51514 267.14166 269.71884 271.86276 273.61261 275.59271 277.54047 279.25671
 280.73987 282.38544 284.02426 285.51291 286.80121 287.94104 288.98096 289.92303
 290.77036 291.52487 292.18402 293.02402
 366.78100 356.34440 345.78580 334.66119 323.07359 311.27699 299.15639 286.96878
 274.69018 262.59658 250.61498 239.92538 230.05677 221.17017 213.36157 206.37297
 200.21636 195.16376 191.75516 189.80656 188.85296 188.92635 189.77075 191.08815
 192.82255 194.92694 197.19934 199.56774 202.02214 204.51154 206.60893 208.46033
 210.09573 211.25013 211.48852 211.72592 211.67232 211.38672 211.02912 210.66851
 210.29491 210.01431 209.83171 209.70510 209.64250 209.98290 210.37830 210.77670
 211.57909 212.76649 214.02589 215.81829 217.75568 219.80808 221.91248 224.00488
 226.07428 228.16767 230.27407 232.38947 234.52787 236.70926 238.97466 241.35406
 243.98446 246.24486 248.25625 250.03065 251.45705 252.58945 253.42085 253.74624
 253.79264 253.57604 252.94544 251.90283 250.51823 248.68863 246.60703 244.44943
 242.24982 240.06322 237.89262 235.74102 233.61041 231.48681 229.52221 227.68861
 225.98101 224.46240 223.10180 221.88320 220.77460 219.74399 218.85739 218.00779
 217.25919 216.44859 215.55598 214.92938 214.38878 214.17188 213.60239 212.80254
 212.03496 211.95969 213.49367 215.84380 218.56096 222.32889 227.27028 231.69838
 235.43489 239.70682 244.12570 248.34818 252.16493 255.58340 258.73108 261.72345
 264.51950 267.15073 269.72314 271.85730 273.71552 275.77032 277.73862 279.42715
 280.83548 282.38504 284.00870 285.53824 286.86191 288.03305 289.10150 290.06949
 290.94006 291.71530 292.39255 293.25562
 366.78100 356.34426 345.78553 334.66079 323.07306 311.27632 299.15559 286.96785
 274.68911 262.59538 250.61364 239.92391 230.05517 221.16844 213.35970 206.37096
 200.21423 195.16149 191.75276 189.80402 188.85029 188.92355 189.76781 191.08508
 192.81934 194.92361 197.19587 199.56414 202.01840 204.50766 206.60493 208.45619
 210.09146 211.24572 211.48399 211.72125 211.66751 211.38178 211.02404 210.66331
 210.28957 210.00884 209.82610 209.69936 209.63663 209.97689 210.37216 210.77042
 211.57269 212.75995 214.01921 215.81148 217.74874 219.80101 221.90527 223.99753
 226.06680 228.16006 230.26633 232.38159 234.51986 236.70112 238.96638 241.34565
 243.97591 246.23618 248.24744 250.02171 251.44797 252.58023 253.41150 253.73676
 253.78303 253.56629 252.93556 251.89282 250.50808 248.67835 246.59661 244.43888
 242.23914 240.05241 237.88167 235.72993 233.59920 231.47546 229.51073 227.67699
 225.96926 224.45052 223.08978 221.87105 220.76231 219.73158 218.84484 217.99511
 217.24637 216.43563 215.54290 214.91616 214.37543 214.15852 213.61053 212.87227
 212.02760 211.87808 213.38864 215.77708 218.54150 222.31874 227.21164 231.64931
 235.39709 239.67792 244.10306 248.32288 252.11285 255.52942 258.70621 261.72116
 264.51633 267.16806 269.72647 271.83121 273.69992 275.90305 277.88684 279.60550
 281.09308 282.45044 283.89966 285.23312 286.37805 287.39099 288.31519 289.15240
 289.90543 290.57596 291.16174 291.90826
 366.78100 356.34350 345.78400 334.65851 323.07001 311.27251 299.15101 286.96252
 274.68302 262.58852 250.60602 239.91552 230.04603 221.15853 213.34903 206.35953
 200.20204 195.14854 191.73904 189.78954 188.83504 188.90755 189.75105 191.06755
 192.80105 194.90456 197.17606 199.54356 201.99706 204.48557 206.58207 208.43257
 210.06707 211.22057 211.45808 211.69458 211.64008 211.35358 210.99509 210.63359
 210.25909 209.97759 209.79409 209.66660 209.60310 209.94260 210.33710 210.73461
 211.53611 212.72261 213.98111 215.77261 217.70912 219.76062 221.86412 223.95562
 226.02413 228.11663 230.22213 232.33663 234.47413 236.65464 238.91914 241.29764
 243.92714 246.18665 248.19715 249.97065 251.39615 252.52766 253.35816 253.68266
 253.72816 253.51066 252.87917 251.83567 250.45017 248.61967 246.53718 244.37868
 242.17818 239.99068 237.81918 235.66669 233.53519 231.41069 229.44519 227.61070
 225.90220 224.38270 223.02120 221.80170 220.69221 219.66071 218.77321 217.92271
 217.17322 216.36172 215.46822 214.84072 214.29922 214.10225 213.62257 212.99924
 211.97867 211.65646 213.15117 215.64955 218.48262 222.25827 227.19823 231.62642
 235.40430 239.65410 244.04350 248.22635 252.02100 255.48582 258.71899 261.74292
 264.49084 267.16721 269.69345 271.72321 273.45474 275.61911 277.67151 279.49493
 281.11441 282.52930 283.82205 285.05048 286.19644 287.23575 288.24628 289.16174
 289.98511 290.71832 291.35886 292.17511
 366.78100 356.34350 345.78400 334.65851 323.07001 311.27251 299.15101 286.96252
 274.68302 262.58852 250.60602 239.91553 230.04603 221.15853 213.34903 206.35954
 200.20204 195.14854 191.73904 189.78955 188.83505 188.90755 189.75105 191.06756
 192.80106 194.90456 197.17606 199.54356 201.99707 204.48557 206.58207 208.43257
 210.06708 211.22058 211.45808 211.69458 211.64009 211.35359 210.99509 210.63359
 210.25910 209.97760 209.79410 209.66660 209.60311 209.94261 210.33711 210.73461
 211.53612 212.72262 213.98112 215.77262 217.70912 219.76063 221.86413 223.95563
 226.02413 228.11664 230.22214 232.33664 234.47414 236.65465 238.91915 241.29765
 243.92715 246.18666 248.19716 249.97066 251.39616 252.52767 253.35817 253.68267
 253.72817 253.51068 252.87918 251.83568 250.45018 248.61968 246.53719 244.37869
 242.17819 239.99069 237.81920 235.66670 233.53520 231.41070 229.44521 227.61071
 225.90221 224.38271 223.02122 221.80172 220.69222 219.66072 218.77323 217.92273
 217.17323 216.36173 215.46824 214.84074 214.29924 214.09605 213.61150 213.11203
 212.04622 211.67340 213.09285 215.56596 218.43144 222.21297 227.14912 231.56184
 235.35394 239.60605 243.98065 248.13120 251.89496 255.37845 258.68448 261.79080
 264.61154 267.13382 269.60251 271.65573 273.31863 275.42221 277.47061 279.29889
 280.94342 282.33633 283.57166 284.70895 285.65259 286.53098 287.47043 288.33011
 289.10327 289.79181 290.39328 291.15979
 366.78100 356.34430 345.78559 334.66089 323.07319 311.27649 299.15578 286.96808
 274.68938 262.59568 250.61397 239.92427 230.05557 221.16886 213.36016 206.37146
 200.21476 195.16205 191.75335 189.80465 188.85094 188.92424 189.76854 191.08584
 192.82013 194.92443 197.19673 199.56503 202.01932 204.50862 206.60592 208.45721
 210.09251 211.24681 211.48511 211.72240 211.66870 211.38300 211.02529 210.66459
 210.29089 210.01019 209.82748 209.70078 209.63808 209.97838 210.37367 210.77197
 211.57427 212.76156 214.02086 215.81316 217.75046 219.80275 221.90705 223.99935
 226.06864 228.16194 230.26824 232.38354 234.52183 236.70313 238.96843 241.34773
 243.97802 246.23832 248.24962 250.02391 251.45021 252.58251 253.41381 253.73910
 253.78540 253.56870 252.93800 251.89529 250.51059 248.68089 246.59918 244.44148
 242.24178 240.05508 237.88437 235.73267 233.60197 231.47826 229.51356 227.67986
 225.97216 224.45345 223.09275 221.87405 220.76535 219.73464 218.84794 217.99824
 217.24953 216.43883 215.54613 214.91943 214.37872 214.15367 213.61716 213.08409
 212.19012 211.96762 213.27946 215.59019 218.44826 222.25397 227.11584 231.53870
 235.31412 239.57600 243.94005 248.06360 251.78116 255.26849 258.61694 261.76880
 264.63556 267.20761 269.57712 271.57516 273.35648 275.40683 277.41745 279.18793
 280.74289 282.14722 283.36404 284.64249 285.89771 287.01086 288.02649 288.94653
 289.77405 290.51093 291.15466 291.97504
 366.78100 356.34455 345.78610 334.66165 323.07420 311.27775 299.15730 286.96985
 274.69140 262.59795 250.61650 239.92705 230.05860 221.17215 213.36370 206.37525
 200.21880 195.16635 191.75790 189.80945 188.85600 188.92955 189.77410 191.09166
 192.82621 194.93076 197.20331 199.57186 202.02641 204.51596 206.61351 208.46506
 210.10061 211.25516 211.49371 211.73126 211.67781 211.39236 211.03491 210.67446
 210.30101 210.02056 209.83811 209.71166 209.64921 209.98976 210.38531 210.78386
 211.58641 212.77396 214.03351 215.82606 217.76361 219.81616 221.92071 224.01326
 226.08281 228.17636 230.28291 232.39846 234.53701 236.71856 238.98411 241.36366
 243.99421 246.25476 248.26631 250.04086 251.46742 252.59997 253.43152 253.75707
 253.80362 253.58717 252.95672 251.91427 250.52982 248.70037 246.61892 244.46147
 242.26202 240.07557 237.90512 235.75367 233.62322 231.49977 229.53532 227.70187
 225.99442 224.47597 223.11552 221.89707 220.78862 219.75817 218.87172 218.02227
 217.27382 216.46337 215.57092 214.94447 214.40402 214.19740 213.66048 212.99170
 212.33174 212.15128 213.40715 215.63875 218.40781 222.21074 227.13086 231.53110
 235.28851 239.53700 243.87845 247.96869 251.68358 255.18239 258.53464 261.69440
 264.58234 267.20169 269.57480 271.60300 273.51346 275.52502 277.41553 279.08685
 280.67340 282.41705 284.16107 285.73044 287.08862 288.29025 289.38657 290.37976
 291.27301 292.06848 292.76337 293.64893
 366.78100 356.34361 345.78422 334.65884 323.07045 311.27306 299.15167 286.96328
 274.68390 262.58951 250.60712 239.91673 230.04735 221.15996 213.35057 206.36118
 200.20379 195.15041 191.74102 189.79163 188.83724 188.90985 189.75347 191.07008
 192.80369 194.90730 197.17891 199.54653 202.00014 204.48875 206.58536 208.43598
 210.07059 211.22420 211.46181 211.69842 211.64404 211.35765 210.99926 210.63787
 210.26348 209.98210 209.79871 209.67132 209.60793 209.94755 210.34216 210.73977
 211.54138 212.72799 213.98661 215.77822 217.71483 219.76644 221.87005 223.96167
 226.03028 228.12289 230.22850 232.34311 234.48073 236.66134 238.92595 241.30456
 243.93418 246.19379 248.20440 249.97801 251.40362 252.53524 253.36585 253.69046
 253.73607 253.51868 252.88730 251.84391 250.45852 248.62813 246.54574 244.38736
 242.18697 239.99958 237.82819 235.67581 233.54442 231.42003 229.45464 227.62025
 225.91187 224.39248 223.03109 221.81170 220.70231 219.67093 218.78354 217.93315
 217.18376 216.37237 215.47899 214.85160 214.31021 214.19853 213.73615 212.87654
 212.39359 212.24234 213.37834 215.68335 218.47646 222.17448 227.11252 231.49231
 235.25055 239.49208 243.82329 247.88838 251.57262 255.07387 258.43686 261.57330
 264.49023 267.16528 269.54840 271.52676 273.54449 275.58157 277.44009 279.05814
 281.35342 283.42044 285.20908 286.77966 288.13885 289.34140 290.43854 291.43246
 292.32642 293.12247 293.81787 294.70410
 366.78100 356.34278 345.78256 334.65633 323.06711 311.26889 299.14667 286.95744
 274.67722 262.58200 250.59878 239.90755 230.03733 221.14911 213.33889 206.34866
 200.19044 195.13622 191.72600 189.77577 188.82055 188.89233 189.73511 191.05088
 192.78366 194.88644 197.15722 199.52400 201.97677 204.46455 206.56033 208.41011
 210.04388 211.19666 211.43344 211.66922 211.61399 211.32677 210.96755 210.60533
 210.23010 209.94788 209.76366 209.63544 209.57121 209.90999 210.30377 210.70055
 211.50133 212.68710 213.94488 215.73566 217.67144 219.72221 221.82499 223.91577
 225.98355 228.07532 230.18010 232.29388 234.43066 236.61043 238.87421 241.25199
 243.88077 246.13954 248.14932 249.92210 251.34688 252.47765 253.30743 253.63121
 253.67599 253.45777 252.82554 251.78132 250.39510 248.56388 246.48065 244.32143
 242.12021 239.93199 237.75976 235.60654 233.47432 231.34910 229.38287 227.54765
 225.83843 224.31821 222.95598 221.73576 220.62554 219.59332 218.70510 217.85387
 217.10365 216.29143 215.39721 214.76898 214.22676 214.19119 213.79126 212.82307
 212.28468 212.06183 213.38524 215.71954 218.54538 222.28633 227.11589 231.53528
 235.26208 239.47987 243.78920 247.86504 251.60521 255.14159 258.53107 261.68701
 264.61374 267.23093 269.52667 271.57285 273.50677 275.25699 277.04944 279.91522
 282.50711 284.72873 286.65118 288.33923 289.80008 291.09256 292.27176 293.34006
 294.30084 295.15643 295.90387 296.85635
 366.78100 356.34462 345.78625 334.66187 323.07450 311.27812 299.15775 286.97037
 274.69200 262.59862 250.61725 239.92787 230.05950 221.17312 213.36475 206.37637
 200.22000 195.16762 191.75925 189.81087 188.85750 188.93112 189.77575 191.09337
 192.82800 194.93262 197.20525 199.57387 202.02850 204.51812 206.61575 208.46737
 210.10299 211.25762 211.49624 211.73387 211.68049 211.39512 211.03774 210.67737
 210.30399 210.02362 209.84124 209.71487 209.65249 209.99312 210.38874 210.78737
 211.58999 212.77762 214.03724 215.82987 217.76749 219.82012 221.92474 224.01737
 226.08699 228.18062 230.28724 232.40287 234.54149 236.72312 238.98874 241.36836
 243.99899 246.25961 248.27124 250.04586 251.47249 252.60511 253.43674 253.76236
 253.80899 253.59261 252.96224 251.91986 250.53549 248.70611 246.62474 244.46736
 242.26799 240.08161 237.91124 235.75986 233.62949 231.50611 229.54174 227.70836
 226.00099 224.48261 223.12224 221.90386 220.79549 219.76511 218.87873 218.02936
 217.28098 216.47061 215.57823 214.95186 214.41148 214.26987 213.75496 212.92868
 212.33551 212.07501 213.25087 215.56316 218.49373 222.26450 227.10228 231.49184
 235.24214 239.50418 243.82916 247.86787 251.59953 255.21922 258.69446 261.91431
 264.87128 267.49786 269.82483 271.83472 273.61539 275.11670 276.93765 278.74753
 281.15649 283.22134 285.00812 286.57706 287.93481 289.13611 290.23209 291.22498
 292.11798 292.91318 293.60788 294.49316
 366.78100 356.34641 345.78981 334.66722 323.08163 311.28704 299.16844 286.98285
 274.70626 262.61466 250.63507 239.94748 230.08089 221.19629 213.38970 206.40311
 200.24852 195.19792 191.79133 189.84474 188.89314 188.96855 189.81496 191.13437
 192.87077 194.97718 197.25159 199.62199 202.07840 204.56981 206.66922 208.52262
 210.16003 211.31644 211.55685 211.79625 211.74466 211.46107 211.10547 210.74688
 210.37529 210.09670 209.91610 209.79151 209.73092 210.07332 210.47073 210.87114
 211.67555 212.86495 214.12636 215.92077 217.86018 219.91458 222.02099 224.11540
 226.18680 228.28221 230.39062 232.50803 234.64843 236.83184 239.09925 241.48065
 244.11306 246.37547 248.38888 250.16528 251.59369 252.72810 253.56151 253.88891
 253.93732 253.72273 253.09413 252.05354 250.67095 248.84336 246.76376 244.60817
 242.41058 240.22598 238.05739 235.90780 233.77921 231.65761 229.69502 227.86343
 226.15784 224.64124 223.28265 222.06606 220.95946 219.93087 219.04628 218.19869
 217.45209 216.64350 215.75291 215.12831 214.58972 214.32999 213.65652 212.99431
 212.65810 212.41371 213.18253 215.25880 218.23549 222.22037 226.96393 231.46956
 235.20197 239.40437 243.65370 247.65295 251.37167 254.95543 258.40274 261.62982
 264.64423 267.39447 269.85696 272.04974 273.95795 275.63919 277.12793 278.04550
 279.60355 281.13025 282.96875 284.58307 285.98013 287.21616 288.34387 289.36548
 290.28433 291.10254 291.81732 292.72824
 366.78100 356.34601 345.78902 334.66603 323.08005 311.28506 299.16607 286.98008
 274.70309 262.61110 250.63112 239.94313 230.07614 221.19115 213.38416 206.39717
 200.24218 195.19120 191.78421 189.83722 188.88523 188.96024 189.80625 191.12527
 192.86128 194.96729 197.24130 199.61131 202.06732 204.55834 206.65735 208.51036
 210.14737 211.30338 211.54339 211.78240 211.73042 211.44643 211.09044 210.73145
 210.35946 210.08047 209.89949 209.77450 209.71351 210.05552 210.45253 210.85254
 211.65655 212.84557 214.10658 215.90059 217.83960 219.89361 221.99962 224.09364
 226.16465 228.25966 230.36767 232.48468 234.62469 236.80770 239.07472 241.45573
 244.08774 246.34975 248.36276 250.13877 251.56679 252.70080 253.53381 253.86082
 253.90883 253.69384 253.06486 252.02387 250.64088 248.81289 246.73290 244.57691
 242.37892 240.19394 238.02495 235.87496 233.74597 231.62398 229.66099 227.82901
 226.12302 224.60603 223.24704 222.03005 220.92306 219.89407 219.00909 218.16110
 217.41411 216.60512 215.71413 215.08914 214.55016 214.29968 213.65944 212.91455
 212.75748 212.55600 213.30627 215.24692 218.17891 222.12367 226.90175 231.38199
 235.12813 239.33315 243.56331 247.51912 251.16785 254.72345 258.24014 261.51099
 264.46881 267.10779 269.49683 271.74939 273.80283 275.59711 277.17093 278.50711
 279.67542 280.57138 281.64740 282.97723 284.26456 285.40353 286.44266 287.38403
 288.23071 288.98468 289.64334 290.48270
 366.78100 356.34374 345.78448 334.65922 323.07096 311.27370 299.15244 286.96419
 274.68493 262.59067 250.60841 239.91815 230.04889 221.16163 213.35237 206.36311
 200.20585 195.15259 191.74333 189.79407 188.83981 188.91256 189.75630 191.07304
 192.80678 194.91052 197.18226 199.55000 202.00374 204.49248 206.58922 208.43996
 210.07470 211.22844 211.46619 211.70293 211.64867 211.36241 211.00415 210.64289
 210.26863 209.98737 209.80411 209.67685 209.61359 209.95333 210.34807 210.74581
 211.54756 212.73430 213.99304 215.78478 217.72152 219.77326 221.87700 223.96874
 226.03748 228.13022 230.23596 232.35070 234.48844 236.66919 238.93393 241.31267
 243.94241 246.20215 248.21289 249.98663 251.41237 252.54411 253.37485 253.69959
 253.74533 253.52807 252.89682 251.85356 250.46830 248.63804 246.55578 244.39752
 242.19726 240.01000 237.83874 235.68648 233.55522 231.43096 229.46570 227.63144
 225.92319 224.40393 223.04267 221.82341 220.71415 219.68289 218.79563 217.94537
 217.19611 216.38485 215.49159 214.86433 214.32307 214.19182 213.80588 212.83315
 212.53642 212.47679 213.41052 215.36520 218.21892 222.10742 226.97668 231.41556
 235.16164 239.35654 243.58215 247.52554 251.16139 254.73424 258.24588 261.48105
 264.43567 267.05963 269.29236 271.39957 273.56750 275.49893 277.08612 278.35507
 279.48273 280.53748 281.53531 282.54507 283.70038 284.77634 285.75797 286.64728
 287.44711 288.15936 288.78159 289.57452
 366.78100 356.34110 345.77920 334.65130 323.06040 311.26050 299.13659 286.94569
 274.66379 262.56689 250.58199 239.88909 230.01719 221.12729 213.31539 206.32349
 200.16359 195.10769 191.69578 189.74388 188.78698 188.85708 189.69818 191.01228
 192.74338 194.84448 197.11358 199.47868 201.92978 204.41588 206.50997 208.35807
 209.99017 211.14127 211.37637 211.61047 211.55357 211.26467 210.90377 210.53987
 210.16297 209.87906 209.69316 209.56326 209.49736 209.83446 210.22656 210.62166
 211.42076 212.60486 213.86096 215.65006 217.58416 219.63325 221.73435 223.82345
 225.88955 227.97965 230.08275 232.19485 234.32995 236.50805 238.77015 241.14625
 243.77335 246.03044 248.03854 249.80964 251.23274 252.36184 253.18994 253.51204
 253.55514 253.33524 252.70134 251.65544 250.26753 248.43463 246.34973 244.18883
 241.98593 239.79603 237.62213 235.46723 233.33333 231.20643 229.23853 227.40163
 225.69072 224.16882 222.80492 221.58302 220.47112 219.43722 218.54732 217.69442
 216.94252 216.12862 215.23272 214.60282 214.05891 214.04266 213.95547 212.99541
 212.17899 212.15201 213.24062 215.27814 218.17625 222.09264 227.10275 231.51158
 235.27789 239.44858 243.67102 247.64127 251.30415 254.82864 258.26105 261.49463
 264.44952 267.04089 269.24545 271.35260 273.40506 275.26480 276.81332 278.17645
 279.38971 280.43253 281.47116 282.39487 283.23572 284.11349 285.05728 285.92871
 286.71246 287.41040 288.02008 288.79709
 366.78100 356.34083 345.77866 334.65048 323.05931 311.25914 299.13497 286.94379
 274.66162 262.56445 250.57928 239.88610 230.01393 221.12376 213.31159 206.31942
 200.15924 195.10307 191.69090 189.73873 188.78155 188.85138 189.69221 191.00604
 192.73686 194.83769 197.10652 199.47135 201.92218 204.40800 206.50183 208.34966
 209.98149 211.13231 211.36714 211.60097 211.54380 211.25462 210.89345 210.52928
 210.15211 209.86794 209.68176 209.55159 209.48542 209.82225 210.21407 210.60890
 211.40773 212.59156 213.84738 215.63621 217.57004 219.61887 221.71970 223.80852
 225.87435 227.96418 230.06701 232.17883 234.31366 236.49149 238.75332 241.12914
 243.75597 246.01280 248.02063 249.79146 251.21428 252.34311 253.17094 253.49277
 253.53559 253.31542 252.68125 251.63508 250.24690 248.41373 246.32856 244.16739
 241.96422 239.77404 237.59987 235.44470 233.31053 231.18335 229.21518 227.37801
 225.66684 224.14466 222.78049 221.55832 220.44615 219.41197 218.52180 217.66863
 216.91646 216.10229 215.20611 214.57594 214.03177 214.01350 213.94304 213.30290
 212.28757 212.01904 213.03850 215.06667 218.03496 222.01399 227.06844 231.49883
 235.29738 239.46782 243.70634 247.70166 251.39450 254.95441 258.36716 261.47263
 264.32544 266.90955 269.18359 271.07242 272.98749 274.80759 276.57550 278.17181
 279.44568 280.46631 281.32877 282.12469 282.89978 283.65457 284.46243 285.31653
 286.08469 286.76877 287.36633 288.12790
 366.78100 356.34129 345.77958 334.65186 323.06115 311.26144 299.13773 286.94702
 274.66530 262.56859 250.58388 239.89117 230.01945 221.12974 213.31803 206.32632
 200.16661 195.11089 191.69918 189.74747 188.79076 188.86105 189.70233 191.01662
 192.74791 194.84920 197.11849 199.48377 201.93506 204.42135 206.51564 208.36392
 209.99621 211.14750 211.38279 211.61708 211.56036 211.27165 210.91094 210.54723
 210.17052 209.88680 209.70109 209.57138 209.50567 209.84296 210.23524 210.63053
 211.42982 212.61411 213.87039 215.65968 217.59397 219.64326 221.74455 223.83383
 225.90012 227.99041 230.09370 232.20599 234.34127 236.51956 238.78185 241.15814
 243.78543 246.04271 248.05100 249.82229 251.24558 252.37486 253.20315 253.52544
 253.56873 253.34902 252.71530 251.66959 250.28188 248.44917 246.36446 244.20374
 242.00103 239.81132 237.63761 235.48290 233.34918 231.22247 229.25476 227.41805
 225.70733 224.18562 222.82191 221.60020 220.48849 219.45477 218.56506 217.71235
 216.96064 216.14693 215.25121 214.62150 214.07779 214.07324 213.96930 213.28690
 212.63680 212.44679 213.13828 215.01143 217.96619 221.98587 226.92099 231.46208
 235.22339 239.41034 243.63142 247.62024 251.37662 255.04865 258.54599 261.68921
 264.47839 266.95218 269.09406 270.99466 272.82358 274.72656 276.62399 278.23456
 279.52975 280.67734 281.50922 282.14249 282.69052 283.17538 283.61774 284.01849
 284.37894 284.69989 284.98029 285.33762
 366.78100 356.34063 345.77827 334.64990 323.05853 311.25816 299.13380 286.94243
 274.66006 262.56269 250.57733 239.88396 230.01159 221.12122 213.30886 206.31649
 200.15612 195.09976 191.68739 189.73502 188.77765 188.84729 189.68792 191.00155
 192.73218 194.83282 197.10145 199.46608 201.91672 204.40235 206.49598 208.34361
 209.97525 211.12588 211.36051 211.59414 211.53678 211.24741 210.88604 210.52167
 210.14431 209.85994 209.67357 209.54321 209.47684 209.81347 210.20510 210.59974
 211.39837 212.58200 213.83763 215.62627 217.55990 219.60853 221.70916 223.79780
 225.86343 227.95306 230.05570 232.16733 234.30196 236.47959 238.74123 241.11686
 243.74349 246.00012 248.00776 249.77839 251.20102 252.32965 253.15729 253.47892
 253.52155 253.30119 252.66682 251.62045 250.23208 248.39872 246.31335 244.15198
 241.94861 239.75825 237.58388 235.42851 233.29415 231.16678 229.19841 227.36104
 225.64968 224.12731 222.76294 221.54057 220.42821 219.39384 218.50347 217.65010
 216.89774 216.08337 215.18700 214.55664 214.01227 214.08441 214.03958 213.22591
 212.72166 212.51576 212.97211 214.93582 217.92464 221.89342 226.91203 231.42482
 235.19269 239.38437 243.61171 247.61571 251.39442 255.20688 258.86130 262.13364
 265.06244 267.66608 269.85083 271.70822 273.26816 274.82523 276.74457 278.38031
 279.46207 280.24301 280.91876 281.51215 282.02563 282.47998 282.89447 283.26999
 283.60773 283.90848 284.17120 284.50601
 366.78100 356.34062 345.77825 334.64987 323.05849 311.25811 299.13374 286.94236
 274.65998 262.56261 250.57723 239.88385 230.01147 221.12110 213.30872 206.31634
 200.15597 195.09959 191.68721 189.73484 188.77746 188.84708 189.68770 191.00133
 192.73195 194.83257 197.10120 199.46582 201.91644 204.40206 206.49569 208.34331
 209.97493 211.12556 211.36018 211.59380 211.53642 211.24705 210.88567 210.52129
 210.14392 209.85954 209.67316 209.54279 209.47641 209.81303 210.20465 210.59928
 211.39790 212.58152 213.83715 215.62577 217.55939 219.60801 221.70864 223.79726
 225.86288 227.95251 230.05513 232.16675 234.30137 236.47900 238.74062 241.11624
 243.74287 245.99949 248.00711 249.77774 251.20036 252.32898 253.15660 253.47823
 253.52085 253.30047 252.66610 251.61972 250.23134 248.39796 246.31259 244.15121
 241.94783 239.75746 237.58308 235.42770 233.29332 231.16595 229.19757 227.36019
 225.64882 224.12644 222.76206 221.53969 220.42731 219.39293 218.50255 217.64918
 216.89680 216.08242 215.18605 214.55567 214.01129 214.07805 214.06091 213.27081
 212.73125 212.53706 213.00902 214.77803 217.80942 221.91960 226.84706 231.39485
 235.13116 239.28743 243.45653 247.39749 251.18147 255.01997 258.75058 262.15332
 265.34198 268.27502 270.81628 272.88745 274.62381 275.99979 276.76688 278.23239
 279.60504 281.39478 283.02115 284.44925 285.68512 286.77856 287.77615 288.67990
 289.49274 290.21655 290.84888 291.65469
 366.78100 356.34131 345.77961 334.65192 323.06123 311.26153 299.13784 286.94714
 274.66545 262.56876 250.58406 239.89137 230.01968 221.12998 213.31829 206.32660
 200.16690 195.11121 191.69951 189.74782 188.79113 188.86143 189.70274 191.01705
 192.74835 194.84966 197.11897 199.48427 201.93558 204.42188 206.51619 208.36450
 209.99680 211.14811 211.38342 211.61772 211.56103 211.27234 210.91164 210.54795
 210.17125 209.88756 209.70187 209.57217 209.50648 209.84379 210.23609 210.63140
 211.43071 212.61501 213.87132 215.66062 217.59493 219.64424 221.74554 223.83485
 225.90116 227.99146 230.09477 232.20708 234.34238 236.52069 238.78299 241.15930
 243.78661 246.04391 248.05222 249.82353 251.24683 252.37614 253.20444 253.52675
 253.57006 253.35036 252.71667 251.67098 250.28328 248.45059 246.36590 244.20520
 242.00251 239.81281 237.63912 235.48443 233.35073 231.22404 229.25635 227.41965
 225.70896 224.18727 222.82357 221.60188 220.49018 219.45649 218.56680 217.71410
 216.96241 216.14872 215.25302 214.62333 214.07964 214.09140 214.02693 213.35725
 212.77737 212.49388 213.09241 214.85524 217.83942 221.93449 226.81090 231.39912
 235.10358 239.26924 243.42879 247.30428 250.97337 254.65331 258.22543 261.52051
 264.67981 267.72195 270.48669 272.78116 274.68979 276.22958 277.30420 278.30042
 279.95834 281.41754 282.91129 284.51614 285.91083 287.14474 288.27054 289.29041
 290.20770 291.02454 291.73810 292.64746
 366.78100 356.34083 345.77865 334.65048 323.05931 311.25914 299.13496 286.94379
 274.66162 262.56444 250.57927 239.88610 230.01392 221.12375 213.31158 206.31941
 200.15923 195.10306 191.69089 189.73871 188.78154 188.85137 189.69220 191.00602
 192.73685 194.83768 197.10650 199.47133 201.92216 204.40799 206.50181 208.34964
 209.98147 211.13229 211.36712 211.60095 211.54377 211.25460 210.89343 210.52926
 210.15208 209.86791 209.68174 209.55156 209.48539 209.82222 210.21405 210.60887
 211.40770 212.59153 213.84735 215.63618 217.57001 219.61884 221.71966 223.80849
 225.87432 227.96414 230.06697 232.17880 234.31362 236.49145 238.75328 241.12911
 243.75593 246.01276 248.02059 249.79141 251.21424 252.34307 253.17090 253.49272
 253.53555 253.31538 252.68120 251.63503 250.24686 248.41368 246.32851 244.16734
 241.96417 239.77399 237.59982 235.44465 233.31047 231.18330 229.21513 227.37796
 225.66678 224.14461 222.78044 221.55826 220.44609 219.41192 218.52175 217.66857
 216.91640 216.10223 215.20605 214.57588 214.03171 214.05862 214.05563 213.37691
 212.76805 212.42464 213.05353 214.81935 217.77908 221.85692 226.83311 231.38078
 235.13345 239.31444 243.51367 247.42783 251.07535 254.71790 258.24911 261.38693
 264.35162 267.27020 270.01410 272.36292 274.28857 275.85455 277.11102 278.29178
 279.73187 281.24323 282.66223 284.00253 285.25671 286.42047 287.48224 288.44409
 289.30920 290.07956 290.75256 291.61020
 366.78100 356.34071 345.77843 334.65014 323.05885 311.25857 299.13428 286.94299
 274.66071 262.56342 250.57813 239.88485 230.01256 221.12227 213.30999 206.31770
 200.15741 195.10113 191.68884 189.73655 188.77926 188.84898 189.68969 191.00340
 192.73412 194.83483 197.10354 199.46826 201.91897 204.40468 206.49840 208.34611
 209.97782 211.12854 211.36325 211.59696 211.53968 211.25039 210.88910 210.52482
 210.14753 209.86324 209.67696 209.54667 209.48038 209.81710 210.20881 210.60352
 211.40224 212.58595 213.84166 215.63038 217.56409 219.61280 221.71352 223.80223
 225.86794 227.95766 230.06037 232.17208 234.30679 236.48451 238.74622 241.12193
 243.74865 246.00536 248.01307 249.78379 251.20650 252.33521 253.16293 253.48464
 253.52735 253.30707 252.67278 251.62649 250.23821 248.40492 246.31963 244.15835
 241.95506 239.76477 237.59049 235.43520 233.30091 231.17363 229.20534 227.36805
 225.65677 224.13448 222.77019 221.54791 220.43562 219.40133 218.51105 217.65776
 216.90547 216.09118 215.19490 214.56461 214.02032 214.03612 214.05272 213.54694
 212.69284 212.20134 212.90102 214.71822 217.66714 221.73798 226.84793 231.27527
 235.10490 239.26988 243.49562 247.47179 251.19629 254.85133 258.38272 261.54980
 264.42645 267.21017 269.88318 272.22549 274.11813 275.71426 277.11401 278.41290
 279.73914 281.04672 282.28650 283.42117 284.45486 285.46075 286.45032 287.42865
 288.30856 289.09210 289.77661 290.64893
 366.78100 356.34131 345.77963 334.65194 323.06125 311.26157 299.13788 286.94719
 274.66551 262.56882 250.58413 239.89145 230.01976 221.13007 213.31839 206.32670
 200.16701 195.11132 191.69964 189.74795 188.79126 188.86158 189.70289 191.01720
 192.74852 194.84983 197.11914 199.48446 201.93577 204.42208 206.51640 208.36471
 209.99702 211.14834 211.38365 211.61796 211.56128 211.27259 210.91190 210.54822
 210.17153 209.88784 209.70216 209.57247 209.50678 209.84410 210.23641 210.63172
 211.43103 212.61535 213.87166 215.66097 217.59529 219.64460 221.74591 223.83523
 225.90154 227.99185 230.09517 232.20748 234.34279 236.52111 238.78342 241.15973
 243.78705 246.04436 248.05267 249.82399 251.24730 252.37661 253.20493 253.52724
 253.57055 253.35087 252.71718 251.67149 250.28380 248.45112 246.36643 244.20574
 242.00306 239.81337 237.63968 235.48500 233.35131 231.22462 229.25694 227.42025
 225.70956 224.18788 222.82419 221.60250 220.49082 219.45713 218.56744 217.71476
 216.96307 216.14938 215.25370 214.62401 214.08032 214.05919 214.00658 213.67935
 212.95578 212.24608 212.78572 214.61337 217.56447 221.65497 226.85323 231.15623
 235.03769 239.17398 243.39651 247.37051 251.12376 254.83154 258.44196 261.66022
 264.50659 267.19437 269.78055 272.06735 273.92792 275.53647 277.02176 278.38342
 279.68869 281.03781 282.29367 283.41879 284.30917 285.07703 285.92117 286.78024
 287.60867 288.39563 289.08307 289.95914
 366.78100 356.34103 345.77906 334.65108 323.06011 311.26014 299.13617 286.94520
 274.66322 262.56625 250.58128 239.88831 230.01633 221.12636 213.31439 206.32242
 200.16245 195.10647 191.69450 189.74253 188.78556 188.85559 189.69661 191.01064
 192.74167 194.84270 197.11172 199.47675 201.92778 204.41381 206.50784 208.35586
 209.98789 211.13892 211.37395 211.60798 211.55100 211.26203 210.90106 210.53709
 210.16012 209.87614 209.69017 209.56020 209.49423 209.83125 210.22328 210.61831
 211.41734 212.60137 213.85739 215.64642 217.58045 219.62948 221.73051 223.81953
 225.88556 227.97559 230.07862 232.19065 234.32567 236.50370 238.76573 241.14176
 243.76878 246.02581 248.03384 249.80487 251.22790 252.35692 253.18495 253.50698
 253.55001 253.33004 252.69606 251.65009 250.26212 248.42915 246.34417 244.18320
 241.98023 239.79026 237.61629 235.46131 233.32734 231.20037 229.23240 227.39543
 225.68445 224.16248 222.79851 221.57654 220.46457 219.43059 218.54062 217.68765
 216.93568 216.12170 215.22573 214.59576 214.05179 214.05945 214.06659 213.61699
 213.01791 212.31552 212.70659 214.53833 217.52612 221.62520 226.81023 231.20561
 234.99164 239.14653 243.33339 247.28391 251.04080 254.79025 258.44693 261.73657
 264.63318 267.28964 269.80234 272.02075 273.80774 275.36511 276.85004 278.25986
 279.63565 281.00226 282.28931 283.38110 284.27692 285.19632 286.13364 287.04471
 287.93829 288.73407 289.42923 290.31516
 366.78100 356.34181 345.78061 334.65342 323.06323 311.26403 299.14084 286.95065
 274.66945 262.57326 250.58907 239.89687 230.02568 221.13649 213.32529 206.33410
 200.17490 195.11971 191.70852 189.75732 188.80113 188.87194 189.71374 191.02855
 192.76036 194.86216 197.13197 199.49778 201.94958 204.43639 206.53120 208.38000
 210.01281 211.16462 211.40042 211.63523 211.57904 211.29084 210.93065 210.56746
 210.19126 209.90807 209.72287 209.59368 209.52849 209.86629 210.25910 210.65491
 211.45471 212.63952 213.89633 215.68613 217.62094 219.67075 221.77255 223.86236
 225.92917 228.01997 230.12378 232.23659 234.37239 236.55120 238.81401 241.19081
 243.81862 246.07643 248.08523 249.85704 251.28084 252.41065 253.23946 253.56226
 253.60607 253.38688 252.75368 251.70849 250.32130 248.48910 246.40491 244.24472
 242.04252 239.85333 237.68014 235.52594 233.39275 231.26656 229.29936 227.46317
 225.75298 224.23178 222.86859 221.64740 220.53620 219.50301 218.61381 217.76162
 217.01043 216.19723 215.30204 214.67285 214.12965 214.11197 214.05756 213.71211
 212.89755 212.16417 212.60889 214.48326 217.52158 221.63297 226.80659 231.27516
 235.02193 239.19055 243.36678 247.30174 251.04698 254.80547 258.48514 261.83264
 264.79022 267.45050 269.94012 272.13913 273.85419 275.32471 276.77258 278.12073
 279.57755 280.97412 282.20090 283.44174 284.61725 285.66617 286.71149 287.71362
 288.61493 289.41757 290.11871 291.01227
 366.78100 356.34375 345.78450 334.65925 323.07100 311.27375 299.15250 286.96425
 274.68500 262.59075 250.60850 239.91825 230.04900 221.16175 213.35250 206.36325
 200.20600 195.15275 191.74350 189.79425 188.83999 188.91274 189.75649 191.07324
 192.80699 194.91074 197.18249 199.55024 202.00399 204.49274 206.58949 208.44024
 210.07499 211.22874 211.46649 211.70324 211.64899 211.36274 211.00449 210.64324
 210.26899 209.98774 209.80449 209.67724 209.61399 209.95374 210.34849 210.74624
 211.54799 212.73474 213.99349 215.78524 217.72199 219.77374 221.87749 223.96924
 226.03799 228.13074 230.23649 232.35124 234.48898 236.66973 238.93448 241.31323
 243.94298 246.20273 248.21348 249.98723 251.41298 252.54473 253.37548 253.70023
 253.74598 253.52873 252.89748 251.85423 250.46898 248.63873 246.55648 244.39823
 242.19798 240.01073 237.83948 235.68723 233.55598 231.43173 229.46648 227.63223
 225.92398 224.40473 223.04348 221.82423 220.71498 219.68373 218.79648 217.94623
 217.19698 216.38573 215.49248 214.86522 214.32397 214.20871 213.94711 213.94832
 212.96933 212.01682 212.49266 214.39940 217.47379 221.60301 226.80177 231.27432
 235.03589 239.21439 243.39409 247.31593 251.03366 254.76886 258.45151 261.83249
 264.84460 267.53348 269.99915 272.14523 273.79044 275.21671 276.63727 278.02151
 279.56097 280.99506 282.33109 283.66141 284.85596 285.90869 286.91333 287.91278
 288.81171 289.61218 290.31146 291.20264
 366.78100 356.34394 345.78488 334.65981 323.07175 311.27469 299.15363 286.96557
 274.68650 262.59244 250.61038 239.92032 230.05125 221.16419 213.35513 206.36607
 200.20901 195.15594 191.74688 189.79782 188.84376 188.91670 189.76063 191.07757
 192.81151 194.91545 197.18739 199.55532 202.00926 204.49820 206.59514 208.44607
 210.08101 211.23495 211.47289 211.70983 211.65576 211.36970 211.01164 210.65058
 210.27652 209.99545 209.81239 209.68533 209.62227 209.96220 210.35714 210.75508
 211.55702 212.74396 214.00289 215.79483 217.73177 219.78371 221.88765 223.97958
 226.04852 228.14146 230.24740 232.36234 234.50027 236.68121 238.94615 241.32509
 243.95502 246.21496 248.22590 249.99984 251.42578 252.55771 253.38865 253.71359
 253.75953 253.54247 252.91140 251.86834 250.48328 248.65322 246.57116 244.41309
 242.21303 240.02597 237.85491 235.70284 233.57178 231.44772 229.48266 227.64860
 225.94053 224.42147 223.06041 221.84135 220.73229 219.70122 218.81416 217.96410
 217.21504 216.40398 215.51091 214.88385 214.34279 214.22568 213.95822 213.95621
 213.24965 212.05519 212.34492 214.26080 217.38182 221.53232 226.73929 231.21095
 234.99648 239.18341 243.36227 247.26282 250.94801 254.66039 258.32858 261.71130
 264.76700 267.50797 269.98380 272.09286 273.65390 275.02087 276.42175 277.89285
 279.51782 280.99484 282.41608 283.78079 284.97589 286.01559 287.00885 288.01672
 288.92319 289.73038 290.43555 291.33420
 366.78100 356.34200 345.78099 334.65399 323.06398 311.26498 299.14197 286.95197
 274.67096 262.57496 250.59096 239.89895 230.02795 221.13894 213.32794 206.33693
 200.17793 195.12293 191.71192 189.76092 188.80491 188.87591 189.71790 191.03290
 192.76489 194.86689 197.13689 199.50288 201.95488 204.44187 206.53687 208.38586
 210.01886 211.17085 211.40685 211.64185 211.58584 211.29784 210.93783 210.57483
 210.19882 209.91582 209.73082 209.60181 209.53681 209.87480 210.26780 210.66379
 211.46379 212.64878 213.90578 215.69578 217.63077 219.68077 221.78276 223.87276
 225.93975 228.03075 230.13474 232.24774 234.38374 236.56273 238.82573 241.20272
 243.83072 246.08871 248.09771 249.86970 251.29370 252.42370 253.25269 253.57569
 253.61968 253.40068 252.76767 251.72267 250.33567 248.50366 246.41966 244.25965
 242.05765 239.86864 237.69564 235.54163 233.40863 231.28263 229.31562 227.47962
 225.76961 224.24861 222.88560 221.66460 220.55359 219.52059 218.63159 217.77958
 217.02858 216.21557 215.32057 214.69156 214.14856 214.15311 214.13780 213.73158
 213.43767 212.24821 212.33487 214.20425 217.34178 221.50011 226.68376 231.18764
 234.96738 239.17188 243.35751 247.25134 250.91446 254.60378 258.23724 261.60532
 264.67905 267.45975 269.97794 272.05008 273.52277 274.85254 276.30682 277.91571
 279.54102 281.04868 282.56058 283.95023 285.17578 286.29022 287.42334 288.44989
 289.37314 290.19531 290.91351 291.82883
 366.78100 356.33972 345.77643 334.64715 323.05486 311.25358 299.12829 286.93601
 274.65273 262.55444 250.56816 239.87387 230.00059 221.10930 213.29602 206.30273
 200.14145 195.08417 191.67088 189.71760 188.75931 188.82803 189.66774 190.98046
 192.71018 194.80989 197.07761 199.44132 201.89104 204.37575 206.46847 208.31518
 209.94590 211.09562 211.32933 211.56205 211.50376 211.21348 210.85119 210.48591
 210.10763 209.82234 209.63506 209.50377 209.43649 209.77220 210.16292 210.55663
 211.35435 212.53707 213.79178 215.57950 217.51221 219.55993 221.65964 223.74736
 225.81208 227.90079 230.00251 232.11322 234.24694 236.42365 238.68437 241.05908
 243.68480 245.94052 247.94723 249.71695 251.13866 252.26638 253.09309 253.41381
 253.45553 253.23424 252.59896 251.55167 250.16239 248.32810 246.24182 244.07953
 241.87525 239.68397 237.50868 235.35240 233.21711 231.08883 229.11954 227.28126
 225.56898 224.04569 222.68041 221.45712 220.34384 219.30855 218.41727 217.56298
 216.80970 215.99442 215.09713 214.46585 213.92056 214.06606 214.31746 213.61754
 213.43811 212.48575 212.50172 214.23212 217.30600 221.45358 226.62912 231.14145
 234.94379 239.18018 243.39705 247.31900 250.98688 254.66434 258.28156 261.63800
 264.70700 267.50900 270.03799 272.09155 273.52322 274.68994 276.12045 277.83463
 279.54047 281.19687 282.76428 284.21091 285.56790 286.85999 288.03885 289.10681
 290.06729 290.92264 291.66983 292.62207
 366.78100 356.34010 345.77720 334.64829 323.05639 311.25549 299.13059 286.93869
 274.65579 262.55788 250.57198 239.87808 230.00518 221.11428 213.30137 206.30847
 200.14757 195.09067 191.67777 189.72487 188.76696 188.83606 189.67616 190.98926
 192.71936 194.81945 197.08755 199.45165 201.90175 204.38685 206.47994 208.32704
 209.95814 211.10824 211.34234 211.57544 211.51753 211.22763 210.86573 210.50083
 210.12293 209.83802 209.65112 209.52022 209.45332 209.78942 210.18052 210.57461
 211.37271 212.55581 213.81091 215.59901 217.53210 219.58020 221.68030 223.76840
 225.83350 227.92260 230.02469 232.13579 234.26989 236.44699 238.70809 241.08318
 243.70928 245.96538 247.97248 249.74258 251.16468 252.29277 253.11987 253.44097
 253.48307 253.26217 252.62726 251.58036 250.19146 248.35756 246.27166 244.10976
 241.90585 239.71495 237.54005 235.38415 233.24925 231.12134 229.15244 227.31454
 225.60264 224.07974 222.71483 221.49193 220.37903 219.34413 218.45323 217.59933
 216.84642 216.03152 215.13462 214.50372 213.95882 214.09993 214.33493 213.75511
 213.24841 212.63673 212.70456 214.25159 217.22005 221.34587 226.51823 230.99947
 234.83432 239.11095 243.36626 247.31551 251.01697 254.72406 258.36591 261.76630
 264.87567 267.72711 270.32843 272.48398 273.92194 275.05099 276.32755 277.91068
 279.65857 281.45779 283.09888 284.76013 286.30905 287.67947 288.92975 290.06244
 291.08115 291.98831 292.78079 293.79074
 366.78100 356.34290 345.78280 334.65671 323.06761 311.26951 299.14741 286.95832
 274.67822 262.58312 250.60002 239.90893 230.03883 221.15073 213.34063 206.35054
 200.19244 195.13834 191.72824 189.77815 188.82305 188.89495 189.73785 191.05376
 192.78666 194.88956 197.16046 199.52737 201.98027 204.46817 206.56407 208.41398
 210.04788 211.20078 211.43768 211.67358 211.61849 211.33139 210.97229 210.61019
 210.23510 209.95300 209.76890 209.64080 209.57671 209.91561 210.30951 210.70641
 211.50732 212.69322 213.95112 215.74202 217.67793 219.72883 221.83173 223.92263
 225.99054 228.08244 230.18734 232.30124 234.43815 236.61805 238.88195 241.25985
 243.88876 246.14766 248.15756 249.93046 251.35536 252.48627 253.31617 253.64007
 253.68497 253.46688 252.83478 251.79068 250.40458 248.57349 246.49039 244.33129
 242.13019 239.94210 237.77000 235.61690 233.48480 231.35971 229.39361 227.55851
 225.84941 224.32932 222.96722 221.74712 220.63702 219.60493 218.71683 217.86573
 217.11563 216.30354 215.40944 214.78134 214.23924 214.23592 214.21945 213.97849
 213.09810 212.53694 212.81299 214.35889 217.25787 221.33224 226.44922 230.91768
 234.73706 239.00343 243.22920 247.16750 250.89700 254.63533 258.29398 261.71478
 264.86432 267.78409 270.48138 272.78403 274.40109 275.60062 276.86008 278.28317
 280.02237 281.84259 283.49887 285.23334 286.83029 288.24319 289.53223 290.70004
 291.75034 292.68564 293.50269 294.54395
 366.78100 356.34564 345.78829 334.66493 323.07858 311.28322 299.16387 286.97751
 274.70016 262.60780 250.62745 239.93909 230.07174 221.18638 213.37903 206.39167
 200.23632 195.18496 191.77761 189.83025 188.87790 188.95254 189.79819 191.11683
 192.85248 194.95812 197.23177 199.60141 202.05706 204.54770 206.64635 208.49899
 210.13564 211.29128 211.53093 211.76957 211.71722 211.43286 211.07651 210.71715
 210.34480 210.06544 209.88409 209.75873 209.69738 210.03902 210.43566 210.83531
 211.63895 212.82760 214.08824 215.88189 217.82053 219.87418 221.97982 224.07347
 226.14411 228.23876 230.34640 232.46305 234.60269 236.78534 239.05198 241.43263
 244.06427 246.32592 248.33856 250.11421 251.54185 252.67550 253.50814 253.83479
 253.88243 253.66708 253.03772 251.99637 250.61301 248.78466 246.70430 244.54795
 242.34959 240.16424 237.99488 235.84453 233.71517 231.59282 229.62946 227.79711
 226.09075 224.57340 223.21404 221.99668 220.88933 219.85997 218.97462 218.12626
 217.37891 216.56955 215.67820 215.05284 214.51349 214.37282 214.10318 214.14716
 213.15222 212.28398 212.70459 214.47926 217.42117 221.45216 226.57552 230.96448
 234.72208 238.97411 243.17937 247.08118 250.77045 254.47662 258.10846 261.48068
 264.56332 267.44257 270.13821 272.38193 273.93829 275.25311 276.71503 278.33630
 280.29373 282.12933 283.80545 285.56470 287.14017 288.53406 289.80576 290.95786
 291.99402 292.91672 293.72278 294.75003
 366.78100 356.34759 345.79219 334.67078 323.08637 311.29297 299.17556 286.99116
 274.71575 262.62534 250.64694 239.96053 230.09512 221.21172 213.40631 206.42091
 200.26750 195.21809 191.81269 189.86728 188.91687 188.99347 189.84106 191.16166
 192.89925 195.00684 197.28244 199.65403 202.11162 204.60422 206.70481 208.55941
 210.19800 211.35559 211.59719 211.83778 211.78737 211.50497 211.15056 210.79316
 210.42275 210.14534 209.96594 209.84253 209.78312 210.12672 210.52531 210.92691
 211.73250 212.92309 214.18569 215.98128 217.92187 219.97747 222.08506 224.18066
 226.25325 228.34984 230.45944 232.57803 234.71962 236.90422 239.17281 241.55541
 244.18900 246.45259 248.46719 250.24478 251.67437 252.80997 253.64456 253.97316
 254.02275 253.80934 253.18194 252.14253 250.76112 248.93472 246.85631 244.70191
 242.50550 240.32209 238.15469 236.00628 233.87887 231.75847 229.79706 227.96666
 226.26225 224.74684 223.38944 222.17403 221.06862 220.04122 219.15781 218.31141
 217.56600 216.75859 215.86919 215.24578 214.70837 214.49544 214.09210 214.16275
 213.36809 212.23949 212.44173 214.32599 217.38031 221.45534 226.70343 231.08104
 234.79924 238.98141 243.16730 247.09659 250.82706 254.51820 258.12082 261.47174
 264.50455 267.31396 269.88501 271.94135 273.32028 274.58411 276.19223 278.48618
 280.66760 282.74872 284.73004 286.46976 287.97537 289.30743 290.52274 291.62372
 292.61392 293.49573 294.26602 295.24771
 366.78100 356.34541 345.78781 334.66422 323.07762 311.28203 299.16244 286.97584
 274.69825 262.60565 250.62506 239.93647 230.06887 221.18328 213.37568 206.38809
 200.23249 195.18090 191.77331 189.82571 188.87312 188.94752 189.79293 191.11134
 192.84674 194.95215 197.22555 199.59496 202.05037 204.54077 206.63918 208.49158
 210.12799 211.28340 211.52280 211.76121 211.70861 211.42402 211.06743 210.70783
 210.33524 210.05564 209.87405 209.74846 209.68686 210.02827 210.42467 210.82408
 211.62748 212.81589 214.07630 215.86970 217.80811 219.86151 221.96692 224.06033
 226.13073 228.22514 230.33254 232.44895 234.58836 236.77076 239.03717 241.41757
 244.04898 246.31039 248.32279 250.09820 251.52560 252.65901 253.49142 253.81782
 253.86523 253.64963 253.02004 251.97845 250.59485 248.76626 246.68566 244.52907
 242.33047 240.14488 237.97529 235.82469 233.69510 231.57250 229.60891 227.77632
 226.06972 224.55213 223.19253 221.97494 220.86735 219.83775 218.95216 218.10356
 217.35597 216.54638 215.65478 215.02919 214.48959 214.43396 214.23219 214.03529
 213.67694 212.39902 212.15411 214.04834 217.22169 221.30827 226.61436 231.03249
 234.77487 238.96999 243.17613 247.14091 250.90852 254.63007 258.26871 261.65802
 264.74097 267.57007 270.12317 272.14133 273.49252 274.60614 276.33902 278.74884
 281.13977 283.56815 285.66949 287.51465 289.11145 290.52423 291.81317 292.98087
 294.03107 294.96628 295.78326 296.82443
 366.78100 356.34259 345.78217 334.65576 323.06634 311.26793 299.14552 286.95610
 274.67569 262.58027 250.59686 239.90545 230.03503 221.14662 213.33621 206.34579
 200.18738 195.13296 191.72255 189.77214 188.81672 188.88831 189.73089 191.04648
 192.77907 194.88165 197.15224 199.51882 201.97141 204.45900 206.55458 208.40417
 210.03776 211.19034 211.42693 211.66251 211.60710 211.31969 210.96027 210.59786
 210.22244 209.94003 209.75562 209.62720 209.56279 209.90137 210.29496 210.69155
 211.49213 212.67772 213.93531 215.72589 217.66148 219.71206 221.81465 223.90524
 225.97282 228.06441 230.16899 232.28258 234.41917 236.59875 238.86234 241.23992
 243.86851 246.12710 248.13668 249.90927 251.33386 252.46444 253.29403 253.61761
 253.66220 253.44379 252.81137 251.76696 250.38054 248.54913 246.46572 244.30630
 242.10489 239.91647 237.74406 235.59065 233.45823 231.33282 229.36641 227.53099
 225.82158 224.30116 222.93875 221.71834 220.60792 219.57551 218.68709 217.83568
 217.08527 216.27285 215.37844 214.75002 214.20761 214.33270 214.38152 213.88672
 213.84511 212.75999 212.19548 213.89374 217.03944 221.16130 226.42497 230.86443
 234.63376 238.84991 243.05426 247.02118 250.80786 254.57019 258.25333 261.70612
 264.86795 267.77753 270.42020 272.59769 274.00363 275.02679 276.53912 278.95212
 281.43817 283.80719 285.85715 287.65720 289.21497 290.59320 291.85062 292.98978
 294.01431 294.92667 295.72366 296.73938
 366.78100 356.34209 345.78118 334.65427 323.06436 311.26545 299.14254 286.95262
 274.67171 262.57580 250.59189 239.89998 230.02907 221.14016 213.32925 206.33834
 200.17943 195.12452 191.71361 189.76270 188.80679 188.87787 189.71996 191.03505
 192.76714 194.86923 197.13932 199.50541 201.95750 204.44459 206.53968 208.38877
 210.02186 211.17395 211.41004 211.64512 211.58921 211.30130 210.94139 210.57848
 210.20257 209.91966 209.73475 209.60584 209.54093 209.87902 210.27211 210.66820
 211.46829 212.65337 213.91046 215.70055 217.63564 219.68573 221.78782 223.87791
 225.94500 228.03609 230.14018 232.25327 234.38936 236.56845 238.83154 241.20862
 243.83671 246.09480 248.10389 249.87598 251.30007 252.43016 253.25925 253.58234
 253.62643 253.40752 252.77461 251.72970 250.34279 248.51087 246.42696 244.26705
 242.06514 239.87623 237.70332 235.54941 233.41650 231.29059 229.32368 227.48777
 225.77786 224.25695 222.89404 221.67312 220.56221 219.52930 218.64039 217.78848
 217.03757 216.22466 215.32975 214.70084 214.15793 214.32764 214.45145 213.85237
 213.73285 212.93738 212.38371 213.97823 217.00282 221.09338 226.30157 230.75247
 234.53893 238.76886 242.97964 246.95683 250.75410 254.51682 258.19666 261.66098
 264.84988 267.78745 270.47681 272.71237 274.14249 275.02957 276.76514 279.23129
 281.86990 284.21378 286.24200 288.02292 289.56415 290.92776 292.17184 293.29889
 294.31256 295.21521 296.00378 297.00870
 366.78100 356.34451 345.78603 334.66154 323.07405 311.27757 299.15708 286.96959
 274.69111 262.59762 250.61613 239.92665 230.05816 221.17167 213.36319 206.37470
 200.21821 195.16573 191.75724 189.80875 188.85527 188.92878 189.77329 191.09081
 192.82532 194.92983 197.20235 199.57086 202.02537 204.51489 206.61240 208.46391
 210.09943 211.25394 211.49245 211.72997 211.67648 211.39099 211.03351 210.67302
 210.29953 210.01905 209.83656 209.71007 209.64759 209.98810 210.38361 210.78212
 211.58464 212.77215 214.03166 215.82418 217.76169 219.81420 221.91872 224.01123
 226.08074 228.17426 230.28077 232.39628 234.53480 236.71631 238.98182 241.36134
 243.99185 246.25236 248.26388 250.03839 251.46490 252.59742 253.42893 253.75444
 253.80096 253.58447 252.95398 251.91150 250.52701 248.69752 246.61604 244.45855
 242.25906 240.07258 237.90209 235.75060 233.62012 231.49663 229.53214 227.69866
 225.99117 224.47268 223.11220 221.89371 220.78522 219.75474 218.86825 218.01876
 217.27028 216.45979 215.56730 214.94082 214.40033 214.44772 214.41615 213.97186
 213.57106 212.84796 212.50398 214.06020 217.02417 221.08560 226.24847 230.68098
 234.47832 238.73734 242.97179 246.97633 250.80605 254.58270 258.27295 261.75763
 264.97751 267.94687 270.68042 272.95618 274.44171 275.16272 276.83719 279.38907
 282.18353 284.58005 286.65384 288.47476 290.05063 291.44489 292.71689 293.86926
 294.90570 295.82864 296.63492 297.66241
 366.78100 356.34742 345.79183 334.67025 323.08567 311.29209 299.17450 286.98992
 274.71434 262.62375 250.64517 239.95859 230.09300 221.20942 213.40384 206.41826
 200.26467 195.21509 191.80951 189.86392 188.91334 188.98976 189.83717 191.15759
 192.89501 195.00243 197.27784 199.64926 202.10668 204.59909 206.69951 208.55393
 210.19235 211.34976 211.59118 211.83160 211.78101 211.49843 211.14385 210.78626
 210.41568 210.13810 209.95852 209.83493 209.77535 210.11877 210.51718 210.91860
 211.72402 212.91444 214.17685 215.97227 217.91269 219.96810 222.07552 224.17094
 226.24335 228.33977 230.44919 232.56761 234.70902 236.89344 239.16186 241.54427
 244.17769 246.44111 248.45552 250.23294 251.66236 252.79778 253.63219 253.96061
 254.01003 253.79644 253.16886 252.12928 250.74770 248.92111 246.84253 244.68795
 242.49136 240.30778 238.14020 235.99161 233.86403 231.74345 229.78187 227.95128
 226.24670 224.73112 223.37353 222.15795 221.05237 220.02479 219.14120 218.29462
 217.54904 216.74145 215.85187 215.22829 214.69070 214.58492 214.33228 214.13985
 213.58716 212.69574 212.45740 214.05667 217.04840 221.09798 226.22125 230.64224
 234.40990 238.63278 242.84352 246.84720 250.68988 254.48012 258.18903 261.70840
 264.98755 268.05237 270.90613 273.44354 275.22775 275.88425 276.91196 279.30151
 281.78836 284.09238 286.08612 287.83679 289.35184 290.69226 291.91519 293.02307
 294.01950 294.90683 295.68198 296.66980
 366.78100 356.34828 345.79355 334.67283 323.08910 311.29638 299.17965 286.99593
 274.72120 262.63148 250.65375 239.96803 230.10330 221.22058 213.41585 206.43113
 200.27840 195.22968 191.82495 189.88023 188.93050 189.00778 189.85605 191.17733
 192.91560 195.02388 197.30016 199.67243 202.13071 204.62398 206.72526 208.58053
 210.21981 211.37808 211.62036 211.86163 211.81191 211.53018 211.17646 210.81973
 210.45001 210.17328 209.99456 209.87183 209.81311 210.15738 210.55666 210.95893
 211.76521 212.95648 214.21976 216.01604 217.95731 220.01359 222.12186 224.21814
 226.29141 228.38869 230.49896 232.61824 234.76051 236.94579 239.21506 241.59834
 244.23261 246.49689 248.51216 250.29044 251.72071 252.85699 253.69226 254.02154
 254.07181 253.85909 253.23236 252.19364 250.81292 248.98719 246.90947 244.75574
 242.56002 240.37729 238.21057 236.06284 233.93612 231.81639 229.85567 228.02594
 226.32222 224.80749 223.45077 222.23604 221.13132 220.10459 219.22187 218.37614
 217.63142 216.82469 215.93597 215.31324 214.77652 214.63474 214.30722 214.19670
 213.74759 212.62001 212.36465 213.95799 217.05240 221.16078 226.24797 230.64397
 234.37852 238.58987 242.79201 246.77171 250.57802 254.29718 257.92801 261.37839
 264.62292 267.71835 270.67267 273.32941 275.30469 276.20123 277.12000 279.23547
 281.41089 283.57318 285.47339 287.14194 288.58591 289.86343 291.02899 292.08493
 293.03461 293.88031 294.61908 295.56058
 366.78100 356.34639 345.78978 334.66717 323.08156 311.28695 299.16834 286.98273
 274.70612 262.61451 250.63490 239.94729 230.08068 221.19607 213.38946 206.40285
 200.24824 195.19763 191.79102 189.84441 188.89280 188.96819 189.81458 191.13397
 192.87036 194.97675 197.25114 199.62153 202.07792 204.56931 206.66870 208.52209
 210.15948 211.31587 211.55626 211.79565 211.74404 211.46043 211.10482 210.74621
 210.37461 210.09600 209.91539 209.79078 209.73017 210.07256 210.46995 210.87034
 211.67473 212.86412 214.12551 215.91990 217.85929 219.91368 222.02007 224.11446
 226.18585 228.28124 230.38963 232.50702 234.64741 236.83080 239.09819 241.47958
 244.11197 246.37436 248.38775 250.16414 251.59253 252.72692 253.56031 253.88770
 253.93609 253.72148 253.09287 252.05226 250.66965 248.84204 246.76243 244.60682
 242.40921 240.22460 238.05599 235.90638 233.77777 231.65616 229.69355 227.86194
 226.15633 224.63972 223.28111 222.06450 220.95789 219.92928 219.04467 218.19706
 217.45045 216.64184 215.75123 215.12662 214.58801 214.57468 214.41974 214.11118
 213.88855 212.69798 212.22784 213.85880 217.00172 221.09816 226.21568 230.60886
 234.35825 238.58481 242.82713 246.87436 250.72882 254.44225 258.01163 261.36359
 264.47995 267.44565 270.34396 272.99905 274.87082 275.86658 277.12231 279.30658
 281.60590 283.87369 285.83612 287.55923 289.05048 290.36984 291.57355 292.66403
 293.64478 294.51816 295.28113 296.25345
 366.78100 356.34462 345.78623 334.66185 323.07447 311.27808 299.15770 286.97031
 274.69193 262.59855 250.61716 239.92778 230.05940 221.17301 213.36463 206.37624
 200.21986 195.16748 191.75909 189.81071 188.85733 188.93094 189.77556 191.09317
 192.82779 194.93241 197.20502 199.57364 202.02826 204.51787 206.61549 208.46711
 210.10272 211.25734 211.49595 211.73357 211.68019 211.39480 211.03742 210.67704
 210.30365 210.02327 209.84088 209.71450 209.65212 209.99273 210.38835 210.78697
 211.58958 212.77720 214.03681 215.82943 217.76705 219.81966 221.92428 224.01690
 226.08651 228.18013 230.28674 232.40236 234.54098 236.72259 238.98821 241.36783
 243.99844 246.25906 248.27068 250.04529 251.47191 252.60452 253.43614 253.76176
 253.80837 253.59199 252.96161 251.91922 250.53484 248.70545 246.62407 244.46669
 242.26730 240.08092 237.91054 235.75915 233.62877 231.50538 229.54100 227.70762
 226.00023 224.48185 223.12147 221.90308 220.79470 219.76432 218.87793 218.02855
 217.28016 216.46978 215.57740 214.95101 214.41063 214.51456 214.53383 213.99045
 213.94231 212.97635 212.32094 213.72984 216.83823 220.94510 226.00082 230.41869
 234.21303 238.48093 242.77074 246.90984 250.87550 254.66599 258.26849 261.62793
 264.71277 267.55737 270.32297 273.03174 274.95261 275.95929 277.08463 279.37976
 281.73218 283.97638 285.91840 287.62360 289.09930 290.40494 291.59613 292.67529
 293.64584 294.51013 295.26517 296.22736
 366.78100 356.34588 345.78877 334.66565 323.07953 311.28442 299.16530 286.97918
 274.70207 262.60995 250.62983 239.94172 230.07460 221.18948 213.38237 206.39525
 200.24013 195.18902 191.78190 189.83478 188.88267 188.95755 189.80343 191.12232
 192.85820 194.96408 197.23797 199.60785 202.06373 204.55462 206.65350 208.50638
 210.14327 211.29915 211.53904 211.77792 211.72580 211.44169 211.08557 210.72645
 210.35434 210.07522 209.89410 209.76899 209.70787 210.04975 210.44664 210.84652
 211.65040 212.83929 214.10017 215.89405 217.83294 219.88682 221.99270 224.08659
 226.15747 228.25235 230.36024 232.47712 234.61700 236.79989 239.06677 241.44765
 244.07954 246.34142 248.35430 250.13019 251.55807 252.69195 253.52484 253.85172
 253.89960 253.68449 253.05537 252.01425 250.63114 248.80302 246.72290 244.56679
 242.36867 240.18355 238.01444 235.86432 233.73520 231.61309 229.64997 227.81785
 226.11174 224.59462 223.23550 222.01839 220.91127 219.88215 218.99704 218.14892
 217.40180 216.59269 215.70157 215.07645 214.53734 214.56842 214.53493 213.97992
 213.75851 213.31937 212.79272 213.87866 216.78946 220.88469 225.71625 230.19626
 233.96654 238.21846 242.50160 246.66125 250.69482 254.56593 258.22971 261.63022
 264.74768 267.62082 270.37558 272.95059 274.91931 276.17081 277.42590 279.35693
 281.47162 283.33371 285.08539 286.62698 287.96112 289.14145 290.21835 291.19394
 292.07138 292.85272 293.53531 294.40518
 366.78100 356.34731 345.79162 334.66993 323.08523 311.29154 299.17385 286.98916
 274.71347 262.62278 250.64409 239.95740 230.09170 221.20801 213.40232 206.41663
 200.26294 195.21325 191.80756 189.86187 188.91117 188.98748 189.83479 191.15510
 192.89241 194.99972 197.27503 199.64634 202.10364 204.59595 206.69626 208.55057
 210.18888 211.34619 211.58750 211.82780 211.77711 211.49442 211.13973 210.78204
 210.41135 210.13366 209.95397 209.83027 209.77058 210.11389 210.51220 210.91351
 211.71882 212.90913 214.17144 215.96674 217.90705 219.96236 222.06967 224.16498
 226.23729 228.33360 230.44290 232.56121 234.70252 236.88683 239.15514 241.53745
 244.17076 246.43407 248.44837 250.22568 251.65499 252.79030 253.62461 253.95292
 254.00223 253.78854 253.16084 252.12115 250.73946 248.91277 246.83408 244.67939
 242.48270 240.29901 238.13131 235.98262 233.85493 231.73424 229.77255 227.94186
 226.23717 224.72147 223.36378 222.14809 221.04240 220.01471 219.13102 218.28433
 217.53864 216.73094 215.84125 215.21756 214.67987 214.62437 214.48228 214.18379
 213.48181 213.02922 212.98088 214.15977 217.02206 221.01172 225.79535 230.15749
 233.88466 238.08379 242.31183 246.43785 250.47171 254.35356 258.01086 261.39996
 264.51535 267.40067 270.10306 272.56793 274.60315 276.13809 277.54160 279.19583
 281.13217 282.92343 284.46298 285.81345 286.99939 288.05197 289.01227 289.88226
 290.66470 291.36148 291.97018 292.74588
 366.78100 356.34801 345.79301 334.67202 323.08802 311.29503 299.17804 286.99404
 274.71905 262.62906 250.65106 239.96507 230.10007 221.21708 213.41209 206.42709
 200.27410 195.22511 191.82011 189.87512 188.92512 189.00213 189.85014 191.17114
 192.90915 195.01715 197.29316 199.66517 202.12317 204.61618 206.71719 208.57219
 210.21120 211.36920 211.61121 211.85222 211.80222 211.52023 211.16624 210.80924
 210.43925 210.16225 209.98326 209.86027 209.80127 210.14528 210.54428 210.94629
 211.75230 212.94330 214.20631 216.00232 217.94332 219.99933 222.10733 224.20334
 226.27635 228.37335 230.48336 232.60236 234.74437 236.92938 239.19838 241.58139
 244.21540 246.47940 248.49441 250.27241 251.70242 252.83843 253.67343 254.00244
 254.05245 253.83945 253.21246 252.17346 250.79247 248.96648 246.88848 244.73449
 242.53849 240.35550 238.18851 236.04051 233.91352 231.79353 229.83253 228.00254
 226.29854 224.78355 223.42656 222.21156 221.10657 220.07958 219.19658 218.35059
 217.60559 216.79860 215.90961 215.28661 214.74962 214.67685 214.49829 214.24785
 213.57784 212.72191 212.72351 214.16084 217.12482 221.14326 226.01546 230.27730
 233.96518 238.14703 242.37648 246.49428 250.50095 254.35394 257.99319 261.36334
 264.45517 267.28995 269.91238 272.29745 274.20236 275.72043 277.21295 278.98206
 280.90842 282.70834 284.30197 285.76294 287.06335 288.21387 289.26355 290.21448
 291.06973 291.83136 292.49667 293.34457
 366.78100 356.34588 345.78876 334.66563 323.07951 311.28439 299.16527 286.97914
 274.70202 262.60990 250.62978 239.94166 230.07453 221.18941 213.38229 206.39517
 200.24004 195.18892 191.78180 189.83468 188.88255 188.95743 189.80331 191.12219
 192.85807 194.96394 197.23782 199.60770 202.06358 204.55445 206.65333 208.50621
 210.14309 211.29897 211.53884 211.77772 211.72560 211.44148 211.08535 210.72623
 210.35411 210.07499 209.89386 209.76874 209.70762 210.04950 210.44638 210.84625
 211.65013 212.83901 214.09989 215.89376 217.83264 219.88652 221.99240 224.08628
 226.15715 228.25203 230.35991 232.47679 234.61666 236.79954 239.06642 241.44730
 244.07918 246.34105 248.35393 250.12981 251.55769 252.69156 253.52444 253.85132
 253.89920 253.68407 253.05495 252.01383 250.63071 248.80259 246.72246 244.56634
 242.36822 240.18310 238.01397 235.86385 233.73473 231.61261 229.64949 227.81736
 226.11124 224.59412 223.23500 222.01787 220.91075 219.88163 218.99651 218.14838
 217.40126 216.59214 215.70102 215.07590 214.53677 214.60730 214.66747 214.13046
 213.61754 212.71922 212.57913 214.06203 217.07726 221.13379 226.16481 230.36452
 234.02228 238.20621 242.47002 246.62299 250.63989 254.49059 258.12677 261.49597
 264.59299 267.41531 269.98526 272.29422 274.15567 275.59274 277.09363 278.85815
 280.80295 282.62497 284.34497 285.90164 287.24881 288.44070 289.52811 290.51324
 291.39926 292.18826 292.87750 293.75589
 366.78100 356.34420 345.78540 334.66060 323.07280 311.27600 299.15519 286.96739
 274.68859 262.59479 250.61299 239.92319 230.05439 221.16759 213.35879 206.36999
 200.21319 195.16038 191.75158 189.80278 188.84898 188.92218 189.76638 191.08358
 192.81778 194.92198 197.19418 199.56238 202.01658 204.50577 206.60297 208.45417
 210.08937 211.24357 211.48177 211.71897 211.66517 211.37937 211.02157 210.66077
 210.28696 210.00616 209.82336 209.69656 209.63376 209.97396 210.36916 210.76736
 211.56956 212.75676 214.01596 215.80815 217.74535 219.79755 221.90175 223.99395
 226.06315 228.15635 230.26255 232.37775 234.51595 236.69715 238.96235 241.34154
 243.97174 246.23194 248.24314 250.01734 251.44354 252.57574 253.40694 253.73214
 253.77834 253.56154 252.93073 251.88793 250.50313 248.67333 246.59153 244.43373
 242.23393 240.04713 237.87633 235.72453 233.59373 231.46992 229.50512 227.67132
 225.96352 224.44472 223.08392 221.86512 220.75632 219.72552 218.83872 217.98892
 217.24012 216.42931 215.53651 214.90971 214.36891 214.52943 214.80005 214.13556
 213.61009 212.74062 212.50977 213.96501 216.97942 221.07635 226.04750 230.32137
 233.98837 238.17145 242.43611 246.58675 250.60300 254.45845 258.10593 261.50412
 264.64682 267.52948 270.14362 272.47946 274.34698 275.81583 277.29730 278.94458
 280.48730 282.06134 283.61511 285.07257 286.38770 287.55127 288.61282 289.57452
 290.43948 291.20972 291.88260 292.74008
 366.78100 356.34549 345.78798 334.66447 323.07796 311.28245 299.16294 286.97643
 274.69892 262.60641 250.62590 239.93739 230.06988 221.18437 213.37686 206.38935
 200.23385 195.18234 191.77483 189.82732 188.87481 188.94930 189.79479 191.11328
 192.84877 194.95426 197.22775 199.59724 202.05273 204.54322 206.64171 208.49420
 210.13069 211.28618 211.52567 211.76416 211.71165 211.42714 211.07063 210.71112
 210.33861 210.05910 209.87759 209.75208 209.69057 210.03206 210.42855 210.82804
 211.63154 212.82003 214.08052 215.87401 217.81250 219.86599 221.97148 224.06497
 226.13546 228.22995 230.33744 232.45393 234.59342 236.77591 239.04240 241.42289
 244.05438 246.31587 248.32836 250.10385 251.53134 252.66483 253.49732 253.82381
 253.87130 253.65579 253.02628 251.98477 250.60126 248.77275 246.69224 244.53573
 242.33723 240.15172 237.98221 235.83170 233.70219 231.57968 229.61617 227.78366
 226.07715 224.55964 223.20013 221.98262 220.87511 219.84560 218.96009 218.11158
 217.36407 216.55456 215.66305 215.03754 214.49803 214.60039 214.77246 214.24318
 213.73235 212.77565 212.40840 213.84137 216.86761 220.97258 225.93253 230.23953
 233.91266 238.09120 242.35121 246.49652 250.49632 254.32298 257.94620 261.34366
 264.51019 267.42862 270.08658 272.45633 274.36960 275.83917 277.33551 278.99237
 280.56717 281.87216 283.05988 284.39960 285.70319 286.86203 287.91931 288.87711
 289.73856 290.50571 291.17584 292.02988
 366.78100 356.34629 345.78958 334.66688 323.08117 311.28646 299.16775 286.98204
 274.70533 262.61363 250.63392 239.94621 230.07950 221.19479 213.38808 206.40138
 200.24667 195.19596 191.78925 189.84254 188.89083 188.96613 189.81242 191.13171
 192.86800 194.97429 197.24858 199.61888 202.07517 204.56646 206.66575 208.51904
 210.15633 211.31263 211.55292 211.79221 211.74050 211.45679 211.10108 210.74238
 210.37067 210.09196 209.91125 209.78654 209.72584 210.06813 210.46542 210.86571
 211.67000 212.85929 214.12059 215.91488 217.85417 219.90846 222.01475 224.10904
 226.18034 228.27563 230.38392 232.50121 234.64150 236.82479 239.09209 241.47338
 244.10567 246.36796 248.38125 250.15754 251.58584 252.72013 253.55342 253.88071
 253.92900 253.71429 253.08559 252.04488 250.66217 248.83446 246.75475 244.59904
 242.40134 240.21663 238.04792 235.89821 233.76950 231.64780 229.68509 227.85338
 226.14767 224.63096 223.27225 222.05555 220.94884 219.92013 219.03542 218.18771
 217.44100 216.63230 215.74159 215.11688 214.57817 214.66246 214.78021 214.22728
 213.69878 212.79295 212.45261 213.89124 216.92004 220.99565 225.94701 230.21678
 233.88664 238.08179 242.36212 246.52272 250.52071 254.31776 257.90240 261.26990
 264.42734 267.34439 270.02045 272.44229 274.35950 275.89993 277.44409 279.05826
 280.51071 281.65677 283.00085 284.48901 285.82703 287.01083 288.09088 289.06934
 289.94934 290.73300 291.41757 292.29001
 366.78100 356.34485 345.78670 334.66255 323.07540 311.27926 299.15911 286.97196
 274.69381 262.60066 250.61951 239.93036 230.06221 221.17606 213.36792 206.37977
 200.22362 195.17147 191.76332 189.81517 188.86202 188.93587 189.78072 191.09858
 192.83343 194.93828 197.21113 199.57998 202.03483 204.52468 206.62253 208.47438
 210.11024 211.26509 211.50394 211.74179 211.68864 211.40349 211.04634 210.68619
 210.31305 210.03290 209.85075 209.72460 209.66245 210.00330 210.39915 210.79800
 211.60085 212.78871 214.04856 215.84141 217.77926 219.83211 221.93696 224.02981
 226.09966 228.19351 230.30037 232.41622 234.55507 236.73692 239.00277 241.38262
 244.01347 246.27432 248.28617 250.06103 251.48788 252.62073 253.45258 253.77843
 253.82528 253.60913 252.97898 251.93683 250.55269 248.72354 246.64239 244.48524
 242.28609 240.09994 237.92979 235.77864 233.64849 231.52535 229.56120 227.72805
 226.02090 224.50275 223.14260 221.92445 220.81630 219.78615 218.90001 218.05086
 217.30271 216.49256 215.60041 214.97426 214.43411 214.59760 214.90073 214.25496
 213.50371 212.59381 212.42545 213.92914 216.97476 221.04694 226.00212 230.29176
 233.93997 238.10725 242.38628 246.55818 250.55188 254.32123 257.85730 261.18472
 264.32837 267.26123 269.96698 272.40433 274.38556 275.95905 277.51590 279.10458
 280.54010 281.69547 282.77316 284.10379 285.40576 286.58224 287.65561 288.62802
 289.50259 290.28137 290.96173 291.82877
 366.78100 356.34414 345.78528 334.66042 323.07256 311.27571 299.15485 286.96699
 274.68813 262.59427 250.61241 239.92255 230.05369 221.16683 213.35798 206.36912
 200.21226 195.15940 191.75054 189.80168 188.84782 188.92096 189.76510 191.08225
 192.81639 194.92053 197.19267 199.56081 202.01495 204.50409 206.60123 208.45238
 210.08752 211.24166 211.47980 211.71694 211.66308 211.37722 211.01936 210.65850
 210.28465 210.00379 209.82093 209.69407 209.63121 209.97135 210.36649 210.76463
 211.56677 212.75392 214.01306 215.80520 217.74234 219.79448 221.89862 223.99076
 226.05990 228.15304 230.25919 232.37433 234.51247 236.69361 238.95875 241.33789
 243.96803 246.22817 248.23931 250.01346 251.43960 252.57174 253.40288 253.72802
 253.77416 253.55730 252.92644 251.88359 250.49873 248.66887 246.58701 244.42915
 242.22929 240.04243 237.87157 235.71971 233.58886 231.46500 229.50014 227.66628
 225.95842 224.43956 223.07870 221.85984 220.75098 219.72013 218.83327 217.98341
 217.23455 216.42369 215.53083 214.90397 214.36311 214.56499 214.97235 214.36711
 213.49048 212.43182 212.24940 213.70685 216.88393 221.04784 226.02641 230.32060
 233.96031 238.11311 242.39447 246.57957 250.57600 254.32263 257.81717 261.09637
 264.20959 267.12860 269.84433 272.31183 274.33411 275.98163 277.54276 279.02368
 280.28787 281.41547 282.57672 283.87015 285.09320 286.23740 287.28128 288.22699
 289.07755 289.83496 290.49664 291.33984
 366.78100 356.34526 345.78751 334.66377 323.07702 311.28128 299.16153 286.97479
 274.69704 262.60430 250.62355 239.93481 230.06706 221.18132 213.37357 206.38583
 200.23008 195.17834 191.77059 189.82285 188.87010 188.94436 189.78961 191.10787
 192.84312 194.94838 197.22163 199.59089 202.04614 204.53640 206.63466 208.48691
 210.12317 211.27842 211.51768 211.75593 211.70319 211.41844 211.06170 210.70195
 210.32921 210.04946 209.86772 209.74197 209.68023 210.02148 210.41774 210.81699
 211.62025 212.80850 214.06876 215.86201 217.80027 219.85352 221.95878 224.05203
 226.12229 228.21655 230.32380 232.44006 234.57931 236.76157 239.02782 241.40808
 244.03933 246.30059 248.31284 250.08810 251.51535 252.64861 253.48086 253.80712
 253.85437 253.63863 253.00888 251.96714 250.58339 248.75465 246.67390 244.51716
 242.31841 240.13267 237.96292 235.81218 233.68243 231.55969 229.59595 227.76320
 226.05646 224.53871 223.17897 221.96122 220.85348 219.82373 218.93799 218.08924
 217.34150 216.53175 215.64001 215.01426 214.47452 214.63470 214.94612 214.36519
 213.62300 212.42157 212.14217 213.53427 216.78539 221.03915 226.05302 230.34245
 233.97183 238.11816 242.40181 246.60780 250.62996 254.37813 257.85104 261.09485
 264.16861 267.04959 269.75626 272.25082 274.34122 276.09439 277.64304 279.01172
 280.19070 281.19116 282.05307 283.28598 284.55957 285.77316 286.88040 287.88348
 288.78564 289.58899 290.29080 291.18518
 366.78100 356.34572 345.78845 334.66517 323.07890 311.28362 299.16435 286.97807
 274.70080 262.60852 250.62825 239.93997 230.07269 221.18742 213.38014 206.39287
 200.23759 195.18632 191.77904 189.83177 188.87949 188.95422 189.79994 191.11866
 192.85439 194.96011 197.23384 199.60356 202.05929 204.55001 206.64874 208.50146
 210.13819 211.29391 211.53363 211.77236 211.72008 211.43581 211.07953 210.72026
 210.34798 210.06871 209.88743 209.76216 209.70088 210.04260 210.43933 210.83905
 211.64278 212.83150 214.09223 215.88595 217.82468 219.87840 221.98413 224.07785
 226.14857 228.24330 230.35102 232.46775 234.60747 236.79020 239.05692 241.43765
 244.06937 246.33110 248.34382 250.11954 251.54727 252.68099 253.51372 253.84044
 253.88817 253.67289 253.04362 252.00234 250.61906 248.79079 246.71051 244.55424
 242.35596 240.17069 238.00141 235.85114 233.72186 231.59959 229.63631 227.80403
 226.09776 224.58048 223.22121 222.00393 220.89666 219.86738 218.98211 218.13383
 217.38656 216.57728 215.68600 215.06073 214.52145 214.67310 214.96294 214.29326
 213.69345 212.40291 212.07066 213.45482 216.73416 221.03789 226.07022 230.35863
 233.97447 238.10133 242.37558 246.59204 250.63504 254.39558 257.86462 261.08765
 264.13147 266.98755 269.69308 272.22409 274.37750 276.16776 277.73203 279.10498
 280.13660 280.64111 280.98782 282.07361 283.31039 284.53711 285.65631 286.67026
 287.58215 288.39423 289.10361 290.00766
 366.78100 356.34567 345.78833 334.66500 323.07866 311.28333 299.16399 286.97766
 274.70033 262.60799 250.62766 239.93932 230.07199 221.18665 213.37932 206.39198
 200.23665 195.18532 191.77798 189.83065 188.87831 188.95298 189.79864 191.11731
 192.85298 194.95864 197.23231 199.60197 202.05764 204.54830 206.64697 208.49963
 210.13630 211.29197 211.53163 211.77030 211.71796 211.43363 211.07729 210.71796
 210.34563 210.06629 209.88496 209.75962 209.69829 210.03995 210.43662 210.83629
 211.63995 212.82862 214.08928 215.88295 217.82161 219.87528 221.98094 224.07461
 226.14528 228.23994 230.34761 232.46427 234.60394 236.78660 239.05327 241.43394
 244.06560 246.32727 248.33993 250.11560 251.54326 252.67693 253.50959 253.83626
 253.88393 253.66859 253.03926 251.99792 250.61459 248.78625 246.70592 244.54959
 242.35125 240.16592 237.99658 235.84625 233.71691 231.59458 229.63125 227.79891
 226.09258 224.57524 223.21591 221.99857 220.89124 219.86190 218.97657 218.12824
 217.38090 216.57157 215.68023 215.05490 214.51556 214.67998 215.00679 214.29332
 213.62946 212.37378 212.02342 213.41063 216.68152 221.00624 226.04788 230.33783
 233.95128 238.06615 242.33716 246.56299 250.62363 254.39763 257.86496 261.07196
 264.09082 266.92770 269.63602 272.20572 274.39343 276.20276 277.79053 279.10800
 279.90756 280.10739 280.10901 281.09146 282.31100 283.52594 284.69257 285.74948
 286.70004 287.54651 288.28598 289.22836
 366.78100 356.34634 345.78969 334.66703 323.08138 311.28672 299.16806 286.98241
 274.70575 262.61410 250.63444 239.94678 230.08013 221.19547 213.38882 206.40216
 200.24750 195.19685 191.79019 189.84354 188.89188 188.96722 189.81357 191.13291
 192.86926 194.97560 197.24995 199.62029 202.07663 204.56798 206.66732 208.52067
 210.15801 211.31435 211.55470 211.79404 211.74239 211.45873 211.10307 210.74442
 210.37276 210.09411 209.91345 209.78879 209.72814 210.07048 210.46783 210.86817
 211.67251 212.86186 214.12320 215.91755 217.85689 219.91123 222.01758 224.11192
 226.18327 228.27861 230.38695 232.50430 234.64464 236.82799 239.09533 241.47667
 244.10902 246.37136 248.38471 250.16105 251.58940 252.72374 253.55708 253.88443
 253.93277 253.71812 253.08946 252.04880 250.66615 248.83849 246.75884 244.60318
 242.40552 240.22087 238.05221 235.90256 233.77390 231.65224 229.68959 227.85793
 226.15228 224.63562 223.27696 222.06031 220.95365 219.92500 219.04034 218.19268
 217.44603 216.63737 215.74672 215.12206 214.58340 214.71349 214.98923 214.42126
 213.46965 212.24533 211.93613 213.31644 216.59300 220.96013 226.04063 230.32555
 233.94843 238.05530 242.32874 246.56082 250.63345 254.42059 257.88379 261.07352
 264.06821 266.90054 269.61884 272.22455 274.45395 276.27759 277.81253 278.98578
 279.63467 279.74039 279.75867 280.39084 281.55460 282.65143 283.77942 284.83295
 285.78046 286.62424 287.36136 288.30072
 366.78100 356.34717 345.79134 334.66951 323.08468 311.29086 299.17303 286.98820
 274.71237 262.62154 250.64271 239.95588 230.09005 221.20623 213.40040 206.41457
 200.26074 195.21091 191.80508 189.85925 188.90842 188.98460 189.83177 191.15194
 192.88911 194.99628 197.27145 199.64262 202.09979 204.59197 206.69214 208.54631
 210.18448 211.34165 211.58282 211.82299 211.77216 211.48934 211.13451 210.77668
 210.40585 210.12802 209.94819 209.82436 209.76453 210.10771 210.50588 210.90705
 211.71222 212.90239 214.16456 215.95973 217.89990 219.95507 222.06225 224.15742
 226.22959 228.32576 230.43493 232.55310 234.69427 236.87844 239.14662 241.52879
 244.16196 246.42513 248.43930 250.21647 251.64564 252.78081 253.61499 253.94316
 253.99233 253.77850 253.15067 252.11084 250.72901 248.90218 246.82336 244.66853
 242.47170 240.28787 238.12004 235.97121 233.84338 231.72255 229.76073 227.92990
 226.22507 224.70924 223.35141 222.13558 221.02975 220.00192 219.11810 218.27127
 217.52544 216.71761 215.82778 215.20395 214.66612 214.75270 214.94559 214.56506
 213.49837 212.19510 211.83073 213.17838 216.50455 220.92462 226.05836 230.32770
 233.96284 238.06187 242.33357 246.56297 250.63818 254.42760 257.87653 261.04297
 264.01477 266.84793 269.58551 272.19824 274.47787 276.35379 277.84949 278.86783
 279.35147 279.48856 279.60556 280.19092 281.22217 282.29385 283.31143 284.29257
 285.18811 285.98563 286.68228 287.57013
 366.78100 356.34726 345.79152 334.66978 323.08504 311.29129 299.17355 286.98881
 274.71307 262.62233 250.64359 239.95685 230.09111 221.20736 213.40162 206.41588
 200.26214 195.21240 191.80666 189.86092 188.91018 188.98644 189.83369 191.15395
 192.89121 194.99847 197.27373 199.64499 202.10225 204.59451 206.69476 208.54902
 210.18728 211.34454 211.58580 211.82606 211.77532 211.49258 211.13783 210.78009
 210.40935 210.13161 209.95187 209.82813 209.76839 210.11165 210.50991 210.91116
 211.71642 212.90668 214.16894 215.96420 217.90446 219.95972 222.06698 224.16223
 226.23449 228.33075 230.44001 232.55827 234.69953 236.88379 239.15205 241.53431
 244.16756 246.43082 248.44508 250.22234 251.65160 252.78686 253.62112 253.94938
 253.99863 253.78489 253.15715 252.11741 250.73567 248.90893 246.83019 244.67545
 242.47870 240.29496 238.12722 235.97848 233.85074 231.73000 229.76826 227.93752
 226.23278 224.71703 223.35929 222.14355 221.03781 220.01007 219.12633 218.27959
 217.53385 216.72610 215.83636 215.21262 214.67488 214.76160 214.95731 214.57338
 213.58904 212.15672 211.69046 213.02644 216.43661 220.90796 226.07675 230.35979
 233.98935 238.08464 242.35213 246.57938 250.65408 254.43828 257.86984 261.00967
 263.95773 266.78000 269.52869 272.17014 274.49951 276.41156 277.84119 278.74136
 279.12885 279.31207 279.52676 280.02271 280.97586 282.03690 283.04312 283.99997
 284.89871 285.69901 286.39816 287.28912
 366.78100 356.34710 345.79120 334.66930 323.08440 311.29050 299.17260 286.98770
 274.71180 262.62090 250.64200 239.95510 230.08920 221.20530 213.39940 206.41349
 200.25959 195.20969 191.80379 189.85789 188.90699 188.98309 189.83019 191.15029
 192.88739 194.99449 197.26959 199.64069 202.09779 204.58989 206.68999 208.54409
 210.18219 211.33929 211.58039 211.82049 211.76959 211.48669 211.13179 210.77389
 210.40299 210.12509 209.94519 209.82129 209.76139 210.10448 210.50258 210.90368
 211.70878 212.89888 214.16098 215.95608 217.89618 219.95128 222.05838 224.15348
 226.22558 228.32168 230.43078 232.54888 234.68998 236.87408 239.14218 241.52428
 244.15738 246.42048 248.43458 250.21168 251.64078 252.77588 253.60998 253.93808
 253.98718 253.77328 253.14537 252.10547 250.72357 248.89667 246.81777 244.66287
 242.46597 240.28207 238.11417 235.96527 233.83737 231.71647 229.75457 227.92367
 226.21877 224.70287 223.34497 222.12907 221.02317 219.99527 219.11137 218.26447
 217.51857 216.71067 215.82077 215.19687 214.65897 214.75816 214.98569 214.55304
 213.69121 212.10030 211.53447 212.88055 216.37439 220.90073 226.10748 230.40436
 234.02863 238.11884 242.38129 246.60471 250.67795 254.45877 257.87897 260.99942
 263.92722 266.73947 269.49338 272.15775 274.51868 276.41229 277.73914 278.54163
 278.91162 279.11945 279.35422 279.85413 280.80920 281.86823 282.85956 283.77948
 284.66656 285.45648 286.14658 287.02600
 366.78100 356.34681 345.79062 334.66844 323.08325 311.28906 299.17087 286.98569
 274.70950 262.61831 250.63912 239.95193 230.08575 221.20156 213.39537 206.40918
 200.25499 195.20481 191.79862 189.85243 188.90124 188.97706 189.82387 191.14368
 192.88049 194.98730 197.26212 199.63293 202.08974 204.58155 206.68137 208.53518
 210.17299 211.32980 211.57061 211.81043 211.75924 211.47605 211.12086 210.76268
 210.39149 210.11330 209.93311 209.80892 209.74874 210.09155 210.48936 210.89017
 211.69498 212.88480 214.14661 215.94142 217.88123 219.93605 222.04286 224.13767
 226.20948 228.30529 230.41411 232.53192 234.67273 236.85654 239.12436 241.50617
 244.13898 246.40179 248.41560 250.19242 251.62123 252.75604 253.58985 253.91767
 253.96648 253.75229 253.12410 252.08391 250.70173 248.87454 246.79535 244.64016
 242.44297 240.25879 238.09060 235.94141 233.81322 231.69204 229.72985 227.89866
 226.19347 224.67728 223.31910 222.10291 220.99672 219.96853 219.08435 218.23716
 217.49097 216.68278 215.79259 215.16841 214.63022 214.74670 215.01860 214.54265
 213.79507 212.03546 211.38223 212.77197 216.31595 220.87894 226.11913 230.42477
 234.04985 238.13756 242.39723 246.61699 250.68581 254.46248 257.87695 260.98706
 263.90359 266.71115 269.47021 272.15356 274.52521 276.37735 277.62512 278.35242
 278.71365 278.90869 279.17554 279.75885 280.75778 281.81180 282.79291 283.68222
 284.55011 285.33270 286.01633 286.88754
 366.78100 356.34573 345.78845 334.66518 323.07891 311.28363 299.16436 286.97809
 274.70081 262.60854 250.62827 239.94000 230.07272 221.18745 213.38018 206.39290
 200.23763 195.18636 191.77908 189.83181 188.87954 188.95426 189.79999 191.11872
 192.85444 194.96017 197.23390 199.60362 202.05935 204.55008 206.64880 208.50153
 210.13826 211.29399 211.53371 211.77244 211.72017 211.43589 211.07962 210.72035
 210.34807 210.06880 209.88753 209.76225 209.70098 210.04271 210.43943 210.83916
 211.64289 212.83161 214.09234 215.88607 217.82480 219.87852 221.98425 224.07798
 226.14870 228.24343 230.35116 232.46788 234.60761 236.79034 239.05706 241.43779
 244.06952 246.33124 248.34397 250.11970 251.54742 252.68115 253.51388 253.84060
 253.88833 253.67306 253.04379 252.00251 250.61924 248.79097 246.71069 244.55442
 242.35615 240.17087 238.00160 235.85133 233.72205 231.59978 229.63651 227.80423
 226.09796 224.58069 223.22141 222.00414 220.89687 219.86759 218.98232 218.13405
 217.38678 216.57750 215.68623 215.06096 214.52168 214.69528 215.10355 214.49065
 213.86696 211.97128 211.29918 212.75468 216.26099 220.82640 226.08406 230.39973
 234.03546 238.12906 242.39470 246.62035 250.69070 254.46902 257.88620 260.99597
 263.90747 266.70874 269.46790 272.16278 274.53336 276.34354 277.52878 278.20102
 278.54678 278.76053 279.13077 279.78693 280.73196 281.77475 282.74716 283.62592
 284.48383 285.26883 285.95456 286.82849
 366.78100 356.34488 345.78676 334.66264 323.07552 311.27940 299.15927 286.97215
 274.69403 262.60091 250.61979 239.93067 230.06255 221.17643 213.36831 206.38019
 200.22406 195.17194 191.76382 189.81570 188.86258 188.93646 189.78134 191.09922
 192.83410 194.93898 197.21186 199.58073 202.03561 204.52549 206.62337 208.47525
 210.11113 211.26601 211.50489 211.74277 211.68965 211.40452 211.04740 210.68728
 210.31416 210.03404 209.85192 209.72580 209.66368 210.00456 210.40044 210.79932
 211.60219 212.79007 214.04995 215.84283 217.78071 219.83359 221.93847 224.03135
 226.10123 228.19511 230.30198 232.41786 234.55674 236.73862 239.00450 241.38438
 244.01526 246.27614 248.28802 250.06290 251.48978 252.62265 253.45453 253.78041
 253.82729 253.61117 252.98105 251.93893 250.55481 248.72569 246.64457 244.48744
 242.28832 240.10220 237.93208 235.78096 233.65084 231.52772 229.56360 227.73048
 226.02336 224.50524 223.14511 221.92699 220.81887 219.78875 218.90263 218.05351
 217.30539 216.49527 215.60315 214.97703 214.43690 214.65413 215.16734 214.46332
 213.87926 211.95982 211.32188 212.77315 216.17215 220.72552 226.00052 230.31731
 233.98326 238.09193 242.37389 246.61780 250.70056 254.49065 257.92230 261.04111
 263.95215 266.74429 269.49255 272.18399 274.53693 276.29922 277.42703 278.06580
 278.42822 278.70102 279.14655 279.85992 280.82135 281.86133 282.82687 283.68994
 284.52875 285.30792 285.98856 286.85596
 366.78100 356.34566 345.78832 334.66499 323.07865 311.28331 299.16397 286.97763
 274.70029 262.60796 250.62762 239.93928 230.07194 221.18660 213.37926 206.39193
 200.23659 195.18525 191.77791 189.83057 188.87823 188.95290 189.79856 191.11722
 192.85288 194.95854 197.23220 199.60187 202.05753 204.54819 206.64685 208.49951
 210.13617 211.29184 211.53150 211.77016 211.71782 211.43348 211.07714 210.71781
 210.34547 210.06613 209.88479 209.75945 209.69811 210.03978 210.43644 210.83610
 211.63976 212.82842 214.08908 215.88275 217.82141 219.87507 221.98073 224.07439
 226.14505 228.23972 230.34738 232.46404 234.60370 236.78636 239.05302 241.43369
 244.06535 246.32701 248.33967 250.11533 251.54299 252.67666 253.50932 253.83598
 253.88364 253.66830 253.03896 251.99763 250.61429 248.78595 246.70561 244.54927
 242.35093 240.16560 237.99626 235.84592 233.71658 231.59424 229.63090 227.79857
 226.09223 224.57489 223.21555 221.99821 220.89087 219.86154 218.97620 218.12786
 217.38052 216.57118 215.67984 215.05451 214.51517 214.69203 215.10992 214.55382
 213.80013 211.97984 211.40848 212.76411 216.04819 220.60666 225.90741 230.21681
 233.92476 238.04668 242.34613 246.61003 250.70583 254.50853 257.95810 261.09085
 264.00381 266.78748 269.51797 272.19760 274.52499 276.23666 277.30914 277.94202
 278.36841 278.75922 279.28513 280.00754 280.96368 282.00925 282.95496 283.80331
 284.61609 285.39182 286.06949 286.93307
 366.78100 356.34719 345.79139 334.66958 323.08477 311.29097 299.17316 286.98835
 274.71254 262.62174 250.64293 239.95612 230.09032 221.20651 213.40070 206.41490
 200.26109 195.21128 191.80547 189.85967 188.90886 188.98505 189.83225 191.15244
 192.88963 194.99683 197.27202 199.64321 202.10041 204.59260 206.69279 208.54698
 210.18518 211.34237 211.58356 211.82376 211.77295 211.49014 211.13534 210.77753
 210.40672 210.12891 209.94911 209.82530 209.76549 210.10869 210.50688 210.90807
 211.71327 212.90346 214.16565 215.96085 217.90104 219.95623 222.06342 224.15862
 226.23081 228.32700 230.43620 232.55439 234.69558 236.87978 239.14797 241.53016
 244.16335 246.42655 248.44074 250.21793 251.64713 252.78232 253.61651 253.94471
 253.99390 253.78009 253.15229 252.11248 250.73067 248.90386 246.82506 244.67025
 242.47344 240.28964 238.12183 235.97302 233.84522 231.72441 229.76260 227.93179
 226.22699 224.71118 223.35337 222.13757 221.03176 220.00395 219.12015 218.27334
 217.52753 216.71973 215.82992 215.20611 214.66830 214.76624 214.99757 214.68547
 213.73059 211.99445 211.45377 212.70082 215.95270 220.53053 225.85614 230.15675
 233.89246 238.02103 242.32935 246.60489 250.70552 254.51541 257.98145 261.12842
 264.04324 266.81635 269.52533 272.18845 274.48401 276.14285 277.15759 277.80292
 278.33002 278.86215 279.49265 280.23315 281.18234 282.23599 283.15939 283.85016
 284.64105 285.39682 286.07111 286.93039
 366.78100 356.34770 345.79239 334.67109 323.08678 311.29348 299.17617 286.99187
 274.71657 262.62626 250.64796 239.96165 230.09635 221.21304 213.40774 206.42244
 200.26913 195.21983 191.81452 189.86922 188.91891 188.99561 189.84330 191.16400
 192.90170 195.00939 197.28509 199.65678 202.11448 204.60717 206.70787 208.56257
 210.20126 211.35896 211.60065 211.84135 211.79104 211.50874 211.15444 210.79713
 210.42683 210.14952 209.97022 209.84691 209.78761 210.13131 210.53000 210.93170
 211.73739 212.92809 214.19078 215.98648 217.92717 219.98287 222.09057 224.18626
 226.25896 228.35565 230.46535 232.58404 234.72574 236.91044 239.17913 241.56183
 244.19552 246.45922 248.47391 250.25161 251.68131 252.81700 253.65170 253.98039
 254.03009 253.81678 253.18948 252.15018 250.76887 248.94257 246.86426 244.70996
 242.51365 240.33035 238.16304 236.01474 233.88744 231.76713 229.80583 227.97552
 226.27122 224.75591 223.39861 222.18331 221.07800 220.05070 219.16739 218.32109
 217.57578 216.76848 215.87918 215.25587 214.71857 214.79117 214.96266 214.72093
 213.75728 211.95811 211.42059 212.64534 215.89528 220.48476 225.82179 230.13007
 233.88322 238.00797 242.31819 246.60062 250.69958 254.51508 257.99915 261.16293
 264.08005 266.83920 269.52655 272.16519 274.41592 276.01431 276.97510 277.64139
 278.27087 278.93863 279.68420 280.48102 281.37964 282.41306 283.35446 283.94437
 284.72751 285.46268 286.12274 286.96390
 366.78100 356.34633 345.78967 334.66700 323.08134 311.28667 299.16800 286.98234
 274.70567 262.61400 250.63434 239.94667 230.08001 221.19534 213.38867 206.40201
 200.24734 195.19667 191.79001 189.84334 188.89168 188.96701 189.81334 191.13268
 192.86901 194.97535 197.24968 199.62001 202.07635 204.56768 206.66701 208.52035
 210.15768 211.31402 211.55435 211.79368 211.74202 211.45835 211.10269 210.74402
 210.37235 210.09369 209.91302 209.78835 209.72769 210.07002 210.46736 210.86769
 211.67202 212.86136 214.12269 215.91702 217.85636 219.91069 222.01703 224.11136
 226.18269 228.27803 230.38636 232.50370 234.64403 236.82736 239.09470 241.47603
 244.10836 246.37070 248.38403 250.16037 251.58870 252.72303 253.55637 253.88370
 253.93204 253.71737 253.08870 252.04804 250.66537 248.83770 246.75804 244.60237
 242.40471 240.22004 238.05137 235.90171 233.77304 231.65137 229.68871 227.85704
 226.15138 224.63471 223.27604 222.05938 220.95271 219.92405 219.03938 218.19171
 217.44505 216.63638 215.74571 215.12105 214.58238 214.72588 215.06490 214.65132
 213.78523 211.91080 211.36864 212.61591 215.86295 220.44621 225.76089 230.12961
 233.85880 237.99214 242.30260 246.58890 250.68336 254.50363 258.00870 261.19812
 264.12936 266.89047 269.57495 272.16360 274.34094 275.86392 276.80063 277.49948
 278.20761 278.97650 279.82364 280.71442 281.63879 282.63885 283.41919 284.20050
 285.00632 285.75787 286.41440 287.25110
 366.78100 356.34563 345.78827 334.66490 323.07853 311.28317 299.16380 286.97743
 274.70007 262.60770 250.62733 239.93897 230.07160 221.18623 213.37887 206.39150
 200.23613 195.18477 191.77740 189.83003 188.87767 188.95230 189.79793 191.11657
 192.85220 194.95783 197.23147 199.60110 202.05673 204.54737 206.64600 208.49863
 210.13527 211.29090 211.53053 211.76917 211.71680 211.43243 211.07607 210.71670
 210.34433 210.06496 209.88360 209.75823 209.69686 210.03850 210.43513 210.83476
 211.63840 212.82703 214.08766 215.88130 217.81993 219.87356 221.97920 224.07283
 226.14346 228.23810 230.34573 232.46236 234.60200 236.78463 239.05126 241.43190
 244.06353 246.32516 248.33780 250.11343 251.54106 252.67470 253.50733 253.83396
 253.88160 253.66623 253.03686 251.99550 250.61213 248.78376 246.70340 244.54703
 242.34866 240.16330 237.99393 235.84356 233.71420 231.59183 229.62846 227.79610
 226.08973 224.57236 223.21300 221.99563 220.88826 219.85890 218.97353 218.12516
 217.37780 216.56843 215.67706 215.05170 214.51233 214.69212 215.11436 214.64645
 213.76634 211.89796 211.36909 212.55219 215.83867 220.41975 225.70348 230.11917
 233.83588 237.96541 242.27010 246.55679 250.64641 254.47346 258.00839 261.23935
 264.20166 266.97522 269.65671 272.19763 274.31046 275.77927 276.70120 277.41562
 278.18451 279.08276 280.04092 280.97415 281.88425 282.80347 283.67807 284.53329
 285.37677 286.13034 286.78867 287.62759
 366.78100 356.34635 345.78970 334.66705 323.08140 311.28675 299.16810 286.98245
 274.70580 262.61415 250.63450 239.94685 230.08020 221.19555 213.38890 206.40225
 200.24760 195.19694 191.79029 189.84364 188.89199 188.96734 189.81369 191.13304
 192.86939 194.97574 197.25009 199.62044 202.07679 204.56814 206.66749 208.52084
 210.15819 211.31454 211.55489 211.79424 211.74259 211.45894 211.10329 210.74464
 210.37299 210.09434 209.91369 209.78904 209.72839 210.07074 210.46809 210.86844
 211.67279 212.86213 214.12348 215.91783 217.85718 219.91153 222.01788 224.11223
 226.18358 228.27893 230.38728 232.50463 234.64498 236.82833 239.09568 241.47703
 244.10938 246.37173 248.38508 250.16143 251.58978 252.72413 253.55748 253.88483
 253.93318 253.71853 253.08988 252.04923 250.66658 248.83893 246.75928 244.60363
 242.40598 240.22132 238.05267 235.90302 233.77437 231.65272 229.69007 227.85842
 226.15277 224.63612 223.27747 222.06082 220.95417 219.92552 219.04087 218.19322
 217.44657 216.63792 215.74727 215.12262 214.58397 214.72908 215.06651 214.69612
 213.76114 211.94556 211.33719 212.42854 215.78383 220.37747 225.65245 230.08916
 233.80724 237.93640 242.23691 246.52187 250.60944 254.44478 258.00137 261.25604
 264.23740 267.02478 269.71423 272.23996 274.32404 275.75348 276.63342 277.33060
 278.23587 279.29147 280.37161 281.36389 282.27075 283.15771 284.04575 284.92090
 285.74402 286.47702 287.11734 287.93335
 366.78100 356.34520 345.78740 334.66360 323.07680 311.28100 299.16120 286.97440
 274.69660 262.60380 250.62300 239.93420 230.06640 221.18061 213.37281 206.38501
 200.22921 195.17741 191.76961 189.82181 188.86901 188.94321 189.78841 191.10661
 192.84181 194.94701 197.22021 199.58941 202.04461 204.53481 206.63301 208.48521
 210.12141 211.27661 211.51581 211.75401 211.70121 211.41641 211.05962 210.69982
 210.32702 210.04722 209.86542 209.73962 209.67782 210.01902 210.41522 210.81442
 211.61762 212.80582 214.06602 215.85922 217.79742 219.85062 221.95582 224.04902
 226.11922 228.21342 230.32062 232.43682 234.57602 236.75822 239.02442 241.40463
 244.03583 246.29703 248.30923 250.08443 251.51163 252.64483 253.47703 253.80323
 253.85043 253.63463 253.00483 251.96303 250.57923 248.75043 246.66963 244.51283
 242.31403 240.12823 237.95843 235.80763 233.67783 231.55503 229.59123 227.75843
 226.05164 224.53384 223.17404 221.95624 220.84844 219.81864 218.93284 218.08404
 217.33624 216.52644 215.63464 215.00884 214.46904 214.67976 215.15167 214.62007
 213.68959 212.00606 211.27267 212.32799 215.76178 220.33168 225.59198 230.10194
 233.79846 237.91252 242.20897 246.49619 250.57642 254.41412 258.00534 261.30270
 264.29626 267.05814 269.70963 272.18777 274.25061 275.69440 276.60181 277.40762
 278.36572 279.47272 280.67288 281.88016 282.94131 283.89828 284.80005 285.66193
 286.43707 287.12735 287.73038 288.49887
 366.78100 356.34389 345.78477 334.65966 323.07154 311.27443 299.15331 286.96520
 274.68608 262.59197 250.60985 239.91974 230.05062 221.16351 213.35439 206.36528
 200.20816 195.15505 191.74593 189.79682 188.84270 188.91559 189.75948 191.07636
 192.81025 194.91413 197.18602 199.55390 202.00779 204.49667 206.59356 208.44444
 210.07933 211.23321 211.47110 211.70798 211.65387 211.36775 211.00964 210.64852
 210.27441 209.99330 209.81018 209.68307 209.61995 209.95984 210.35472 210.75261
 211.55449 212.74138 214.00026 215.79215 217.72903 219.78092 221.88480 223.97669
 226.04557 228.13846 230.24434 232.35923 234.49711 236.67800 238.94289 241.32177
 243.95166 246.21154 248.22243 249.99631 251.42220 252.55408 253.38497 253.70985
 253.75574 253.53862 252.90751 251.86439 250.47928 248.64916 246.56705 244.40893
 242.20882 240.02170 237.85059 235.69848 233.56736 231.44325 229.47813 227.64402
 225.93590 224.41679 223.05567 221.83656 220.72744 219.69633 218.80921 217.95910
 217.20998 216.39887 215.50575 214.87864 214.33752 214.59367 215.13715 214.55167
 213.67220 212.19482 211.38159 212.36389 215.78346 220.30011 225.54796 230.10397
 233.80464 237.89154 242.19261 246.48607 250.55197 254.38789 258.01910 261.38162
 264.38068 267.10498 269.68304 272.08621 274.08099 275.55847 276.52036 277.35287
 278.35233 279.55499 280.89087 282.22391 283.39688 284.51202 285.53201 286.45602
 287.28708 288.02716 288.67365 289.49753
 354.97500 345.04800 334.58700 324.11500 313.32600 302.53700 291.65000 280.76700
 269.93100 259.19300 248.62200 238.61700 229.08700 220.35500 212.54000 205.53500
 199.46400 194.49300 191.14300 189.19000 188.08900 188.01400 188.72400 189.90600
 191.46900 193.38200 195.40300 197.55600 199.80700 202.06000 204.28800 206.47900
 208.55200 210.37800 212.02500 213.65900 214.99800 216.11800 217.17200 218.25900
 219.49400 220.64500 221.67900 222.61400 223.54500 224.98200 226.57100 228.19000
 229.79700 231.81100 233.86500 235.97200 238.24200 240.55300 242.89900 245.25300
 247.48800 249.53500 251.36600 252.84800 254.09800 255.16700 256.02700 256.25300
 256.09500 255.54300 253.93500 252.56600 251.38400 250.24500 249.05200 247.70100
 246.01600 243.99600 241.78400 239.39300 236.81300 234.22300 231.65800 229.14400
 226.74000 224.47300 222.33500 220.32500 218.44000 216.67700 214.96200 213.47200
 212.20000 211.10800 210.26000 209.63900 209.24400 209.03100 209.05800 209.33300
 209.78400 210.62600 211.33100 212.39100 213.62500 214.84668 217.72949 219.47640
 220.32566 220.86828 220.88710 220.27371 219.43733 218.84250 219.04934 220.86203
 222.60583 225.72206 229.03064 232.61777 236.12270 239.51333 242.70767 245.68587
 248.41061 250.90679 253.19353 254.91714 256.48655 257.94920 259.39966 260.69384
 261.81714 262.77997 263.71679 264.54570 265.26305 265.89772 266.47676 267.00133
 267.47312 267.89325 268.26027 268.72800
