|-------------------------------------------------------------------------|
|   File Name : in_temp.dat
|   Subject   : temperature profiles used for initial guess atmosphere
|   File Type : input of gmtr
|   Data Type : atmospherical data
|   Author/s  : WRF-Chem
|   Date      : Fri Jul 26 15:39:24 2024
|-------------------------------------------------------------------------|

 WRF-Chem temperature
#
 values of T (K)    (8f10.5)
#
 354.97500 345.04800 334.58700 324.11500 313.32600 302.53700 291.65000 280.76700
 269.93100 259.19300 248.62200 238.61700 229.08700 220.35500 212.54000 205.53500
 199.46400 194.49300 191.14300 189.19000 188.08900 188.01400 188.72400 189.90600
 191.46900 193.38200 195.40300 197.55600 199.80700 202.06000 204.28800 206.47900
 208.55200 210.37800 212.02500 213.65900 214.99800 216.11800 217.17200 218.25900
 219.49400 220.64500 221.67900 222.61400 223.54500 224.98200 226.57100 228.19000
 229.79700 231.81100 233.86500 235.97200 238.24200 240.55300 242.89900 245.25300
 247.48800 249.53500 251.36600 252.84800 254.09800 255.16700 256.02700 256.25300
 256.09500 255.54300 253.93500 252.56600 251.38400 250.24500 249.05200 247.70100
 246.01600 243.99600 241.78400 239.39300 236.81300 234.22300 231.65800 229.14400
 226.74000 224.47300 222.33500 220.32500 218.44000 216.67700 214.96200 213.47200
 212.20000 211.10800 210.26000 209.63900 209.24400 209.03100 209.05800 209.33300
 209.78400 210.62600 211.33100 212.39100 213.62500 214.84668 217.72949 219.47640
 220.32566 220.86828 220.88710 220.27371 219.43733 218.84250 219.04934 220.86203
 222.60583 225.72206 229.03064 232.61777 236.12270 239.51333 242.70767 245.68587
 248.41061 250.90679 253.19353 254.91714 256.48655 257.94920 259.39966 260.69384
 261.81714 262.77997 263.71679 264.54570 265.26305 265.89772 266.47676 267.00133
 267.47312 267.89325 268.26027 268.72800
 366.78100 356.33500 345.76700 334.63300 323.03600 311.23000 299.10000 286.90300
 274.61500 262.51200 250.52100 239.82200 229.94400 221.04800 213.23000 206.23200
 200.06600 195.00400 191.58600 189.62800 188.66500 188.72900 189.56400 190.87200
 192.59700 194.69200 196.95500 199.31400 201.75900 204.23900 206.32700 208.16900
 209.79500 210.94000 211.16900 211.39700 211.33400 211.03900 210.67200 210.30200
 209.91900 209.62900 209.43700 209.30100 209.22900 209.56000 209.94600 210.33500
 211.12800 212.30600 213.55600 215.33900 217.26700 219.31000 221.40500 223.48800
 225.54800 227.63200 229.72900 231.83500 233.96400 236.13600 238.39200 240.76200
 243.38300 245.63400 247.63600 249.40100 250.81800 251.94100 252.76300 253.07900
 253.11600 252.89000 252.25000 251.19800 249.80400 247.96500 245.87400 243.70700
 241.49800 239.30200 237.12200 234.96100 232.82100 230.68800 228.71400 226.87100
 225.15400 223.62600 222.25600 221.02800 219.91000 218.87000 217.97400 217.11500
 216.35700 215.53700 214.63500 213.99900 213.44900 212.85855 212.01316 212.61654
 214.26826 216.08686 218.14273 220.53346 223.40855 226.78828 231.49734 235.90155
 239.42278 243.28576 247.23140 251.11907 254.80144 258.23331 261.38913 264.27520
 266.89312 269.26852 271.44504 273.08845 274.58484 275.98591 277.39845 278.65879
 279.75272 280.69038 281.56708 282.34086 283.01050 283.60295 284.14348 284.63317
 285.07358 285.46577 285.80838 286.24500
 381.81900 372.39900 361.20600 349.77600 337.62200 324.85300 311.81000 298.35300
 284.86000 271.32400 258.56100 246.30400 236.08700 226.79600 218.44800 211.29000
 205.52200 200.89400 197.38100 194.84800 193.01500 192.31500 192.25000 192.43100
 192.91200 193.53700 194.13600 194.71200 195.26200 195.83100 196.39300 196.97600
 197.60400 198.14900 198.58400 199.05700 199.69500 200.37800 201.05400 201.70800
 202.31300 202.85700 203.35500 203.86200 204.56900 205.29700 206.02600 206.98700
 208.19300 209.44100 210.96900 212.57600 214.46200 216.51300 218.63000 220.85300
 223.34100 225.96200 228.73900 231.69700 234.70600 237.70600 240.69200 243.65700
 246.73700 249.69900 252.52100 255.06300 257.29000 259.23300 260.63300 261.68000
 262.46100 262.79800 262.69100 262.22400 261.06900 259.52500 257.70700 255.50700
 253.00100 250.30200 247.39800 244.45200 241.65400 239.05400 236.73300 234.59000
 232.59500 230.72500 228.83400 226.82600 224.66600 222.38700 220.10400 217.71500
 215.45900 213.06600 210.54600 208.09300 205.35400 202.08130 196.05959 200.71215
 209.01611 216.90438 223.84126 229.78593 235.00632 240.20838 245.98943 250.68668
 254.32982 257.93487 261.55666 264.96801 268.15192 271.06452 273.76717 276.25691
 278.57680 280.74479 282.77456 284.60533 286.27232 287.81705 289.31715 290.65561
 291.81734 292.81312 293.70701 294.49387 295.17482 295.77730 296.32696 296.82492
 297.27278 297.67160 298.02000 298.46400
 399.33000 389.90700 379.81300 368.66800 357.52200 345.30100 333.07400 320.22700
 307.21600 293.84800 280.37600 267.29600 254.61000 242.98700 232.15100 221.97700
 212.67200 204.28600 197.66900 192.82100 189.48600 187.45200 186.81400 187.08900
 187.78100 189.05400 190.64800 192.54200 194.63000 196.75200 198.67100 200.15800
 201.53500 202.48700 202.97500 203.34000 203.53900 203.49700 203.38500 203.24700
 203.00500 202.78600 202.60300 202.43700 202.42600 202.88800 203.42000 203.95100
 204.89500 205.99200 207.30100 208.95800 210.73800 213.10000 215.56400 218.18000
 220.96600 223.91800 226.96100 230.09200 233.29300 236.55700 239.95500 243.53700
 246.84500 249.39000 251.54200 253.47400 255.19500 256.48400 257.43100 258.05900
 258.21200 258.04000 257.58200 256.64300 255.23900 253.50700 251.40800 249.05600
 246.57600 243.99400 241.38900 238.83000 236.34400 233.98600 231.96900 230.11800
 228.42300 226.89900 225.54800 224.29700 223.10500 221.96500 220.95800 220.11300
 219.49000 218.92000 218.32500 217.88100 217.42300 216.96366 216.35568 216.80261
 217.73415 218.28582 218.64258 219.10077 220.44626 222.53987 226.38451 230.35736
 233.59734 237.39164 241.29814 245.22796 248.98002 252.51130 255.78595 258.80109
 261.54781 264.05210 266.34239 268.04198 269.58951 271.01303 272.35754 273.55718
 274.59842 275.49092 276.28989 276.99307 277.60161 278.14001 278.63122 279.07623
 279.47646 279.83287 280.14422 280.54100
 399.73800 389.78500 379.66200 368.15100 356.64100 344.35000 331.79200 318.88800
 305.72600 292.49300 279.20900 266.73800 254.69600 244.21100 234.45700 225.43300
 217.56900 210.45100 204.30000 199.30600 195.45800 192.57600 191.02700 190.38600
 190.23900 190.53400 191.16600 191.92500 192.79500 193.76600 194.73200 195.31200
 195.80000 196.05200 196.11500 196.11500 196.03900 195.72300 195.34000 194.98900
 194.75100 194.79200 195.13300 195.59800 196.50600 198.13600 199.85800 201.56600
 204.17900 206.82300 209.89300 213.28400 216.82800 220.60500 224.38700 228.20900
 232.03200 235.82500 239.56000 243.25800 246.84500 250.20100 253.70900 257.46800
 261.53000 264.22100 266.60100 268.68100 270.32900 271.74100 272.83600 273.47400
 273.89800 274.00200 273.75700 273.28800 272.37100 271.10000 269.58900 267.77900
 265.81600 263.72100 261.39300 258.91600 256.29800 253.42300 250.33100 247.11400
 243.83700 240.52900 237.24900 233.99900 230.72800 227.51500 224.25400 220.95200
 217.62700 213.65600 210.12100 206.78900 204.01000 201.99491 199.07309 198.76551
 199.40006 200.48994 201.46112 202.31912 203.45100 204.96110 207.47502 210.85391
 213.70530 217.29629 220.99574 224.72316 228.28753 231.64854 234.68024 237.40893
 239.70644 241.60899 243.46854 245.67368 247.68154 249.52395 251.24767 252.78566
 254.12057 255.26479 256.23740 257.09036 257.82852 258.48160 259.07744 259.61723
 260.10271 260.53504 260.91270 261.39400
 399.73800 389.78500 379.66200 368.15100 356.64100 344.35000 331.79200 318.88800
 305.72600 292.49300 279.20900 266.73800 254.69600 244.21100 234.45700 225.43300
 217.56900 210.45100 204.30000 199.30600 195.45800 192.57600 191.02700 190.38600
 190.23900 190.53400 191.16600 191.92500 192.79500 193.76600 194.73200 195.31200
 195.80000 196.05200 196.11500 196.11500 196.03900 195.72300 195.34000 194.98900
 194.75100 194.79200 195.13300 195.59800 196.50600 198.13600 199.85800 201.56600
 204.17900 206.82300 209.89300 213.28400 216.82800 220.60500 224.38700 228.20900
 232.03200 235.82500 239.56000 243.25800 246.84500 250.20100 253.70900 257.46800
 261.53000 264.22100 266.60100 268.68100 270.32900 271.74100 272.83600 273.47400
 273.89800 274.00200 273.75700 273.28800 272.37100 271.10000 269.58900 267.77900
 265.81600 263.72100 261.39300 258.91600 256.29800 253.42300 250.33100 247.11400
 243.83700 240.52900 237.24900 233.99900 230.72800 227.51500 224.25400 220.95200
 217.62700 213.65600 210.12100 206.78900 204.01000 201.99491 199.07309 198.76551
 199.40006 200.48994 201.46112 202.31912 203.45100 204.96110 207.47502 210.85391
 213.70530 217.29629 220.99574 224.72316 228.28753 231.64854 234.68024 237.40893
 239.70644 241.60899 243.46854 245.67368 247.68154 249.52395 251.24767 252.78566
 254.12057 255.26479 256.23740 257.09036 257.82852 258.48160 259.07744 259.61723
 260.10271 260.53504 260.91270 261.39400
 399.33000 389.90700 379.81300 368.66800 357.52200 345.30100 333.07400 320.22700
 307.21600 293.84800 280.37600 267.29600 254.61000 242.98700 232.15100 221.97700
 212.67200 204.28600 197.66900 192.82100 189.48600 187.45200 186.81400 187.08900
 187.78100 189.05400 190.64800 192.54200 194.63000 196.75200 198.67100 200.15800
 201.53500 202.48700 202.97500 203.34000 203.53900 203.49700 203.38500 203.24700
 203.00500 202.78600 202.60300 202.43700 202.42600 202.88800 203.42000 203.95100
 204.89500 205.99200 207.30100 208.95800 210.73800 213.10000 215.56400 218.18000
 220.96600 223.91800 226.96100 230.09200 233.29300 236.55700 239.95500 243.53700
 246.84500 249.39000 251.54200 253.47400 255.19500 256.48400 257.43100 258.05900
 258.21200 258.04000 257.58200 256.64300 255.23900 253.50700 251.40800 249.05600
 246.57600 243.99400 241.38900 238.83000 236.34400 233.98600 231.96900 230.11800
 228.42300 226.89900 225.54800 224.29700 223.10500 221.96500 220.95800 220.11300
 219.49000 218.92000 218.32500 217.88100 217.42300 216.96366 216.35568 216.80261
 217.73415 218.28582 218.64258 219.10077 220.44626 222.53987 226.38451 230.35736
 233.59734 237.39164 241.29814 245.22796 248.98002 252.51130 255.78595 258.80109
 261.54781 264.05210 266.34239 268.04198 269.58951 271.01303 272.35754 273.55718
 274.59842 275.49092 276.28989 276.99307 277.60161 278.14001 278.63122 279.07623
 279.47646 279.83287 280.14422 280.54100
 381.81900 372.39900 361.20600 349.77600 337.62200 324.85300 311.81000 298.35300
 284.86000 271.32400 258.56100 246.30400 236.08700 226.79600 218.44800 211.29000
 205.52200 200.89400 197.38100 194.84800 193.01500 192.31500 192.25000 192.43100
 192.91200 193.53700 194.13600 194.71200 195.26200 195.83100 196.39300 196.97600
 197.60400 198.14900 198.58400 199.05700 199.69500 200.37800 201.05400 201.70800
 202.31300 202.85700 203.35500 203.86200 204.56900 205.29700 206.02600 206.98700
 208.19300 209.44100 210.96900 212.57600 214.46200 216.51300 218.63000 220.85300
 223.34100 225.96200 228.73900 231.69700 234.70600 237.70600 240.69200 243.65700
 246.73700 249.69900 252.52100 255.06300 257.29000 259.23300 260.63300 261.68000
 262.46100 262.79800 262.69100 262.22400 261.06900 259.52500 257.70700 255.50700
 253.00100 250.30200 247.39800 244.45200 241.65400 239.05400 236.73300 234.59000
 232.59500 230.72500 228.83400 226.82600 224.66600 222.38700 220.10400 217.71500
 215.45900 213.06600 210.54600 208.09300 205.35400 202.08130 196.05959 200.71215
 209.01611 216.90438 223.84126 229.78593 235.00632 240.20838 245.98943 250.68668
 254.32982 257.93487 261.55666 264.96801 268.15192 271.06452 273.76717 276.25691
 278.57680 280.74479 282.77456 284.60533 286.27232 287.81705 289.31715 290.65561
 291.81734 292.81312 293.70701 294.49387 295.17482 295.77730 296.32696 296.82492
 297.27278 297.67160 298.02000 298.46400
 366.78100 356.34494 345.78687 334.66281 323.07574 311.27968 299.15961 286.97255
 274.69448 262.60142 250.62036 239.93129 230.06323 221.17716 213.36910 206.38103
 200.22497 195.17290 191.76484 189.81677 188.86371 188.93765 189.78258 191.10052
 192.83545 194.94039 197.21332 199.58226 202.03719 204.52713 206.62507 208.47700
 210.11294 211.26787 211.50681 211.74474 211.69168 211.40661 211.04955 210.68948
 210.31642 210.03636 209.85429 209.72823 209.66616 210.00710 210.40303 210.80197
 211.60490 212.79284 214.05278 215.84571 217.78365 219.83658 221.94152 224.03445
 226.10439 228.19832 230.30526 232.42119 234.56013 236.74207 239.00800 241.38794
 244.01887 246.27981 248.29174 250.06668 251.49361 252.62655 253.45849 253.78442
 253.83136 253.61529 252.98523 251.94316 250.55910 248.73003 246.64897 244.49191
 242.29284 240.10678 237.93671 235.78565 233.65558 231.53252 229.56845 227.73539
 226.02832 224.51026 223.15020 221.93213 220.82407 219.79400 218.90794 218.05887
 217.31081 216.50074 215.60868 214.98262 214.44255 213.21521 210.33356 209.65292
 210.33597 210.61063 211.82158 215.28531 219.65401 224.43179 230.19371 235.18585
 239.03209 243.05040 247.33578 251.54120 255.20317 258.38916 261.10690 263.63214
 266.46051 269.16266 271.76224 274.36639 276.49326 278.12375 279.42001 280.99835
 282.94089 284.73212 286.28210 287.64261 288.81976 289.86118 290.80966 291.66830
 292.43811 293.12238 293.71661 294.45935
 366.78100 356.34528 345.78755 334.66383 323.07711 311.28138 299.16166 286.97494
 274.69721 262.60449 250.62377 239.93504 230.06732 221.18160 213.37387 206.38615
 200.23042 195.17870 191.77098 189.82325 188.87053 188.94481 189.79008 191.10836
 192.84364 194.94891 197.22219 199.59147 202.04674 204.53702 206.63530 208.48757
 210.12385 211.27913 211.51840 211.75668 211.70396 211.41923 211.06251 210.70279
 210.33006 210.05034 209.86861 209.74289 209.68117 210.02244 210.41872 210.81800
 211.62127 212.80955 214.06983 215.86310 217.80138 219.85466 221.95993 224.05321
 226.12349 228.21776 230.32504 232.44132 234.58059 236.76287 239.02915 241.40942
 244.04070 246.30198 248.31425 250.08953 251.51680 252.65008 253.48236 253.80863
 253.85591 253.64019 253.01046 251.96874 250.58502 248.75629 246.67557 244.51885
 242.32012 240.13440 237.96468 235.81395 233.68423 231.56151 229.59778 227.76506
 226.05834 224.54061 223.18089 221.96317 220.85544 219.82572 218.93999 218.09127
 217.34355 216.53382 215.64210 215.01638 214.47665 213.25652 210.39096 209.71953
 210.34645 210.67697 211.85379 215.23389 219.60867 224.38618 230.10788 235.09564
 238.94284 242.96202 247.24995 251.45940 255.13231 258.35681 261.09857 263.61401
 266.43011 269.12018 271.70483 274.28790 276.39664 278.02576 279.35657 280.96313
 282.89270 284.68301 286.23151 287.59293 288.76913 289.81003 290.75888 291.61652
 292.38901 293.07181 293.66647 294.41135
 366.78100 356.34570 345.78840 334.66510 323.07881 311.28351 299.16421 286.97791
 274.70061 262.60831 250.62801 239.93971 230.07242 221.18712 213.37982 206.39252
 200.23722 195.18592 191.77862 189.83133 188.87903 188.95373 189.79943 191.11813
 192.85383 194.95953 197.23323 199.60294 202.05864 204.54934 206.64804 208.50074
 210.13744 211.29314 211.53285 211.77155 211.71925 211.43495 211.07865 210.71935
 210.34705 210.06776 209.88646 209.76116 209.69986 210.04156 210.43826 210.83796
 211.64166 212.83037 214.09107 215.88477 217.82347 219.87717 221.98287 224.07657
 226.14728 228.24198 230.34968 232.46638 234.60608 236.78878 239.05548 241.43618
 244.06789 246.32959 248.34229 250.11799 251.54569 252.67939 253.51209 253.83880
 253.88650 253.67120 253.04190 252.00060 250.61730 248.78900 246.70870 244.55241
 242.35411 240.16881 237.99951 235.84921 233.71991 231.59761 229.63432 227.80202
 226.09572 224.57842 223.21912 222.00182 220.89452 219.86523 218.97993 218.13163
 217.38433 216.57503 215.68373 215.05843 214.51913 213.30099 210.43948 209.78613
 210.36757 210.73872 211.89279 215.19446 219.55380 224.32373 230.02602 235.01445
 238.86116 242.87866 247.16574 251.37640 255.05762 258.31992 261.08582 263.59308
 266.39703 269.07462 271.64426 274.20602 276.29895 277.92920 279.29486 280.92514
 282.84369 284.63321 286.18176 287.54099 288.71631 289.75909 290.70679 291.56516
 292.33508 293.01944 293.61432 294.36087
 366.78100 356.34614 345.78928 334.66642 323.08056 311.28569 299.16683 286.98097
 274.70411 262.61225 250.63239 239.94453 230.07767 221.19281 213.38595 206.39908
 200.24422 195.19336 191.78650 189.83964 188.88778 188.96292 189.80906 191.12820
 192.86434 194.97047 197.24461 199.61475 202.07089 204.56203 206.66117 208.51431
 210.15145 211.30759 211.54772 211.78686 211.73500 211.45114 211.09528 210.73642
 210.36456 210.08570 209.90484 209.77998 209.71911 210.06125 210.45839 210.85853
 211.66267 212.85181 214.11295 215.90709 217.84623 219.90037 222.00650 224.10064
 226.17178 228.26692 230.37506 232.49220 234.63234 236.81548 239.08262 241.46375
 244.09589 246.35803 248.37117 250.14731 251.57545 252.70959 253.54273 253.86987
 253.91801 253.70314 253.07428 252.03342 250.65056 248.82270 246.74284 244.58698
 242.38912 240.20426 238.03540 235.88553 233.75667 231.63481 229.67195 227.84009
 226.13423 224.61737 223.25851 222.04165 220.93478 219.90592 219.02106 218.17320
 217.42634 216.61748 215.72662 215.10176 214.56290 213.34529 210.48431 209.84868
 210.39922 210.79558 211.93655 215.16725 219.49300 224.25504 229.94934 234.93814
 238.78210 242.79634 247.08165 251.29277 254.98344 258.28180 261.07019 263.56848
 266.36044 269.02466 271.57938 274.12061 276.19992 277.83527 279.23349 280.88638
 282.79758 284.58328 286.12906 287.48761 288.66321 289.70392 290.65283 291.50995
 292.28021 292.96420 293.55905 294.30615
 366.78100 356.34659 345.79017 334.66776 323.08234 311.28793 299.16951 286.98410
 274.70768 262.61627 250.63685 239.94944 230.08302 221.19861 213.39219 206.40578
 200.25136 195.20095 191.79453 189.84812 188.89670 188.97229 189.81887 191.13846
 192.87504 194.98163 197.25621 199.62680 202.08338 204.57497 206.67455 208.52814
 210.16572 211.32231 211.56289 211.80248 211.75106 211.46765 211.11224 210.75382
 210.38241 210.10399 209.92358 209.79916 209.73875 210.08133 210.47892 210.87950
 211.68409 212.87367 214.13526 215.92984 217.86943 219.92401 222.03060 224.12518
 226.19677 228.29235 230.40094 232.51852 234.65911 236.84269 239.11028 241.49186
 244.12445 246.38703 248.40062 250.17720 251.60579 252.74037 253.57396 253.90154
 253.95013 253.73571 253.10730 252.06689 250.68447 248.85706 246.77764 244.62223
 242.42481 240.24040 238.07198 235.92257 233.79415 231.67274 229.71032 227.87891
 226.17349 224.65708 223.29866 222.08225 220.97583 219.94742 219.06300 218.21559
 217.46917 216.66076 215.77034 215.14593 214.60751 213.38908 210.52550 209.90802
 210.43892 210.84914 211.98145 215.15114 219.42896 224.18622 229.87590 234.86363
 238.70369 242.71446 246.99785 251.21030 254.91130 258.24316 261.05099 263.53885
 266.31915 268.96982 271.50952 274.03073 276.10001 277.74258 279.17249 280.84641
 282.75299 284.53296 286.07394 287.43240 288.60818 289.64819 290.59641 291.45425
 292.22357 292.90710 293.50174 294.24884
 366.78100 356.34705 345.79109 334.66914 323.08418 311.29023 299.17227 286.98732
 274.71136 262.62041 250.64145 239.95450 230.08854 221.20459 213.39863 206.41268
 200.25872 195.20877 191.80281 189.85686 188.90590 188.98195 189.82899 191.14904
 192.88608 194.99313 197.26817 199.63922 202.09626 204.58831 206.68835 208.54240
 210.18044 211.33749 211.57853 211.81858 211.76762 211.48467 211.12971 210.77176
 210.40080 210.12285 209.94289 209.81894 209.75898 210.10203 210.50007 210.90112
 211.70616 212.89621 214.15825 215.95330 217.89334 219.94839 222.05543 224.15048
 226.22252 228.31857 230.42761 232.54566 234.68670 236.87075 239.13879 241.52084
 244.15388 246.41693 248.43097 250.20802 251.63706 252.77211 253.60615 253.93420
 253.98324 253.76929 253.14133 252.10138 250.71942 248.89247 246.81351 244.65856
 242.46160 240.27765 238.10969 235.96074 233.83278 231.71183 229.74987 227.91892
 226.21396 224.69801 223.34005 222.12410 221.01814 219.99019 219.10623 218.25928
 217.51332 216.70537 215.81541 215.19146 214.65350 213.43303 210.56389 209.96292
 210.48727 210.90376 212.02408 215.14209 219.36192 224.11479 229.80640 234.78934
 238.62543 242.63422 246.91673 251.13025 254.84227 258.20444 261.02768 263.50439
 266.27283 268.91003 271.43445 273.93640 275.99884 277.65057 279.11093 280.80472
 282.71063 284.47821 286.01892 287.37540 288.55099 289.59052 290.53796 291.39502
 292.16339 292.84561 293.43878 294.18359
 366.78100 356.34736 345.79172 334.67008 323.08545 311.29181 299.17417 286.98953
 274.71389 262.62325 250.64461 239.95797 230.09234 221.20870 213.40306 206.41742
 200.26378 195.21414 191.80850 189.86287 188.91223 188.98859 189.83595 191.15631
 192.89367 195.00103 197.27640 199.64776 202.10512 204.59748 206.69784 208.55220
 210.19056 211.34792 211.58929 211.82965 211.77901 211.49637 211.14173 210.78409
 210.41345 210.13582 209.95618 209.83254 209.77290 210.11626 210.51462 210.91598
 211.72134 212.91171 214.17407 215.96943 217.90979 219.96515 222.07251 224.16787
 226.24024 228.33660 230.44596 232.56432 234.70568 236.89004 239.15840 241.54076
 244.17413 246.43749 248.45185 250.22921 251.65857 252.79393 253.62829 253.95666
 254.00602 253.79238 253.16474 252.12510 250.74346 248.91682 246.83819 244.68355
 242.48691 240.30327 238.13563 235.98699 233.85935 231.73871 229.77708 227.94644
 226.24180 224.72616 223.36852 222.15288 221.04724 220.01961 219.13597 218.28933
 217.54369 216.73605 215.84641 215.22277 214.68513 213.46790 210.60564 210.02742
 210.52457 210.95427 212.06975 215.14211 219.29788 224.03786 229.73734 234.71570
 238.54877 242.55727 246.83867 251.05188 254.77435 258.16406 261.00070 263.46582
 266.22455 268.84659 271.35434 273.83774 275.89685 277.56287 279.05066 280.76141
 282.67175 284.41998 285.95779 287.31467 288.48953 289.52872 290.47449 291.33002
 292.09558 292.77460 293.36411 294.09308
 366.78100 356.34781 345.79262 334.67143 323.08724 311.29405 299.17686 286.99267
 274.71748 262.62729 250.64910 239.96291 230.09772 221.21453 213.40934 206.42415
 200.27096 195.22177 191.81658 189.87139 188.92121 188.99802 189.84583 191.16664
 192.90445 195.01226 197.28807 199.65988 202.11769 204.61050 206.71131 208.56612
 210.20493 211.36274 211.60455 211.84536 211.79517 211.51298 211.15879 210.80160
 210.43141 210.15422 209.97503 209.85184 209.79265 210.13646 210.53527 210.93708
 211.74289 212.93370 214.19651 215.99232 217.93313 219.98894 222.09675 224.19256
 226.26537 228.36218 230.47200 232.59081 234.73262 236.91743 239.18624 241.56905
 244.20286 246.46667 248.48148 250.25929 251.68910 252.82491 253.65972 253.98853
 254.03834 253.82515 253.19796 252.15877 250.77758 248.95139 246.87320 244.71901
 242.52282 240.33963 238.17244 236.02425 233.89706 231.77687 229.81568 227.98549
 226.28130 224.76611 223.40892 222.19373 221.08854 220.06135 219.17816 218.33197
 217.58679 216.77960 215.89041 215.26722 214.73003 213.50838 210.63521 210.09891
 210.58423 210.98990 212.11543 215.14755 219.21973 223.95956 229.67203 234.64095
 238.46951 242.47867 246.75938 250.97321 254.70731 258.12613 260.97784 263.43008
 266.17868 268.78302 271.26956 273.73349 275.79263 277.47299 278.98453 280.71143
 282.62357 284.35754 285.89713 287.25247 288.42734 289.46585 290.41144 291.26590
 292.03091 292.71002 293.29785 294.01349
 366.78100 356.34824 345.79348 334.67273 323.08897 311.29621 299.17945 286.99569
 274.72094 262.63118 250.65342 239.96766 230.10291 221.22015 213.41539 206.43063
 200.27787 195.22912 191.82436 189.87960 188.92984 189.00708 189.85533 191.17657
 192.91481 195.02305 197.29929 199.67154 202.12978 204.62302 206.72426 208.57950
 210.21875 211.37699 211.61923 211.86047 211.81072 211.52896 211.17520 210.81844
 210.44868 210.17193 209.99317 209.87041 209.81165 210.15589 210.55514 210.95738
 211.76362 212.95486 214.21810 216.01435 217.95559 220.01183 222.12007 224.21631
 226.28956 228.38680 230.49704 232.61628 234.75853 236.94377 239.21301 241.59625
 244.23049 246.49474 248.50998 250.28822 251.71846 252.85470 253.68995 254.01919
 254.06943 253.85667 253.22991 252.19116 250.81040 248.98464 246.90688 244.75312
 242.55737 240.37461 238.20785 236.06009 233.93334 231.81358 229.85282 228.02306
 226.31930 224.80455 223.44779 222.23303 221.12827 220.10151 219.21876 218.37300
 217.62824 216.82148 215.93272 215.30997 214.77321 213.54730 210.66348 210.15768
 210.66812 211.05063 212.13438 215.14345 219.14613 223.87025 229.59711 234.55984
 238.38937 242.40378 246.68597 250.90126 254.64893 258.09518 260.95935 263.39627
 266.13260 268.71643 271.17801 273.62082 275.68320 277.38068 278.91318 280.65643
 282.56555 284.29218 285.83319 287.18939 288.36450 289.40256 290.34833 291.20297
 291.96689 292.64606 293.23270 293.93518
 366.78100 356.34927 345.79555 334.67582 323.09309 311.30137 299.18564 287.00291
 274.72919 262.64046 250.66373 239.97901 230.11528 221.23355 213.42983 206.44610
 200.29437 195.24665 191.84292 189.89920 188.95047 189.02874 189.87802 191.20029
 192.93956 195.04884 197.32611 199.69938 202.15866 204.65293 206.75520 208.61148
 210.25175 211.41102 211.65430 211.89657 211.84784 211.56712 211.21439 210.85866
 210.48994 210.21421 210.03648 209.91476 209.85703 210.20230 210.60258 211.00585
 211.81312 213.00540 214.26967 216.06694 218.00922 220.06649 222.17577 224.27304
 226.34731 228.44559 230.55686 232.67713 234.82041 237.00668 239.27695 241.66123
 244.29650 246.56177 248.57805 250.35732 251.78859 252.92587 253.76214 254.09241
 254.14369 253.93196 253.30623 252.26851 250.88878 249.06405 246.98733 244.83460
 242.63987 240.45815 238.29242 236.14569 234.01997 231.90124 229.94151 228.11279
 226.41006 224.89634 223.54061 222.32688 221.22316 220.19743 219.31570 218.47098
 217.72725 216.92152 216.03380 215.41207 214.87634 213.61568 210.64986 210.23654
 210.78917 211.08890 212.14665 215.13155 219.04562 223.77592 229.53004 234.49072
 238.32124 242.34087 246.61923 250.83365 254.59254 258.06366 260.93896 263.36017
 266.08472 268.64676 271.08154 273.50436 275.57346 277.29147 278.84253 280.59888
 282.50613 284.22964 285.77084 287.12686 288.30005 289.33893 290.28229 291.13599
 291.90063 292.57678 293.15070 293.81201
 366.78100 356.35052 345.79805 334.67957 323.09810 311.30762 299.19315 287.01167
 274.73920 262.65172 250.67625 239.99277 230.13030 221.24982 213.44735 206.46487
 200.31440 195.26792 191.86545 189.92297 188.97550 189.05502 189.90555 191.22907
 192.96960 195.08012 197.35865 199.73317 202.19370 204.68922 206.79275 208.65027
 210.29180 211.45232 211.69685 211.94037 211.89290 211.61342 211.26195 210.90747
 210.54000 210.26552 210.08905 209.96857 209.91210 210.25862 210.66015 211.06467
 211.87320 213.06672 214.33225 216.13077 218.07430 220.13282 222.24335 224.34187
 226.41740 228.51692 230.62945 232.75097 234.89550 237.08302 239.35455 241.74007
 244.37660 246.64312 248.66065 250.44117 251.87370 253.01222 253.84975 254.18127
 254.23380 254.02332 253.39885 252.36237 250.98390 249.16042 247.08495 244.93347
 242.74000 240.55952 238.39505 236.24957 234.12510 232.00762 230.04915 228.22167
 226.52020 225.00772 223.65325 222.44077 221.33830 220.31382 219.43335 218.58987
 217.84740 217.04292 216.15645 215.53597 215.00150 213.69386 210.61743 210.33147
 210.91954 211.12862 212.14728 215.09373 218.96095 223.68417 229.46483 234.42093
 238.25177 242.27695 246.55257 250.76590 254.53708 258.03317 260.91968 263.32410
 266.03882 268.57672 270.98383 273.38632 275.46658 277.20520 278.77234 280.53644
 282.44305 284.16498 285.70569 287.06253 288.23553 289.27078 290.21338 291.06677
 291.83170 292.50677 293.06393 293.65781
 366.78100 356.35145 345.79990 334.68236 323.10181 311.31226 299.19871 287.01817
 274.74662 262.66007 250.68552 240.00297 230.14143 221.26188 213.46033 206.47878
 200.32924 195.28369 191.88214 189.94059 188.99404 189.07450 189.92595 191.25040
 192.99185 195.10331 197.38276 199.75821 202.21966 204.71611 206.82057 208.67902
 210.32147 211.48292 211.72838 211.97283 211.92628 211.64773 211.29718 210.94364
 210.57709 210.30354 210.12799 210.00845 209.95290 210.30035 210.70280 211.10825
 211.91771 213.11216 214.37861 216.17806 218.12252 220.18197 222.29342 224.39287
 226.46932 228.56978 230.68323 232.80568 234.95113 237.13959 239.41204 241.79849
 244.43594 246.70339 248.72185 250.50330 251.93675 253.07620 253.91466 254.24711
 254.30056 254.09101 253.46747 252.43192 251.05437 249.23182 247.15727 245.00673
 242.81418 240.63463 238.47108 236.32654 234.20299 232.08644 230.12889 228.30234
 226.60180 225.09025 223.73670 222.52515 221.42361 220.40006 219.52051 218.67796
 217.93641 217.13287 216.24732 215.62777 215.09422 213.75874 210.61555 210.32594
 211.18893 211.23232 211.99585 215.03603 218.89571 223.58463 229.39590 234.35141
 238.18770 242.22263 246.49501 250.70695 254.48959 258.00665 260.90207 263.28723
 265.99017 268.50284 270.88101 273.26532 275.35876 277.11899 278.69861 280.47021
 282.37555 284.09592 285.63846 286.99484 288.16696 289.19870 290.13971 290.99243
 291.76016 292.44037 293.01459 293.55347
 366.78100 356.35139 345.79978 334.68218 323.10157 311.31196 299.19835 287.01774
 274.74614 262.65953 250.68492 240.00231 230.14070 221.26110 213.45949 206.47788
 200.32827 195.28266 191.88106 189.93945 188.99284 189.07323 189.92462 191.24902
 192.99041 195.10180 197.38119 199.75658 202.21797 204.71437 206.81876 208.67715
 210.31954 211.48093 211.72633 211.97072 211.92411 211.64550 211.29489 210.94129
 210.57468 210.30107 210.12546 210.00585 209.95025 210.29764 210.70003 211.10542
 211.91481 213.10921 214.37560 216.17499 218.11938 220.17877 222.29017 224.38956
 226.46595 228.56634 230.67973 232.80213 234.94752 237.13591 239.40830 241.79469
 244.43209 246.69948 248.71787 250.49926 251.93265 253.07205 253.91044 254.24283
 254.29622 254.08661 253.46300 252.42740 251.04979 249.22718 247.15257 245.00196
 242.80936 240.62975 238.46614 236.32153 234.19792 232.08132 230.12371 228.29710
 226.59649 225.08488 223.73128 222.51967 221.41806 220.39445 219.51484 218.67224
 217.93063 217.12702 216.24141 215.62180 215.08820 213.77658 210.68753 210.27344
 211.25023 211.38382 212.07199 214.97868 218.78513 223.51573 229.33946 234.30070
 238.14099 242.18472 246.44745 250.65248 254.44170 257.97446 260.87418 263.24036
 265.93472 268.42398 270.77429 273.14163 275.25018 277.03360 278.62262 280.40155
 282.30386 284.02466 285.56854 286.92355 288.09293 289.12158 290.06073 290.91220
 291.68588 292.36548 292.82721 293.25534
 366.78100 356.35148 345.79997 334.68245 323.10193 311.31241 299.19890 287.01838
 274.74686 262.66035 250.68583 240.00331 230.14179 221.26228 213.46076 206.47924
 200.32973 195.28421 191.88269 189.94118 188.99466 189.07514 189.92662 191.25111
 192.99259 195.10407 197.38356 199.75904 202.22052 204.71700 206.82149 208.67997
 210.32245 211.48394 211.72942 211.97390 211.92738 211.64887 211.29835 210.94483
 210.57832 210.30480 210.12928 210.00976 209.95425 210.30173 210.70421 211.10970
 211.91918 213.11366 214.38015 216.17963 218.12411 220.18359 222.29508 224.39456
 226.47104 228.57153 230.68501 232.80749 234.95297 237.14146 239.41394 241.80042
 244.43791 246.70539 248.72387 250.50535 251.93884 253.07832 253.91680 254.24929
 254.30277 254.09325 253.46973 252.43422 251.05670 249.23418 247.15967 245.00915
 242.81663 240.63711 238.47360 236.32908 234.20556 232.08905 230.13153 228.30501
 226.60450 225.09298 223.73946 222.52794 221.42643 220.40291 219.52339 218.68088
 217.93936 217.13584 216.25032 215.63081 215.09729 213.80006 210.74350 210.27959
 211.22812 211.45871 212.24855 214.97241 218.67398 223.44344 229.29250 234.26064
 238.09923 242.14561 246.39471 250.58905 254.38269 257.93079 260.83734 263.19421
 265.87695 268.34552 270.66660 273.01810 275.14465 276.95013 278.54984 280.33398
 282.23260 283.95117 285.49533 286.85098 288.01749 289.03604 289.97244 290.82571
 291.59930 292.27649 292.64624 292.97498
 366.78100 356.35181 345.80062 334.68343 323.10324 311.31405 299.20086 287.02067
 274.74948 262.66329 250.68910 240.00691 230.14572 221.26653 213.46534 206.48416
 200.33497 195.28978 191.88859 189.94740 189.00121 189.08202 189.93383 191.25864
 193.00045 195.11226 197.39207 199.76788 202.22969 204.72650 206.83131 208.69012
 210.33293 211.49474 211.74055 211.98536 211.93917 211.66098 211.31079 210.95760
 210.59141 210.31822 210.14303 210.02385 209.96866 210.31647 210.71928 211.12509
 211.93490 213.12971 214.39652 216.19633 218.14114 220.20095 222.31276 224.41257
 226.48938 228.59019 230.70400 232.82681 234.97262 237.16143 239.43424 241.82105
 244.45886 246.72667 248.74548 250.52729 251.96110 253.10091 253.93972 254.27254
 254.32635 254.11716 253.49397 252.45878 251.08159 249.25940 247.18521 245.03502
 242.84283 240.66364 238.50045 236.35626 234.23307 232.11688 230.15969 228.33350
 226.63331 225.12212 223.76893 222.55774 221.45655 220.43336 219.55417 218.71198
 217.97079 217.16760 216.28241 215.66323 215.13004 213.83504 210.78317 210.29875
 211.23083 211.50082 212.37613 214.99098 218.60657 223.37796 229.24989 234.22208
 238.05481 242.10249 246.34050 250.52673 254.33028 257.89520 260.80960 263.14160
 265.82867 268.26642 270.55609 272.88809 275.02438 276.84851 278.46149 280.25986
 282.15723 283.87323 285.41757 286.77182 287.92914 288.93738 289.87424 290.72791
 291.50238 292.14264 292.45432 292.74442
 366.78100 356.35174 345.80048 334.68322 323.10296 311.31370 299.20044 287.02018
 274.74892 262.66266 250.68840 240.00614 230.14488 221.26562 213.46436 206.48310
 200.33385 195.28859 191.88733 189.94607 188.99981 189.08055 189.93229 191.25703
 192.99877 195.11051 197.39025 199.76599 202.22773 204.72447 206.82921 208.68795
 210.33069 211.49243 211.73817 211.98291 211.93665 211.65839 211.30813 210.95487
 210.58861 210.31535 210.14009 210.02083 209.96557 210.31331 210.71605 211.12179
 211.93154 213.12628 214.39302 216.19276 218.13750 220.19724 222.30898 224.40872
 226.48546 228.58620 230.69994 232.82268 234.96842 237.15716 239.42990 241.81664
 244.45438 246.72212 248.74086 250.52260 251.95634 253.09608 253.93482 254.26756
 254.32130 254.11204 253.48878 252.45352 251.07626 249.25400 247.17974 245.02948
 242.83723 240.65797 238.49471 236.35045 234.22719 232.11093 230.15367 228.32741
 226.62715 225.11589 223.76263 222.55137 221.45011 220.42685 219.54759 218.70533
 217.96407 217.16081 216.27555 215.65629 215.12303 213.85139 210.86336 210.31786
 211.23552 211.53670 212.44887 215.01114 218.57425 223.31602 229.19450 234.17052
 237.99123 242.04900 246.27925 250.45769 254.28529 257.85873 260.79437 263.19406
 265.76801 268.18768 270.45364 272.75720 274.89972 276.73560 278.37363 280.18427
 282.07834 283.80447 285.34927 286.69910 287.84418 288.84610 289.77020 290.62671
 291.38232 291.86038 292.03351 292.16949
 366.78100 356.35093 345.79887 334.68080 323.09974 311.30967 299.19561 287.01454
 274.74248 262.65541 250.68035 239.99728 230.13522 221.25515 213.45309 206.47102
 200.32095 195.27489 191.87282 189.93076 188.98369 189.06363 189.91456 191.23850
 192.97943 195.09037 197.36930 199.74424 202.20517 204.70110 206.80504 208.66297
 210.30491 211.46584 211.71078 211.95471 211.90765 211.62858 211.27752 210.92345
 210.55639 210.28232 210.10626 209.98619 209.93012 210.27706 210.67899 211.08393
 211.89286 213.08680 214.35273 216.15167 218.09560 220.15454 222.26547 224.36441
 226.44034 228.54028 230.65321 232.77514 234.92008 237.10801 239.37995 241.76588
 244.40282 246.66975 248.68769 250.46862 251.90156 253.04049 253.87843 254.21036
 254.26329 254.05323 253.42916 252.39310 251.01503 249.19197 247.11690 244.96584
 242.77277 240.59271 238.42864 236.28358 234.15951 232.04245 230.08438 228.25731
 226.55625 225.04418 223.69012 222.47805 221.37599 220.35192 219.47186 218.62879
 217.88673 217.08266 216.19660 215.57653 215.04247 213.83049 211.00560 210.36339
 211.18439 211.53381 212.52643 215.02254 218.54156 223.24683 229.12805 234.11278
 237.91423 241.99307 246.21725 250.37712 254.24002 257.80109 260.71255 263.12512
 265.84814 268.23813 270.46527 272.70670 274.80682 276.62299 278.30658 280.13736
 281.97238 283.67059 285.19208 286.51318 287.63211 288.62781 289.55093 290.36948
 290.95309 291.47424 291.93091 292.51285
 366.78100 356.34986 345.79672 334.67758 323.09544 311.30430 299.18916 287.00702
 274.73388 262.64574 250.66960 239.98546 230.12232 221.24118 213.43804 206.45490
 200.30376 195.25662 191.85348 189.91034 188.96220 189.04106 189.89092 191.21378
 192.95364 195.06350 197.34136 199.71522 202.17508 204.66994 206.77280 208.62966
 210.27052 211.43038 211.67424 211.91710 211.86896 211.58882 211.23668 210.88154
 210.51340 210.23826 210.06112 209.93998 209.88284 210.22870 210.62956 211.03342
 211.84128 213.03414 214.29900 216.09686 218.03972 220.09758 222.20744 224.30530
 226.38016 228.47902 230.59088 232.71174 234.85560 237.04246 239.31332 241.69818
 244.33404 246.59990 248.61676 250.39662 251.82848 252.96634 253.80320 254.13406
 254.18592 253.97478 253.34964 252.31250 250.93336 249.10922 247.03308 244.88094
 242.68680 240.50566 238.34052 236.19438 234.06924 231.95110 229.99196 228.16382
 226.46168 224.94854 223.59340 222.38026 221.27712 220.25198 219.37084 218.52670
 217.78356 216.97842 216.09128 215.47014 214.93500 213.79466 211.15656 210.42827
 211.13353 211.49846 212.52673 214.98622 218.51430 223.18472 229.05206 234.03296
 237.83020 241.93073 246.16133 250.31189 254.21719 257.77930 260.66617 263.25827
 265.87494 268.22150 270.44687 272.65390 274.72726 276.50961 278.19644 280.05786
 281.89520 283.58942 285.07870 286.36624 287.47086 288.45300 289.33267 290.11697
 290.85590 291.51392 292.08875 292.82132
 366.78100 356.34936 345.79572 334.67608 323.09345 311.30181 299.18617 287.00353
 274.72989 262.64125 250.66461 239.97998 230.11634 221.23470 213.43106 206.44742
 200.29578 195.24815 191.84451 189.90087 188.95223 189.03059 189.87995 191.20231
 192.94168 195.05104 197.32840 199.70176 202.16112 204.65548 206.75784 208.61421
 210.25457 211.41393 211.65729 211.89965 211.85101 211.57037 211.21774 210.86210
 210.49346 210.21782 210.04018 209.91854 209.86090 210.20627 210.60663 211.00999
 211.81735 213.00971 214.27407 216.07144 218.01380 220.07116 222.18052 224.27788
 226.35224 228.45060 230.56197 232.68233 234.82569 237.01205 239.28241 241.66677
 244.30213 246.56750 248.58386 250.36322 251.79458 252.93194 253.76830 254.09866
 254.15003 253.93839 253.31275 252.27511 250.89547 249.07083 246.99419 244.84156
 242.64692 240.46528 238.29964 236.15300 234.02736 231.90873 229.94909 228.12045
 226.41781 224.90417 223.54853 222.33489 221.23126 220.20562 219.32398 218.47934
 217.73570 216.93006 216.04242 215.42079 214.88515 213.78506 211.24675 210.46428
 211.15790 211.52983 212.52751 214.94476 218.45503 223.10855 228.97520 233.94292
 237.73715 241.84613 246.08389 250.23721 254.16895 257.79019 260.64780 263.34650
 265.99005 268.31873 270.49750 272.64236 274.71640 276.48938 278.17566 279.97290
 281.79486 283.49796 284.98917 286.25537 287.35443 288.35254 289.28665 290.16394
 290.95294 291.65555 292.26935 293.05157
 366.78100 356.35012 345.79725 334.67837 323.09650 311.30562 299.19075 287.00887
 274.73600 262.64812 250.67225 239.98837 230.12550 221.24462 213.44175 206.45887
 200.30800 195.26112 191.85824 189.91537 188.96749 189.04662 189.89674 191.21987
 192.95999 195.07012 197.34824 199.72237 202.18249 204.67762 206.78074 208.63787
 210.27899 211.43912 211.68324 211.92637 211.87849 211.59861 211.24674 210.89186
 210.52399 210.24911 210.07224 209.95136 209.89449 210.24061 210.64174 211.04586
 211.85399 213.04711 214.31224 216.11036 218.05349 220.11161 222.22173 224.31986
 226.39498 228.49411 230.60623 232.72736 234.87148 237.05861 239.32973 241.71486
 244.35098 246.61711 248.63423 250.41436 251.84648 252.98461 253.82173 254.15285
 254.20498 253.99410 253.36923 252.33235 250.95348 249.12960 247.05373 244.90185
 242.70798 240.52710 238.36223 236.21635 234.09148 231.97360 230.01473 228.18685
 226.48497 224.97210 223.61722 222.40435 221.30147 220.27660 219.39572 218.55185
 217.80897 217.00410 216.11722 215.49635 214.96147 213.84445 211.28159 210.48535
 211.17459 211.61270 212.70929 215.06995 218.48866 223.08397 228.95090 233.90622
 237.69579 241.79680 246.02997 250.16850 254.09645 257.67957 260.48978 263.30984
 266.09079 268.47726 270.59586 272.70593 274.72763 276.44257 278.05090 279.82730
 281.59201 283.15866 284.55966 285.83536 287.00388 288.09955 289.13556 290.07410
 290.91824 291.66992 292.32660 293.16345
 366.78100 356.35321 345.80341 334.68762 323.10883 311.32104 299.20924 287.03045
 274.76066 262.67587 250.70307 240.02228 230.16249 221.28470 213.48490 206.50511
 200.35732 195.31353 191.91373 189.97394 189.02915 189.11136 189.96456 191.29077
 193.03398 195.14719 197.42839 199.80560 202.26881 204.76702 206.87322 208.73343
 210.37764 211.54085 211.78805 212.03426 211.98947 211.71268 211.36388 211.01209
 210.64730 210.37551 210.20171 210.08392 210.03013 210.37934 210.78354 211.19075
 212.00196 213.19816 214.46637 216.26758 218.21379 220.27499 222.38820 224.48941
 226.56762 228.66982 230.78503 232.90924 235.05645 237.24665 239.52086 241.90907
 244.54828 246.81748 248.83769 250.62090 252.05611 253.19731 254.03752 254.37173
 254.42694 254.21914 253.59735 252.56356 251.18777 249.36697 247.29418 245.14539
 242.95460 240.77680 238.61501 236.47222 234.35043 232.23563 230.27984 228.45505
 226.75626 225.24646 223.89467 222.68488 221.58509 220.56329 219.68550 218.84471
 218.10492 217.30312 216.41933 215.80154 215.26974 214.03972 211.23819 210.39819
 211.28741 211.94812 213.02519 215.17784 218.47676 223.04848 228.92358 233.84688
 237.64537 241.74907 245.99333 250.13991 254.09421 257.63742 260.48483 263.28442
 265.97223 268.34103 270.54437 272.67505 274.69339 276.39124 278.04224 279.81851
 281.53204 282.96570 284.48892 285.91660 287.34991 288.62857 289.79514 290.85196
 291.80246 292.64886 293.38831 294.33060
 366.78100 356.35510 345.80720 334.69330 323.11640 311.33050 299.22060 287.04370
 274.77580 262.69290 250.72200 240.04310 230.18520 221.30930 213.51140 206.53350
 200.38760 195.34569 191.94779 190.00989 189.06699 189.15109 190.00619 191.33429
 193.07939 195.19449 197.47759 199.85669 202.32179 204.82189 206.92999 208.79209
 210.43819 211.60329 211.85239 212.10049 212.05759 211.78269 211.43579 211.08589
 210.72299 210.45309 210.28119 210.16529 210.11339 210.46449 210.87059 211.27969
 212.09279 213.29088 214.56098 216.36408 218.31218 220.37528 222.49038 224.59348
 226.67358 228.77768 230.89478 233.02088 235.16998 237.36208 239.63818 242.02828
 244.66938 246.94048 248.96258 250.74768 252.18478 253.32788 254.16998 254.50608
 254.56318 254.35728 253.73738 252.70548 251.33158 249.51268 247.44178 245.29488
 243.10598 240.93007 238.77017 236.62927 234.50937 232.39647 230.44257 228.61967
 226.92277 225.41487 224.06497 222.85707 221.75917 220.73927 219.86337 219.02447
 218.28657 217.48667 216.60477 215.98887 215.45897 214.16101 211.19954 210.32127
 211.29755 212.11044 213.19371 215.19923 218.43065 222.99507 228.84821 233.76277
 237.55528 241.66156 245.89398 250.05264 254.00183 257.53067 260.33383 263.11115
 265.89801 268.24530 270.46902 272.65982 274.74490 276.55118 278.23825 279.96802
 281.62476 283.10092 284.63992 286.04428 287.37485 288.62552 289.76654 290.80023
 291.72995 292.55783 293.28107 294.20276
 366.78100 356.35308 345.80315 334.68723 323.10831 311.32039 299.20846 287.02954
 274.75962 262.67469 250.70177 240.02085 230.16093 221.28300 213.48308 206.50316
 200.35523 195.31131 191.91139 189.97147 189.02654 189.10862 189.96170 191.28777
 193.03085 195.14393 197.42501 199.80208 202.26516 204.76324 206.86931 208.72939
 210.37347 211.53655 211.78362 212.02970 211.98478 211.70785 211.35893 211.00701
 210.64209 210.37016 210.19624 210.07832 210.02439 210.37347 210.77755 211.18463
 211.99570 213.19178 214.45986 216.26093 218.20701 220.26809 222.38117 224.48224
 226.56032 228.66240 230.77747 232.90155 235.04863 237.23871 239.51278 241.90086
 244.53994 246.80901 248.82909 250.61217 252.04725 253.18832 254.02840 254.36248
 254.41755 254.20963 253.58771 252.55379 251.17786 249.35694 247.28402 245.13509
 242.94417 240.76625 238.60433 236.46140 234.33948 232.22456 230.26863 228.44371
 226.74479 225.23487 223.88294 222.67302 221.57310 220.55117 219.67325 218.83233
 218.09241 217.29048 216.40656 215.78864 215.25671 214.05911 211.29242 210.38895
 211.23834 211.93892 213.10040 215.17569 218.36916 222.92207 228.77446 233.70735
 237.49429 241.60832 245.83771 249.99924 253.94247 257.48209 260.25827 263.04337
 265.70209 268.01523 270.21378 272.39545 274.52686 276.46442 278.25717 280.01266
 281.69492 283.20352 284.61636 285.96701 287.15302 288.22238 289.24091 290.18433
 291.03281 291.78839 292.44846 293.28961
 366.78100 356.35010 345.79719 334.67829 323.09638 311.30548 299.19057 287.00867
 274.73577 262.64786 250.67196 239.98805 230.12515 221.24424 213.44134 206.45844
 200.30753 195.26063 191.85772 189.91482 188.96691 189.04601 189.89611 191.21920
 192.95930 195.06939 197.34749 199.72158 202.18168 204.67678 206.77987 208.63697
 210.27806 211.43816 211.68225 211.92535 211.87745 211.59754 211.24564 210.89073
 210.52283 210.24792 210.07102 209.95012 209.89321 210.23931 210.64040 211.04450
 211.85259 213.04569 214.31079 216.10888 218.05198 220.11007 222.22017 224.31826
 226.39336 228.49246 230.60455 232.72565 234.86974 237.05684 239.32793 241.71303
 244.34913 246.61522 248.63232 250.41241 251.84451 252.98260 253.81970 254.15080
 254.20289 253.99199 253.36708 252.33018 250.95128 249.12737 247.05147 244.89956
 242.70566 240.52475 238.35985 236.21395 234.08904 231.97114 230.01223 228.18433
 226.48242 224.96952 223.61462 222.40171 221.29881 220.27390 219.39300 218.54909
 217.80619 217.00129 216.11438 215.49348 214.95857 213.91312 211.49838 210.59285
 211.28989 211.89203 212.99657 215.11844 218.33282 222.86142 228.72003 233.64737
 237.43875 241.56227 245.80797 249.98973 253.96942 257.54095 260.28140 263.14526
 265.88989 268.15347 270.23605 272.33444 274.36176 276.22983 277.98209 279.72830
 281.37329 282.89481 284.27582 285.58722 286.76190 287.83286 288.82367 289.72131
 290.52863 291.24753 291.87555 292.67590
 366.78100 356.34927 345.79554 334.67581 323.09308 311.30134 299.18561 287.00288
 274.72915 262.64042 250.66369 239.97896 230.11523 221.23350 213.42976 206.44603
 200.29430 195.24657 191.84284 189.89911 188.95038 189.02865 189.87791 191.20018
 192.93945 195.04872 197.32599 199.69926 202.15853 204.65280 206.75507 208.61133
 210.25160 211.41087 211.65414 211.89641 211.84768 211.56695 211.21422 210.85849
 210.48975 210.21402 210.03629 209.91456 209.85683 210.20210 210.60237 211.00564
 211.81290 213.00517 214.26944 216.06671 218.00898 220.06625 222.17552 224.27279
 226.34706 228.44532 230.55659 232.67686 234.82013 237.00640 239.27667 241.66094
 244.29621 246.56148 248.57774 250.35701 251.78828 252.92555 253.76182 254.09209
 254.14336 253.93163 253.30589 252.26816 250.88843 249.06370 246.98697 244.83424
 242.63951 240.45778 238.29205 236.14531 234.01958 231.90085 229.94112 228.11239
 226.40966 224.89593 223.54020 222.32647 221.22273 220.19700 219.31527 218.47054
 217.72681 216.92108 216.03335 215.41162 214.87589 213.89113 211.61867 210.72453
 211.36237 211.99918 213.11624 215.10101 218.25011 222.79861 228.68799 233.58963
 237.40880 241.54626 245.80811 250.00827 254.01654 257.55896 260.51254 263.31439
 265.92532 268.25171 270.38431 272.43454 274.36810 276.12097 277.96152 279.59995
 281.18991 282.64618 284.04871 285.48486 286.76901 287.90518 288.94174 289.88080
 290.72537 291.47748 292.13452 292.97180
 366.78100 356.35067 345.79834 334.68001 323.09868 311.30835 299.19402 287.01269
 274.74036 262.65303 250.67770 239.99437 230.13204 221.25171 213.44938 206.46705
 200.31672 195.27039 191.86806 189.92573 188.97840 189.05807 189.90874 191.23241
 192.97308 195.08375 197.36242 199.73709 202.19776 204.69343 206.79710 208.65477
 210.29644 211.45711 211.70178 211.94545 211.89812 211.61879 211.26746 210.91313
 210.54580 210.27147 210.09514 209.97481 209.91848 210.26515 210.66682 211.07149
 211.88016 213.07383 214.33950 216.13817 218.08184 220.14051 222.25118 224.34985
 226.42552 228.52519 230.63786 232.75953 234.90420 237.09187 239.36354 241.74921
 244.38588 246.65255 248.67022 250.45089 251.88356 253.02223 253.85990 254.19157
 254.24424 254.03391 253.40958 252.37325 250.99492 249.17159 247.09627 244.94494
 242.75161 240.57128 238.40695 236.26162 234.13729 232.01996 230.06163 228.23430
 226.53297 225.02064 223.66631 222.45398 221.35165 220.32732 219.44699 218.60366
 217.86133 217.05700 216.17067 215.55034 215.01601 213.97263 211.57289 210.69211
 211.44067 212.18558 213.25926 215.06821 218.15024 222.72021 228.63394 233.51076
 237.31062 241.45093 245.72227 249.95415 254.01379 257.52060 260.48895 263.26553
 265.95599 268.27823 270.44687 272.55722 274.59482 276.38672 278.05600 279.80566
 281.39719 282.78787 284.18103 285.57581 286.92807 288.12448 289.21603 290.20490
 291.09427 291.88626 292.57812 293.45984
 366.78100 356.35093 345.79886 334.68079 323.09972 311.30965 299.19558 287.01451
 274.74244 262.65537 250.68030 239.99723 230.13516 221.25509 213.45301 206.47094
 200.32087 195.27480 191.87273 189.93066 188.98359 189.06352 189.91445 191.23838
 192.97931 195.09024 197.36917 199.74410 202.20503 204.70096 206.80489 208.66282
 210.30475 211.46568 211.71061 211.95454 211.90747 211.62840 211.27733 210.92326
 210.55618 210.28211 210.10604 209.98597 209.92990 210.27683 210.67876 211.08369
 211.89262 213.08655 214.35248 216.15141 218.09534 220.15427 222.26520 224.36413
 226.44006 228.53999 230.65292 232.77485 234.91978 237.10771 239.37964 241.76557
 244.40250 246.66943 248.68735 250.46828 251.90121 253.04014 253.87807 254.21000
 254.26293 254.05286 253.42879 252.39272 251.01465 249.19158 247.11651 244.96544
 242.77237 240.59230 238.42823 236.28316 234.15909 232.04202 230.08395 228.25688
 226.55581 225.04374 223.68967 222.47760 221.37552 220.35145 219.47138 218.62831
 217.88624 217.08217 216.19610 215.57603 215.04196 213.98351 211.53421 210.70987
 211.47705 212.13933 213.18771 215.05557 218.10460 222.63321 228.50340 233.40018
 237.18478 241.32191 245.58623 249.82014 253.83928 257.37561 260.32529 262.94009
 265.64893 268.04822 270.23593 272.39142 274.50540 276.45328 278.27509 279.98752
 281.58768 283.03308 284.32501 285.50983 286.63519 287.66879 288.64395 289.55478
 290.37396 291.10342 291.74069 292.55280
 366.78100 356.35028 345.79756 334.67884 323.09711 311.30639 299.19167 287.00995
 274.73723 262.64951 250.67378 239.99006 230.12734 221.24662 213.44390 206.46118
 200.31045 195.26373 191.86101 189.91829 188.97057 189.04985 189.90012 191.22340
 192.96368 195.07396 197.35224 199.72652 202.18679 204.68207 206.78535 208.64263
 210.28391 211.44419 211.68846 211.93174 211.88402 211.60430 211.25258 210.89786
 210.53013 210.25541 210.07869 209.95797 209.90125 210.24753 210.64881 211.05308
 211.86136 213.05464 214.31992 216.11820 218.06148 220.11975 222.23003 224.32831
 226.40359 228.50287 230.61515 232.73642 234.88070 237.06798 239.33926 241.72454
 244.36082 246.62709 248.64437 250.42465 251.85693 252.99521 253.83249 254.16376
 254.21604 254.00532 253.38060 252.34388 250.96516 249.14143 247.06571 244.91399
 242.72027 240.53955 238.37483 236.22910 234.10438 231.98666 230.02794 228.20022
 226.49850 224.98578 223.63105 222.41833 221.31561 220.29089 219.41017 218.56645
 217.82372 217.01900 216.13228 215.51156 214.97684 213.96231 211.60240 210.73872
 211.61835 212.20972 213.14354 215.06216 218.07596 222.55713 228.47963 233.37160
 237.11549 241.24857 245.51608 249.76477 253.80609 257.34592 260.26642 263.00177
 265.70737 268.05679 270.17188 272.24814 274.27850 276.22888 277.97043 279.67758
 281.31433 282.88870 284.17288 285.28021 286.34985 287.33310 288.21582 289.03809
 289.78195 290.44437 291.02304 291.76050
 366.78100 356.34894 345.79487 334.67481 323.09175 311.29968 299.18362 287.00056
 274.72649 262.63743 250.66037 239.97530 230.11124 221.22918 213.42511 206.44105
 200.28899 195.24092 191.83686 189.89280 188.94373 189.02167 189.87061 191.19254
 192.93148 195.04042 197.31735 199.69029 202.14923 204.64316 206.74510 208.60104
 210.24097 211.39991 211.64285 211.88478 211.83572 211.55466 211.20159 210.84553
 210.47647 210.20040 210.02234 209.90028 209.84221 210.18715 210.58709 210.99002
 211.79696 212.98890 214.25283 216.04977 217.99171 220.04864 222.15758 224.25452
 226.32845 228.42639 230.53733 232.65726 234.80020 236.98614 239.25607 241.64001
 244.27495 246.53988 248.55582 250.33476 251.76569 252.90263 253.73857 254.06850
 254.11944 253.90738 253.28131 252.24325 250.86319 249.03812 246.96106 244.80800
 242.61293 240.43087 238.26481 236.11774 233.99168 231.87262 229.91255 228.08349
 226.38043 224.86636 223.51030 222.29624 221.19217 220.16611 219.28405 218.43898
 217.69492 216.88886 216.00079 215.37873 214.84267 213.92841 211.78809 210.74089
 211.49016 212.11942 213.23224 215.23349 218.22202 222.62489 228.48288 233.35957
 237.11295 241.24001 245.50742 249.77008 253.84903 257.29932 260.20276 263.07855
 265.85913 268.30014 270.39447 272.42224 274.34500 276.15906 278.09442 279.68314
 280.99005 282.39969 283.66791 284.75699 285.76041 286.73874 287.63739 288.45151
 289.18372 289.83578 290.40540 291.13129
 366.78100 356.34783 345.79265 334.67148 323.08731 311.29414 299.17696 286.99279
 274.71762 262.62744 250.64927 239.96310 230.09793 221.21475 213.40958 206.42441
 200.27124 195.22206 191.81689 189.87172 188.92154 188.99837 189.84620 191.16703
 192.90485 195.01268 197.28851 199.66033 202.11816 204.61099 206.71182 208.56664
 210.20547 211.36330 211.60512 211.84595 211.79578 211.51361 211.15943 210.80226
 210.43209 210.15492 209.97574 209.85257 209.79340 210.13722 210.53605 210.93788
 211.74371 212.93453 214.19736 215.99319 217.93401 219.98984 222.09767 224.19350
 226.26632 228.36315 230.47298 232.59180 234.73363 236.91846 239.18729 241.57011
 244.20394 246.46777 248.48260 250.26042 251.69025 252.82608 253.66090 253.98973
 254.03956 253.82639 253.19921 252.16004 250.77887 248.95269 246.87452 244.72035
 242.52418 240.34100 238.17383 236.02566 233.89848 231.77831 229.81714 227.98697
 226.28279 224.76762 223.41045 222.19528 221.09010 220.06293 219.17976 218.33358
 217.58841 216.78124 215.89207 215.26889 214.73172 213.91089 211.94870 210.81448
 211.41574 212.18620 213.43182 215.36288 218.24213 222.63501 228.50714 233.34183
 237.09201 241.21335 245.49010 249.77295 253.86699 257.28217 260.23169 263.00375
 265.74942 268.33221 270.48672 272.50708 274.29721 276.28397 278.15805 279.67337
 280.79889 282.07532 283.20685 284.54892 285.74408 286.80148 287.76620 288.64017
 289.42621 290.12619 290.73767 291.51694
 366.78100 356.34682 345.79064 334.66846 323.08328 311.28910 299.17091 286.98573
 274.70955 262.61837 250.63919 239.95201 230.08583 221.20165 213.39547 206.40929
 200.25510 195.20492 191.79874 189.85256 188.90138 188.97720 189.82402 191.14384
 192.88066 194.98748 197.26230 199.63311 202.08993 204.58175 206.68157 208.53539
 210.17321 211.33003 211.57085 211.81067 211.75949 211.47630 211.12112 210.76294
 210.39176 210.11358 209.93340 209.80922 209.74904 210.09186 210.48968 210.89050
 211.69531 212.88513 214.14695 215.94177 217.88159 219.93641 222.04323 224.13805
 226.20987 228.30569 230.41450 232.53232 234.67314 236.85696 239.12478 241.50660
 244.13942 246.40224 248.41606 250.19288 251.62170 252.75651 253.59033 253.91815
 253.96697 253.75279 253.12461 252.08443 250.70225 248.87507 246.79589 244.64071
 242.44352 240.25934 238.09116 235.94198 233.81380 231.69262 229.73044 227.89926
 226.19408 224.67790 223.31971 222.10353 220.99735 219.96917 219.08499 218.23781
 217.49163 216.68345 215.79327 215.16909 214.63091 213.89642 212.07629 210.93607
 211.40852 212.21759 213.45956 215.33984 218.19676 222.52010 228.46994 233.29626
 237.07077 241.20567 245.49594 249.81943 253.86444 257.36630 260.32159 262.97998
 265.56171 268.22815 270.51730 272.54373 274.29694 276.31238 278.12061 279.56689
 280.76587 282.20682 283.68970 284.99179 286.11862 287.11560 288.02518 288.84918
 289.59030 290.25024 290.82678 291.56152
 366.78100 356.34632 345.78964 334.66696 323.08127 311.28659 299.16791 286.98223
 274.70555 262.61387 250.63419 239.94651 230.07982 221.19514 213.38846 206.40178
 200.24710 195.19642 191.78974 189.84306 188.89137 188.96669 189.81301 191.13233
 192.86865 194.97497 197.24929 199.61961 202.07592 204.56724 206.66656 208.51988
 210.15720 211.31352 211.55384 211.79316 211.74147 211.45779 211.10211 210.74343
 210.37175 210.09307 209.91239 209.78770 209.72702 210.06934 210.46666 210.86698
 211.67130 212.86062 214.12194 215.91625 217.85557 219.90989 222.01621 224.11053
 226.18185 228.27717 230.38549 232.50280 234.64312 236.82644 239.09376 241.47508
 244.10740 246.36972 248.38304 250.15935 251.58767 252.72199 253.55531 253.88263
 253.93095 253.71627 253.08758 252.04690 250.66422 248.83654 246.75686 244.60118
 242.40350 240.21882 238.05013 235.90045 233.77177 231.65009 229.68741 227.85573
 226.15005 224.63337 223.27468 222.05800 220.95132 219.92264 219.03796 218.19028
 217.44360 216.63492 215.74423 215.11955 214.58087 213.89236 212.15388 211.05042
 211.42569 212.20616 213.40843 215.38477 218.26149 222.53571 228.40073 233.23444
 237.00969 241.16356 245.47174 249.82597 253.93506 257.48660 260.39386 262.99084
 265.61011 268.21411 270.45618 272.41702 274.31769 276.37637 278.16364 279.58762
 281.10751 282.95889 284.56097 285.96771 287.18512 288.26221 289.24490 290.13516
 290.93582 291.64883 292.27170 293.06549
 366.78100 356.34642 345.78984 334.66726 323.08168 311.28710 299.16851 286.98293
 274.70635 262.61477 250.63519 239.94761 230.08103 221.19645 213.38987 206.40329
 200.24871 195.19813 191.79154 189.84496 188.89338 188.96880 189.81522 191.13464
 192.87106 194.97748 197.25190 199.62232 202.07874 204.57015 206.66957 208.52299
 210.16041 211.31683 211.55725 211.79667 211.74509 211.46151 211.10593 210.74735
 210.37576 210.09718 209.91660 209.79202 209.73144 210.07386 210.47128 210.87170
 211.67612 212.86554 214.12696 215.92138 217.86079 219.91521 222.02163 224.11605
 226.18747 228.28289 230.39131 232.50873 234.64915 236.83257 239.09999 241.48140
 244.11382 246.37624 248.38966 250.16608 251.59450 252.72892 253.56234 253.88976
 253.93818 253.72360 253.09501 252.05443 250.67185 248.84427 246.76469 244.60911
 242.41153 240.22695 238.05837 235.90879 233.78021 231.65863 229.69604 227.86446
 226.15888 224.64230 223.28372 222.06714 220.96056 219.93198 219.04740 218.19982
 217.45324 216.64465 215.75407 215.12949 214.59091 213.88905 212.18379 211.13919
 211.39703 212.26239 213.47923 215.36314 218.14781 222.47049 228.35345 233.17058
 236.94585 241.09401 245.39806 249.69376 253.76840 257.36050 260.38086 262.95993
 265.52255 268.03662 270.40656 272.58496 274.30569 276.29025 278.11194 279.84644
 281.73862 283.72562 285.51517 287.08655 288.44644 289.64960 290.74728 291.74173
 292.63611 293.43256 294.12833 295.01501
 366.78100 356.34418 345.78537 334.66055 323.07274 311.27592 299.15510 286.96729
 274.68847 262.59466 250.61284 239.92302 230.05421 221.16739 213.35858 206.36976
 200.21294 195.16013 191.75131 189.80250 188.84868 188.92186 189.76605 191.08323
 192.81742 194.92160 197.19378 199.56197 202.01615 204.50534 206.60252 208.45370
 210.08889 211.24307 211.48126 211.71844 211.66462 211.37881 211.02099 210.66018
 210.28636 210.00554 209.82273 209.69591 209.63310 209.97328 210.36846 210.76665
 211.56883 212.75602 214.01520 215.80738 217.74457 219.79675 221.90094 223.99312
 226.06230 228.15549 230.26167 232.37686 234.51504 236.69622 238.96141 241.34059
 243.97078 246.23096 248.24214 250.01633 251.44251 252.57470 253.40588 253.73106
 253.77725 253.56043 252.92962 251.88680 250.50198 248.67217 246.59035 244.43254
 242.23272 240.04590 237.87509 235.72327 233.59246 231.46864 229.50382 227.67001
 225.96219 224.44338 223.08256 221.86375 220.75493 219.72411 218.83730 217.98748
 217.23867 216.42785 215.53503 214.90822 214.36740 213.78465 212.32648 211.18767
 211.27768 212.13222 213.52045 215.45749 218.14220 222.51167 228.38382 233.18449
 236.94815 241.08574 245.38654 249.67911 253.72502 257.25174 260.12415 262.82443
 265.51730 268.00354 270.32971 272.47855 274.43054 276.25790 278.09656 279.63376
 281.41022 283.23938 284.99921 286.54443 287.88171 289.06488 290.14432 291.12222
 292.00174 292.78497 293.46918 294.34109
 366.78100 356.34393 345.78485 334.65978 323.07170 311.27463 299.15355 286.96548
 274.68641 262.59233 250.61026 239.92018 230.05111 221.16403 213.35496 206.36589
 200.20881 195.15574 191.74666 189.79759 188.84351 188.91644 189.76036 191.07729
 192.81122 194.91514 197.18707 199.55499 202.00892 204.49784 206.59477 208.44570
 210.08062 211.23455 211.47247 211.70940 211.65532 211.36925 211.01118 210.65010
 210.27603 209.99495 209.81188 209.68480 209.62173 209.96166 210.35658 210.75451
 211.55643 212.74336 214.00228 215.79421 217.73114 219.78306 221.88699 223.97891
 226.04784 228.14076 230.24669 232.36162 234.49954 236.68047 238.94539 241.32432
 243.95424 246.21417 248.22509 249.99902 251.42495 252.55687 253.38780 253.71272
 253.75865 253.54157 252.91050 251.86743 250.48235 248.65228 246.57020 244.41213
 242.21205 240.02498 237.85391 235.70183 233.57076 231.44668 229.48161 227.64753
 225.93946 224.42039 223.05931 221.84024 220.73116 219.70009 218.81301 217.96294
 217.21387 216.40279 215.50972 214.88264 214.34157 213.79053 212.38004 211.23874
 211.31787 212.06021 213.44229 215.43051 218.21591 222.46275 228.35005 233.16136
 236.94543 241.10265 245.41306 249.72081 253.81183 257.41531 260.18491 262.75107
 265.53156 268.09299 270.38638 272.49829 274.43054 276.31079 278.08820 279.58786
 281.29340 283.21530 284.99194 286.55194 287.90198 289.09644 290.18616 291.17340
 292.06131 292.85202 293.54272 294.42300
 366.78100 356.34697 345.79093 334.66890 323.08387 311.28983 299.17180 286.98677
 274.71074 262.61970 250.64067 239.95364 230.08760 221.20357 213.39754 206.41150
 200.25747 195.20744 191.80140 189.85537 188.90434 188.98031 189.82727 191.14724
 192.88421 194.99117 197.26614 199.63711 202.09407 204.58604 206.68601 208.53997
 210.17794 211.33491 211.57587 211.81584 211.76481 211.48178 211.12674 210.76871
 210.39768 210.11964 209.93961 209.81558 209.75554 210.09851 210.49648 210.89744
 211.70241 212.89238 214.15435 215.94931 217.88928 219.94425 222.05121 224.14618
 226.21815 228.31411 230.42308 232.54105 234.68201 236.86598 239.13395 241.51592
 244.14888 246.41185 248.42582 250.20278 251.63175 252.76672 253.60068 253.92865
 253.97762 253.76358 253.13555 252.09552 250.71349 248.88645 246.80742 244.65239
 242.45535 240.27132 238.10329 235.95425 233.82622 231.70519 229.74315 227.91212
 226.20709 224.69105 223.33302 222.11699 221.01096 219.98292 219.09889 218.25186
 217.50582 216.69779 215.80776 215.18372 214.64569 213.94095 212.26297 211.23775
 211.48201 212.24225 213.43895 215.27673 218.10085 222.49788 228.22435 233.00885
 236.77538 240.97343 245.34256 249.71996 253.81073 257.27542 260.08472 262.77478
 265.52618 267.99969 270.27328 272.46436 274.53232 276.44495 278.31036 280.10889
 281.73279 283.30685 284.84167 286.31927 287.62283 288.77615 289.82837 290.78162
 291.63895 292.40240 293.06937 293.91931
 366.78100 356.34619 345.78938 334.66656 323.08075 311.28594 299.16713 286.98132
 274.70450 262.61269 250.63288 239.94507 230.07826 221.19345 213.38663 206.39982
 200.24501 195.19420 191.78739 189.84057 188.88876 188.96395 189.81014 191.12933
 192.86551 194.97170 197.24589 199.61608 202.07227 204.56345 206.66264 208.51583
 210.15302 211.30921 211.54940 211.78858 211.73677 211.45296 211.09715 210.73834
 210.36652 210.08771 209.90690 209.78209 209.72128 210.06346 210.46065 210.86084
 211.66503 212.85422 214.11541 215.90959 217.84878 219.90297 222.00916 224.10335
 226.17453 228.26972 230.37791 232.49510 234.63529 236.81847 239.08566 241.46685
 244.09904 246.36123 248.37441 250.15060 251.57879 252.71298 253.54617 253.87336
 253.92154 253.70673 253.07792 252.03711 250.65430 248.82648 246.74667 244.59086
 242.39305 240.20824 238.03942 235.88961 233.76080 231.63899 229.67618 227.84436
 226.13855 224.62174 223.26293 222.04612 220.93931 219.91049 219.02568 218.17787
 217.43106 216.62225 215.73143 215.10662 214.56781 213.88669 212.28316 211.34380
 211.46291 212.11139 213.43288 215.27930 218.11499 222.32097 228.09486 232.86435
 236.66069 240.84285 245.19896 249.51028 253.53162 256.99164 259.87247 262.56403
 265.25522 267.70993 270.04462 272.34937 274.51059 276.42999 278.18835 279.91452
 281.43417 282.79120 283.97333 285.03995 285.96338 286.80771 287.61429 288.40936
 289.19214 289.89621 290.51126 291.29507
 366.78100 356.34411 345.78522 334.66034 323.07245 311.27556 299.15467 286.96679
 274.68790 262.59401 250.61212 239.92224 230.05335 221.16646 213.35757 206.36868
 200.21180 195.15891 191.75002 189.80113 188.84725 188.92036 189.76447 191.08158
 192.81570 194.91981 197.19192 199.56003 202.01414 204.50326 206.60037 208.45148
 210.08659 211.24071 211.47882 211.71593 211.66204 211.37615 211.01827 210.65738
 210.28349 210.00260 209.81972 209.69283 209.62994 209.97005 210.36517 210.76328
 211.56539 212.75250 214.01161 215.80373 217.74084 219.79295 221.89706 223.98918
 226.05829 228.15140 230.25751 232.37263 234.51074 236.69185 238.95696 241.33607
 243.96619 246.22630 248.23741 250.01152 251.43764 252.56975 253.40086 253.72597
 253.77209 253.55520 252.92431 251.88142 250.49653 248.66665 246.58476 244.42687
 242.22698 240.04010 237.86921 235.71732 233.58643 231.46255 229.49766 227.66377
 225.95588 224.43699 223.07611 221.85722 220.74833 219.71744 218.83056 217.98067
 217.23178 216.42089 215.52800 214.90112 214.36023 213.80617 212.49016 211.23193
 211.62344 212.19122 213.32146 215.29878 218.11836 222.29634 228.09929 232.87747
 236.54778 240.73466 245.10754 249.46225 253.59001 257.10107 259.93759 262.46683
 265.17538 267.64709 269.89456 272.04892 274.15466 276.18735 278.03781 279.75977
 281.35083 282.73615 283.84296 284.84280 285.74265 286.51642 287.18149 287.74185
 288.24841 288.91592 289.52997 290.31250
 366.78100 356.34104 345.77908 334.65112 323.06016 311.26019 299.13623 286.94527
 274.66331 262.56635 250.58139 239.88843 230.01647 221.12651 213.31454 206.32258
 200.16262 195.10666 191.69470 189.74274 188.78578 188.85582 189.69686 191.01089
 192.74193 194.84297 197.11201 199.47705 201.92809 204.41413 206.50817 208.35620
 209.98824 211.13928 211.37432 211.60836 211.55140 211.26244 210.90148 210.53752
 210.16055 209.87659 209.69063 209.56067 209.49471 209.83175 210.22379 210.61883
 211.41787 212.60190 213.85794 215.64698 217.58102 219.63006 221.73110 223.82014
 225.88618 227.97622 230.07925 232.19129 234.32633 236.50437 238.76641 241.14245
 243.76949 246.02653 248.03457 249.80560 251.22864 252.35768 253.18572 253.50776
 253.55080 253.33084 252.69688 251.65092 250.26295 248.42999 246.34503 244.18407
 241.98111 239.79115 237.61719 235.46223 233.32827 231.20130 229.23334 227.39638
 225.68542 224.16346 222.79950 221.57754 220.46558 219.43161 218.54165 217.68869
 216.93673 216.12277 215.22681 214.59685 214.05289 213.70749 212.79274 211.29041
 211.24704 211.87038 213.41194 215.57059 218.41864 222.53882 228.11588 232.84305
 236.55457 240.71962 245.06259 249.43593 253.52563 257.00436 259.72650 262.46298
 265.28311 267.83447 270.14441 272.25647 274.26263 276.18625 277.98090 279.67346
 281.17880 282.47488 283.51758 284.34409 285.29691 286.42786 287.48495 288.44260
 289.30389 290.07089 290.74094 291.59479
 366.78100 356.34135 345.77969 334.65204 323.06138 311.26173 299.13807 286.94742
 274.66576 262.56911 250.58445 239.89180 230.02015 221.13049 213.31884 206.32718
 200.16753 195.11187 191.70022 189.74856 188.79191 188.86225 189.70360 191.01794
 192.74929 194.85064 197.11998 199.48533 201.93667 204.42302 206.51736 208.36571
 209.99805 211.14940 211.38474 211.61909 211.56244 211.27378 210.91313 210.54947
 210.17282 209.88916 209.70351 209.57385 209.50820 209.84554 210.23789 210.63323
 211.43258 212.61693 213.87327 215.66262 217.59696 219.64631 221.74765 223.83700
 225.90334 227.99369 230.09703 232.20938 234.34473 236.52307 238.78542 241.16176
 243.78911 246.04645 248.05480 249.82614 251.24949 252.37883 253.20718 253.52952
 253.57287 253.35322 252.71956 251.67391 250.28625 248.45360 246.36894 244.20829
 242.00563 239.81598 237.64232 235.48767 233.35402 231.22736 229.25971 227.42305
 225.71240 224.19074 222.82709 221.60543 220.49378 219.46012 218.57047 217.71781
 216.96616 216.15251 215.25685 214.62720 214.08354 213.75865 212.84406 211.47919
 211.15222 212.01317 213.65277 215.65256 218.43381 222.52721 228.14639 232.80701
 236.53535 240.70332 245.05632 249.42416 253.49176 256.89096 259.69336 262.52206
 265.39743 267.98529 270.28699 272.29520 274.29993 276.29730 278.01761 279.47403
 280.91879 282.06125 283.58041 285.09137 286.39896 287.55585 288.61130 289.56750
 290.42749 291.19330 291.86234 292.71490
 366.78100 356.34289 345.78277 334.65666 323.06754 311.26943 299.14731 286.95820
 274.67808 262.58297 250.59985 239.90874 230.03862 221.15051 213.34039 206.35028
 200.19216 195.13805 191.72793 189.77782 188.82270 188.89459 189.73747 191.05336
 192.78624 194.88913 197.16001 199.52690 201.97979 204.46767 206.56356 208.41344
 210.04733 211.20021 211.43710 211.67298 211.61787 211.33075 210.97164 210.60952
 210.23441 209.95229 209.76818 209.64006 209.57595 209.91483 210.30872 210.70560
 211.50649 212.69237 213.95026 215.74114 217.67703 219.72791 221.83080 223.92169
 225.98957 228.08146 230.18634 232.30023 234.43711 236.61700 238.88088 241.25877
 243.88765 246.14654 248.15642 249.92931 251.35419 252.48508 253.31496 253.63885
 253.68373 253.46562 252.83350 251.78939 250.40327 248.57216 246.48904 244.32993
 242.12881 239.94070 237.76859 235.61547 233.48336 231.35824 229.39213 227.55701
 225.84790 224.32778 222.96567 221.74555 220.63544 219.60332 218.71521 217.86409
 217.11398 216.30186 215.40775 214.77963 214.23752 213.87143 212.86063 211.61462
 211.20982 212.04898 213.63452 215.68628 218.40031 222.36308 228.07446 232.76387
 236.50674 240.67909 245.05203 249.42119 253.47202 256.81265 259.60748 262.35349
 265.34961 267.98880 270.19064 272.15424 274.43469 276.41556 278.06555 279.37964
 280.82767 282.70145 284.36627 285.82809 287.09320 288.21246 289.23364 290.15875
 290.99081 291.73175 292.37900 293.20386
 366.78100 356.34194 345.78088 334.65382 323.06376 311.26470 299.14164 286.95158
 274.67052 262.57445 250.59039 239.89833 230.02727 221.13821 213.32715 206.33609
 200.17703 195.12197 191.71091 189.75985 188.80379 188.87473 189.71667 191.03161
 192.76355 194.86549 197.13543 199.50136 201.95330 204.44024 206.53518 208.38412
 210.01706 211.16900 211.40494 211.63988 211.58382 211.29576 210.93570 210.57264
 210.19658 209.91352 209.72846 209.59940 209.53434 209.87227 210.26521 210.66115
 211.46109 212.64603 213.90297 215.69291 217.62785 219.67779 221.77973 223.86967
 225.93661 228.02755 230.13149 232.24443 234.38037 236.55931 238.82225 241.19918
 243.82712 246.08506 248.09400 249.86594 251.28988 252.41982 253.24876 253.57170
 253.61564 253.39658 252.76352 251.71846 250.33140 248.49934 246.41528 244.25522
 242.05316 239.86409 237.69103 235.53697 233.40391 231.27785 229.31079 227.47473
 225.76467 224.24361 222.88055 221.65949 220.54843 219.51537 218.62631 217.77425
 217.02319 216.21013 215.31507 214.68600 214.14294 213.87178 212.98909 211.65518
 211.12059 211.88554 213.60268 215.79059 218.50591 222.44699 228.04919 232.77405
 236.53075 240.72194 245.11040 249.49901 253.57104 256.92798 259.65118 262.37344
 265.33426 267.88852 269.95422 272.31143 274.48517 276.36105 277.96808 279.42822
 281.57581 283.52380 285.20950 286.68967 287.97061 289.10391 290.13788 291.07458
 291.91705 292.66727 293.32263 294.15784
 366.78100 356.34143 345.77985 334.65228 323.06171 311.26213 299.13856 286.94799
 274.66641 262.56984 250.58527 239.89269 230.02112 221.13155 213.31997 206.32840
 200.16883 195.11325 191.70168 189.75011 188.79353 188.86396 189.70539 191.01981
 192.75124 194.85266 197.12209 199.48752 201.93894 204.42537 206.51980 208.36822
 210.00065 211.15208 211.38750 211.62193 211.56536 211.27678 210.91621 210.55264
 210.17606 209.89249 209.70692 209.57734 209.51177 209.84920 210.24162 210.63705
 211.43648 212.62090 213.87733 215.66676 217.60118 219.65061 221.75204 223.84146
 225.90789 227.99832 230.10174 232.21417 234.34960 236.52802 238.79045 241.16688
 243.79430 246.05173 248.06016 249.83158 251.25501 252.38444 253.21286 253.53529
 253.57871 253.35914 252.72557 251.67999 250.29242 248.45985 246.37527 244.21470
 242.01213 239.82255 237.64898 235.49441 233.36083 231.23426 229.26669 227.43011
 225.71954 224.19797 222.83439 221.61282 220.50125 219.46767 218.57810 217.72553
 216.97395 216.16038 215.26481 214.63523 214.09166 213.86330 213.08685 211.74803
 211.03487 211.71562 213.48099 215.63046 218.39470 222.40306 228.02696 232.77170
 236.55846 240.79482 245.21890 249.63608 253.81766 257.37253 260.09729 262.69672
 265.63141 268.21219 270.34479 272.21115 274.54303 276.40100 278.00027 279.78915
 282.05319 284.05121 285.78015 287.29831 288.61212 289.77454 290.83505 291.79581
 292.65988 293.42938 294.10156 294.95822
 366.78100 356.34497 345.78694 334.66291 323.07588 311.27985 299.15982 286.97279
 274.69476 262.60173 250.62070 239.93167 230.06364 221.17761 213.36958 206.38155
 200.22552 195.17350 191.76547 189.81744 188.86441 188.93838 189.78335 191.10132
 192.83629 194.94126 197.21423 199.58320 202.03817 204.52814 206.62611 208.47808
 210.11405 211.26902 211.50799 211.74596 211.69293 211.40790 211.05087 210.69084
 210.31781 210.03778 209.85575 209.72972 209.66769 210.00866 210.40463 210.80360
 211.60657 212.79454 214.05451 215.84749 217.78546 219.83843 221.94340 224.03637
 226.10634 228.20031 230.30728 232.42325 234.56222 236.74419 239.01016 241.39013
 244.02110 246.28207 248.29404 250.06901 251.49598 252.62895 253.46092 253.78689
 253.83386 253.61783 252.98780 251.94577 250.56174 248.73271 246.65168 244.49465
 242.29562 240.10959 237.93956 235.78853 233.65850 231.53548 229.57145 227.73842
 226.03139 224.51336 223.15333 221.93530 220.82727 219.79724 218.91121 218.06218
 217.31415 216.50412 215.61209 214.98606 214.44603 214.01465 212.95856 211.95439
 211.27757 211.81357 213.34549 215.23381 218.01733 222.29848 227.80013 232.59921
 236.40546 240.67128 245.13559 249.57137 253.71741 257.26810 260.17111 262.81897
 265.74484 268.38565 270.53583 272.22614 274.42767 276.36282 278.34039 280.17352
 281.93112 283.68570 285.30038 286.71817 287.94516 289.03073 290.02115 290.91840
 291.72537 292.44397 293.07175 293.87177
 366.78100 356.34770 345.79240 334.67110 323.08680 311.29350 299.17620 286.99190
 274.71661 262.62631 250.64801 239.96171 230.09641 221.21311 213.40781 206.42251
 200.26921 195.21991 191.81461 189.86931 188.91901 188.99571 189.84342 191.16412
 192.90182 195.00952 197.28522 199.65692 202.11462 204.60732 206.70802 208.56272
 210.20142 211.35912 211.60082 211.84152 211.79123 211.50893 211.15463 210.79733
 210.42703 210.14973 209.97043 209.84713 209.78783 210.13153 210.53023 210.93193
 211.73763 212.92833 214.19104 215.98674 217.92744 219.98314 222.09084 224.18654
 226.25924 228.35594 230.46564 232.58434 234.72604 236.91074 239.17944 241.56214
 244.19585 246.45955 248.47425 250.25195 251.68165 252.81735 253.65205 253.98075
 254.03045 253.81715 253.18985 252.15055 250.76925 248.94295 246.86465 244.71036
 242.51406 240.33076 238.16346 236.01516 233.88786 231.76756 229.80626 227.97596
 226.27166 224.75636 223.39906 222.18376 221.07846 220.05117 219.16787 218.32157
 217.57627 216.76897 215.87967 215.25637 214.71907 214.14998 212.82179 211.98270
 211.41179 211.94606 213.42151 215.32841 218.12111 222.27975 227.62440 232.41136
 236.19096 240.43736 244.86543 249.23462 253.29410 256.80432 259.75198 262.52142
 265.34387 268.04080 270.37344 272.35648 274.30743 276.29495 278.37369 280.25858
 282.01590 283.62180 285.10284 286.46649 287.72028 288.86334 289.90625 290.85104
 291.70078 292.45746 293.11850 293.96091
 366.78100 356.34814 345.79329 334.67243 323.08858 311.29572 299.17887 286.99501
 274.72016 262.63030 250.65245 239.96659 230.10173 221.21888 213.41402 206.42917
 200.27631 195.22746 191.82260 189.87775 188.92789 189.00504 189.85318 191.17433
 192.91247 195.02061 197.29676 199.66890 202.12705 204.62019 206.72134 208.57648
 210.21563 211.37377 211.61592 211.85706 211.80720 211.52535 211.17149 210.81464
 210.44478 210.16793 209.98907 209.86622 209.80736 210.15151 210.55065 210.95280
 211.75894 212.95008 214.21323 216.00937 217.95052 220.00666 222.11481 224.21095
 226.28410 228.38124 230.49139 232.61053 234.75267 236.93782 239.20696 241.59011
 244.22425 246.48840 248.50354 250.28169 251.71183 252.84798 253.68312 254.01227
 254.06241 253.84955 253.22270 252.18384 250.80299 248.97713 246.89928 244.74542
 242.54957 240.36671 238.19986 236.05200 233.92514 231.80529 229.84443 228.01458
 226.31072 224.79587 223.43901 222.22416 221.11930 220.09245 219.20959 218.36374
 217.61888 216.81202 215.92317 215.30031 214.76346 214.20496 212.88197 211.90601
 211.37692 211.97731 213.53937 215.50755 218.27325 222.38077 227.69142 232.42854
 236.17400 240.40413 244.81242 249.15158 253.17212 256.58566 259.44162 262.22357
 265.10416 267.85123 270.27774 272.27563 274.33575 276.29572 278.24854 280.08081
 281.78705 283.33093 284.80414 286.18225 287.45898 288.61612 289.67181 290.62820
 291.48837 292.25436 292.92349 293.77625
 366.78100 356.34841 345.79382 334.67323 323.08964 311.29705 299.18046 286.99687
 274.72228 262.63269 250.65510 239.96951 230.10492 221.22233 213.41774 206.43315
 200.28056 195.23197 191.82738 189.88279 188.93320 189.01061 189.85902 191.18043
 192.91884 195.02725 197.30366 199.67607 202.13448 204.62789 206.72930 208.58471
 210.22412 211.38253 211.62494 211.86635 211.81676 211.53517 211.18158 210.82499
 210.45540 210.17881 210.00022 209.87763 209.81904 210.16345 210.56286 210.96527
 211.77168 212.96309 214.22650 216.02291 217.96432 220.02073 222.12914 224.22555
 226.29896 228.39637 230.50678 232.62619 234.76860 236.95401 239.22342 241.60683
 244.24124 246.50565 248.52106 250.29947 251.72988 252.86629 253.70170 254.03111
 254.08152 253.86893 253.24234 252.20374 250.82315 248.99756 246.91997 244.76638
 242.57079 240.38820 238.22161 236.07402 233.94743 231.82784 229.86725 228.03766
 226.33407 224.81948 223.46289 222.24830 221.14371 220.11712 219.23453 218.38894
 217.64435 216.83776 215.94917 215.32658 214.78999 214.25473 212.96143 211.90205
 211.42918 211.90616 213.44427 215.48723 218.29767 222.43935 227.79640 232.51036
 236.22812 240.46870 244.89182 249.21877 253.22455 256.63739 259.52606 262.31665
 265.14636 267.96979 270.45227 272.44852 274.30963 276.27451 278.21564 280.01819
 281.64133 283.24167 284.83539 286.36905 287.72522 288.92508 290.01981 291.01151
 291.90347 292.69775 293.39163 294.27588
 366.78100 356.34861 345.79421 334.67382 323.09043 311.29804 299.18164 286.99825
 274.72386 262.63447 250.65707 239.97168 230.10729 221.22490 213.42050 206.43611
 200.28372 195.23533 191.83093 189.88654 188.93715 189.01476 189.86336 191.18497
 192.92358 195.03218 197.30879 199.68140 202.14001 204.63361 206.73522 208.59083
 210.23044 211.38904 211.63165 211.87326 211.82387 211.54247 211.18908 210.83269
 210.46330 210.18690 210.00851 209.88612 209.82772 210.17233 210.57194 210.97455
 211.78115 212.97276 214.23637 216.03298 217.97458 220.03119 222.13980 224.23641
 226.31001 228.40762 230.51823 232.63784 234.78044 236.96605 239.23566 241.61927
 244.25387 246.51848 248.53409 250.31269 251.74330 252.87991 253.71552 254.04512
 254.09573 253.88334 253.25695 252.21855 250.83816 249.01277 246.93538 244.78198
 242.58659 240.40420 238.23781 236.09041 233.96402 231.84463 229.88423 228.05484
 226.35145 224.83706 223.48066 222.26627 221.16188 220.13549 219.25309 218.40770
 217.66331 216.85692 215.96852 215.34613 214.80974 214.27412 212.98615 211.95522
 211.56918 211.84355 213.21819 215.25708 218.15309 222.35785 227.73325 232.44440
 236.19890 240.46408 244.90729 249.25394 253.27312 256.66586 259.50827 262.30759
 265.20743 268.04578 270.51920 272.52634 274.31454 276.28467 278.33014 280.13208
 281.76196 283.27768 284.80655 286.21545 287.53452 288.71759 289.79697 290.77481
 291.65430 292.43744 293.12161 293.99350
 366.78100 356.34707 345.79114 334.66921 323.08428 311.29035 299.17242 286.98749
 274.71156 262.62063 250.64169 239.95476 230.08883 221.20490 213.39897 206.41304
 200.25911 195.20918 191.80325 189.85732 188.90639 188.98246 189.82953 191.14960
 192.88667 194.99374 197.26881 199.63988 202.09694 204.58901 206.68908 208.54315
 210.18122 211.33829 211.57936 211.81943 211.76850 211.48557 211.13064 210.77271
 210.40178 210.12385 209.94392 209.81999 209.76006 210.10313 210.50119 210.90226
 211.70733 212.89740 214.15947 215.95454 217.89461 219.94968 222.05675 224.15182
 226.22389 228.31996 230.42903 232.54710 234.68817 236.87224 239.14031 241.52238
 244.15544 246.41851 248.43258 250.20965 251.63872 252.77379 253.60786 253.93593
 253.98500 253.77107 253.14314 252.10321 250.72128 248.89435 246.81542 244.66049
 242.46356 240.27963 238.11169 235.96276 233.83483 231.71390 229.75197 227.92104
 226.21611 224.70018 223.34225 222.12632 221.02039 219.99246 219.10853 218.26160
 217.51567 216.70774 215.81781 215.19388 214.65594 214.18616 213.06392 212.06189
 211.50458 211.73764 213.10559 215.14388 218.02313 222.21475 227.64998 232.32007
 236.14937 240.40219 244.84041 249.15686 253.09860 256.47775 259.38095 262.18057
 265.05978 267.85995 270.31259 272.41006 274.34299 276.31699 278.34625 280.26462
 281.91574 283.33673 284.58221 285.77362 286.92743 287.97766 288.99194 289.95822
 290.82730 291.60123 292.27728 293.13889
 366.78100 356.34612 345.78924 334.66637 323.08049 311.28561 299.16673 286.98085
 274.70398 262.61210 250.63222 239.94434 230.07746 221.19258 213.38571 206.39883
 200.24395 195.19307 191.78619 189.83932 188.88744 188.96256 189.80868 191.12780
 192.86393 194.97005 197.24417 199.61429 202.07041 204.56153 206.66066 208.51378
 210.15090 211.30702 211.54714 211.78627 211.73439 211.45051 211.09463 210.73575
 210.36388 210.08500 209.90412 209.77924 209.71836 210.06048 210.45761 210.85773
 211.66185 212.85097 214.11209 215.90622 217.84534 219.89946 222.00558 224.09970
 226.17083 228.26595 230.37407 232.49119 234.63131 236.81443 239.08156 241.46268
 244.09480 246.35692 248.37004 250.14617 251.57429 252.70841 253.54153 253.86865
 253.91678 253.70190 253.07302 252.03214 250.64926 248.82138 246.74151 244.58563
 242.38775 240.20287 238.03399 235.88412 233.75524 231.63336 229.67048 227.83860
 226.13273 224.61585 223.25697 222.04009 220.93321 219.90433 219.01946 218.17158
 217.42470 216.61582 215.72494 215.10007 214.56119 214.13626 213.12645 212.13460
 211.48624 211.81856 213.26501 215.26091 218.01366 222.14914 227.64053 232.22508
 236.09970 240.34854 244.79846 249.11482 253.05673 256.43771 259.32956 262.08667
 264.91043 267.67294 270.13049 272.25479 274.26297 276.28238 278.30865 280.23752
 281.93402 283.37653 284.58643 285.62228 286.51071 287.35400 288.24921 289.11652
 289.94070 290.71317 291.38794 292.24789
 366.78100 356.34488 345.78676 334.66264 323.07553 311.27941 299.15929 286.97217
 274.69405 262.60093 250.61981 239.93070 230.06258 221.17646 213.36834 206.38022
 200.22410 195.17199 191.76387 189.81575 188.86263 188.93651 189.78139 191.09927
 192.83416 194.93904 197.21192 199.58080 202.03568 204.52556 206.62344 208.47533
 210.11121 211.26609 211.50497 211.74285 211.68973 211.40462 211.04750 210.68738
 210.31426 210.03414 209.85202 209.72590 209.66379 210.00467 210.40055 210.79943
 211.60231 212.79019 214.05007 215.84296 217.78084 219.83372 221.93860 224.03148
 226.10136 228.19524 230.30213 232.41801 234.55689 236.73877 239.00465 241.38453
 244.01542 246.27630 248.28818 250.06306 251.48994 252.62282 253.45470 253.78059
 253.82747 253.61135 252.98123 251.93911 250.55499 248.72587 246.64476 244.48764
 242.28852 240.10240 237.93228 235.78116 233.65105 231.52793 229.56381 227.73069
 226.02357 224.50545 223.14533 221.92722 220.81910 219.78898 218.90286 218.05374
 217.30562 216.49550 215.60339 214.97727 214.43715 214.08401 213.24408 212.12689
 211.35298 211.78868 213.36064 215.42262 218.11543 222.16608 227.62712 232.16493
 236.04939 240.30132 244.75618 249.06996 253.01512 256.39963 259.29868 262.05521
 264.85373 267.58627 270.03186 272.16675 274.21289 276.24783 278.28439 280.19916
 281.89365 283.32803 284.51450 285.51315 286.36285 287.10159 287.85236 288.70676
 289.50082 290.26059 290.94440 291.81586
 366.78100 356.34484 345.78667 334.66251 323.07535 311.27918 299.15902 286.97186
 274.69369 262.60053 250.61937 239.93020 230.06204 221.17588 213.36771 206.37955
 200.22339 195.17123 191.76306 189.81490 188.86174 188.93557 189.78041 191.09825
 192.83308 194.93792 197.21076 199.57959 202.03443 204.52427 206.62210 208.47394
 210.10978 211.26461 211.50345 211.74129 211.68812 211.40296 211.04580 210.68563
 210.31247 210.03231 209.85014 209.72398 209.66182 210.00266 210.39849 210.79733
 211.60017 212.78800 214.04784 215.84068 217.77851 219.83135 221.93619 224.02902
 226.09886 228.19270 230.29953 232.41537 234.55421 236.73604 239.00188 241.38172
 244.01255 246.27339 248.28523 250.06006 251.48690 252.61974 253.45157 253.77741
 253.82425 253.60809 252.97792 251.93576 250.55160 248.72243 246.64127 244.48411
 242.28494 240.09878 237.92862 235.77745 233.64729 231.52413 229.55996 227.72680
 226.01964 224.50147 223.14131 221.92315 220.81498 219.78482 218.89866 218.04949
 217.30133 216.49117 215.59900 214.97284 214.43268 214.08594 213.26273 212.26936
 211.28493 211.65752 213.32492 215.48846 218.21622 222.21782 227.61044 232.11903
 235.98885 240.24889 244.70268 249.00615 252.93462 256.31326 259.23907 262.03015
 264.83167 267.55219 269.98337 272.11624 274.18100 276.24051 278.26712 280.15540
 281.82486 283.23575 284.39120 285.37457 286.22656 286.97379 287.68304 288.53940
 289.32996 290.08350 290.76309 291.62915
 366.78100 356.34619 345.78938 334.66657 323.08076 311.28595 299.16714 286.98133
 274.70452 262.61271 250.63290 239.94509 230.07828 221.19347 213.38665 206.39984
 200.24503 195.19422 191.78741 189.84060 188.88879 188.96398 189.81017 191.12936
 192.86555 194.97174 197.24593 199.61612 202.07231 204.56350 206.66269 208.51588
 210.15307 211.30926 211.54945 211.78864 211.73683 211.45302 211.09721 210.73840
 210.36659 210.08777 209.90696 209.78215 209.72134 210.06353 210.46072 210.86091
 211.66510 212.85429 214.11548 215.90967 217.84886 219.90305 222.00924 224.10343
 226.17462 228.26981 230.37800 232.49519 234.63538 236.81857 239.08576 241.46695
 244.09914 246.36133 248.37452 250.15070 251.57889 252.71308 253.54627 253.87346
 253.92165 253.70684 253.07803 252.03722 250.65441 248.82660 246.74679 244.59098
 242.39317 240.20836 238.03955 235.88974 233.76093 231.63912 229.67631 227.84450
 226.13869 224.62188 223.26307 222.04626 220.93945 219.91064 219.02582 218.17801
 217.43120 216.62239 215.73158 215.10677 214.56796 214.16235 213.20248 212.36287
 211.43961 211.58427 213.20488 215.43510 218.25192 222.25711 227.60019 232.07768
 235.93182 240.19554 244.64789 248.93753 252.84042 256.20746 259.16141 261.99619
 264.80899 267.52127 269.95508 272.09036 274.15726 276.22574 278.23636 280.09979
 281.74438 283.13809 284.29175 285.27310 286.11279 286.87048 287.62207 288.48090
 289.27411 290.03058 290.70398 291.56219
 366.78100 356.34530 345.78760 334.66390 323.07720 311.28150 299.16180 286.97510
 274.69740 262.60470 250.62400 239.93531 230.06761 221.18191 213.37421 206.38651
 200.23081 195.17911 191.77141 189.82371 188.87101 188.94531 189.79061 191.10891
 192.84421 194.94951 197.22281 199.59211 202.04741 204.53771 206.63601 208.48832
 210.12462 211.27992 211.51922 211.75752 211.70482 211.42012 211.06342 210.70372
 210.33102 210.05132 209.86962 209.74392 209.68222 210.02352 210.41982 210.81912
 211.62242 212.81072 214.07102 215.86433 217.80263 219.85593 221.96123 224.05453
 226.12483 228.21913 230.32643 232.44273 234.58203 236.76433 239.03063 241.41093
 244.04223 246.30353 248.31583 250.09113 251.51843 252.65173 253.48403 253.81034
 253.85764 253.64194 253.01224 251.97054 250.58684 248.75814 246.67744 244.52074
 242.32204 240.13634 237.96664 235.81594 233.68624 231.56354 229.59984 227.76714
 226.06044 224.54274 223.18304 221.96535 220.85765 219.82795 218.94225 218.09355
 217.34585 216.53615 215.64445 215.01875 214.47905 214.13782 213.31982 212.23320
 211.56003 211.65550 213.12903 215.36305 218.25182 222.27980 227.58134 232.07898
 235.87967 240.15697 244.60118 248.87715 252.75110 256.11169 259.09918 261.96851
 264.78384 267.47089 269.88632 272.04218 274.12573 276.20435 278.20041 280.03952
 281.65521 283.03220 284.18732 285.16006 286.00168 286.78107 287.70538 288.59024
 289.44464 290.23102 290.91797 291.79340
 366.78100 356.34459 345.78617 334.66176 323.07435 311.27793 299.15752 286.97011
 274.69169 262.59828 250.61687 239.92745 230.05904 221.17263 213.36421 206.37580
 200.21939 195.16697 191.75856 189.81015 188.85673 188.93032 189.77491 191.09249
 192.82708 194.93167 197.20425 199.57284 202.02743 204.51701 206.61460 208.46619
 210.10177 211.25636 211.49495 211.73253 211.67912 211.39371 211.03629 210.67588
 210.30247 210.02205 209.83964 209.71323 209.65081 209.99140 210.38699 210.78557
 211.58816 212.77575 214.03533 215.82792 217.76551 219.81809 221.92268 224.01527
 226.08485 228.17844 230.28503 232.40061 234.53920 236.72079 238.98637 241.36596
 243.99655 246.25713 248.26872 250.04331 251.46989 252.60248 253.43407 253.75966
 253.80624 253.58983 252.95942 251.91700 250.53259 248.70318 246.62176 244.46435
 242.26494 240.07852 237.90811 235.75670 233.62628 231.50287 229.53846 227.70504
 225.99763 224.47922 223.11880 221.90039 220.79198 219.76156 218.87515 218.02574
 217.27732 216.46691 215.57450 214.94808 214.40767 214.11958 213.41058 212.17911
 211.56534 211.63925 213.09039 215.37798 218.29123 222.30476 227.57164 232.08533
 235.84590 240.12822 244.56990 248.83844 252.69493 256.05511 259.07303 261.96188
 264.76733 267.44177 269.84439 271.99573 274.07977 276.16330 278.13733 279.94058
 281.52878 282.89954 284.04678 285.04153 285.93680 286.89352 287.86368 288.80789
 289.69287 290.48096 291.16940 292.04675
 366.78100 356.34513 345.78727 334.66340 323.07653 311.28067 299.16080 286.97393
 274.69607 262.60320 250.62234 239.93347 230.06560 221.17974 213.37187 206.38400
 200.22814 195.17627 191.76840 189.82054 188.86767 188.94180 189.78694 191.10507
 192.84021 194.94534 197.21847 199.58761 202.04274 204.53287 206.63101 208.48314
 210.11927 211.27441 211.51354 211.75167 211.69881 211.41394 211.05708 210.69721
 210.32434 210.04448 209.86261 209.73674 209.67488 210.01601 210.41214 210.81128
 211.61441 212.80254 214.06268 215.85581 217.79395 219.84708 221.95221 224.04535
 226.11548 228.20961 230.31675 232.43288 234.57201 236.75415 239.02028 241.40041
 244.03155 246.29268 248.30482 250.07995 251.50708 252.64022 253.47235 253.79848
 253.84562 253.62975 252.99988 251.95802 250.57415 248.74528 246.66442 244.50755
 242.30869 240.12282 237.95295 235.80209 233.67222 231.54935 229.58549 227.75262
 226.04575 224.52789 223.16802 221.95015 220.84229 219.81242 218.92656 218.07769
 217.32982 216.51996 215.62809 215.00222 214.46236 214.14957 213.38896 212.34035
 211.55672 211.49579 213.06735 215.42374 218.30920 222.28488 227.52946 232.04076
 235.79277 240.08678 244.53476 248.80112 252.65298 256.02554 259.07281 261.97723
 264.76886 267.43192 269.81812 271.96243 274.04333 276.12061 278.06662 279.83704
 281.41046 282.77191 283.91208 284.96655 285.95959 286.98529 287.96823 288.93225
 289.81738 290.60559 291.29413 292.17160
 366.78100 356.34586 345.78872 334.66557 323.07943 311.28429 299.16515 286.97900
 274.70186 262.60972 250.62958 239.94143 230.07429 221.18915 213.38201 206.39486
 200.23972 195.18858 191.78144 189.83429 188.88215 188.95701 189.80287 191.12172
 192.85758 194.96344 197.23730 199.60716 202.06301 204.55387 206.65273 208.50559
 210.14244 211.29830 211.53816 211.77702 211.72487 211.44073 211.08459 210.72545
 210.35330 210.07416 209.89302 209.76788 209.70673 210.04859 210.44545 210.84531
 211.64916 212.83802 214.09888 215.89274 217.83159 219.88545 221.99131 224.08517
 226.15603 228.25088 230.35874 232.47560 234.61546 236.79831 239.06517 241.44603
 244.07789 246.33974 248.35260 250.12846 251.55632 252.69017 253.52303 253.84989
 253.89775 253.68260 253.05346 252.01232 250.62918 248.80103 246.72089 244.56475
 242.36661 240.18147 238.01232 235.86218 233.73304 231.61090 229.64775 227.81561
 226.10947 224.59233 223.23318 222.01604 220.90890 219.87976 218.99461 218.14647
 217.39933 216.59019 215.69904 215.07390 214.53476 214.18497 213.34860 212.50708
 211.58098 211.48880 213.06464 215.38004 218.25121 222.21394 227.42731 231.93143
 235.71147 240.02113 244.47719 248.73997 252.58812 255.98128 259.07309 262.00873
 264.79333 267.42691 269.80048 271.93454 274.01556 276.11340 278.04614 279.79111
 281.34198 282.69022 283.87424 284.94098 285.89899 286.90912 287.88187 288.82693
 289.67905 290.43787 291.10074 291.94550
 366.78100 356.34590 345.78880 334.66571 323.07961 311.28451 299.16541 286.97932
 274.70222 262.61012 250.63002 239.94193 230.07483 221.18973 213.38263 206.39554
 200.24044 195.18934 191.78224 189.83515 188.88305 188.95795 189.80385 191.12276
 192.85866 194.96456 197.23846 199.60837 202.06427 204.55517 206.65407 208.50698
 210.14388 211.29978 211.53968 211.77859 211.72649 211.44239 211.08629 210.72720
 210.35510 210.07600 209.89490 209.76981 209.70871 210.05061 210.44751 210.84742
 211.65132 212.84022 214.10112 215.89503 217.83393 219.88783 221.99373 224.08764
 226.15854 228.25344 230.36134 232.47824 234.61815 236.80105 239.06795 241.44885
 244.08076 246.34266 248.35556 250.13146 251.55937 252.69327 253.52617 253.85307
 253.90098 253.68588 253.05678 252.01568 250.63259 248.80449 246.72439 244.56829
 242.37020 240.18510 238.01600 235.86590 233.73681 231.61471 229.65161 227.81951
 226.11342 224.59632 223.23722 222.02012 220.91303 219.88393 218.99883 218.15073
 217.40364 216.59454 215.70344 215.07834 214.53925 214.19435 213.36917 212.55031
 211.54800 211.51556 213.07748 215.38683 218.27783 222.21021 227.35243 231.84476
 235.64046 239.96153 244.41399 248.65714 252.48561 255.89575 259.04230 262.02328
 264.81357 267.42505 269.78662 271.93478 274.00323 276.10867 278.03375 279.76498
 281.30072 282.63165 283.80008 284.89908 285.97910 287.01566 288.03143 288.98245
 289.83780 290.59949 291.26489 292.11285
 366.78100 356.34456 345.78612 334.66167 323.07423 311.27779 299.15735 286.96990
 274.69146 262.59802 250.61658 239.92713 230.05869 221.17225 213.36381 206.37536
 200.21892 195.16648 191.75804 189.80959 188.85615 188.92971 189.77427 191.09182
 192.82638 194.93094 197.20350 199.57205 202.02661 204.51617 206.61373 208.46528
 210.10084 211.25540 211.49396 211.73151 211.67807 211.39263 211.03519 210.67474
 210.30130 210.02086 209.83842 209.71197 209.64953 209.99009 210.38565 210.78420
 211.58676 212.77432 214.03388 215.82643 217.76399 219.81655 221.92111 224.01367
 226.08322 228.17678 230.28334 232.39890 234.53745 236.71901 238.98457 241.36413
 243.99468 246.25524 248.26680 250.04136 251.46791 252.60047 253.43203 253.75759
 253.80414 253.58770 252.95726 251.91482 250.53037 248.70093 246.61949 244.46205
 242.26260 240.07616 237.90572 235.75428 233.62383 231.50039 229.53595 227.70251
 225.99506 224.47662 223.11618 221.89774 220.78929 219.75885 218.87241 218.02297
 217.27452 216.46408 215.57164 214.94520 214.40475 214.13753 213.47583 212.53647
 211.51974 211.55856 213.11185 215.44708 218.37611 222.28302 227.34875 231.83000
 235.62601 239.94176 244.38583 248.61505 252.42558 255.84294 259.02826 262.04861
 264.84906 267.44553 269.77509 271.90939 273.99786 276.06238 277.94940 279.65759
 281.20267 282.54831 283.73886 284.97116 286.14673 287.22418 288.25739 289.19342
 290.03525 290.78491 291.43979 292.27438
 366.78100 356.34396 345.78492 334.65988 323.07184 311.27480 299.15375 286.96571
 274.68667 262.59263 250.61059 239.92055 230.05151 221.16447 213.35543 206.36639
 200.20935 195.15630 191.74726 189.79822 188.84418 188.91714 189.76110 191.07806
 192.81202 194.91598 197.18794 199.55590 202.00985 204.49881 206.59577 208.44673
 210.08169 211.23565 211.47361 211.71057 211.65653 211.37049 211.01245 210.65140
 210.27736 209.99632 209.81328 209.68624 209.62320 209.96316 210.35812 210.75608
 211.55804 212.74500 214.00395 215.79591 217.73287 219.78483 221.88879 223.98075
 226.04971 228.14267 230.24863 232.36359 234.50155 236.68250 238.94746 241.32642
 243.95638 246.21634 248.22730 250.00126 251.42722 252.55918 253.39014 253.71510
 253.76105 253.54401 252.91297 251.86993 250.48489 248.65485 246.57281 244.41477
 242.21473 240.02769 237.85665 235.70461 233.57356 231.44952 229.48448 227.65044
 225.94240 224.42336 223.06232 221.84328 220.73424 219.70320 218.81616 217.96611
 217.21707 216.40603 215.51299 214.88595 214.34491 214.11870 213.53490 212.55519
 211.63512 211.62907 213.09639 215.43050 218.38431 222.30878 227.33768 231.78751
 235.59291 239.92696 244.37474 248.58197 252.35660 255.77789 259.01685 262.10812
 264.93484 267.53104 269.83377 271.89941 273.91885 275.94525 277.83426 279.61026
 281.21838 282.61218 283.92093 285.25540 286.47058 287.60062 288.63156 289.56555
 290.40558 291.15363 291.80710 292.63986
 366.78100 356.34462 345.78625 334.66187 323.07450 311.27812 299.15775 286.97037
 274.69200 262.59862 250.61725 239.92787 230.05950 221.17312 213.36475 206.37637
 200.21999 195.16762 191.75924 189.81087 188.85749 188.93112 189.77574 191.09337
 192.82799 194.93262 197.20524 199.57387 202.02849 204.51812 206.61574 208.46737
 210.10299 211.25761 211.49624 211.73386 211.68049 211.39511 211.03774 210.67736
 210.30399 210.02361 209.84124 209.71486 209.65249 209.99311 210.38874 210.78736
 211.58998 212.77761 214.03723 215.82986 217.76748 219.82011 221.92473 224.01736
 226.08698 228.18061 230.28723 232.40286 234.54148 236.72311 238.98873 241.36836
 243.99898 246.25960 248.27123 250.04585 251.47248 252.60510 253.43673 253.76235
 253.80898 253.59260 252.96223 251.91985 250.53548 248.70610 246.62473 244.46735
 242.26797 240.08160 237.91122 235.75985 233.62947 231.50610 229.54172 227.70835
 226.00097 224.48260 223.12222 221.90385 220.79547 219.76510 218.87872 218.02935
 217.28097 216.47059 215.57822 214.95184 214.41147 214.18394 213.53891 212.45775
 211.81664 211.94469 213.27782 215.49202 218.34689 222.25021 227.32030 231.71922
 235.49167 239.82277 244.27977 248.46600 252.18802 255.58971 258.86002 261.98892
 264.88547 267.52432 269.85364 271.90915 273.89932 275.91159 277.92230 279.78552
 281.41806 282.82974 284.44202 285.97443 287.30063 288.47397 289.54443 290.51422
 291.38644 292.16318 292.84171 293.70639
 366.78100 356.34559 345.78819 334.66478 323.07838 311.28297 299.16356 286.97716
 274.69975 262.60735 250.62694 239.93853 230.07113 221.18572 213.37831 206.39091
 200.23550 195.18410 191.77669 189.82928 188.87688 188.95147 189.79707 191.11566
 192.85125 194.95685 197.23044 199.60004 202.05563 204.54622 206.64482 208.49741
 210.13401 211.28960 211.52919 211.76779 211.71538 211.43098 211.07457 210.71516
 210.34276 210.06335 209.88194 209.75654 209.69513 210.03673 210.43332 210.83291
 211.63651 212.82510 214.08570 215.87929 217.81788 219.87148 221.97707 224.07067
 226.14126 228.23585 230.34345 232.46004 234.59964 236.78223 239.04882 241.42942
 244.06101 246.32261 248.33520 250.11079 251.53839 252.67198 253.50457 253.83117
 253.87876 253.66336 253.03395 251.99254 250.60914 248.78073 246.70033 244.54392
 242.34551 240.16011 237.99070 235.84030 233.71089 231.58848 229.62508 227.79267
 226.08627 224.56886 223.20945 221.99205 220.88464 219.85523 218.96983 218.12142
 217.37402 216.56461 215.67320 215.04780 214.50839 214.27356 213.51523 212.32861
 211.84885 212.13553 213.34784 215.60068 218.45995 222.20784 227.30798 231.71074
 235.48967 239.78894 244.19543 248.31642 252.00023 255.41899 258.74295 261.91718
 264.85403 267.50543 269.82489 271.87747 273.89911 275.99252 278.00876 279.88696
 282.10281 284.17896 285.97549 287.55301 288.91818 290.12604 291.22803 292.22632
 293.12421 293.92377 294.62225 295.51236
 366.78100 356.34698 345.79095 334.66893 323.08390 311.28988 299.17185 286.98683
 274.71080 262.61978 250.64075 239.95373 230.08770 221.20368 213.39765 206.41163
 200.25760 195.20758 191.80156 189.85553 188.90451 188.98048 189.82746 191.14743
 192.88441 194.99138 197.26636 199.63733 202.09431 204.58628 206.68626 208.54023
 210.17821 211.33518 211.57616 211.81614 211.76511 211.48209 211.12706 210.76904
 210.39801 210.11999 209.93996 209.81594 209.75591 210.09889 210.49686 210.89784
 211.70281 212.89279 214.15477 215.94974 217.88972 219.94469 222.05167 224.14664
 226.21862 228.31459 230.42357 232.54154 234.68252 236.86649 239.13447 241.51644
 244.14942 246.41239 248.42637 250.20335 251.63232 252.76730 253.60127 253.92925
 253.97822 253.76420 253.13617 252.09615 250.71412 248.88710 246.80807 244.65305
 242.45602 240.27200 238.10397 235.95495 233.82693 231.70590 229.74388 227.91285
 226.20783 224.69180 223.33378 222.11775 221.01173 219.98370 219.09968 218.25265
 217.50663 216.69860 215.80858 215.18455 214.64653 214.35495 213.47873 212.34695
 211.85704 212.08588 213.33662 215.64931 218.51199 222.28712 227.31123 231.70786
 235.49326 239.81540 244.24512 248.35831 251.97641 255.37872 258.73584 261.93320
 264.90323 267.60822 269.96973 272.00369 273.84634 275.68402 277.48019 279.75381
 282.26794 284.54080 286.50760 288.23456 289.72913 291.05142 292.25781 293.35074
 294.33368 295.20901 295.97366 296.94815
 366.78100 356.34833 345.79365 334.67298 323.08930 311.29663 299.17995 286.99628
 274.72160 262.63193 250.65426 239.96858 230.10391 221.22123 213.41656 206.43188
 200.27921 195.23053 191.82586 189.88119 188.93151 189.00884 189.85716 191.17849
 192.91681 195.02514 197.30146 199.67379 202.13212 204.62544 206.72677 208.58209
 210.22142 211.37974 211.62207 211.86339 211.81372 211.53205 211.17837 210.82170
 210.45202 210.17535 209.99667 209.87400 209.81532 210.15965 210.55898 210.96130
 211.76763 212.95895 214.22228 216.01860 217.95993 220.01625 222.12458 224.22091
 226.29423 228.39156 230.50188 232.62121 234.76353 236.94886 239.21818 241.60151
 244.23584 246.50016 248.51549 250.29381 251.72414 252.86046 253.69579 254.02511
 254.07544 253.86277 253.23609 252.19742 250.81674 248.99107 246.91339 244.75972
 242.56404 240.38137 238.21470 236.06702 233.94035 231.82067 229.86000 228.03032
 226.32665 224.81197 223.45530 222.24063 221.13595 220.10928 219.22660 218.38093
 217.63625 216.82958 215.94090 215.31823 214.78156 214.40485 213.42175 212.45654
 211.99193 212.04623 213.35507 215.50360 218.34966 222.27240 227.23935 231.70009
 235.48560 239.79591 244.19612 248.28749 251.92870 255.31940 258.61914 261.75867
 264.72629 267.53967 270.11365 272.32120 274.17722 275.94611 277.59415 278.93695
 280.83725 282.97043 284.97964 286.74390 288.27069 289.62152 290.85394 291.97043
 292.97461 293.86880 294.64996 295.64548
 366.78100 356.34888 345.79476 334.67464 323.09152 311.29940 299.18328 287.00016
 274.72604 262.63692 250.65979 239.97467 230.11055 221.22843 213.42431 206.44019
 200.28807 195.23995 191.83583 189.89171 188.94259 189.02047 189.86935 191.19123
 192.93011 195.03899 197.31587 199.68875 202.14762 204.64150 206.74338 208.59926
 210.23914 211.39802 211.64090 211.88278 211.83366 211.55254 211.19942 210.84330
 210.47418 210.19806 210.01994 209.89782 209.83970 210.18458 210.58445 210.98733
 211.79421 212.98609 214.24997 216.04685 217.98873 220.04561 222.15449 224.25137
 226.32525 228.42313 230.53401 232.65389 234.79677 236.98265 239.25253 241.63641
 244.27128 246.53616 248.55204 250.33092 251.76180 252.89868 253.73456 254.06444
 254.11532 253.90320 253.27708 252.23896 250.85884 249.03372 246.95660 244.80348
 242.60836 240.42624 238.26011 236.11299 233.98687 231.86775 229.90763 228.07851
 226.37539 224.86127 223.50515 222.29103 221.18691 220.16079 219.27867 218.43355
 217.68943 216.88331 215.99519 215.37307 214.83694 214.41501 213.37480 212.47166
 212.09859 212.01321 213.34413 215.51830 218.34373 222.25075 227.14589 231.62630
 235.40483 239.73149 244.13884 248.23489 251.88097 255.26105 258.51465 261.64676
 264.61664 267.34769 269.74167 272.12115 274.24600 276.19705 277.98279 279.44589
 280.56256 281.87112 283.45456 284.97632 286.29654 287.46457 288.53024 289.49567
 290.36395 291.13715 291.81262 292.67343
 366.78100 356.34726 345.79151 334.66977 323.08503 311.29129 299.17354 286.98880
 274.71306 262.62232 250.64357 239.95683 230.09109 221.20735 213.40160 206.41586
 200.26212 195.21238 191.80663 189.86089 188.91015 188.98641 189.83366 191.15392
 192.89118 194.99844 197.27369 199.64495 202.10221 204.59447 206.69472 208.54898
 210.18724 211.34450 211.58575 211.82601 211.77527 211.49253 211.13778 210.78004
 210.40930 210.13155 209.95181 209.82807 209.76833 210.11158 210.50984 210.91110
 211.71636 212.90661 214.16887 215.96413 217.90439 219.95964 222.06690 224.16216
 226.23442 228.33067 230.43993 232.55819 234.69945 236.88370 239.15196 241.53422
 244.16748 246.43073 248.44499 250.22225 251.65151 252.78676 253.62102 253.94928
 253.99854 253.78479 253.15705 252.11731 250.73557 248.90882 246.83008 244.67534
 242.47859 240.29485 238.12711 235.97837 233.85062 231.72988 229.76814 227.93740
 226.23265 224.71691 223.35917 222.14343 221.03768 220.00994 219.12620 218.27946
 217.53371 216.72597 215.83623 215.21249 214.67474 214.31708 213.44003 212.48157
 211.97922 211.93318 213.19380 215.37311 218.25055 222.16823 227.13026 231.60408
 235.42206 239.74225 244.14948 248.26642 251.94608 255.36928 258.64700 261.68762
 264.55621 267.26617 269.61639 271.82520 274.03790 276.03305 277.77191 279.22711
 280.50497 281.79129 283.12555 284.46097 285.65411 286.75836 287.76761 288.68192
 289.50424 290.23651 290.87622 291.69147
 366.78100 356.34564 345.78828 334.66492 323.07856 311.28320 299.16384 286.97748
 274.70012 262.60776 250.62740 239.93904 230.07167 221.18631 213.37895 206.39159
 200.23623 195.18487 191.77751 189.83015 188.87779 188.95243 189.79807 191.11671
 192.85235 194.95799 197.23163 199.60127 202.05691 204.54755 206.64619 208.49883
 210.13547 211.29111 211.53074 211.76938 211.71702 211.43266 211.07630 210.71694
 210.34458 210.06522 209.88386 209.75850 209.69714 210.03878 210.43542 210.83506
 211.63870 212.82734 214.08798 215.88162 217.82026 219.87390 221.97954 224.07318
 226.14381 228.23845 230.34609 232.46273 234.60237 236.78501 239.05165 241.43229
 244.06393 246.32557 248.33821 250.11385 251.54149 252.67513 253.50777 253.83441
 253.88205 253.66669 253.03733 251.99597 250.61261 248.78425 246.70388 244.54752
 242.34916 240.16380 237.99444 235.84408 233.71472 231.59236 229.62900 227.79664
 226.09028 224.57292 223.21356 221.99620 220.88884 219.85948 218.97412 218.12576
 217.37840 216.56904 215.67768 215.05232 214.51295 214.19980 213.45746 212.74593
 212.08934 211.83778 212.90038 215.09048 218.04208 222.00612 227.14610 231.49261
 235.40953 239.70551 244.10806 248.23563 251.97092 255.45836 258.81009 261.90143
 264.65952 267.19370 269.57877 271.78568 273.88190 275.83823 277.54883 279.02298
 280.32642 281.55444 282.76978 283.97815 285.02997 285.97406 286.90701 287.78149
 288.61386 289.38431 290.05737 290.91510
 366.78100 356.34516 345.78732 334.66348 323.07664 311.28080 299.16095 286.97411
 274.69627 262.60343 250.62259 239.93375 230.06591 221.18007 213.37223 206.38439
 200.22854 195.17670 191.76886 189.82102 188.86818 188.94234 189.78750 191.10566
 192.84082 194.94598 197.21914 199.58829 202.04345 204.53361 206.63177 208.48393
 210.12009 211.27525 211.51441 211.75257 211.69973 211.41488 211.05804 210.69820
 210.32536 210.04552 209.86368 209.73784 209.67600 210.01716 210.41332 210.81248
 211.61563 212.80379 214.06395 215.85711 217.79527 219.84843 221.95359 224.04675
 226.11691 228.21107 230.31822 232.43438 234.57354 236.75570 239.02186 241.40202
 244.03318 246.29434 248.30650 250.08166 251.50882 252.64197 253.47413 253.80029
 253.84745 253.63161 253.00177 251.95993 250.57609 248.74725 246.66641 244.50956
 242.31072 240.12488 237.95504 235.80420 233.67436 231.55152 229.58768 227.75484
 226.04800 224.53016 223.17031 221.95247 220.84463 219.81479 218.92895 218.08011
 217.33227 216.52243 215.63059 215.00475 214.46490 214.15784 213.43233 212.85811
 212.32928 211.99225 212.79213 214.90892 217.90924 221.89641 227.11772 231.32799
 235.36136 239.63974 244.03810 248.11986 251.80597 255.31691 258.76639 261.93390
 264.78476 267.30365 269.61624 271.75494 273.82623 275.77402 277.46692 278.91660
 280.21332 281.42236 282.60510 283.76431 284.80051 285.57855 286.34921 287.13272
 287.90106 288.59628 289.22528 290.06952
 366.78100 356.34446 345.78591 334.66137 323.07382 311.27728 299.15673 286.96919
 274.69064 262.59710 250.61555 239.92601 230.05747 221.17092 213.36238 206.37383
 200.21729 195.16474 191.75620 189.80765 188.85411 188.92756 189.77202 191.08948
 192.82393 194.92839 197.20084 199.56930 202.02375 204.51321 206.61066 208.46212
 210.09757 211.25203 211.49049 211.72794 211.67440 211.38885 211.03131 210.67076
 210.29722 210.01667 209.83413 209.70758 209.64504 209.98550 210.38095 210.77941
 211.58186 212.76932 214.02877 215.82123 217.75868 219.81114 221.91560 224.00805
 226.07751 228.17096 230.27742 232.39287 234.53133 236.71278 238.97824 241.35769
 243.98815 246.24861 248.26006 250.03452 251.46097 252.59343 253.42488 253.75034
 253.79679 253.58025 252.94970 251.90716 250.52262 248.69307 246.61153 244.45398
 242.25444 240.06789 237.89735 235.74580 233.61526 231.49171 229.52717 227.69363
 225.98608 224.46754 223.10699 221.88845 220.77990 219.74936 218.86281 218.01327
 217.26472 216.45418 215.56164 214.93509 214.39455 214.12698 213.49486 212.77057
 212.31863 212.09381 212.83939 214.94579 217.96661 221.93495 227.11258 231.35587
 235.33327 239.62450 244.00311 248.06580 251.72394 255.23407 258.65909 261.88873
 264.82263 267.40454 269.70737 271.79858 273.79950 275.68750 277.33450 278.77631
 280.09561 281.31824 282.49396 283.63596 284.61761 285.32602 286.06812 286.83008
 287.58591 288.27298 288.88342 289.69620
 366.78100 356.34243 345.78187 334.65530 323.06574 311.26717 299.14460 286.95504
 274.67447 262.57891 250.59534 239.90377 230.03321 221.14464 213.33408 206.34351
 200.18494 195.13038 191.71981 189.76925 188.81368 188.88511 189.72755 191.04298
 192.77542 194.87785 197.14828 199.51472 201.96715 204.45459 206.55002 208.39945
 210.03289 211.18532 211.42176 211.65719 211.60162 211.31406 210.95449 210.59193
 210.21636 209.93379 209.74923 209.62066 209.55610 209.89453 210.28796 210.68440
 211.48483 212.67027 213.92770 215.71813 217.65357 219.70400 221.80643 223.89687
 225.96430 228.05574 230.16017 232.27360 234.41004 236.58947 238.85291 241.23034
 243.85877 246.11721 248.12664 249.89908 251.32351 252.45394 253.28338 253.60681
 253.65125 253.43268 252.80011 251.75555 250.36898 248.53742 246.45385 244.29428
 242.09272 239.90415 237.73159 235.57802 233.44545 231.31989 229.35332 227.51776
 225.80819 224.28762 222.92506 221.70449 220.59393 219.56136 218.67279 217.82123
 217.07066 216.25810 215.36353 214.73496 214.19240 214.02448 213.62776 212.80936
 212.20816 212.02722 212.79251 214.95268 218.03197 222.00734 227.14174 231.39127
 235.35991 239.61934 243.97133 248.01886 251.67654 255.21098 258.65286 261.85580
 264.89371 267.53204 269.76752 271.80276 273.74185 275.57904 277.17014 278.62399
 279.95828 281.16269 282.31223 283.41299 284.35306 285.08258 285.84320 286.62491
 287.37997 288.06778 288.67767 289.49338
 366.78100 356.34099 345.77898 334.65096 323.05995 311.25994 299.13593 286.94492
 274.66291 262.56589 250.58088 239.88787 230.01586 221.12585 213.31383 206.32182
 200.16181 195.10580 191.69379 189.74178 188.78476 188.85475 189.69574 191.00973
 192.74072 194.84171 197.11069 199.47568 201.92667 204.41266 206.50665 208.35463
 209.98662 211.13761 211.37260 211.60659 211.54958 211.26056 210.89955 210.53554
 210.15853 209.87452 209.68850 209.55849 209.49248 209.82947 210.22146 210.61645
 211.41543 212.59942 213.85541 215.64440 217.57839 219.62738 221.72836 223.81735
 225.88334 227.97333 230.07632 232.18830 234.32329 236.50128 238.76327 241.13926
 243.76625 246.02323 248.03122 249.80221 251.22520 252.35419 253.18217 253.50416
 253.54715 253.32714 252.69313 251.64712 250.25910 248.42609 246.34108 244.18007
 241.97706 239.78705 237.61303 235.45802 233.32401 231.19700 229.22899 227.39197
 225.68096 224.15895 222.79494 221.57293 220.46092 219.42690 218.53689 217.68388
 216.93187 216.11786 215.22184 214.59183 214.04782 213.95422 213.73308 212.87027
 212.24413 211.98613 212.70245 214.86914 218.01640 222.03932 227.14514 231.48625
 235.31281 239.60126 243.92662 247.94878 251.57594 255.09605 258.55240 261.75775
 264.79266 267.52826 269.88879 271.92212 273.78244 275.54706 277.13083 278.51447
 279.78983 280.97290 282.10364 283.11639 284.00797 284.74368 285.42902 286.23361
 287.00781 287.72214 288.37009 289.19580
 366.78100 356.34218 345.78137 334.65455 323.06473 311.26592 299.14310 286.95328
 274.67247 262.57665 250.59283 239.90101 230.03020 221.14138 213.33056 206.33975
 200.18093 195.12611 191.71530 189.76448 188.80866 188.87985 189.72203 191.03721
 192.76940 194.87158 197.14176 199.50794 201.96013 204.44731 206.54249 208.39168
 210.02486 211.17704 211.41323 211.64841 211.59259 211.30478 210.94496 210.58214
 210.20633 209.92351 209.73869 209.60987 209.54506 209.88324 210.27642 210.67261
 211.47279 212.65797 213.91516 215.70534 217.64052 219.69071 221.79289 223.88307
 225.95026 228.04144 230.14562 232.25880 234.39499 236.57417 238.83735 241.21454
 243.84272 246.10090 248.11009 249.88227 251.30645 252.43664 253.26582 253.58900
 253.63319 253.41437 252.78155 251.73673 250.34992 248.51810 246.43428 244.27447
 242.07265 239.88383 237.71102 235.55720 233.42438 231.29857 229.33175 227.49593
 225.78612 224.26530 222.90248 221.68166 220.57085 219.53803 218.64921 217.79740
 217.04658 216.23376 215.33895 214.71013 214.16731 214.05164 213.72014 212.89960
 212.25667 211.95424 212.83435 214.99243 218.11201 222.09668 227.14468 231.58450
 235.36014 239.60568 243.88341 247.85899 251.51822 255.07143 258.49252 261.69470
 264.66281 267.34454 269.71597 271.81586 273.72723 275.45224 277.00079 278.38251
 279.63138 280.76764 281.76889 282.99036 284.27328 285.46814 286.55826 287.54584
 288.43405 289.22501 289.91595 290.79651
 366.78100 356.34423 345.78546 334.66069 323.07293 311.27616 299.15539 286.96762
 274.68885 262.59508 250.61331 239.92354 230.05478 221.16801 213.35924 206.37047
 200.21370 195.16093 191.75216 189.80339 188.84963 188.92286 189.76709 191.08432
 192.81855 194.92278 197.19501 199.56325 202.01748 204.50671 206.60394 208.45517
 210.09040 211.24463 211.48286 211.72010 211.66633 211.38056 211.02279 210.66202
 210.28825 210.00748 209.82472 209.69795 209.63518 209.97541 210.37064 210.76887
 211.57110 212.75833 214.01757 215.80980 217.74703 219.79926 221.90349 223.99572
 226.06495 228.15818 230.26442 232.37965 234.51788 236.69911 238.96434 241.34357
 243.97380 246.23404 248.24527 250.01950 251.44573 252.57796 253.40919 253.73442
 253.78065 253.56389 252.93312 251.89035 250.50558 248.67581 246.59404 244.43627
 242.23651 240.04974 237.87897 235.72720 233.59643 231.47266 229.50789 227.67412
 225.96636 224.44759 223.08682 221.86805 220.75928 219.72851 218.84174 217.99197
 217.24321 216.43244 215.53967 214.91290 214.37213 214.19583 213.67766 212.89243
 212.35864 212.10295 212.89629 214.96111 218.04584 222.01416 227.23749 231.66505
 235.44188 239.66914 243.91849 247.89290 251.58922 255.15089 258.54523 261.73236
 264.69934 267.37653 269.77646 271.90186 273.76785 275.40634 276.82928 278.32373
 279.84299 280.85422 281.71317 282.46735 283.12003 283.69751 284.22437 284.70163
 285.13092 285.51318 285.84711 286.27267
 366.78100 356.34484 345.78669 334.66253 323.07537 311.27921 299.15906 286.97190
 274.69374 262.60059 250.61943 239.93027 230.06211 221.17596 213.36780 206.37964
 200.22349 195.17133 191.76317 189.81501 188.86186 188.93570 189.78054 191.09839
 192.83323 194.93807 197.21092 199.57976 202.03460 204.52444 206.62229 208.47413
 210.10997 211.26482 211.50366 211.74150 211.68834 211.40319 211.04603 210.68587
 210.31272 210.03256 209.85040 209.72424 209.66209 210.00293 210.39877 210.79762
 211.60046 212.78830 214.04814 215.84099 217.77883 219.83167 221.93652 224.02936
 226.09920 228.19304 230.29989 232.41573 234.55457 236.73642 239.00226 241.38210
 244.01294 246.27379 248.28563 250.06047 251.48732 252.62016 253.45200 253.77784
 253.82469 253.60853 252.97837 251.93622 250.55206 248.72290 246.64175 244.48459
 242.28543 240.09927 237.92912 235.77796 233.64780 231.52465 229.56049 227.72733
 226.02017 224.50202 223.14186 221.92370 220.81555 219.78539 218.89923 218.05007
 217.30192 216.49176 215.59960 214.97345 214.43329 214.23561 213.67303 212.90253
 212.40506 212.05455 212.88538 214.95651 217.99049 222.03598 227.24629 231.69531
 235.47968 239.73286 244.00212 247.96187 251.60498 255.13458 258.52789 261.68338
 264.59674 267.31567 269.78357 271.94125 273.77829 275.27814 276.63110 278.49615
 279.85339 280.80194 281.54117 282.19028 282.75201 283.24902 283.70245 284.11322
 284.48270 284.81168 285.09909 285.46536
 366.78100 356.34469 345.78639 334.66208 323.07478 311.27847 299.15816 286.97086
 274.69255 262.59924 250.61794 239.92863 230.06033 221.17402 213.36571 206.37741
 200.22110 195.16879 191.76049 189.81218 188.85888 188.93257 189.77726 191.09496
 192.82965 194.93435 197.20704 199.57573 202.03043 204.52012 206.61781 208.46951
 210.10520 211.25990 211.49859 211.73628 211.68298 211.39767 211.04036 210.68006
 210.30675 210.02645 209.84414 209.71783 209.65553 209.99622 210.39192 210.79061
 211.59330 212.78100 214.04069 215.83338 217.77108 219.82377 221.92847 224.02116
 226.09085 228.18455 230.29124 232.40693 234.54563 236.72732 238.99302 241.37271
 244.00340 246.26410 248.27579 250.05049 251.47718 252.60987 253.44157 253.76726
 253.81395 253.59765 252.96734 251.92504 250.54073 248.71142 246.63012 244.47281
 242.27350 240.08720 237.91689 235.76559 233.63528 231.51197 229.54767 227.71436
 226.00706 224.48875 223.12844 221.91014 220.80183 219.77152 218.88522 218.03591
 217.28761 216.47730 215.58499 214.95869 214.41838 214.21886 213.68282 212.97720
 212.53931 211.98389 212.72040 214.80568 217.88988 222.00969 227.19370 231.72037
 235.51169 239.79871 244.11539 248.10954 251.72437 255.19763 258.53995 261.61569
 264.43732 266.99472 269.40787 271.55991 273.38535 274.88876 276.74124 278.44455
 279.76611 280.81641 281.68341 282.77390 283.71762 284.55255 285.31433 286.00443
 286.62509 287.17783 287.66064 288.27597
 366.78100 356.34506 345.78712 334.66318 323.07625 311.28031 299.16037 286.97343
 274.69549 262.60255 250.62162 239.93268 230.06474 221.17880 213.37086 206.38292
 200.22698 195.17505 191.76711 189.81917 188.86623 188.94029 189.78535 191.10342
 192.83848 194.94354 197.21660 199.58566 202.04072 204.53078 206.62885 208.48091
 210.11697 211.27203 211.51109 211.74915 211.69622 211.41128 211.05434 210.69440
 210.32146 210.04152 209.85958 209.73365 209.67171 210.01277 210.40883 210.80789
 211.61095 212.79902 214.05908 215.85214 217.79020 219.84326 221.94832 224.04138
 226.11145 228.20551 230.31257 232.42863 234.56769 236.74975 239.01582 241.39588
 244.02694 246.28800 248.30006 250.07512 251.50219 252.63525 253.46731 253.79337
 253.84043 253.62449 252.99455 251.95262 250.56868 248.73974 246.65880 244.50186
 242.30292 240.11699 237.94705 235.79611 233.66617 231.54323 229.57929 227.74635
 226.03942 224.52148 223.16154 221.94360 220.83566 219.80572 218.91979 218.07085
 217.32291 216.51297 215.62103 214.99509 214.45515 214.24066 213.67885 213.05611
 212.78546 212.19373 212.55530 214.41257 217.53181 221.78125 226.96481 231.60744
 235.46246 239.80179 244.17459 248.24393 251.93787 255.47174 258.84805 261.88126
 264.61935 267.08231 269.35489 271.39517 273.13269 274.69049 276.71988 278.43051
 279.72379 280.77365 281.57846 282.15259 282.64944 283.08905 283.49011 283.85342
 284.18021 284.47122 284.72543 285.04938
 366.78100 356.34327 345.78354 334.65782 323.06909 311.27136 299.14963 286.96090
 274.68118 262.58645 250.60372 239.91299 230.04326 221.15554 213.34581 206.35608
 200.19835 195.14462 191.73490 189.78517 188.83044 188.90271 189.74598 191.06226
 192.79553 194.89880 197.17007 199.53734 201.99062 204.47889 206.57516 208.42543
 210.05970 211.21298 211.45025 211.68652 211.63179 211.34506 210.98634 210.62461
 210.24988 209.96815 209.78442 209.65670 209.59297 209.93224 210.32651 210.72378
 211.52506 212.71133 213.96960 215.76087 217.69714 219.74842 221.85169 223.94296
 226.01123 228.10350 230.20878 232.32305 234.46032 236.64059 238.90486 241.28314
 243.91241 246.17168 248.18195 249.95522 251.38050 252.51177 253.34204 253.66631
 253.71158 253.49386 252.86213 251.81840 250.43267 248.60194 246.51922 244.36049
 242.15976 239.97203 237.80030 235.64758 233.51585 231.39112 229.42539 227.59066
 225.88194 224.36221 223.00048 221.78075 220.67102 219.63930 218.75157 217.90084
 217.15111 216.33938 215.44566 214.81793 214.27620 214.15790 213.78554 212.97394
 212.83594 212.67471 212.78828 214.29477 217.29883 221.49829 226.53874 231.28375
 235.19290 239.56416 243.92065 248.01404 251.84947 255.58722 259.14172 262.33093
 265.19055 267.73743 269.97549 271.93256 273.54654 274.83859 276.66281 278.30551
 279.63037 280.73926 281.57819 282.58682 283.59183 284.48102 285.29227 286.02719
 286.68817 287.27679 287.79099 288.44626
 366.78100 356.34018 345.77736 334.64854 323.05671 311.25589 299.13107 286.93925
 274.65643 262.55861 250.57278 239.87896 230.00614 221.11532 213.30250 206.30968
 200.14885 195.09203 191.67921 189.72639 188.76857 188.83775 189.67793 190.99110
 192.72128 194.82146 197.08964 199.45382 201.90400 204.38917 206.48235 208.32953
 209.96071 211.11089 211.34507 211.57824 211.52042 211.23060 210.86878 210.50396
 210.12614 209.84132 209.65449 209.52367 209.45685 209.79303 210.18421 210.57839
 211.37656 212.55974 213.81492 215.60310 217.53628 219.58446 221.68464 223.77281
 225.83799 227.92717 230.02935 232.14053 234.27471 236.45188 238.71306 241.08824
 243.71442 245.97060 247.97778 249.74795 251.17013 252.29831 253.12549 253.44667
 253.48885 253.26803 252.63320 251.58638 250.19756 248.36374 246.27792 244.11610
 241.91227 239.72145 237.54663 235.39081 233.25599 231.12817 229.15934 227.32152
 225.60970 224.08688 222.72206 221.49924 220.38642 219.35159 218.46077 217.60695
 216.85413 216.03931 215.14249 214.51166 213.96684 213.98468 213.96283 213.04735
 212.43225 212.54346 213.02838 214.56827 217.49879 221.55426 226.56152 231.12321
 234.99321 239.19791 243.42238 247.47975 251.39589 255.24881 258.94852 262.34332
 265.40509 268.15155 270.48578 272.45758 274.08655 275.31918 276.56314 278.27914
 279.51257 280.68704 281.77707 282.72296 283.58594 284.55688 285.48694 286.32953
 287.08734 287.76218 288.35168 289.10297
 366.78100 356.34005 345.77710 334.64815 323.05620 311.25525 299.13030 286.93835
 274.65540 262.55745 250.57150 239.87755 230.00460 221.11365 213.30070 206.30775
 200.14680 195.08985 191.67690 189.72395 188.76600 188.83505 189.67510 190.98815
 192.71820 194.81824 197.08629 199.45034 201.90039 204.38544 206.47849 208.32554
 209.95659 211.10664 211.34069 211.57374 211.51579 211.22584 210.86389 210.49894
 210.12099 209.83604 209.64909 209.51814 209.45119 209.78724 210.17829 210.57234
 211.37039 212.55344 213.80849 215.59654 217.52959 219.57764 221.67769 223.76574
 225.83079 227.91984 230.02189 232.13294 234.26699 236.44404 238.70509 241.08014
 243.70619 245.96224 247.96929 249.73934 251.16139 252.28944 253.11649 253.43754
 253.47959 253.25864 252.62368 251.57673 250.18778 248.35383 246.26788 244.10593
 241.90198 239.71103 237.53608 235.38013 233.24518 231.11723 229.14828 227.31033
 225.59838 224.07543 222.71048 221.48753 220.37458 219.33963 218.44868 217.59473
 216.84178 216.02683 215.12988 214.49893 213.95398 213.97102 213.97296 213.27917
 212.39926 212.10432 212.74376 214.52979 217.62692 221.76720 226.86703 231.34062
 235.14171 239.30391 243.45132 247.37489 251.13358 254.88876 258.55225 261.97211
 265.13757 268.01614 270.50064 272.55688 274.20337 275.46149 276.48459 278.01019
 279.48199 280.78198 281.90048 282.98410 283.91159 284.82254 285.78015 286.65399
 287.43991 288.13980 288.75119 289.53033
 366.78100 356.34134 345.77968 334.65202 323.06136 311.26170 299.13804 286.94738
 274.66572 262.56906 250.58440 239.89174 230.02008 221.13042 213.31877 206.32711
 200.16745 195.11179 191.70013 189.74847 188.79181 188.86215 189.70349 191.01783
 192.74917 194.85051 197.11985 199.48519 201.93653 204.42287 206.51721 208.36555
 209.99789 211.14923 211.38457 211.61891 211.56225 211.27359 210.91293 210.54927
 210.17262 209.88896 209.70330 209.57364 209.50798 209.84532 210.23766 210.63300
 211.43234 212.61668 213.87302 215.66236 217.59670 219.64604 221.74738 223.83672
 225.90306 227.99340 230.09674 232.20908 234.34442 236.52276 238.78510 241.16144
 243.78878 246.04612 248.05447 249.82581 251.24915 252.37849 253.20683 253.52917
 253.57251 253.35285 252.71919 251.67353 250.28587 248.45321 246.36855 244.20789
 242.00523 239.81557 237.64191 235.48725 233.35359 231.22693 229.25927 227.42261
 225.71195 224.19029 222.82663 221.60497 220.49332 219.45966 218.57000 217.71734
 216.96568 216.15202 215.25636 214.62670 214.08304 214.05608 213.93849 213.30740
 212.57640 212.09163 212.64082 214.48154 217.61136 221.80716 226.99532 231.52142
 235.32217 239.51398 243.67609 247.57112 251.22675 254.87773 258.45398 261.81165
 264.96191 267.85593 270.40100 272.54367 274.24548 275.42917 276.39246 277.98837
 279.51602 280.83902 282.10358 283.41223 284.70993 285.88504 286.95718 287.92847
 288.80200 289.57993 290.25946 291.12549
 366.78100 356.34057 345.77814 334.64970 323.05827 311.25784 299.13341 286.94197
 274.65954 262.56211 250.57668 239.88324 230.01081 221.12038 213.30795 206.31552
 200.15508 195.09865 191.68622 189.73379 188.77635 188.84592 189.68649 191.00006
 192.73062 194.83119 197.09976 199.46433 201.91489 204.40046 206.49403 208.34160
 209.97317 211.12373 211.35830 211.59187 211.53444 211.24500 210.88357 210.51914
 210.14171 209.85727 209.67084 209.54041 209.47398 209.81055 210.20211 210.59668
 211.39525 212.57882 213.83438 215.62295 217.55652 219.60509 221.70565 223.79422
 225.85979 227.94936 230.05193 232.16349 234.29806 236.47563 238.73720 241.11276
 243.73933 245.99590 248.00347 249.77403 251.19660 252.32517 253.15274 253.47431
 253.51687 253.29644 252.66201 251.61558 250.22714 248.39371 246.30828 244.14685
 241.94341 239.75298 237.57855 235.42312 233.28868 231.16125 229.19282 227.35539
 225.64396 224.12152 222.75709 221.53466 220.42223 219.38779 218.49736 217.64393
 216.89150 216.07706 215.18063 214.55020 214.00577 214.02544 214.00533 213.31294
 212.61391 212.07144 212.59261 214.39685 217.48737 221.70450 226.93483 231.53069
 235.37869 239.62120 243.83531 247.75314 251.36993 254.94125 258.43658 261.72195
 264.85513 267.78317 270.39975 272.59833 274.29343 275.47336 276.45828 278.01306
 279.60718 281.04965 282.49066 283.88095 285.25052 286.50977 287.65863 288.69943
 289.63550 290.46909 291.19730 292.12531
 366.78100 356.34046 345.77793 334.64939 323.05785 311.25732 299.13278 286.94125
 274.65871 262.56117 250.57564 239.88210 230.00956 221.11903 213.30649 206.31395
 200.15342 195.09688 191.68435 189.73181 188.77427 188.84374 189.68420 190.99766
 192.72813 194.82859 197.09705 199.46152 201.91198 204.39744 206.49091 208.33837
 209.96984 211.12030 211.35476 211.58823 211.53069 211.24115 210.87962 210.51508
 210.13754 209.85301 209.66647 209.53594 209.46940 209.80586 210.19733 210.59179
 211.39025 212.57372 213.82918 215.61764 217.55111 219.59957 221.70004 223.78850
 225.85396 227.94343 230.04589 232.15735 234.29182 236.46928 238.73074 241.10621
 243.73267 245.98913 247.99660 249.76706 251.18953 252.31799 253.14545 253.46692
 253.50938 253.28884 252.65431 251.60777 250.21923 248.38570 246.30016 244.13863
 241.93509 239.74455 237.57002 235.41448 233.27994 231.15241 229.18387 227.34633
 225.63480 224.11226 222.74773 221.52519 220.41265 219.37812 218.48758 217.63404
 216.88151 216.06697 215.17043 214.53990 213.99536 214.01466 214.01753 213.50720
 212.75832 211.93466 212.40561 214.28940 217.38126 221.59074 226.81512 231.41200
 235.29314 239.59062 243.86575 247.83629 251.47031 255.01747 258.49252 261.71350
 264.75653 267.63284 270.27536 272.51898 274.12488 275.04987 276.12115 277.88556
 279.60983 281.12836 282.51349 283.87329 285.06656 286.10446 287.05142 287.90927
 288.68082 289.36789 289.96808 290.73300
 366.78100 356.34335 345.78371 334.65806 323.06941 311.27177 299.15012 286.96148
 274.68183 262.58718 250.60454 239.91389 230.04424 221.15660 213.34695 206.35730
 200.19966 195.14601 191.73637 189.78672 188.83207 188.90443 189.74778 191.06413
 192.79749 194.90084 197.17219 199.53955 201.99290 204.48126 206.57761 208.42796
 210.06232 211.21567 211.45302 211.68938 211.63473 211.34808 210.98944 210.62779
 210.25315 209.97150 209.78785 209.66021 209.59656 209.93591 210.33027 210.72762
 211.52897 212.71533 213.97368 215.76504 217.70139 219.75274 221.85610 223.94745
 226.01580 228.10816 230.21351 232.32786 234.46522 236.64557 238.90992 241.28828
 243.91763 246.17699 248.18734 249.96069 251.38605 252.51740 253.34775 253.67211
 253.71746 253.49981 252.86817 251.82452 250.43888 248.60823 246.52558 244.36694
 242.16629 239.97864 237.80700 235.65435 233.52270 231.39806 229.43241 227.59777
 225.88912 224.36947 223.00783 221.78818 220.67853 219.64689 218.75924 217.90859
 217.15895 216.34730 215.45366 214.82601 214.28436 214.17964 213.92253 213.63623
 212.97366 212.06677 212.37228 214.21107 217.30164 221.49420 226.72821 231.30602
 235.17590 239.46669 243.74150 247.74780 251.48639 255.12915 258.65015 261.94116
 265.00113 267.85757 270.45996 272.64880 274.20419 275.14551 276.29712 277.77292
 279.46829 281.24524 282.99054 284.67255 286.12817 287.41602 288.59100 289.65546
 290.61279 291.46533 292.21008 293.15918
 366.78100 356.34443 345.78585 334.66128 323.07370 311.27713 299.15656 286.96898
 274.69041 262.59683 250.61526 239.92569 230.05711 221.17054 213.36196 206.37339
 200.21682 195.16424 191.75567 189.80709 188.85352 188.92695 189.77137 191.08880
 192.82322 194.92765 197.20008 199.56850 202.02293 204.51235 206.60978 208.46121
 210.09663 211.25106 211.48948 211.72691 211.67334 211.38776 211.03019 210.66961
 210.29604 210.01547 209.83289 209.70632 209.64374 209.98417 210.37960 210.77802
 211.58045 212.76787 214.02730 215.81973 217.75715 219.80958 221.91400 224.00643
 226.07586 228.16928 230.27571 232.39113 234.52956 236.71099 238.97641 241.35584
 243.98627 246.24669 248.25812 250.03254 251.45897 252.59140 253.42282 253.74825
 253.79467 253.57810 252.94753 251.90495 250.52038 248.69080 246.60923 244.45166
 242.25208 240.06551 237.89493 235.74336 233.61279 231.48921 229.52464 227.69106
 225.98349 224.46492 223.10434 221.88577 220.77719 219.74662 218.86005 218.01047
 217.26190 216.45132 215.55875 214.93218 214.39160 214.26201 213.92462 213.55510
 213.03781 212.29129 212.45984 214.16054 217.19749 221.37828 226.64772 231.17049
 235.03529 239.31122 243.53572 247.48782 251.25694 255.01503 258.66901 262.07654
 265.23862 268.19986 270.96143 273.43320 275.27884 276.41083 277.37030 278.26303
 280.08252 282.19556 284.35413 286.24948 287.88977 289.34100 290.66504 291.86453
 292.94333 293.90402 294.74323 295.81274
 366.78100 356.34288 345.78276 334.65665 323.06753 311.26941 299.14729 286.95817
 274.67805 262.58294 250.59982 239.90870 230.03858 221.15046 213.34035 206.35023
 200.19211 195.13799 191.72787 189.77775 188.82264 188.89452 189.73740 191.05328
 192.78616 194.88905 197.15993 199.52681 201.97969 204.46757 206.56345 208.41334
 210.04722 211.20010 211.43698 211.67286 211.61775 211.33063 210.97151 210.60939
 210.23427 209.95215 209.76804 209.63992 209.57580 209.91468 210.30856 210.70545
 211.50633 212.69221 213.95009 215.74097 217.67685 219.72774 221.83062 223.92150
 225.98938 228.08126 230.18615 232.30003 234.43691 236.61679 238.88067 241.25856
 243.88744 246.14632 248.15620 249.92908 251.35396 252.48485 253.31473 253.63861
 253.68349 253.46537 252.83326 251.78914 250.40302 248.57190 246.48878 244.32966
 242.12855 239.94043 237.76831 235.61519 233.48307 231.35796 229.39184 227.55672
 225.84760 224.32748 222.96536 221.74525 220.63513 219.60301 218.71489 217.86377
 217.11366 216.30154 215.40742 214.77930 214.23718 214.17778 213.99513 213.50533
 212.94489 212.24065 212.64102 214.38713 217.41122 221.51201 226.63121 231.17796
 234.99556 239.21420 243.37013 247.25990 250.94707 254.60999 258.16275 261.49902
 264.64340 267.64255 270.47717 273.01981 275.07544 276.63266 277.93777 279.24240
 280.64920 282.27972 283.88797 285.41690 286.92145 288.25256 289.46701 290.56720
 291.55670 292.43787 293.20764 294.18863
 366.78100 356.34150 345.78001 334.65251 323.06201 311.26252 299.13902 286.94852
 274.66702 262.57053 250.58603 239.89353 230.02204 221.13254 213.32104 206.32955
 200.17005 195.11455 191.70305 189.75156 188.79506 188.86556 189.70707 191.02157
 192.75307 194.85458 197.12408 199.48958 201.94109 204.42759 206.52209 208.37059
 210.00310 211.15460 211.39010 211.62461 211.56811 211.27961 210.91912 210.55562
 210.17912 209.89562 209.71013 209.58063 209.51513 209.85264 210.24514 210.64064
 211.44015 212.62465 213.88115 215.67066 217.60516 219.65466 221.75616 223.84567
 225.91217 228.00267 230.10618 232.21868 234.35418 236.53269 238.79519 241.17169
 243.79919 246.05670 248.06520 249.83670 251.26021 252.38971 253.21821 253.54072
 253.58422 253.36472 252.73123 251.68573 250.29823 248.46573 246.38124 244.22074
 242.01824 239.82875 237.65525 235.50075 233.36726 231.24076 229.27326 227.43676
 225.72627 224.20477 222.84127 221.61978 220.50828 219.47478 218.58529 217.73279
 216.98129 216.16780 215.27230 214.64280 214.09930 214.10806 214.08156 213.52559
 213.02707 211.95909 212.43289 214.41669 217.49300 221.58675 226.74883 231.29196
 235.09668 239.31737 243.48447 247.35378 250.98247 254.57487 258.07681 261.30276
 264.26276 267.06125 269.71896 272.02042 273.80923 275.36649 276.98956 278.70361
 280.50452 282.29202 283.89301 285.31766 286.55414 287.72964 288.80209 289.77368
 290.64749 291.42566 292.10541 292.97171
 366.78100 356.34047 345.77795 334.64942 323.05789 311.25736 299.13284 286.94131
 274.65878 262.56125 250.57573 239.88220 230.00967 221.11914 213.30662 206.31409
 200.15356 195.09703 191.68451 189.73198 188.77445 188.84392 189.68440 190.99787
 192.72834 194.82882 197.09729 199.46176 201.91223 204.39771 206.49118 208.33865
 209.97012 211.12060 211.35507 211.58854 211.53101 211.24149 210.87996 210.51543
 210.13790 209.85338 209.66685 209.53632 209.46980 209.80627 210.19774 210.59221
 211.39069 212.57416 213.82963 215.61810 217.55158 219.60005 221.70052 223.78899
 225.85447 227.94394 230.04641 232.15788 234.29236 236.46983 238.73130 241.10677
 243.73325 245.98972 247.99719 249.76767 251.19014 252.31861 253.14608 253.46756
 253.51003 253.28950 252.65497 251.60845 250.21992 248.38639 246.30086 244.13934
 241.93581 239.74528 237.57075 235.41523 233.28070 231.15317 229.18464 227.34712
 225.63559 224.11306 222.74854 221.52601 220.41348 219.37895 218.48843 217.63490
 216.88237 216.06784 215.17132 214.54079 213.99626 214.09033 214.17665 213.53964
 213.07330 212.02829 212.38570 214.35695 217.46576 221.55817 226.80653 231.33694
 235.15588 239.40050 243.61165 247.53290 251.19911 254.77989 258.25662 261.48911
 264.42770 267.12994 269.58875 271.62860 273.21628 274.57306 276.14978 278.32791
 280.45773 282.33823 284.09451 285.76358 287.20804 288.48602 289.65198 290.70825
 291.65823 292.50421 293.24326 294.18506
 366.78100 356.34235 345.78169 334.65504 323.06539 311.26673 299.14408 286.95443
 274.67377 262.57812 250.59447 239.90281 230.03216 221.14351 213.33285 206.34220
 200.18354 195.12889 191.71824 189.76758 188.81193 188.88328 189.72562 191.04097
 192.77332 194.87566 197.14601 199.51236 201.96470 204.45205 206.54740 208.39674
 210.03009 211.18244 211.41878 211.65413 211.59848 211.31082 210.95117 210.58852
 210.21286 209.93021 209.74556 209.61690 209.55225 209.89059 210.28394 210.68029
 211.48063 212.66598 213.92333 215.71367 217.64902 219.69937 221.80171 223.89206
 225.95941 228.05075 230.15510 232.26845 234.40479 236.58414 238.84749 241.22483
 243.85318 246.11153 248.12087 249.89322 251.31757 252.44791 253.27726 253.60060
 253.64495 253.42630 252.79364 251.74899 250.36234 248.53068 246.44703 244.28738
 242.08572 239.89707 237.72442 235.57076 233.43811 231.31246 229.34580 227.51015
 225.80050 224.27984 222.91719 221.69654 220.58588 219.55323 218.66458 217.81292
 217.06227 216.24962 215.35496 214.72631 214.18365 214.21970 214.14526 213.67068
 213.08905 212.13107 212.12938 214.12730 217.25430 221.31577 226.64970 231.28151
 235.15829 239.42229 243.66515 247.66177 251.41570 255.07419 258.60257 261.88007
 264.84937 267.50388 269.80087 271.63565 272.91522 273.86682 275.89798 278.25275
 280.75882 282.99823 284.93604 286.63760 288.11017 289.41299 290.60162 291.67847
 292.64694 293.50937 294.26279 295.22293
 366.78100 356.34651 345.79002 334.66753 323.08204 311.28755 299.16906 286.98357
 274.70708 262.61559 250.63610 239.94861 230.08212 221.19763 213.39114 206.40465
 200.25016 195.19967 191.79318 189.84669 188.89520 188.97071 189.81722 191.13673
 192.87324 194.97975 197.25426 199.62477 202.08128 204.57279 206.67230 208.52581
 210.16332 211.31983 211.56034 211.79985 211.74836 211.46487 211.10938 210.75089
 210.37940 210.10091 209.92042 209.79593 209.73544 210.07795 210.47546 210.87597
 211.68048 212.86999 214.13150 215.92601 217.86552 219.92003 222.02654 224.12104
 226.19255 228.28806 230.39657 232.51408 234.65459 236.83810 239.10561 241.48712
 244.11963 246.38214 248.39565 250.17216 251.60067 252.73518 253.56869 253.89620
 253.94471 253.73022 253.10173 252.06124 250.67875 248.85126 246.77177 244.61628
 242.41879 240.23430 238.06581 235.91632 233.78783 231.66634 229.70385 227.87236
 226.16687 224.65038 223.29189 222.07540 220.96891 219.94042 219.05593 218.20844
 217.46195 216.65346 215.76297 215.13848 214.59999 214.44069 214.06583 213.78714
 213.13408 212.26323 212.27382 214.03406 217.05891 221.11536 226.31210 231.03050
 234.96117 239.27646 243.52553 247.53104 251.35867 255.13911 258.83423 262.29672
 265.45245 268.28046 270.66235 272.53137 273.77469 274.66827 276.41077 279.67657
 282.74915 285.38284 287.66183 289.66296 291.39478 292.92700 294.32489 295.59131
 296.73029 297.74457 298.63065 299.75983
 366.78100 356.34751 345.79202 334.67054 323.08605 311.29256 299.17507 286.99058
 274.71510 262.62461 250.64612 239.95963 230.09414 221.21066 213.40517 206.41968
 200.26619 195.21670 191.81122 189.86573 188.91524 188.99175 189.83926 191.15977
 192.89729 195.00480 197.28031 199.65182 202.10933 204.60185 206.70236 208.55687
 210.19538 211.35289 211.59441 211.83492 211.78443 211.50194 211.14745 210.78997
 210.41948 210.14199 209.96250 209.83901 209.77953 210.12304 210.52155 210.92306
 211.72857 212.91909 214.18160 215.97711 217.91762 219.97313 222.08065 224.17616
 226.24867 228.34518 230.45469 232.57321 234.71472 236.89923 239.16774 241.55025
 244.18376 246.44728 248.46179 250.23930 251.66881 252.80432 253.63884 253.96735
 254.01686 253.80337 253.17588 252.13640 250.75491 248.92842 246.84993 244.69544
 242.49896 240.31547 238.14798 235.99949 233.87200 231.75152 229.79003 227.95954
 226.25505 224.73956 223.38208 222.16659 221.06110 220.03361 219.15012 218.30364
 217.55815 216.75066 215.86117 215.23768 214.70020 214.49359 214.03149 213.79529
 213.18216 212.42450 212.47513 214.23892 217.17207 221.07646 226.17712 230.86163
 234.74937 238.97020 243.11357 247.03427 250.83398 254.65530 258.43747 262.05167
 265.44003 268.56262 271.34891 273.61566 275.07895 275.75293 277.00571 279.38394
 282.27191 284.86688 287.11243 289.08420 290.79056 292.30026 293.67764 294.92548
 296.04773 297.04712 297.92017 299.03275
 366.78100 356.34555 345.78809 334.66464 323.07818 311.28273 299.16328 286.97682
 274.69937 262.60691 250.62646 239.93801 230.07055 221.18510 213.37764 206.39019
 200.23474 195.18328 191.77583 189.82837 188.87592 188.95047 189.79601 191.11456
 192.85010 194.95565 197.22920 199.59874 202.05429 204.54483 206.64338 208.49593
 210.13247 211.28802 211.52756 211.76611 211.71366 211.42920 211.07275 210.71329
 210.34084 210.06139 209.87993 209.75448 209.69302 210.03457 210.43112 210.83066
 211.63421 212.82275 214.08330 215.87685 217.81539 219.86894 221.97448 224.06803
 226.13858 228.23312 230.34067 232.45721 234.59676 236.77931 239.04585 241.42640
 244.05794 246.31949 248.33204 250.10758 251.53513 252.66867 253.50122 253.82777
 253.87531 253.65986 253.03040 251.98895 250.60550 248.77704 246.69659 244.54013
 242.34168 240.15623 237.98677 235.83632 233.70686 231.58441 229.62096 227.78850
 226.08205 224.56459 223.20514 221.98769 220.88023 219.85078 218.96533 218.11687
 217.36942 216.55996 215.66851 215.04306 214.50360 214.40227 214.10846 213.71342
 213.20921 212.38171 212.55045 214.37012 217.34647 221.32307 226.27484 230.95226
 234.79161 238.98553 243.09178 246.93558 250.61195 254.26929 257.88220 261.35226
 264.65424 267.74945 270.53625 272.80438 274.40756 275.64044 277.16873 279.36530
 281.53842 283.69675 285.70123 287.46136 288.98456 290.33224 291.56177 292.67563
 293.67746 294.56955 295.34891 296.34207
 366.78100 356.34270 345.78239 334.65609 323.06679 311.26848 299.14618 286.95688
 274.67657 262.58127 250.59797 239.90666 230.03636 221.14806 213.33775 206.34745
 200.18915 195.13484 191.72454 189.77424 188.81893 188.89063 189.73332 191.04902
 192.78172 194.88441 197.15511 199.52181 201.97450 204.46220 206.55790 208.40759
 210.04129 211.19399 211.43068 211.66638 211.61108 211.32377 210.96447 210.60217
 210.22686 209.94456 209.76026 209.63195 209.56765 209.90635 210.30004 210.69674
 211.49744 212.68313 213.94083 215.73153 217.66722 219.71792 221.82062 223.91131
 225.97901 228.07071 230.17540 232.28910 234.42580 236.60549 238.86919 241.24688
 243.87558 246.13428 248.14397 249.91667 251.34137 252.47206 253.30176 253.62546
 253.67015 253.45185 252.81955 251.77524 250.38894 248.55764 246.47433 244.31503
 242.11373 239.92542 237.75312 235.59982 233.46751 231.34221 229.37591 227.54060
 225.83130 224.31100 222.94869 221.72839 220.61809 219.58578 218.69748 217.84618
 217.09587 216.28357 215.38927 214.76096 214.21866 214.28099 214.27077 213.64117
 213.25366 212.34155 212.30891 214.20000 217.30217 221.34662 226.35098 231.04655
 234.89975 239.13931 243.32132 247.23499 250.92476 254.53200 258.05545 261.39783
 264.54803 267.49393 270.13705 272.26093 273.60635 274.78012 276.63495 279.03781
 281.20453 283.23990 285.18335 286.88989 288.36673 289.67334 290.86545 291.94540
 292.91672 293.78168 294.53726 295.50018
 366.78100 356.34206 345.78113 334.65419 323.06426 311.26532 299.14239 286.95245
 274.67152 262.57558 250.59164 239.89971 230.02877 221.13984 213.32890 206.33797
 200.17903 195.12410 191.71316 189.76222 188.80629 188.87735 189.71942 191.03448
 192.76655 194.86861 197.13867 199.50474 201.95680 204.44387 206.53893 208.38800
 210.02106 211.17313 211.40919 211.64425 211.58832 211.30038 210.94045 210.57751
 210.20158 209.91864 209.73371 209.60477 209.53983 209.87790 210.27096 210.66703
 211.46709 212.65216 213.90922 215.69929 217.63435 219.68441 221.78648 223.87654
 225.94361 228.03467 230.13874 232.25180 234.38786 236.56693 238.82999 241.20706
 243.83512 246.09319 248.10225 249.87432 251.29838 252.42844 253.25751 253.58057
 253.62464 253.40570 252.77277 251.72783 250.34090 248.50896 246.42502 244.26509
 242.06315 239.87422 237.70128 235.54735 233.41441 231.28848 229.32154 227.48560
 225.77567 224.25473 222.89180 221.67086 220.55993 219.52699 218.63805 217.78612
 217.03518 216.22225 215.32731 214.69838 214.15544 214.26089 214.34042 213.65729
 213.34866 212.43976 212.18385 213.96684 217.09381 221.19690 226.20369 230.96193
 234.82951 239.09671 243.33281 247.33289 251.11272 254.77953 258.33002 261.66739
 264.78128 267.66516 270.25009 272.34387 273.66467 274.71686 276.42267 278.73712
 280.89487 282.83420 284.75528 286.44211 287.90192 289.19348 290.37183 291.43933
 292.39941 293.25439 294.00128 294.95309
 366.78100 356.34350 345.78400 334.65850 323.07000 311.27250 299.15100 286.96249
 274.68299 262.58849 250.60599 239.91549 230.04599 221.15849 213.34899 206.35949
 200.20199 195.14849 191.73899 189.78948 188.83498 188.90748 189.75098 191.06748
 192.80098 194.90448 197.17598 199.54348 201.99698 204.48548 206.58198 208.43248
 210.06697 211.22047 211.45797 211.69447 211.63997 211.35347 210.99497 210.63347
 210.25897 209.97747 209.79397 209.66647 209.60296 209.94246 210.33696 210.73446
 211.53596 212.72246 213.98096 215.77246 217.70896 219.76046 221.86396 223.95546
 226.02396 228.11645 230.22195 232.33645 234.47395 236.65445 238.91895 241.29745
 243.92695 246.18645 248.19695 249.97045 251.39595 252.52744 253.35794 253.68244
 253.72794 253.51044 252.87894 251.83544 250.44994 248.61944 246.53694 244.37844
 242.17794 239.99043 237.81893 235.66643 233.53493 231.41043 229.44493 227.61043
 225.90193 224.38243 223.02093 221.80143 220.69193 219.66043 218.77292 217.92242
 217.17292 216.36142 215.46792 214.84042 214.29892 214.34111 214.31639 213.73836
 213.38663 212.57008 212.22453 213.88530 216.99451 221.09509 226.08180 230.82942
 234.68256 238.94150 243.17456 247.19978 251.03680 254.77434 258.38141 261.74570
 264.85892 267.71857 270.27615 272.36374 273.64102 274.69797 276.43924 278.69458
 280.85504 282.84918 284.80331 286.51913 288.00406 289.31784 290.51645 291.60233
 292.57895 293.44861 294.20834 295.17654
 366.78100 356.34539 345.78778 334.66417 323.07755 311.28194 299.16233 286.97572
 274.69811 262.60550 250.62489 239.93627 230.06866 221.18305 213.37544 206.38783
 200.23222 195.18061 191.77299 189.82538 188.87277 188.94716 189.79255 191.11094
 192.84632 194.95171 197.22510 199.59449 202.04988 204.54027 206.63866 208.49104
 210.12743 211.28282 211.52221 211.76060 211.70799 211.42338 211.06676 210.70715
 210.33454 210.05493 209.87332 209.74771 209.68610 210.02748 210.42387 210.82326
 211.62665 212.81504 214.07543 215.86882 217.80720 219.86059 221.96598 224.05937
 226.12976 228.22415 230.33154 232.44792 234.58731 236.76970 239.03609 241.41648
 244.04787 246.30926 248.32164 250.09703 251.52442 252.65781 253.49020 253.81659
 253.86397 253.64836 253.01875 251.97714 250.59353 248.76492 246.68431 244.52769
 242.32908 240.14347 237.97386 235.82325 233.69364 231.57103 229.60741 227.77480
 226.06819 224.55058 223.19097 221.97336 220.86575 219.83613 218.95052 218.10191
 217.35430 216.54469 215.65308 215.02747 214.48785 214.44893 214.28763 213.82591
 213.32735 212.58058 212.25249 213.83620 216.96822 221.04494 226.11325 230.78806
 234.63016 238.86800 243.09933 247.15002 251.02898 254.81682 258.46396 261.84497
 264.95407 267.78177 270.29385 272.25485 273.47250 274.56424 276.41794 278.82852
 281.03906 283.30481 285.32495 287.09875 288.63385 289.99200 291.23114 292.35370
 293.36331 294.26236 295.04776 296.04868
 366.78100 356.34612 345.78925 334.66637 323.08049 311.28561 299.16674 286.98086
 274.70398 262.61211 250.63223 239.94435 230.07748 221.19260 213.38572 206.39884
 200.24397 195.19309 191.78621 189.83934 188.88746 188.96258 189.80870 191.12783
 192.86395 194.97007 197.24420 199.61432 202.07044 204.56157 206.66069 208.51381
 210.15093 211.30706 211.54718 211.78630 211.73443 211.45055 211.09467 210.73579
 210.36392 210.08504 209.90416 209.77929 209.71841 210.06053 210.45766 210.85778
 211.66190 212.85102 214.11215 215.90627 217.84539 219.89952 222.00564 224.09976
 226.17088 228.26601 230.37413 232.49125 234.63138 236.81450 239.08162 241.46275
 244.09487 246.35699 248.37011 250.14624 251.57436 252.70848 253.54161 253.86873
 253.91685 253.70198 253.07310 252.03222 250.64934 248.82147 246.74159 244.58571
 242.38784 240.20296 238.03408 235.88420 233.75533 231.63345 229.67057 227.83870
 226.13282 224.61594 223.25707 222.04019 220.93331 219.90443 219.01956 218.17168
 217.42480 216.61593 215.72505 215.10017 214.56129 214.50244 214.31372 213.89247
 213.29037 212.53818 212.30380 213.85268 216.92853 220.99213 226.08160 230.72398
 234.55682 238.78911 243.02475 247.09874 251.01787 254.86145 258.56467 261.99945
 265.15320 268.00751 270.50482 272.48889 273.71072 274.66364 276.49036 278.92337
 281.20804 283.48996 285.46460 287.19846 288.69897 290.02655 291.23776 292.33502
 293.32190 294.20071 294.96841 295.94678
 366.78100 356.34581 345.78863 334.66544 323.07925 311.28407 299.16488 286.97869
 274.70150 262.60932 250.62913 239.94094 230.07376 221.18857 213.38138 206.39420
 200.23901 195.18782 191.78063 189.83345 188.88126 188.95607 189.80189 191.12070
 192.85651 194.96233 197.23614 199.60595 202.06177 204.55258 206.65139 208.50420
 210.14102 211.29683 211.53664 211.77546 211.72327 211.43908 211.08290 210.72371
 210.35152 210.07233 209.89115 209.76596 209.70477 210.04659 210.44340 210.84321
 211.64703 212.83584 214.09665 215.89047 217.82928 219.88309 221.98890 224.08272
 226.15353 228.24834 230.35616 232.47297 234.61278 236.79560 239.06241 241.44322
 244.07503 246.33685 248.34966 250.12547 251.55329 252.68710 253.51991 253.84673
 253.89454 253.67935 253.05016 252.00898 250.62579 248.79760 246.71742 244.56123
 242.36304 240.17786 238.00867 235.85848 233.72930 231.60711 229.64392 227.81173
 226.10555 224.58836 223.22917 222.01199 220.90480 219.87561 218.99043 218.14224
 217.39505 216.58586 215.69468 215.06949 214.53030 214.49992 214.35860 213.92021
 213.34186 212.49565 212.40207 213.90868 216.89209 221.03430 226.01442 230.65434
 234.44591 238.64549 242.85132 246.90654 250.84470 254.72180 258.47162 261.96915
 265.19586 268.12585 270.70850 272.83029 274.17416 275.10114 276.64758 278.94800
 281.11313 283.17972 285.07907 286.74686 288.19019 289.46713 290.63217 291.68762
 292.63687 293.48221 294.22064 295.16171
 366.78100 356.34419 345.78538 334.66056 323.07275 311.27594 299.15513 286.96731
 274.68850 262.59469 250.61288 239.92307 230.05425 221.16744 213.35863 206.36982
 200.21301 195.16019 191.75138 189.80257 188.84876 188.92194 189.76613 191.08332
 192.81751 194.92170 197.19388 199.56207 202.01626 204.50545 206.60263 208.45382
 210.08901 211.24320 211.48139 211.71857 211.66476 211.37895 211.02114 210.66033
 210.28651 210.00570 209.82289 209.69608 209.63326 209.97345 210.36864 210.76683
 211.56902 212.75620 214.01539 215.80758 217.74477 219.79695 221.90114 223.99333
 226.06252 228.15571 230.26189 232.37708 234.51527 236.69646 238.96165 241.34083
 243.97102 246.23121 248.24240 250.01658 251.44277 252.57496 253.40615 253.73134
 253.77752 253.56071 252.92990 251.88709 250.50227 248.67246 246.59065 244.43284
 242.23303 240.04621 237.87540 235.72359 233.59278 231.46897 229.50415 227.67034
 225.96253 224.44372 223.08290 221.86409 220.75528 219.72447 218.83766 217.98784
 217.23903 216.42822 215.53541 214.90859 214.36778 214.44112 214.46999 213.84566
 213.47389 212.52296 212.33189 213.93842 216.95500 221.09431 226.01543 230.63783
 234.39331 238.57741 242.76093 246.78696 250.70757 254.57596 258.31900 261.82541
 265.08646 268.04288 270.65366 272.82422 274.22247 275.16086 276.76913 279.00949
 281.15842 283.08066 285.01965 286.72223 288.19568 289.49930 290.68866 291.76614
 292.73520 293.59818 294.35202 295.31274
 366.78100 356.34231 345.78162 334.65492 323.06523 311.26654 299.14385 286.95416
 274.67346 262.57777 250.59408 239.90239 230.03170 221.14301 213.33231 206.34162
 200.18293 195.12824 191.71755 189.76685 188.81116 188.88247 189.72478 191.04009
 192.77239 194.87470 197.14501 199.51132 201.96363 204.45093 206.54624 208.39555
 210.02886 211.18117 211.41748 211.65278 211.59709 211.30940 210.94971 210.58702
 210.21132 209.92863 209.74394 209.61525 209.55056 209.88886 210.28217 210.67848
 211.47879 212.66410 213.92140 215.71171 217.64702 219.69733 221.79964 223.88995
 225.95725 228.04856 230.15287 232.26618 234.40249 236.58179 238.84510 241.22241
 243.85072 246.10903 248.11833 249.89064 251.31495 252.44526 253.27457 253.59787
 253.64218 253.42349 252.79080 251.74611 250.35942 248.52772 246.44403 244.28434
 242.08265 239.89396 237.72126 235.56757 233.43488 231.30919 229.34250 227.50680
 225.79711 224.27642 222.91373 221.69304 220.58234 219.54965 218.66096 217.80927
 217.05858 216.24589 215.35119 214.72250 214.17981 214.37672 214.60706 213.75526
 213.50616 212.70964 212.27626 213.80157 216.86298 221.05342 226.02052 230.60474
 234.35434 238.53973 242.73413 246.77621 250.70749 254.57967 258.32184 261.82455
 265.08752 268.06033 270.68411 272.86685 274.25583 275.24243 276.84299 279.05301
 281.19174 283.14407 284.97714 286.58670 287.97964 289.21207 290.33643 291.35504
 292.27118 293.08698 293.79965 294.70789
 366.78100 356.34361 345.78422 334.65882 323.07043 311.27304 299.15165 286.96325
 274.68386 262.58947 250.60708 239.91669 230.04729 221.15990 213.35051 206.36112
 200.20373 195.15033 191.74094 189.79155 188.83716 188.90976 189.75337 191.06998
 192.80359 194.90720 197.17880 199.54641 202.00002 204.48863 206.58524 208.43584
 210.07045 211.22406 211.46167 211.69827 211.64388 211.35749 210.99910 210.63771
 210.26331 209.98192 209.79853 209.67114 209.60774 209.94735 210.34196 210.73957
 211.54118 212.72778 213.98639 215.77800 217.71461 219.76622 221.86982 223.96143
 226.03004 228.12265 230.22825 232.34286 234.48047 236.66108 238.92569 241.30429
 243.93390 246.19351 248.20412 249.97773 251.40333 252.53494 253.36555 253.69016
 253.73576 253.51837 252.88698 251.84359 250.45820 248.62780 246.54541 244.38702
 242.18663 239.99923 237.82784 235.67545 233.54406 231.41967 229.45427 227.61988
 225.91149 224.39210 223.03071 221.81131 220.70192 219.67053 218.78314 217.93274
 217.18335 216.37196 215.47857 214.85118 214.30978 214.44652 214.60944 213.80827
 213.30937 212.84810 212.46490 213.81349 216.82935 221.01431 225.92921 230.53735
 234.27959 238.47765 242.67856 246.72772 250.67285 254.55403 258.29797 261.80865
 265.10352 268.12473 270.81100 273.05997 274.54684 275.49954 277.00833 278.98141
 281.07129 282.93161 284.69989 286.27383 287.63593 288.84106 289.94055 290.93661
 291.83246 292.63022 293.32712 294.21524
 366.78100 356.34490 345.78679 334.66269 323.07559 311.27949 299.15938 286.97228
 274.69418 262.60108 250.61997 239.93087 230.06277 221.17667 213.36856 206.38046
 200.22436 195.17226 191.76415 189.81605 188.86295 188.93684 189.78174 191.09964
 192.83454 194.93943 197.21233 199.58123 202.03613 204.52602 206.62392 208.47582
 210.11172 211.26661 211.50551 211.74341 211.69030 211.40520 211.04810 210.68800
 210.31489 210.03479 209.85269 209.72659 209.66448 210.00538 210.40128 210.80018
 211.60307 212.79097 214.05087 215.84377 217.78166 219.83456 221.93946 224.03235
 226.10225 228.19615 230.30305 232.41894 234.55784 236.73974 239.00564 241.38553
 244.01643 246.27733 248.28923 250.06412 251.49102 252.62392 253.45582 253.78171
 253.82861 253.61251 252.98240 251.94030 250.55620 248.72710 246.64599 244.48889
 242.28979 240.10369 237.93358 235.78248 233.65238 231.52928 229.56517 227.73207
 226.02497 224.50687 223.14676 221.92866 220.82056 219.79045 218.90435 218.05525
 217.30715 216.49704 215.60494 214.97884 214.43874 214.50389 214.59518 214.01199
 213.01875 212.62303 212.61903 213.97580 216.92728 221.03825 225.94958 230.50131
 234.23439 238.43321 242.62959 246.66476 250.59834 254.46080 258.17789 261.67068
 264.95947 268.02228 270.78305 273.09937 274.66196 275.75217 277.18280 279.00470
 280.79382 282.58459 284.17145 285.64120 286.94067 288.09036 289.13928 290.08954
 290.94418 291.70526 292.37012 293.21738
 366.78100 356.34473 345.78647 334.66220 323.07493 311.27867 299.15840 286.97114
 274.69287 262.59960 250.61834 239.92907 230.06080 221.17454 213.36627 206.37800
 200.22174 195.16947 191.76121 189.81294 188.85967 188.93341 189.77814 191.09587
 192.83061 194.93534 197.20807 199.57681 202.03154 204.52128 206.61901 208.47074
 210.10648 211.26121 211.49994 211.73768 211.68441 211.39914 211.04188 210.68161
 210.30835 210.02808 209.84581 209.71955 209.65728 209.99801 210.39375 210.79248
 211.59521 212.78295 214.04268 215.83542 217.77315 219.82588 221.93062 224.02335
 226.09308 228.18682 230.29355 232.40928 234.54802 236.72975 238.99549 241.37522
 244.00595 246.26669 248.27842 250.05315 251.47989 252.61262 253.44435 253.77009
 253.81682 253.60056 252.97029 251.92802 250.54376 248.71449 246.63322 244.47596
 242.27669 240.09042 237.92016 235.76889 233.63863 231.51536 229.55109 227.71783
 226.01056 224.49229 223.13203 221.91376 220.80549 219.77523 218.88896 218.03970
 217.29143 216.48116 215.58890 214.96263 214.42236 214.49498 214.63293 214.21281
 212.97510 212.16046 212.38951 213.98787 217.01260 221.09843 226.04291 230.53310
 234.27232 238.43639 242.63542 246.68530 250.60811 254.43593 258.10117 261.53473
 264.79190 267.85345 270.62888 272.96964 274.67258 275.87057 277.32733 279.13974
 280.88162 282.37741 283.78690 285.16501 286.42612 287.57642 288.62592 289.57669
 290.43179 291.19330 291.85852 292.70624
 366.78100 356.34478 345.78657 334.66235 323.07514 311.27892 299.15871 286.97149
 274.69328 262.60006 250.61885 239.92963 230.06142 221.17520 213.36699 206.37877
 200.22256 195.17034 191.76213 189.81391 188.86069 188.93448 189.77926 191.09705
 192.83183 194.93662 197.20940 199.57819 202.03297 204.52276 206.62054 208.47233
 210.10811 211.26290 211.50168 211.73947 211.68625 211.40104 211.04382 210.68361
 210.31039 210.03017 209.84796 209.72174 209.65953 210.00031 210.39610 210.79488
 211.59767 212.78545 214.04524 215.83802 217.77581 219.82859 221.93338 224.02616
 226.09595 228.18973 230.29652 232.41230 234.55108 236.73287 238.99865 241.37844
 244.00922 246.27001 248.28179 250.05658 251.48336 252.61615 253.44793 253.77372
 253.82050 253.60429 252.97407 251.93186 250.54764 248.71843 246.63721 244.48000
 242.28078 240.09456 237.92435 235.77313 233.64292 231.51970 229.55549 227.72227
 226.01506 224.49684 223.13663 221.91841 220.81020 219.77998 218.89377 218.04455
 217.29634 216.48612 215.59391 214.96769 214.42747 214.51697 214.68028 214.22066
 213.20201 212.01675 212.12157 213.89996 217.03329 221.13852 226.09085 230.54175
 234.27571 238.44633 242.66060 246.74261 250.68579 254.50108 258.11813 261.48041
 264.67130 267.68652 270.45529 272.82568 274.56638 275.91745 277.49530 279.26743
 280.99814 282.45798 283.71841 285.05084 286.26724 287.35516 288.34775 289.24695
 290.05569 290.77588 291.40500 292.20679
 366.78100 356.34456 345.78612 334.66167 323.07423 311.27779 299.15735 286.96990
 274.69146 262.59802 250.61658 239.92714 230.05869 221.17225 213.36381 206.37537
 200.21893 195.16648 191.75804 189.80960 188.85616 188.92971 189.77427 191.09183
 192.82639 194.93095 197.20350 199.57206 202.02662 204.51618 206.61374 208.46529
 210.10085 211.25541 211.49397 211.73152 211.67808 211.39264 211.03520 210.67476
 210.30131 210.02087 209.83843 209.71199 209.64955 209.99010 210.38566 210.78422
 211.58678 212.77433 214.03389 215.82645 217.76401 219.81657 221.92112 224.01368
 226.08324 228.17680 230.28336 232.39891 234.53747 236.71903 238.98459 241.36414
 243.99470 246.25526 248.26682 250.04138 251.46793 252.60049 253.43205 253.75761
 253.80417 253.58772 252.95728 251.91484 250.53040 248.70095 246.61951 244.46207
 242.26263 240.07619 237.90574 235.75430 233.62386 231.50042 229.53598 227.70253
 225.99509 224.47665 223.11621 221.89776 220.78932 219.75888 218.87244 218.02300
 217.27455 216.46411 215.57167 214.94523 214.40479 214.54022 214.75305 214.15097
 213.33322 212.10634 212.08807 213.88135 217.03691 221.14322 226.15073 230.51941
 234.23344 238.41124 242.64220 246.75580 250.73451 254.55864 258.15543 261.48083
 264.60773 267.56714 270.32297 272.69135 274.50067 275.98459 277.56815 279.28128
 280.93811 282.43259 283.97849 285.44360 286.71152 287.83331 288.85675 289.78394
 290.61783 291.36044 292.00916 292.83585
 366.78100 356.34496 345.78692 334.66288 323.07584 311.27980 299.15976 286.97272
 274.69467 262.60163 250.62059 239.93155 230.06351 221.17747 213.36943 206.38139
 200.22535 195.17331 191.76527 189.81723 188.86419 188.93815 189.78310 191.10106
 192.83602 194.94098 197.21394 199.58290 202.03786 204.52782 206.62578 208.47774
 210.11370 211.26866 211.50762 211.74558 211.69254 211.40749 211.05045 210.69041
 210.31737 210.03733 209.85529 209.72925 209.66721 210.00817 210.40413 210.80309
 211.60605 212.79401 214.05397 215.84692 217.78488 219.83784 221.94280 224.03576
 226.10572 228.19968 230.30664 232.42260 234.56156 236.74352 239.00948 241.38944
 244.02040 246.28136 248.29331 250.06827 251.49523 252.62819 253.46015 253.78611
 253.83307 253.61703 252.98699 251.94495 250.56091 248.73187 246.65083 244.49379
 242.29474 240.10870 237.93866 235.78762 233.65758 231.53454 229.57050 227.73746
 226.03042 224.51238 223.15234 221.93430 220.82626 219.79622 218.91018 218.06113
 217.31309 216.50305 215.61101 214.98497 214.44493 214.60172 214.78825 214.14598
 213.34448 212.18015 212.02185 213.74716 216.96420 221.05353 226.16164 230.51001
 234.20787 238.34251 242.56786 246.72368 250.75290 254.61484 258.21198 261.51376
 264.60297 267.52350 270.25580 272.60056 274.49710 276.11343 277.71191 279.29858
 281.29861 283.34534 285.13654 286.70935 288.07047 289.27472 290.37341 291.36874
 292.26395 293.06113 293.75754 294.64502
 366.78100 356.34681 345.79062 334.66843 323.08324 311.28905 299.17086 286.98567
 274.70948 262.61829 250.63910 239.95191 230.08572 221.20153 213.39534 206.40915
 200.25496 195.20477 191.79858 189.85239 188.90120 188.97701 189.82382 191.14363
 192.88044 194.98725 197.26206 199.63287 202.08968 204.58149 206.68130 208.53511
 210.17292 211.32973 211.57054 211.81035 211.75916 211.47597 211.12078 210.76259
 210.39140 210.11321 209.93302 209.80883 209.74864 210.09145 210.48926 210.89007
 211.69488 212.88469 214.14650 215.94131 217.88112 219.93593 222.04274 224.13755
 226.20936 228.30517 230.41398 232.53179 234.67260 236.85641 239.12422 241.50603
 244.13884 246.40165 248.41546 250.19227 251.62108 252.75589 253.58970 253.91751
 253.96632 253.75213 253.12394 252.08375 250.70156 248.87437 246.79518 244.63999
 242.44280 240.25861 238.09042 235.94123 233.81304 231.69185 229.72966 227.89847
 226.19328 224.67709 223.31890 222.10271 220.99652 219.96833 219.08414 218.23695
 217.49076 216.68257 215.79238 215.16819 214.63000 214.72052 214.75400 214.13661
 213.35143 212.21193 211.91447 213.78404 216.99167 221.04538 226.16537 230.48068
 234.17195 238.29799 242.50739 246.66708 250.73427 254.63414 258.24048 261.53131
 264.59985 267.50235 270.25208 272.68295 274.54593 276.08850 277.63019 279.70270
 282.00644 284.07617 285.86722 287.43988 288.80087 290.00504 291.10361 292.09888
 292.99399 293.79108 294.48743 295.37482
 366.78100 356.34695 345.79090 334.66885 323.08380 311.28975 299.17170 286.98665
 274.71060 262.61955 250.64050 239.95345 230.08740 221.20335 213.39730 206.41125
 200.25720 195.20715 191.80110 189.85505 188.90400 188.97995 189.82690 191.14685
 192.88380 194.99075 197.26570 199.63665 202.09359 204.58554 206.68549 208.53944
 210.17739 211.33434 211.57529 211.81524 211.76419 211.48114 211.12609 210.76804
 210.39699 210.11894 209.93889 209.81484 209.75479 210.09774 210.49569 210.89664
 211.70159 212.89154 214.15349 215.94844 217.88839 219.94334 222.05029 224.14524
 226.21719 228.31314 230.42209 232.54004 234.68099 236.86494 239.13289 241.51484
 244.14779 246.41074 248.42469 250.20164 251.63059 252.76554 253.59949 253.92744
 253.97639 253.76234 253.13429 252.09424 250.71219 248.88514 246.80609 244.65104
 242.45399 240.26994 238.10189 235.95284 233.82478 231.70373 229.74168 227.91063
 226.20558 224.68953 223.33148 222.11543 221.00938 219.98133 219.09728 218.25023
 217.50418 216.69613 215.80608 215.18203 214.64398 214.72610 214.79250 214.08282
 213.29309 212.24091 212.04506 213.80676 217.03398 221.19408 226.17288 230.53958
 234.18581 238.27864 242.46120 246.58960 250.63449 254.51511 258.12222 261.42868
 264.51892 267.44937 270.20053 272.64694 274.65305 276.27362 277.67126 278.78128
 279.92023 281.53540 283.25003 284.79089 286.12439 287.30420 288.38058 289.35571
 290.23276 291.01373 291.69601 292.56549
 366.78100 356.34560 345.78820 334.66481 323.07841 311.28301 299.16361 286.97721
 274.69981 262.60742 250.62702 239.93862 230.07122 221.18582 213.37843 206.39103
 200.23563 195.18423 191.77683 189.82944 188.87704 188.95164 189.79724 191.11584
 192.85144 194.95705 197.23065 199.60025 202.05585 204.54645 206.64506 208.49766
 210.13426 211.28986 211.52946 211.76807 211.71567 211.43127 211.07487 210.71547
 210.34307 210.06368 209.88228 209.75688 209.69548 210.03708 210.43369 210.83329
 211.63689 212.82549 214.08609 215.87969 217.81830 219.87190 221.97750 224.07110
 226.14170 228.23631 230.34391 232.46051 234.60011 236.78271 239.04932 241.42992
 244.06152 246.32312 248.33572 250.11132 251.53893 252.67253 253.50513 253.83173
 253.87933 253.66394 253.03454 251.99314 250.60974 248.78134 246.70094 244.54455
 242.34615 240.16075 237.99135 235.84095 233.71156 231.58916 229.62576 227.79336
 226.08696 224.56957 223.21017 221.99277 220.88537 219.85597 218.97057 218.12218
 217.37478 216.56538 215.67398 215.04858 214.50919 214.64952 214.90613 214.13522
 213.20116 212.05322 211.87622 213.68999 216.93474 221.09981 226.12799 230.53839
 234.20705 238.28772 242.46748 246.58919 250.62187 254.49437 258.08887 261.37381
 264.44199 267.35791 270.08514 272.52548 274.55872 276.22568 277.68280 278.92270
 279.80753 280.31833 280.89548 282.09842 283.36380 284.59827 285.72455 286.74487
 287.66257 288.47974 289.19363 290.10339
 366.78100 356.34444 345.78588 334.66132 323.07376 311.27721 299.15665 286.96909
 274.69053 262.59697 250.61541 239.92585 230.05729 221.17073 213.36218 206.37362
 200.21706 195.16450 191.75594 189.80738 188.85382 188.92726 189.77170 191.08915
 192.82359 194.92803 197.20047 199.56891 202.02335 204.51279 206.61023 208.46167
 210.09712 211.25156 211.49000 211.72744 211.67388 211.38832 211.03076 210.67020
 210.29664 210.01609 209.83353 209.70697 209.64441 209.98485 210.38029 210.77873
 211.58117 212.76861 214.02806 215.82050 217.75794 219.81038 221.91482 224.00726
 226.07670 228.17014 230.27659 232.39203 234.53047 236.71191 238.97735 241.35679
 243.98723 246.24767 248.25911 250.03356 251.46000 252.59244 253.42388 253.74932
 253.79576 253.57920 252.94864 251.90608 250.52153 248.69197 246.61041 244.45285
 242.25329 240.06673 237.89617 235.74461 233.61405 231.49050 229.52594 227.69238
 225.98482 224.46626 223.10570 221.88714 220.77858 219.74802 218.86147 218.01191
 217.26335 216.45279 215.56023 214.93367 214.39311 214.59216 215.00655 214.19232
 213.12698 211.90779 211.65100 213.50192 216.79929 220.96114 226.10300 230.52039
 234.22644 238.31870 242.52385 246.66129 250.69817 254.57039 258.15610 261.41776
 264.45364 267.33600 270.04700 272.51553 274.56024 276.20667 277.61890 278.82764
 279.71060 280.16824 280.50339 281.34082 282.51224 283.61746 284.76559 285.80573
 286.74121 287.57428 288.30203 289.22943
 366.78100 356.34482 345.78663 334.66245 323.07527 311.27909 299.15890 286.97172
 274.69354 262.60036 250.61917 239.92999 230.06181 221.17563 213.36744 206.37926
 200.22308 195.17090 191.76271 189.81453 188.86135 188.93517 189.77998 191.09780
 192.83262 194.93744 197.21025 199.57907 202.03389 204.52370 206.62152 208.47334
 210.10916 211.26397 211.50279 211.74061 211.68743 211.40224 211.04506 210.68488
 210.31170 210.03151 209.84933 209.72315 209.66097 210.00178 210.39760 210.79642
 211.59924 212.78705 214.04687 215.83969 217.77750 219.83032 221.93514 224.02796
 226.09777 228.19159 230.29841 232.41423 234.55304 236.73486 239.00068 241.38050
 244.01131 246.27213 248.28395 250.05877 251.48558 252.61840 253.45022 253.77604
 253.82285 253.60667 252.97649 251.93431 250.55012 248.72094 246.63976 244.48257
 242.28339 240.09721 237.92703 235.77584 233.64566 231.52248 229.55830 227.72511
 226.01793 224.49975 223.13957 221.92138 220.81320 219.78302 218.89684 218.04765
 217.29947 216.48929 215.59711 214.97092 214.43074 214.60997 215.00774 214.29132
 213.11308 211.79488 211.51665 213.39871 216.76573 220.90686 226.14920 230.55113
 234.27933 238.37050 242.58372 246.71414 250.73784 254.59813 258.17044 261.41544
 264.43112 267.29837 270.01163 272.49377 274.58090 276.25488 277.64520 278.78098
 279.61035 280.08646 280.34171 280.96939 282.01141 283.09848 284.13547 285.07916
 285.92859 286.68503 287.34583 288.18796
 366.78100 356.34610 345.78920 334.66630 323.08040 311.28550 299.16660 286.98070
 274.70380 262.61190 250.63200 239.94410 230.07720 221.19230 213.38541 206.39851
 200.24361 195.19271 191.78581 189.83891 188.88701 188.96211 189.80821 191.12731
 192.86341 194.96951 197.24361 199.61371 202.06981 204.56091 206.66001 208.51311
 210.15021 211.30631 211.54641 211.78551 211.73361 211.44971 211.09381 210.73491
 210.36301 210.08411 209.90322 209.77832 209.71742 210.05952 210.45662 210.85672
 211.66082 212.84992 214.11102 215.90512 217.84422 219.89832 222.00442 224.09852
 226.16962 228.26472 230.37282 232.48992 234.63002 236.81312 239.08022 241.46132
 244.09342 246.35552 248.36862 250.14472 251.57282 252.70693 253.54003 253.86713
 253.91523 253.70033 253.07143 252.03053 250.64763 248.81973 246.73983 244.58393
 242.38603 240.20113 238.03223 235.88233 233.75343 231.63153 229.66863 227.83673
 226.13083 224.61393 223.25503 222.03813 220.93123 219.90233 219.01743 218.16953
 217.42263 216.61374 215.72284 215.09794 214.55904 214.67775 214.95145 214.37114
 213.24529 211.72618 211.37631 213.28398 216.72603 220.85651 226.17883 230.56247
 234.30316 238.39430 242.60884 246.72508 250.73024 254.57079 258.12201 261.34561
 264.34760 267.21478 269.94360 272.45697 274.59000 276.29828 277.68268 278.79163
 279.62387 280.08426 280.30081 280.69110 281.62045 282.67712 283.68219 284.56769
 285.40128 286.14682 286.79813 287.62814
 366.78100 356.34688 345.79076 334.66864 323.08352 311.28940 299.17128 286.98616
 274.71004 262.61892 250.63980 239.95268 230.08656 221.20244 213.39632 206.41020
 200.25608 195.20596 191.79984 189.85372 188.90260 188.97848 189.82536 191.14523
 192.88211 194.98899 197.26387 199.63475 202.09163 204.58351 206.68339 208.53727
 210.17515 211.33203 211.57291 211.81279 211.76167 211.47855 211.12343 210.76531
 210.39419 210.11607 209.93595 209.81183 209.75171 210.09459 210.49247 210.89335
 211.69823 212.88811 214.14999 215.94487 217.88475 219.93963 222.04651 224.14139
 226.21327 228.30915 230.41803 232.53591 234.67679 236.86067 239.12855 241.51043
 244.14331 246.40619 248.42007 250.19695 251.62583 252.76070 253.59458 253.92246
 253.97134 253.75722 253.12910 252.08898 250.70686 248.87974 246.80062 244.64550
 242.44838 240.26426 238.09614 235.94702 233.81890 231.69778 229.73566 227.90454
 226.19942 224.68330 223.32518 222.10906 221.00294 219.97482 219.09070 218.24358
 217.49746 216.68934 215.79922 215.17510 214.63698 214.72354 214.92612 214.40726
 213.31898 211.64589 211.26323 213.20795 216.70857 220.82419 226.17989 230.56752
 234.30821 238.40727 242.62859 246.74632 250.74550 254.57062 258.10156 261.30273
 264.29156 267.15598 269.89841 272.44705 274.61691 276.33417 277.68903 278.75302
 279.53564 279.98459 280.12720 280.50253 281.28714 282.31152 283.32080 284.25174
 285.11414 285.89844 286.58359 287.45673
 366.78100 356.34712 345.79124 334.66937 323.08449 311.29061 299.17273 286.98785
 274.71198 262.62110 250.64222 239.95534 230.08946 221.20559 213.39971 206.41383
 200.25995 195.21007 191.80419 189.85832 188.90744 188.98356 189.83068 191.15080
 192.88793 194.99505 197.27017 199.64129 202.09841 204.59054 206.69066 208.54478
 210.18290 211.34002 211.58115 211.82127 211.77039 211.48751 211.13263 210.77476
 210.40388 210.12600 209.94612 209.82224 209.76237 210.10549 210.50361 210.90473
 211.70985 212.89997 214.16210 215.95722 217.89734 219.95246 222.05958 224.15471
 226.22683 228.32295 230.43207 232.55019 234.69132 236.87544 239.14356 241.52568
 244.15880 246.42193 248.43605 250.21317 251.64229 252.77741 253.61154 253.93966
 253.98878 253.77490 253.14702 252.10715 250.72527 248.89839 246.81951 244.66463
 242.46776 240.28388 238.11600 235.96712 233.83924 231.71836 229.75649 227.92561
 226.22073 224.70485 223.34697 222.13110 221.02522 219.99734 219.11346 218.26658
 217.52071 216.71283 215.82295 215.19907 214.66119 214.73849 214.92111 214.45239
 213.34738 211.56082 211.16719 213.15123 216.69164 220.78915 226.17805 230.55084
 234.30281 238.41080 242.64197 246.76704 250.76984 254.58633 258.10461 261.28860
 264.26633 267.12595 269.87161 272.44153 274.63593 276.35513 277.68161 278.70001
 279.41467 279.78583 279.91257 280.26846 280.95758 281.96902 282.95663 283.87585
 284.70868 285.50116 286.19348 287.07574
 366.78100 356.34753 345.79205 334.67058 323.08610 311.29263 299.17515 286.99068
 274.71520 262.62473 250.64625 239.95978 230.09430 221.21083 213.40535 206.41988
 200.26640 195.21693 191.81145 189.86598 188.91550 188.99203 189.83956 191.16008
 192.89761 195.00513 197.28066 199.65218 202.10971 204.60223 206.70276 208.55728
 210.19581 211.35333 211.59486 211.83538 211.78491 211.50243 211.14796 210.79048
 210.42001 210.14253 209.96306 209.83958 209.78011 210.12364 210.52216 210.92369
 211.72921 212.91974 214.18226 215.97779 217.91831 219.97384 222.08136 224.17689
 226.24941 228.34594 230.45546 232.57399 234.71551 236.90004 239.16856 241.55109
 244.18461 246.44814 248.46267 250.24019 251.66972 252.80524 253.63977 253.96829
 254.01782 253.80434 253.17687 252.13739 250.75592 248.92944 246.85097 244.69649
 242.50002 240.31654 238.14907 236.00059 233.87312 231.75264 229.79117 227.96069
 226.25622 224.74075 223.38327 222.16780 221.06232 220.03485 219.15137 218.30490
 217.55942 216.75195 215.86247 215.23900 214.70152 214.76216 214.90541 214.49562
 213.38760 211.50633 211.07425 213.09770 216.64915 220.74117 226.15350 230.52231
 234.28404 238.40135 242.64075 246.77632 250.78696 254.59747 258.10461 261.27429
 264.24197 267.09305 269.83679 272.42184 274.63156 276.35599 277.65775 278.63199
 279.31201 279.66629 279.85553 280.25174 280.88510 281.73715 282.69946 283.61197
 284.47629 285.25745 285.93863 286.80673
 366.78100 356.34806 345.79312 334.67219 323.08825 311.29531 299.17837 286.99443
 274.71950 262.62956 250.65162 239.96568 230.10074 221.21780 213.41287 206.42793
 200.27499 195.22605 191.82111 189.87618 188.92624 189.00330 189.85136 191.17242
 192.91049 195.01855 197.29461 199.66667 202.12473 204.61779 206.71886 208.57392
 210.21298 211.37104 211.61310 211.85417 211.80423 211.52229 211.16835 210.81141
 210.44148 210.16454 209.98560 209.86266 209.80372 210.14778 210.54685 210.94891
 211.75497 212.94603 214.20909 216.00516 217.94622 220.00228 222.11034 224.20640
 226.27947 228.37653 230.48659 232.60565 234.74771 236.93277 239.20184 241.58490
 244.21896 246.48302 248.49808 250.27615 251.70621 252.84227 253.67733 254.00639
 254.05646 253.84352 253.21658 252.17764 250.79670 248.97076 246.89283 244.73889
 242.54295 240.36001 238.19307 236.04514 233.91820 231.79826 229.83732 228.00738
 226.30345 224.78851 223.43157 222.21663 221.11169 220.08475 219.20182 218.35588
 217.61094 216.80400 215.91506 215.29213 214.75519 214.79459 214.88770 214.51575
 213.43965 211.44554 210.99944 213.04533 216.59416 220.69897 226.12939 230.51669
 234.27708 238.40201 242.64690 246.79297 250.81163 254.61665 258.11328 261.27029
 264.22623 267.06418 269.80106 272.39093 274.60220 276.32242 277.59891 278.54486
 279.22754 279.62479 279.85983 280.26917 280.90323 281.73218 282.69592 283.61691
 284.47729 285.25076 285.92578 286.78598
 366.78100 356.34813 345.79325 334.67238 323.08850 311.29563 299.17876 286.99488
 274.72001 262.63014 250.65226 239.96639 230.10151 221.21864 213.41377 206.42889
 200.27602 195.22714 191.82227 189.87740 188.92752 189.00465 189.85277 191.17390
 192.91203 195.02015 197.29628 199.66841 202.12653 204.61966 206.72078 208.57591
 210.21504 211.37316 211.61529 211.85641 211.80654 211.52467 211.17079 210.81392
 210.44404 210.16717 209.98830 209.86542 209.80655 210.15068 210.54980 210.95193
 211.75805 212.94918 214.21231 216.00843 217.94956 220.00568 222.11381 224.20994
 226.28306 228.38019 230.49031 232.60944 234.75157 236.93669 239.20582 241.58895
 244.22307 246.48720 248.50232 250.28045 251.71058 252.84670 253.68183 254.01095
 254.06108 253.84821 253.22133 252.18246 250.80159 248.97571 246.89784 244.74396
 242.54809 240.36522 238.19834 236.05047 233.92359 231.80372 229.84285 228.01297
 226.30910 224.79422 223.43735 222.22248 221.11760 220.09073 219.20786 218.36198
 217.61711 216.81023 215.92136 215.29849 214.76161 214.80005 214.89082 214.49907
 213.51872 211.44441 210.92627 212.95074 216.52470 220.64990 226.12880 230.51642
 234.28490 238.41226 242.65591 246.80493 250.83264 254.63739 258.13113 261.27679
 264.21896 267.04016 269.76157 272.34622 274.54626 276.25269 277.51135 278.45544
 279.19058 279.65439 279.95251 280.36914 281.01245 281.78760 282.70233 283.63196
 284.51419 285.24954 285.91422 286.76129
 366.78100 356.34775 345.79249 334.67124 323.08699 311.29374 299.17648 286.99223
 274.71698 262.62673 250.64847 239.96222 230.09697 221.21372 213.40846 206.42321
 200.26996 195.22071 191.81545 189.87020 188.91995 188.99670 189.84444 191.16519
 192.90294 195.01068 197.28643 199.65818 202.11593 204.60867 206.70942 208.56417
 210.20292 211.36066 211.60241 211.84316 211.79291 211.51065 211.15640 210.79915
 210.42890 210.15164 209.97239 209.84914 209.78989 210.13363 210.53238 210.93413
 211.73988 212.93062 214.19337 215.98912 217.92986 219.98561 222.09336 224.18911
 226.26185 228.35860 230.46835 232.58710 234.72884 236.91359 239.18234 241.56509
 244.19883 246.46258 248.47733 250.25508 251.68482 252.82057 253.65532 253.98407
 254.03381 253.82056 253.19331 252.15405 250.77280 248.94655 246.86830 244.71404
 242.51779 240.33454 238.16729 236.01903 233.89178 231.77153 229.81028 227.98002
 226.27577 224.76052 223.40327 222.18801 221.08276 220.05551 219.17226 218.32600
 217.58075 216.77350 215.88424 215.26099 214.72374 214.78384 214.92583 214.44411
 213.62914 211.48692 210.84616 212.87115 216.44997 220.59123 226.11020 230.50278
 234.27827 238.40588 242.64494 246.79533 250.83540 254.64584 258.14474 261.28732
 264.22253 267.02795 269.73077 272.30502 274.48172 276.16107 277.39105 278.33694
 279.12845 279.66019 280.03021 280.47220 281.15143 282.04700 283.02734 283.93326
 284.74353 285.45050 286.09778 286.92419
 366.78100 356.34698 345.79096 334.66894 323.08392 311.28989 299.17187 286.98685
 274.71083 262.61981 250.64079 239.95377 230.08775 221.20373 213.39771 206.41168
 200.25766 195.20764 191.80162 189.85560 188.90458 188.98056 189.82754 191.14752
 192.88450 194.99147 197.26645 199.63743 202.09441 204.58639 206.68637 208.54035
 210.17833 211.33531 211.57628 211.81626 211.76524 211.48222 211.12720 210.76918
 210.39816 210.12014 209.94012 209.81610 209.75607 210.09905 210.49703 210.89801
 211.70299 212.89297 214.15495 215.94993 217.88991 219.94489 222.05186 224.14684
 226.21882 228.31480 230.42378 232.54176 234.68274 236.86672 239.13470 241.51667
 244.14965 246.41263 248.42661 250.20359 251.63257 252.76755 253.60153 253.92951
 253.97849 253.76446 253.13644 252.09642 250.71440 248.88738 246.80836 244.65334
 242.45632 240.27230 238.10428 235.95525 233.82723 231.70621 229.74419 227.91317
 226.20815 224.69213 223.33411 222.11809 221.01206 219.98404 219.10002 218.25300
 217.50698 216.69896 215.80894 215.18492 214.64690 214.75066 214.99580 214.35739
 213.71603 211.53891 210.71577 212.77702 216.40639 220.54634 226.05461 230.47923
 234.24928 238.37914 242.61720 246.77908 250.83292 254.65558 258.16608 261.32086
 264.25543 267.04739 269.72955 272.26956 274.40259 276.03964 277.24353 278.21060
 279.05630 279.68036 280.14255 280.63544 281.31091 282.23758 283.22394 284.12973
 284.92813 285.64127 286.28925 287.11499
 366.78100 356.34640 345.78980 334.66719 323.08159 311.28699 299.16839 286.98279
 274.70618 262.61458 250.63498 239.94738 230.08077 221.19617 213.38957 206.40297
 200.24837 195.19776 191.79116 189.84456 188.89296 188.96836 189.81475 191.13415
 192.87055 194.97695 197.25135 199.62174 202.07814 204.56954 206.66894 208.52234
 210.15973 211.31613 211.55653 211.79593 211.74432 211.46072 211.10512 210.74652
 210.37492 210.09631 209.91571 209.79111 209.73051 210.07291 210.47030 210.87070
 211.67510 212.86450 214.12590 215.92029 217.85969 219.91409 222.02049 224.11488
 226.18628 228.28168 230.39008 232.50748 234.64787 236.83127 239.09867 241.48007
 244.11247 246.37486 248.38826 250.16466 251.59306 252.72746 253.56085 253.88825
 253.93665 253.72205 253.09345 252.05284 250.67024 248.84264 246.76304 244.60743
 242.40983 240.22523 238.05663 235.90703 233.77842 231.65682 229.69422 227.86262
 226.15702 224.64041 223.28181 222.06521 220.95861 219.93001 219.04540 218.19780
 217.45120 216.64260 215.75200 215.12739 214.58879 214.72461 215.04547 214.32022
 213.72464 211.58766 210.66559 212.73160 216.36880 220.49951 225.99292 230.43777
 234.21062 238.34546 242.58611 246.75969 250.82925 254.67067 258.20337 261.37848
 264.31552 267.09140 269.74170 272.23468 274.31335 275.90063 277.08102 278.06229
 278.94507 279.64996 280.20956 280.78442 281.55972 282.55292 283.55380 284.46671
 285.25500 285.97314 286.61575 287.43466
 366.78100 356.34674 345.79047 334.66821 323.08294 311.28868 299.17041 286.98515
 274.70888 262.61762 250.63836 239.95109 230.08483 221.20056 213.39430 206.40803
 200.25377 195.20350 191.79724 189.85098 188.89971 188.97545 189.82218 191.14192
 192.87865 194.98539 197.26013 199.63086 202.08760 204.57933 206.67907 208.53280
 210.17054 211.32727 211.56801 211.80775 211.75648 211.47322 211.11795 210.75969
 210.38842 210.11016 209.92989 209.80563 209.74537 210.08810 210.48584 210.88657
 211.69131 212.88104 214.14278 215.93751 217.87725 219.93199 222.03872 224.13346
 226.20519 228.30093 230.40966 232.52740 234.66814 236.85187 239.11961 241.50134
 244.13408 246.39681 248.41055 250.18728 251.61602 252.75076 253.58449 253.91223
 253.96096 253.74670 253.11843 252.07817 250.69590 248.86864 246.78938 244.63411
 242.43685 240.25258 238.08432 235.93505 233.80679 231.68552 229.72326 227.89200
 226.18673 224.67047 223.31220 222.09594 220.98967 219.96141 219.07715 218.22988
 217.48362 216.67535 215.78509 215.16082 214.62256 214.74376 215.03011 214.36592
 213.71954 211.56772 210.60892 212.75203 216.35333 220.44005 225.91180 230.37610
 234.16019 238.29996 242.54707 246.73373 250.81578 254.67644 258.23309 261.43323
 264.37363 267.13272 269.75247 272.19604 274.22122 275.75903 276.91833 277.91745
 278.86319 279.69046 280.37460 281.01202 281.77927 282.81393 283.81461 284.71582
 285.50574 286.23026 286.87000 287.68530
 366.78100 356.34720 345.79140 334.66960 323.08480 311.29100 299.17320 286.98840
 274.71260 262.62180 250.64300 239.95620 230.09040 221.20660 213.40080 206.41500
 200.26120 195.21140 191.80560 189.85980 188.90900 188.98520 189.83240 191.15260
 192.88981 194.99701 197.27221 199.64341 202.10061 204.59281 206.69301 208.54721
 210.18541 211.34261 211.58381 211.82401 211.77321 211.49041 211.13561 210.77781
 210.40701 210.12921 209.94941 209.82561 209.76581 210.10901 210.50721 210.90841
 211.71361 212.90381 214.16601 215.96121 217.90141 219.95661 222.06381 224.15901
 226.23121 228.32741 230.43661 232.55481 234.69601 236.88021 239.14841 241.53061
 244.16381 246.42701 248.44121 250.21841 251.64761 252.78281 253.61702 253.94522
 253.99442 253.78062 253.15282 252.11302 250.73122 248.90442 246.82562 244.67082
 242.47402 240.29022 238.12242 235.97362 233.84582 231.72502 229.76322 227.93242
 226.22762 224.71182 223.35402 222.13822 221.03242 220.00462 219.12082 218.27402
 217.52822 216.72042 215.83062 215.20682 214.66902 214.77228 215.01625 214.38643
 213.74902 211.61249 210.61432 212.67133 216.29018 220.41095 225.81665 230.33011
 234.11125 238.26485 242.52133 246.72302 250.80884 254.68306 258.25827 261.48074
 264.42407 267.16788 269.76193 272.14874 274.11578 275.60880 276.75980 277.79700
 278.84503 279.80511 280.61588 281.30872 282.04315 282.99902 283.98331 284.84811
 285.65140 286.39471 287.04410 287.87164
 366.78100 356.34711 345.79123 334.66934 323.08445 311.29056 299.17268 286.98779
 274.71190 262.62102 250.64213 239.95524 230.08935 221.20547 213.39958 206.41369
 200.25980 195.20992 191.80403 189.85814 188.90726 188.98337 189.83048 191.15059
 192.88771 194.99482 197.26993 199.64105 202.09816 204.59027 206.69038 208.54450
 210.18261 211.33972 211.58083 211.82095 211.77006 211.48717 211.13229 210.77440
 210.40351 210.12562 209.94574 209.82185 209.76196 210.10508 210.50319 210.90430
 211.70941 212.89953 214.16164 215.95675 217.89686 219.95198 222.05909 224.15420
 226.22632 228.32243 230.43154 232.54965 234.69077 236.87488 239.14299 241.52511
 244.15822 246.42133 248.43544 250.21256 251.64167 252.77678 253.61089 253.93901
 253.98812 253.77423 253.14635 252.10646 250.72457 248.89768 246.81880 244.66391
 242.46702 240.28314 238.11525 235.96636 233.83847 231.71759 229.75570 227.92481
 226.21992 224.70404 223.34615 222.13026 221.02438 219.99649 219.11260 218.26571
 217.51983 216.71194 215.82205 215.19817 214.66028 214.77292 215.03326 214.36369
 213.72023 211.69995 210.63503 212.54002 216.20107 220.39586 225.74928 230.31038
 234.08733 238.25238 242.51892 246.73344 250.81960 254.69910 258.28632 261.52579
 264.46622 267.18622 269.74869 272.08743 274.00433 275.46790 276.61951 277.68695
 278.81329 279.84436 280.73447 281.51215 282.22525 283.15662 284.14883 285.03497
 285.86725 286.60843 287.25589 288.08099
 366.78100 356.34583 345.78865 334.66548 323.07930 311.28413 299.16496 286.97878
 274.70161 262.60943 250.62926 239.94108 230.07391 221.18874 213.38156 206.39439
 200.23921 195.18804 191.78087 189.83369 188.88152 188.95634 189.80217 191.12099
 192.85682 194.96265 197.23647 199.60630 202.06212 204.55295 206.65178 208.50460
 210.14143 211.29725 211.53708 211.77590 211.72373 211.43956 211.08338 210.72421
 210.35203 210.07286 209.89169 209.76651 209.70534 210.04716 210.44399 210.84382
 211.64764 212.83647 214.09729 215.89112 217.82994 219.88377 221.98960 224.08342
 226.15425 228.24907 230.35690 232.47373 234.61355 236.79638 239.06320 241.44403
 244.07585 246.33768 248.35051 250.12633 251.55416 252.68798 253.52081 253.84764
 253.89546 253.68029 253.05111 252.00994 250.62677 248.79859 246.71842 244.56224
 242.36407 240.17889 238.00972 235.85955 233.73037 231.60820 229.64502 227.81285
 226.10668 224.58950 223.23033 222.01315 220.90598 219.87680 218.99163 218.14346
 217.39628 216.58711 215.69593 215.07076 214.53159 214.71095 215.11984 214.29001
 213.72641 211.76672 210.60826 212.44145 216.13960 220.36176 225.68816 230.27826
 234.06514 238.24100 242.51804 246.74261 250.83081 254.71698 258.31723 261.56955
 264.51065 267.21420 269.74747 272.04166 273.90155 275.33154 276.45654 277.49948
 278.63239 279.71320 280.71100 281.63422 282.42758 283.36990 284.35135 285.23550
 286.04163 286.75949 287.38660 288.18579
 366.78100 356.34568 345.78837 334.66505 323.07874 311.28342 299.16411 286.97779
 274.70048 262.60816 250.62785 239.93953 230.07222 221.18690 213.37959 206.39227
 200.23696 195.18564 191.77833 189.83101 188.87870 188.95338 189.79907 191.11775
 192.85344 194.95912 197.23281 199.60249 202.05818 204.54886 206.64755 208.50023
 210.13692 211.29260 211.53229 211.77097 211.71866 211.43434 211.07802 210.71871
 210.34639 210.06708 209.88576 209.76045 209.69913 210.04082 210.43750 210.83719
 211.64087 212.82956 214.09024 215.88393 217.82261 219.87630 221.98198 224.07567
 226.14635 228.24104 230.34872 232.46541 234.60509 236.78778 239.05446 241.43515
 244.06683 246.32852 248.34120 250.11689 251.54457 252.67826 253.51094 253.83763
 253.88531 253.67000 253.04068 251.99936 250.61605 248.78773 246.70742 244.55110
 242.35279 240.16747 237.99816 235.84784 233.71853 231.59621 229.63290 227.80058
 226.09427 224.57695 223.21764 222.00032 220.89301 219.86369 218.97838 218.13006
 217.38275 216.57343 215.68212 215.05680 214.51749 214.70328 215.12666 214.31371
 213.68552 211.82159 210.66611 212.29753 216.03464 220.35895 225.65291 230.25211
 234.04227 238.21239 242.48387 246.70174 250.78505 254.68840 258.34021 261.65503
 264.62158 267.29642 269.75287 271.95544 273.74194 275.12704 276.23724 277.27167
 278.43420 279.61597 280.77603 281.83658 282.74091 283.80060 284.75690 285.46118
 286.18985 286.83875 287.40558 288.12796
 366.78100 356.34539 345.78777 334.66416 323.07754 311.28193 299.16232 286.97570
 274.69809 262.60547 250.62486 239.93625 230.06863 221.18302 213.37541 206.38779
 200.23218 195.18056 191.77295 189.82534 188.87272 188.94711 189.79249 191.11088
 192.84627 194.95165 197.22504 199.59442 202.04981 204.54020 206.63858 208.49097
 210.12736 211.28274 211.52213 211.76051 211.70790 211.42329 211.06667 210.70706
 210.33444 210.05483 209.87322 209.74760 209.68599 210.02737 210.42376 210.82315
 211.62653 212.81492 214.07530 215.86869 217.80708 219.86046 221.96585 224.05924
 226.12962 228.22401 230.33139 232.44778 234.58717 236.76955 239.03594 241.41632
 244.04771 246.30910 248.32148 250.09687 251.52425 252.65764 253.49003 253.81641
 253.86380 253.64819 253.01857 251.97696 250.59334 248.76473 246.68412 244.52750
 242.32889 240.14327 237.97366 235.82305 233.69343 231.57082 229.60720 227.77459
 226.06798 224.55036 223.19075 221.97313 220.86552 219.83591 218.95029 218.10168
 217.35407 216.54445 215.65284 215.02722 214.48761 214.65744 215.04453 214.35780
 213.64450 211.86555 210.77736 212.16992 215.91945 220.36922 225.63005 230.23564
 234.01871 238.18143 242.45073 246.66469 250.73923 254.65109 258.34738 261.71765
 264.69559 267.32730 269.70206 271.81293 273.51251 274.83719 275.92761 277.00681
 278.26495 279.56894 280.88779 282.05701 282.98865 284.08841 285.00162 285.68576
 286.37631 286.99121 287.52841 288.21298
 366.78100 356.34467 345.78635 334.66202 323.07469 311.27836 299.15804 286.97071
 274.69238 262.59906 250.61773 239.92840 230.06007 221.17375 213.36542 206.37709
 200.22077 195.16844 191.76011 189.81179 188.85846 188.93213 189.77680 191.09448
 192.82915 194.93382 197.20650 199.57517 202.02984 204.51951 206.61719 208.46886
 210.10453 211.25921 211.49788 211.73555 211.68222 211.39690 211.03957 210.67924
 210.30592 210.02559 209.84326 209.71693 209.65461 209.99528 210.39095 210.78963
 211.59230 212.77997 214.03965 215.83232 217.76999 219.82266 221.92734 224.02001
 226.08968 228.18336 230.29003 232.40570 234.54437 236.72605 238.99172 241.37139
 244.00207 246.26274 248.27441 250.04908 251.47576 252.60843 253.44010 253.76578
 253.81245 253.59612 252.96579 251.92347 250.53914 248.70981 246.62849 244.47116
 242.27183 240.08551 237.91518 235.76385 233.63352 231.51020 229.54587 227.71254
 226.00522 224.48689 223.12656 221.90823 220.79991 219.76958 218.88325 218.03393
 217.28560 216.47527 215.58294 214.95662 214.41629 214.57739 214.94101 214.36234
 213.61604 211.91106 210.88753 212.10652 215.82622 220.35641 225.59869 230.21324
 233.99675 238.16068 242.43704 246.65436 250.72171 254.63417 258.35568 261.75540
 264.73193 267.32632 269.64175 271.68713 273.31625 274.60245 275.68967 276.84903
 278.17859 279.57013 281.01581 282.20764 283.14883 284.34866 285.24722 285.96475
 286.61197 287.18832 287.69180 288.33344
 354.97500 345.04800 334.58700 324.11500 313.32600 302.53700 291.65000 280.76700
 269.93100 259.19300 248.62200 238.61700 229.08700 220.35500 212.54000 205.53500
 199.46400 194.49300 191.14300 189.19000 188.08900 188.01400 188.72400 189.90600
 191.46900 193.38200 195.40300 197.55600 199.80700 202.06000 204.28800 206.47900
 208.55200 210.37800 212.02500 213.65900 214.99800 216.11800 217.17200 218.25900
 219.49400 220.64500 221.67900 222.61400 223.54500 224.98200 226.57100 228.19000
 229.79700 231.81100 233.86500 235.97200 238.24200 240.55300 242.89900 245.25300
 247.48800 249.53500 251.36600 252.84800 254.09800 255.16700 256.02700 256.25300
 256.09500 255.54300 253.93500 252.56600 251.38400 250.24500 249.05200 247.70100
 246.01600 243.99600 241.78400 239.39300 236.81300 234.22300 231.65800 229.14400
 226.74000 224.47300 222.33500 220.32500 218.44000 216.67700 214.96200 213.47200
 212.20000 211.10800 210.26000 209.63900 209.24400 209.03100 209.05800 209.33300
 209.78400 210.62600 211.33100 212.39100 213.62500 214.84668 217.72949 219.47640
 220.32566 220.86828 220.88710 220.27371 219.43733 218.84250 219.04934 220.86203
 222.60583 225.72206 229.03064 232.61777 236.12270 239.51333 242.70767 245.68587
 248.41061 250.90679 253.19353 254.91714 256.48655 257.94920 259.39966 260.69384
 261.81714 262.77997 263.71679 264.54570 265.26305 265.89772 266.47676 267.00133
 267.47312 267.89325 268.26027 268.72800
