|-------------------------------------------------------------------------|
|   File Name : in_temp.dat
|   Subject   : temperature profiles used for initial guess atmosphere
|   File Type : input of gmtr
|   Data Type : atmospherical data
|   Author/s  : WRF-Chem
|   Date      : Fri Jul 26 15:39:24 2024
|-------------------------------------------------------------------------|

 WRF-Chem temperature
#
 values of T (K)    (8f10.5)
#
 354.97500 345.04800 334.58700 324.11500 313.32600 302.53700 291.65000 280.76700
 269.93100 259.19300 248.62200 238.61700 229.08700 220.35500 212.54000 205.53500
 199.46400 194.49300 191.14300 189.19000 188.08900 188.01400 188.72400 189.90600
 191.46900 193.38200 195.40300 197.55600 199.80700 202.06000 204.28800 206.47900
 208.55200 210.37800 212.02500 213.65900 214.99800 216.11800 217.17200 218.25900
 219.49400 220.64500 221.67900 222.61400 223.54500 224.98200 226.57100 228.19000
 229.79700 231.81100 233.86500 235.97200 238.24200 240.55300 242.89900 245.25300
 247.48800 249.53500 251.36600 252.84800 254.09800 255.16700 256.02700 256.25300
 256.09500 255.54300 253.93500 252.56600 251.38400 250.24500 249.05200 247.70100
 246.01600 243.99600 241.78400 239.39300 236.81300 234.22300 231.65800 229.14400
 226.74000 224.47300 222.33500 220.32500 218.44000 216.67700 214.96200 213.47200
 212.20000 211.10800 210.26000 209.63900 209.24400 209.03100 209.05800 209.33300
 209.78400 210.62600 211.33100 212.39100 213.62500 214.84668 217.72949 219.47640
 220.32566 220.86828 220.88710 220.27371 219.43733 218.84250 219.04934 220.86203
 222.60583 225.72206 229.03064 232.61777 236.12270 239.51333 242.70767 245.68587
 248.41061 250.90679 253.19353 254.91714 256.48655 257.94920 259.39966 260.69384
 261.81714 262.77997 263.71679 264.54570 265.26305 265.89772 266.47676 267.00133
 267.47312 267.89325 268.26027 268.72800
 366.78100 356.33500 345.76700 334.63300 323.03600 311.23000 299.10000 286.90300
 274.61500 262.51200 250.52100 239.82200 229.94400 221.04800 213.23000 206.23200
 200.06600 195.00400 191.58600 189.62800 188.66500 188.72900 189.56400 190.87200
 192.59700 194.69200 196.95500 199.31400 201.75900 204.23900 206.32700 208.16900
 209.79500 210.94000 211.16900 211.39700 211.33400 211.03900 210.67200 210.30200
 209.91900 209.62900 209.43700 209.30100 209.22900 209.56000 209.94600 210.33500
 211.12800 212.30600 213.55600 215.33900 217.26700 219.31000 221.40500 223.48800
 225.54800 227.63200 229.72900 231.83500 233.96400 236.13600 238.39200 240.76200
 243.38300 245.63400 247.63600 249.40100 250.81800 251.94100 252.76300 253.07900
 253.11600 252.89000 252.25000 251.19800 249.80400 247.96500 245.87400 243.70700
 241.49800 239.30200 237.12200 234.96100 232.82100 230.68800 228.71400 226.87100
 225.15400 223.62600 222.25600 221.02800 219.91000 218.87000 217.97400 217.11500
 216.35700 215.53700 214.63500 213.99900 213.44900 212.85855 212.01316 212.61654
 214.26826 216.08686 218.14273 220.53346 223.40855 226.78828 231.49734 235.90155
 239.42278 243.28576 247.23140 251.11907 254.80144 258.23331 261.38913 264.27520
 266.89312 269.26852 271.44504 273.08845 274.58484 275.98591 277.39845 278.65879
 279.75272 280.69038 281.56708 282.34086 283.01050 283.60295 284.14348 284.63317
 285.07358 285.46577 285.80838 286.24500
 381.81900 372.39900 361.20600 349.77600 337.62200 324.85300 311.81000 298.35300
 284.86000 271.32400 258.56100 246.30400 236.08700 226.79600 218.44800 211.29000
 205.52200 200.89400 197.38100 194.84800 193.01500 192.31500 192.25000 192.43100
 192.91200 193.53700 194.13600 194.71200 195.26200 195.83100 196.39300 196.97600
 197.60400 198.14900 198.58400 199.05700 199.69500 200.37800 201.05400 201.70800
 202.31300 202.85700 203.35500 203.86200 204.56900 205.29700 206.02600 206.98700
 208.19300 209.44100 210.96900 212.57600 214.46200 216.51300 218.63000 220.85300
 223.34100 225.96200 228.73900 231.69700 234.70600 237.70600 240.69200 243.65700
 246.73700 249.69900 252.52100 255.06300 257.29000 259.23300 260.63300 261.68000
 262.46100 262.79800 262.69100 262.22400 261.06900 259.52500 257.70700 255.50700
 253.00100 250.30200 247.39800 244.45200 241.65400 239.05400 236.73300 234.59000
 232.59500 230.72500 228.83400 226.82600 224.66600 222.38700 220.10400 217.71500
 215.45900 213.06600 210.54600 208.09300 205.35400 202.08130 196.05959 200.71215
 209.01611 216.90438 223.84126 229.78593 235.00632 240.20838 245.98943 250.68668
 254.32982 257.93487 261.55666 264.96801 268.15192 271.06452 273.76717 276.25691
 278.57680 280.74479 282.77456 284.60533 286.27232 287.81705 289.31715 290.65561
 291.81734 292.81312 293.70701 294.49387 295.17482 295.77730 296.32696 296.82492
 297.27278 297.67160 298.02000 298.46400
 399.33000 389.90700 379.81300 368.66800 357.52200 345.30100 333.07400 320.22700
 307.21600 293.84800 280.37600 267.29600 254.61000 242.98700 232.15100 221.97700
 212.67200 204.28600 197.66900 192.82100 189.48600 187.45200 186.81400 187.08900
 187.78100 189.05400 190.64800 192.54200 194.63000 196.75200 198.67100 200.15800
 201.53500 202.48700 202.97500 203.34000 203.53900 203.49700 203.38500 203.24700
 203.00500 202.78600 202.60300 202.43700 202.42600 202.88800 203.42000 203.95100
 204.89500 205.99200 207.30100 208.95800 210.73800 213.10000 215.56400 218.18000
 220.96600 223.91800 226.96100 230.09200 233.29300 236.55700 239.95500 243.53700
 246.84500 249.39000 251.54200 253.47400 255.19500 256.48400 257.43100 258.05900
 258.21200 258.04000 257.58200 256.64300 255.23900 253.50700 251.40800 249.05600
 246.57600 243.99400 241.38900 238.83000 236.34400 233.98600 231.96900 230.11800
 228.42300 226.89900 225.54800 224.29700 223.10500 221.96500 220.95800 220.11300
 219.49000 218.92000 218.32500 217.88100 217.42300 216.96366 216.35568 216.80261
 217.73415 218.28582 218.64258 219.10077 220.44626 222.53987 226.38451 230.35736
 233.59734 237.39164 241.29814 245.22796 248.98002 252.51130 255.78595 258.80109
 261.54781 264.05210 266.34239 268.04198 269.58951 271.01303 272.35754 273.55718
 274.59842 275.49092 276.28989 276.99307 277.60161 278.14001 278.63122 279.07623
 279.47646 279.83287 280.14422 280.54100
 399.73800 389.78500 379.66200 368.15100 356.64100 344.35000 331.79200 318.88800
 305.72600 292.49300 279.20900 266.73800 254.69600 244.21100 234.45700 225.43300
 217.56900 210.45100 204.30000 199.30600 195.45800 192.57600 191.02700 190.38600
 190.23900 190.53400 191.16600 191.92500 192.79500 193.76600 194.73200 195.31200
 195.80000 196.05200 196.11500 196.11500 196.03900 195.72300 195.34000 194.98900
 194.75100 194.79200 195.13300 195.59800 196.50600 198.13600 199.85800 201.56600
 204.17900 206.82300 209.89300 213.28400 216.82800 220.60500 224.38700 228.20900
 232.03200 235.82500 239.56000 243.25800 246.84500 250.20100 253.70900 257.46800
 261.53000 264.22100 266.60100 268.68100 270.32900 271.74100 272.83600 273.47400
 273.89800 274.00200 273.75700 273.28800 272.37100 271.10000 269.58900 267.77900
 265.81600 263.72100 261.39300 258.91600 256.29800 253.42300 250.33100 247.11400
 243.83700 240.52900 237.24900 233.99900 230.72800 227.51500 224.25400 220.95200
 217.62700 213.65600 210.12100 206.78900 204.01000 201.99491 199.07309 198.76551
 199.40006 200.48994 201.46112 202.31912 203.45100 204.96110 207.47502 210.85391
 213.70530 217.29629 220.99574 224.72316 228.28753 231.64854 234.68024 237.40893
 239.70644 241.60899 243.46854 245.67368 247.68154 249.52395 251.24767 252.78566
 254.12057 255.26479 256.23740 257.09036 257.82852 258.48160 259.07744 259.61723
 260.10271 260.53504 260.91270 261.39400
 399.73800 389.78500 379.66200 368.15100 356.64100 344.35000 331.79200 318.88800
 305.72600 292.49300 279.20900 266.73800 254.69600 244.21100 234.45700 225.43300
 217.56900 210.45100 204.30000 199.30600 195.45800 192.57600 191.02700 190.38600
 190.23900 190.53400 191.16600 191.92500 192.79500 193.76600 194.73200 195.31200
 195.80000 196.05200 196.11500 196.11500 196.03900 195.72300 195.34000 194.98900
 194.75100 194.79200 195.13300 195.59800 196.50600 198.13600 199.85800 201.56600
 204.17900 206.82300 209.89300 213.28400 216.82800 220.60500 224.38700 228.20900
 232.03200 235.82500 239.56000 243.25800 246.84500 250.20100 253.70900 257.46800
 261.53000 264.22100 266.60100 268.68100 270.32900 271.74100 272.83600 273.47400
 273.89800 274.00200 273.75700 273.28800 272.37100 271.10000 269.58900 267.77900
 265.81600 263.72100 261.39300 258.91600 256.29800 253.42300 250.33100 247.11400
 243.83700 240.52900 237.24900 233.99900 230.72800 227.51500 224.25400 220.95200
 217.62700 213.65600 210.12100 206.78900 204.01000 201.99491 199.07309 198.76551
 199.40006 200.48994 201.46112 202.31912 203.45100 204.96110 207.47502 210.85391
 213.70530 217.29629 220.99574 224.72316 228.28753 231.64854 234.68024 237.40893
 239.70644 241.60899 243.46854 245.67368 247.68154 249.52395 251.24767 252.78566
 254.12057 255.26479 256.23740 257.09036 257.82852 258.48160 259.07744 259.61723
 260.10271 260.53504 260.91270 261.39400
 399.33000 389.90700 379.81300 368.66800 357.52200 345.30100 333.07400 320.22700
 307.21600 293.84800 280.37600 267.29600 254.61000 242.98700 232.15100 221.97700
 212.67200 204.28600 197.66900 192.82100 189.48600 187.45200 186.81400 187.08900
 187.78100 189.05400 190.64800 192.54200 194.63000 196.75200 198.67100 200.15800
 201.53500 202.48700 202.97500 203.34000 203.53900 203.49700 203.38500 203.24700
 203.00500 202.78600 202.60300 202.43700 202.42600 202.88800 203.42000 203.95100
 204.89500 205.99200 207.30100 208.95800 210.73800 213.10000 215.56400 218.18000
 220.96600 223.91800 226.96100 230.09200 233.29300 236.55700 239.95500 243.53700
 246.84500 249.39000 251.54200 253.47400 255.19500 256.48400 257.43100 258.05900
 258.21200 258.04000 257.58200 256.64300 255.23900 253.50700 251.40800 249.05600
 246.57600 243.99400 241.38900 238.83000 236.34400 233.98600 231.96900 230.11800
 228.42300 226.89900 225.54800 224.29700 223.10500 221.96500 220.95800 220.11300
 219.49000 218.92000 218.32500 217.88100 217.42300 216.96366 216.35568 216.80261
 217.73415 218.28582 218.64258 219.10077 220.44626 222.53987 226.38451 230.35736
 233.59734 237.39164 241.29814 245.22796 248.98002 252.51130 255.78595 258.80109
 261.54781 264.05210 266.34239 268.04198 269.58951 271.01303 272.35754 273.55718
 274.59842 275.49092 276.28989 276.99307 277.60161 278.14001 278.63122 279.07623
 279.47646 279.83287 280.14422 280.54100
 381.81900 372.39900 361.20600 349.77600 337.62200 324.85300 311.81000 298.35300
 284.86000 271.32400 258.56100 246.30400 236.08700 226.79600 218.44800 211.29000
 205.52200 200.89400 197.38100 194.84800 193.01500 192.31500 192.25000 192.43100
 192.91200 193.53700 194.13600 194.71200 195.26200 195.83100 196.39300 196.97600
 197.60400 198.14900 198.58400 199.05700 199.69500 200.37800 201.05400 201.70800
 202.31300 202.85700 203.35500 203.86200 204.56900 205.29700 206.02600 206.98700
 208.19300 209.44100 210.96900 212.57600 214.46200 216.51300 218.63000 220.85300
 223.34100 225.96200 228.73900 231.69700 234.70600 237.70600 240.69200 243.65700
 246.73700 249.69900 252.52100 255.06300 257.29000 259.23300 260.63300 261.68000
 262.46100 262.79800 262.69100 262.22400 261.06900 259.52500 257.70700 255.50700
 253.00100 250.30200 247.39800 244.45200 241.65400 239.05400 236.73300 234.59000
 232.59500 230.72500 228.83400 226.82600 224.66600 222.38700 220.10400 217.71500
 215.45900 213.06600 210.54600 208.09300 205.35400 202.08130 196.05959 200.71215
 209.01611 216.90438 223.84126 229.78593 235.00632 240.20838 245.98943 250.68668
 254.32982 257.93487 261.55666 264.96801 268.15192 271.06452 273.76717 276.25691
 278.57680 280.74479 282.77456 284.60533 286.27232 287.81705 289.31715 290.65561
 291.81734 292.81312 293.70701 294.49387 295.17482 295.77730 296.32696 296.82492
 297.27278 297.67160 298.02000 298.46400
 366.78100 356.34179 345.78059 334.65338 323.06318 311.26397 299.14077 286.95056
 274.66936 262.57315 250.58895 239.89674 230.02554 221.13633 213.32513 206.33392
 200.17472 195.11951 191.70831 189.75710 188.80090 188.87169 189.71349 191.02828
 192.76008 194.86187 197.13167 199.49746 201.94926 204.43605 206.53085 208.37964
 210.01244 211.16423 211.40003 211.63482 211.57862 211.29041 210.93021 210.56700
 210.19080 209.90759 209.72239 209.59318 209.52798 209.86577 210.25857 210.65436
 211.45416 212.63895 213.89575 215.68554 217.62034 219.67013 221.77193 223.86172
 225.92852 228.01931 230.12311 232.23590 234.37170 236.55049 238.81329 241.19008
 243.81788 246.07567 248.08447 249.85626 251.28006 252.40985 253.23865 253.56144
 253.60524 253.38603 252.75283 251.70762 250.32042 248.48821 246.40401 244.24380
 242.04160 239.85239 237.67919 235.52498 233.39178 231.26557 229.29837 227.46216
 225.75195 224.23075 222.86754 221.64634 220.53513 219.50193 218.61272 217.76052
 217.00931 216.19611 215.30090 214.67170 214.12849 213.11949 210.74402 209.95235
 210.40495 210.98154 212.43469 215.28053 219.36736 224.10034 229.79849 234.89049
 238.78647 242.77374 246.99252 251.18066 254.97403 258.75549 261.62671 263.44916
 266.05505 268.81345 271.30283 273.44672 275.42316 277.21457 278.73373 280.29871
 282.01138 283.60876 285.14520 286.50415 287.68311 288.72638 289.68076 290.54630
 291.32709 292.02399 292.63730 293.44241
 366.78100 356.34165 345.78029 334.65294 323.06258 311.26323 299.13987 286.94952
 274.66817 262.57181 250.58746 239.89510 230.02375 221.13439 213.32304 206.33169
 200.17233 195.11698 191.70562 189.75427 188.79791 188.86856 189.71021 191.02485
 192.75650 194.85814 197.12779 199.49343 201.94508 204.43173 206.52637 208.37502
 210.00766 211.15931 211.39495 211.62960 211.57325 211.28489 210.92454 210.56118
 210.18483 209.90147 209.71612 209.58677 209.52141 209.85906 210.25170 210.64735
 211.44699 212.63164 213.88829 215.67793 217.61258 219.66222 221.76387 223.85351
 225.92016 228.01081 230.11445 232.22710 234.36274 236.54139 238.80403 241.18068
 243.80833 246.06597 248.07462 249.84626 251.26991 252.39955 253.22820 253.55085
 253.59449 253.37514 252.74178 251.69643 250.30907 248.47672 246.39237 244.23201
 242.02966 239.84030 237.66695 235.51259 233.37924 231.25289 229.28553 227.44918
 225.73882 224.21747 222.85411 221.63276 220.52141 219.48805 218.59870 217.74634
 216.99499 216.18163 215.28628 214.65693 214.11357 213.14064 210.84938 210.06078
 210.41277 211.03752 212.49219 215.23227 219.26384 224.02505 229.71861 234.80652
 238.69411 242.67288 246.90240 251.10995 254.91225 258.70425 261.58835 263.42599
 266.04865 268.81201 271.28415 273.37933 275.37119 277.20425 278.69180 280.21964
 281.92419 283.51651 285.04520 286.40469 287.58414 288.62750 289.58249 290.44827
 291.23010 291.92764 292.53979 293.34833
 366.78100 356.34142 345.77985 334.65227 323.06170 311.26212 299.13854 286.94797
 274.66639 262.56981 250.58524 239.89266 230.02109 221.13151 213.31993 206.32836
 200.16878 195.11321 191.70163 189.75005 188.79348 188.86390 189.70532 191.01975
 192.75117 194.85260 197.12202 199.48744 201.93887 204.42529 206.51972 208.36814
 210.00056 211.15199 211.38741 211.62183 211.56526 211.27668 210.91611 210.55253
 210.17595 209.89238 209.70680 209.57723 209.51165 209.84907 210.24150 210.63692
 211.43634 212.62077 213.87719 215.66662 217.60104 219.65046 221.75189 223.84131
 225.90774 227.99816 230.10158 232.21401 234.34943 236.52785 238.79028 241.16670
 243.79413 246.05155 248.05997 249.83140 251.25482 252.38425 253.21267 253.53509
 253.57852 253.35894 252.72536 251.67979 250.29221 248.45964 246.37506 244.21448
 242.01191 239.82233 237.64876 235.49418 233.36060 231.23403 229.26645 227.42987
 225.71930 224.19772 222.83415 221.61257 220.50099 219.46742 218.57784 217.72527
 216.97369 216.16011 215.26454 214.63496 214.09138 213.15747 210.95726 210.16534
 210.43637 211.08308 212.53786 215.20493 219.15038 223.93825 229.64482 234.73079
 238.60918 242.57877 246.81639 251.04150 254.85277 258.65170 261.54611 263.39963
 266.03680 268.80515 271.26306 273.31302 275.32022 277.19629 278.65439 280.14487
 281.83929 283.42761 284.94772 286.30576 287.48663 288.53076 289.48520 290.35016
 291.13303 291.83188 292.44458 293.25714
 366.78100 356.34120 345.77940 334.65160 323.06080 311.26100 299.13721 286.94641
 274.66461 262.56781 250.58301 239.89021 230.01841 221.12861 213.31681 206.32501
 200.16521 195.10942 191.69762 189.74582 188.78902 188.85922 189.70042 191.01462
 192.74582 194.84702 197.11622 199.48142 201.93263 204.41883 206.51303 208.36123
 209.99343 211.14463 211.37983 211.61403 211.55723 211.26843 210.90763 210.54384
 210.16704 209.88324 209.69744 209.56764 209.50184 209.83904 210.23124 210.62644
 211.42564 212.60984 213.86605 215.65525 217.58945 219.63865 221.73985 223.82905
 225.89525 227.98545 230.08865 232.20085 234.33606 236.51426 238.77646 241.15266
 243.77986 246.03706 248.04526 249.81646 251.23966 252.36886 253.19706 253.51927
 253.56247 253.34267 252.70887 251.66307 250.27527 248.44247 246.35767 244.19687
 241.99407 239.80427 237.63048 235.47568 233.34188 231.21508 229.24728 227.41048
 225.69968 224.17788 222.81408 221.59228 220.48048 219.44669 218.55689 217.70409
 216.95229 216.13849 215.24269 214.61289 214.06909 213.17311 211.06161 210.27621
 210.46442 211.12299 212.57321 215.18300 219.04207 223.84766 229.57889 234.65800
 238.52603 242.48625 246.73109 250.97284 254.79498 258.59824 261.50058 263.36957
 266.01993 268.79315 271.23874 273.24747 275.26807 277.18665 278.62109 280.07547
 281.75839 283.34229 284.85110 286.21140 287.39011 288.43561 289.39166 290.25778
 291.03922 291.73709 292.35550 293.16632
 366.78100 356.34097 345.77894 334.65091 323.05988 311.25985 299.13582 286.94479
 274.66276 262.56573 250.58070 239.88767 230.01564 221.12561 213.31358 206.32155
 200.16152 195.10549 191.69346 189.74143 188.78440 188.85437 189.69534 191.00931
 192.74028 194.84126 197.11023 199.47520 201.92617 204.41214 206.50611 208.35408
 209.98605 211.13702 211.37199 211.60596 211.54893 211.25990 210.89887 210.53484
 210.15781 209.87378 209.68775 209.55772 209.49169 209.82866 210.22063 210.61560
 211.41457 212.59854 213.85451 215.64348 217.57745 219.62642 221.72739 223.81636
 225.88233 227.97230 230.07527 232.18724 234.32221 236.50018 238.76215 241.13812
 243.76509 246.02206 248.03003 249.80100 251.22397 252.35294 253.18091 253.50288
 253.54585 253.32582 252.69180 251.64577 250.25774 248.42471 246.33968 244.17865
 241.97562 239.78559 237.61156 235.45653 233.32250 231.19547 229.22744 227.39041
 225.67938 224.15735 222.79332 221.57129 220.45926 219.42523 218.53520 217.68217
 216.93014 216.11611 215.22008 214.59005 214.04602 213.18697 211.16200 210.39360
 210.49455 211.16066 212.59824 215.15977 218.94818 223.75400 229.51724 234.58353
 238.44119 242.39368 246.64624 250.90504 254.73999 258.54678 261.45389 263.33710
 265.99725 268.77393 271.21021 273.18240 275.21426 277.17471 278.59067 280.01254
 281.68198 283.26086 284.75946 286.11838 287.29974 288.34412 289.29889 290.16528
 290.94971 291.64691 292.26456 293.08020
 366.78100 356.34072 345.77844 334.65015 323.05887 311.25859 299.13431 286.94303
 274.66074 262.56346 250.57818 239.88490 230.01262 221.12233 213.31005 206.31777
 200.15749 195.10121 191.68892 189.73664 188.77936 188.84908 189.68980 191.00351
 192.73423 194.83495 197.10367 199.46839 201.91910 204.40482 206.49854 208.34626
 209.97798 211.12869 211.36341 211.59713 211.53985 211.25057 210.88928 210.52500
 210.14772 209.86344 209.67716 209.54687 209.48059 209.81731 210.20903 210.60374
 211.40246 212.58618 213.84190 215.63062 217.56433 219.61305 221.71377 223.80249
 225.86821 227.95792 230.06064 232.17236 234.30708 236.48480 238.74651 241.12223
 243.74895 246.00567 248.01339 249.78410 251.20682 252.33554 253.16326 253.48498
 253.52769 253.30741 252.67313 251.62685 250.23857 248.40528 246.32000 244.15872
 241.95544 239.76516 237.59087 235.43559 233.30131 231.17403 229.20575 227.36846
 225.65718 224.13490 222.77062 221.54834 220.43605 219.40177 218.51149 217.65821
 216.90593 216.09164 215.19536 214.56508 214.02080 213.19910 211.26170 210.51411
 210.53075 211.19543 212.61653 215.13705 218.86398 223.65912 229.45679 234.50821
 238.35645 242.30315 246.56282 250.83894 254.68913 258.49768 261.40643 263.30228
 265.96829 268.74634 271.17560 273.11456 275.15698 277.15442 278.56131 279.95712
 281.61163 283.18442 284.67163 286.03088 287.21198 288.25717 289.21204 290.07913
 290.86334 291.56213 292.17972 292.99768
 366.78100 356.34042 345.77783 334.64925 323.05767 311.25708 299.13250 286.94092
 274.65834 262.56075 250.57517 239.88159 230.00900 221.11842 213.30584 206.31325
 200.15267 195.09609 191.68350 189.73092 188.77334 188.84276 189.68317 190.99659
 192.72701 194.82742 197.09584 199.46026 201.91067 204.39609 206.48951 208.33692
 209.96834 211.11876 211.35318 211.58659 211.52901 211.23943 210.87784 210.51326
 210.13568 209.85109 209.66451 209.53393 209.46734 209.80376 210.19518 210.58960
 211.38801 212.57143 213.82685 215.61526 217.54868 219.59710 221.69751 223.78593
 225.85135 227.94076 230.04318 232.15460 234.28902 236.46643 238.72785 241.10327
 243.72968 245.98610 247.99352 249.76393 251.18635 252.31477 253.14218 253.46360
 253.50602 253.28544 252.65085 251.60427 250.21569 248.38210 246.29652 244.13494
 241.93135 239.74077 237.56619 235.41060 233.27602 231.14844 229.17986 227.34227
 225.63069 224.10811 222.74352 221.52094 220.40836 219.37377 218.48319 217.62961
 216.87702 216.06244 215.16586 214.53528 213.99069 213.20834 211.36325 210.63232
 210.57692 211.22925 212.62624 215.11743 218.78612 223.56380 229.39317 234.43135
 238.27202 242.21419 246.48021 250.77261 254.64186 258.45279 261.36276 263.26804
 265.93372 268.71048 271.13184 273.04468 275.09396 277.12335 278.52841 279.90704
 281.54608 283.11398 284.58923 285.94742 287.12869 288.17548 289.13031 289.99710
 290.77975 291.48206 292.09750 292.92184
 366.78100 356.34007 345.77713 334.64820 323.05626 311.25533 299.13040 286.93846
 274.65553 262.55760 250.57166 239.87773 230.00479 221.11386 213.30093 206.30799
 200.14706 195.09012 191.67719 189.72426 188.76632 188.83539 189.67545 190.98852
 192.71859 194.81865 197.08672 199.45079 201.90085 204.38592 206.47898 208.32605
 209.95712 211.10718 211.34125 211.57431 211.51638 211.22645 210.86451 210.49958
 210.12164 209.83671 209.64978 209.51884 209.45191 209.78798 210.17904 210.57311
 211.37117 212.55424 213.80931 215.59737 217.53044 219.57850 221.67857 223.76664
 225.83170 227.92077 230.02284 232.13390 234.26797 236.44503 238.70610 241.08117
 243.70723 245.96330 247.97036 249.74043 251.16250 252.29056 253.11763 253.43869
 253.48076 253.25983 252.62489 251.57796 250.18903 248.35509 246.26916 244.10722
 241.90329 239.71236 237.53742 235.38149 233.24655 231.11862 229.14969 227.31175
 225.59982 224.07688 222.71195 221.48902 220.37608 219.34115 218.45022 217.59628
 216.84335 216.02841 215.13148 214.50055 213.95561 213.21487 211.46748 210.74484
 210.63957 211.25760 212.63217 215.10255 218.70386 223.46704 229.32967 234.35536
 238.18944 242.12779 246.39798 250.70641 254.59845 258.41156 261.32062 263.23322
 265.89230 268.66592 271.08078 272.97153 275.02768 277.08197 278.49698 279.86575
 281.48874 283.04605 284.50992 285.86856 287.04929 288.09525 289.05124 289.91965
 290.70258 291.40445 292.02246 292.84491
 366.78100 356.33992 345.77684 334.64776 323.05568 311.25460 299.12952 286.93744
 274.65437 262.55629 250.57021 239.87613 230.00305 221.11197 213.29889 206.30581
 200.14473 195.08765 191.67457 189.72149 188.76341 188.83233 189.67226 190.98518
 192.71510 194.81502 197.08294 199.44686 201.89678 204.38170 206.47462 208.32154
 209.95246 211.10238 211.33630 211.56922 211.51115 211.22107 210.85899 210.49391
 210.11583 209.83075 209.64367 209.51259 209.44551 209.78143 210.17235 210.56627
 211.36419 212.54711 213.80204 215.58996 217.52288 219.57080 221.67072 223.75864
 225.82356 227.91248 230.01440 232.12532 234.25924 236.43616 238.69708 241.07200
 243.69793 245.95385 247.96077 249.73069 251.15261 252.28053 253.10745 253.42837
 253.47029 253.24921 252.61413 251.56705 250.17797 248.34389 246.25782 244.09574
 241.89166 239.70058 237.52550 235.36942 233.23434 231.10626 229.13718 227.29910
 225.58702 224.06394 222.69886 221.47578 220.36270 219.32763 218.43655 217.58247
 216.82939 216.01431 215.11723 214.48615 213.94107 213.23141 211.55705 210.87001
 210.70671 211.28616 212.62790 215.08339 218.63623 223.37221 229.26305 234.27536
 238.10481 242.04129 246.31500 250.63879 254.55765 258.37259 261.27731 263.19617
 265.84482 268.61319 271.02649 272.89972 274.95889 277.03613 278.47012 279.83722
 281.43958 282.98251 284.43283 285.79214 286.97165 288.01871 288.97421 289.84225
 290.62781 291.32925 291.94836 292.76959
 366.78100 356.33984 345.77667 334.64751 323.05535 311.25418 299.12902 286.93686
 274.65369 262.55553 250.56936 239.87520 230.00204 221.11087 213.29771 206.30455
 200.14338 195.08622 191.67306 189.71989 188.76173 188.83057 189.67040 190.98324
 192.71308 194.81291 197.08075 199.44458 201.89442 204.37926 206.47209 208.31893
 209.94977 211.09960 211.33344 211.56628 211.50811 211.21795 210.85579 210.49062
 210.11246 209.82730 209.64013 209.50897 209.44180 209.77764 210.16848 210.56231
 211.36015 212.54299 213.79782 215.58566 217.51850 219.56633 221.66617 223.75401
 225.81884 227.90768 230.00952 232.12035 234.25419 236.43103 238.69186 241.06670
 243.69253 245.94837 247.95521 249.72504 251.14688 252.27472 253.10155 253.42239
 253.46423 253.24306 252.60790 251.56074 250.17157 248.33741 246.25125 244.08908
 241.88492 239.69375 237.51859 235.36243 233.22726 231.09910 229.12994 227.29177
 225.57961 224.05645 222.69128 221.46812 220.35496 219.31979 218.42863 217.57447
 216.82130 216.00614 215.10897 214.47781 213.93265 213.25061 211.64117 210.99034
 210.79916 211.31375 212.62540 215.06606 218.55238 223.27003 229.19360 234.19357
 238.01855 241.95383 246.23055 250.56960 254.52066 258.33911 261.24057 263.16321
 265.79602 268.55701 270.96939 272.82681 274.88794 276.98099 278.44153 279.81403
 281.39444 282.91965 284.35886 285.71683 286.89746 287.94302 288.89838 289.76813
 290.55292 291.25629 291.87457 292.70248
 366.78100 356.34023 345.77746 334.64869 323.05693 311.25616 299.13139 286.93962
 274.65685 262.55908 250.57332 239.87955 230.00678 221.11601 213.30324 206.31047
 200.14970 195.09294 191.68017 189.72740 188.76963 188.83886 189.67909 190.99233
 192.72256 194.82279 197.09102 199.45525 201.90548 204.39071 206.48395 208.33118
 209.96241 211.11264 211.34687 211.58010 211.52233 211.23257 210.87080 210.50603
 210.12826 209.84349 209.65672 209.52596 209.45919 209.79542 210.18665 210.58088
 211.37911 212.56234 213.81758 215.60581 217.53904 219.58727 221.68750 223.77573
 225.84097 227.93020 230.03243 232.14366 234.27789 236.45512 238.71635 241.09159
 243.71782 245.97405 247.98128 249.75151 251.17374 252.30198 253.12921 253.45044
 253.49267 253.27190 252.63713 251.59036 250.20160 248.36783 246.28206 244.12029
 241.91652 239.72575 237.55099 235.39522 233.26045 231.13268 229.16391 227.32614
 225.61437 224.09161 222.72684 221.50407 220.39130 219.35653 218.46576 217.61200
 216.85923 216.04446 215.14769 214.51692 213.97215 213.29468 211.69592 211.10776
 210.93529 211.35397 212.58984 215.03429 218.47432 223.17230 229.12662 234.10674
 237.92323 241.86002 246.14285 250.50087 254.49084 258.31644 261.21808 263.14105
 265.74783 268.49536 270.90536 272.74863 274.80948 276.91412 278.40454 279.79095
 281.35422 282.85825 284.28683 285.64423 286.82535 287.87119 288.82846 289.69464
 290.48160 291.18607 291.80371 292.62927
 366.78100 356.34061 345.77822 334.64983 323.05845 311.25806 299.13367 286.94228
 274.65989 262.56250 250.57712 239.88373 230.01134 221.12095 213.30856 206.31617
 200.15579 195.09940 191.68701 189.73462 188.77723 188.84684 189.68746 191.00107
 192.73168 194.83229 197.10090 199.46551 201.91613 204.40174 206.49535 208.34296
 209.97457 211.12518 211.35980 211.59341 211.53602 211.24663 210.88524 210.52085
 210.14346 209.85908 209.67269 209.54230 209.47591 209.81252 210.20413 210.59875
 211.39736 212.58097 213.83658 215.62519 217.55880 219.60742 221.70803 223.79664
 225.86225 227.95186 230.05447 232.16609 234.30070 236.47831 238.73992 241.11553
 243.74214 245.99876 248.00637 249.77698 251.19959 252.32820 253.15581 253.47743
 253.52004 253.29965 252.66526 251.61887 250.23048 248.39710 246.31171 244.15032
 241.94693 239.75654 237.58215 235.42676 233.29238 231.16499 229.19660 227.35921
 225.64782 224.12543 222.76105 221.53866 220.42627 219.39188 218.50149 217.64810
 216.89572 216.08133 215.18494 214.55455 214.01016 213.33809 211.75195 211.23016
 211.03363 211.42839 212.64426 214.97273 218.33174 223.04839 229.04163 234.00998
 237.83089 241.77551 246.06607 250.44569 254.47623 258.30835 261.20737 263.12286
 265.69431 268.42395 270.83093 272.66284 274.72290 276.83734 278.36206 279.77011
 281.31741 282.79926 284.21680 285.57370 286.75421 287.80048 288.75702 289.62598
 290.41107 291.11478 291.73465 292.56128
 366.78100 356.34081 345.77862 334.65043 323.05924 311.25905 299.13486 286.94367
 274.66148 262.56429 250.57910 239.88591 230.01372 221.12353 213.31134 206.31915
 200.15896 195.10277 191.69058 189.73839 188.78120 188.85101 189.69182 191.00563
 192.73644 194.83725 197.10606 199.47087 201.92168 204.40749 206.50130 208.34911
 209.98092 211.13173 211.36654 211.60035 211.54316 211.25397 210.89278 210.52859
 210.15140 209.86721 209.68102 209.55083 209.48464 209.82145 210.21326 210.60807
 211.40688 212.59069 213.84650 215.63531 217.56912 219.61793 221.71874 223.80755
 225.87336 227.96317 230.06598 232.17779 234.31260 236.49041 238.75222 241.12803
 243.75484 246.01165 248.01946 249.79027 251.21308 252.34189 253.16970 253.49151
 253.53432 253.31413 252.67994 251.63375 250.24556 248.41237 246.32718 244.16599
 241.96280 239.77261 237.59842 235.44323 233.30904 231.18185 229.21366 227.37647
 225.66528 224.14309 222.77890 221.55671 220.44452 219.41033 218.52014 217.66695
 216.91476 216.10057 215.20438 214.57419 214.03000 213.37350 211.82373 211.30927
 211.23497 211.48747 212.54950 214.85944 218.21068 222.93394 228.99460 233.96149
 237.78296 241.72620 246.00870 250.40115 254.46774 258.29803 261.17953 263.08560
 265.62460 268.33957 270.74524 272.57196 274.63519 276.75711 278.32236 279.75797
 281.28653 282.74387 284.14914 285.50470 286.68561 287.73257 288.68872 289.55737
 290.34174 291.04736 291.66916 292.49457
 366.78100 356.34075 345.77850 334.65025 323.05900 311.25875 299.13450 286.94325
 274.66100 262.56375 250.57850 239.88526 230.01301 221.12276 213.31051 206.31826
 200.15801 195.10176 191.68951 189.73726 188.78001 188.84976 189.69051 191.00426
 192.73501 194.83576 197.10451 199.46926 201.92001 204.40576 206.49951 208.34726
 209.97902 211.12977 211.36452 211.59827 211.54102 211.25177 210.89052 210.52627
 210.14902 209.86477 209.67852 209.54827 209.48202 209.81877 210.21052 210.60527
 211.40402 212.58777 213.84352 215.63227 217.56602 219.61478 221.71553 223.80428
 225.87003 227.95978 230.06253 232.17428 234.30903 236.48678 238.74853 241.12428
 243.75103 246.00778 248.01553 249.78628 251.20903 252.33778 253.16553 253.48728
 253.53003 253.30978 252.67554 251.62929 250.24104 248.40779 246.32254 244.16129
 241.95804 239.76779 237.59354 235.43829 233.30404 231.17679 229.20854 227.37129
 225.66004 224.13779 222.77354 221.55129 220.43904 219.40479 218.51454 217.66130
 216.90905 216.09480 215.19855 214.56830 214.02405 213.39813 211.92010 211.34731
 211.37666 211.53416 212.50099 214.81323 218.13043 222.86351 228.97156 233.93025
 237.74059 241.67375 245.94292 250.34244 254.44612 258.26837 261.12430 263.02908
 265.54547 268.25055 270.65866 272.48694 274.55130 276.67883 278.28986 279.75400
 281.26190 282.69562 284.08334 285.43918 286.62018 287.66574 288.62299 289.49203
 290.27649 290.98230 291.60373 292.42975
 366.78100 356.34092 345.77883 334.65075 323.05966 311.25958 299.13549 286.94441
 274.66232 262.56524 250.58015 239.88707 230.01499 221.12490 213.31282 206.32073
 200.16065 195.10456 191.69248 189.74039 188.78331 188.85322 189.69414 191.00805
 192.73897 194.83989 197.10880 199.47372 201.92463 204.41055 206.50446 208.35238
 209.98429 211.13521 211.37012 211.60404 211.54696 211.25787 210.89679 210.53270
 210.15562 209.87153 209.68545 209.55536 209.48928 209.82619 210.21811 210.61303
 211.41194 212.59586 213.85177 215.64069 217.57460 219.62352 221.72443 223.81335
 225.87926 227.96918 230.07209 232.18401 234.31893 236.49684 238.75876 241.13467
 243.76159 246.01850 248.02642 249.79733 251.22025 252.34916 253.17708 253.49900
 253.54191 253.32183 252.68774 251.64166 250.25357 248.42049 246.33540 244.17432
 241.97123 239.78115 237.60706 235.45198 233.31790 231.19081 229.22273 227.38564
 225.67456 224.15247 222.78839 221.56630 220.45422 219.42013 218.53005 217.67697
 216.92488 216.11080 215.21471 214.58463 214.04054 213.43404 212.00151 211.41267
 211.45920 211.56747 212.50789 214.80504 218.06476 222.81615 228.94514 233.88342
 237.67598 241.60048 245.86211 250.27240 254.41785 258.23245 261.06610 262.97562
 265.46948 268.16464 270.57556 272.40656 274.46994 276.60059 278.25699 279.75095
 281.23941 282.65094 284.02081 285.37656 286.55661 287.60287 288.55948 289.42850
 290.21457 290.91925 291.54172 292.37430
 366.78100 356.34133 345.77966 334.65198 323.06131 311.26164 299.13797 286.94729
 274.66562 262.56895 250.58428 239.89160 230.01993 221.13026 213.31859 206.32691
 200.16724 195.11157 191.69990 189.74822 188.79155 188.86188 189.70321 191.01753
 192.74886 194.85019 197.11952 199.48484 201.93617 204.42250 206.51683 208.36515
 209.99748 211.14881 211.38414 211.61846 211.56179 211.27312 210.91245 210.54878
 210.17210 209.88843 209.70276 209.57309 209.50741 209.84474 210.23707 210.63240
 211.43172 212.61605 213.87238 215.66171 217.59603 219.64536 221.74669 223.83602
 225.90234 227.99267 230.09600 232.20833 234.34365 236.52198 238.78431 241.16064
 243.78796 246.04529 248.05362 249.82495 251.24827 252.37760 253.20593 253.52826
 253.57158 253.35191 252.71824 251.67257 250.28490 248.45222 246.36755 244.20688
 242.00421 239.81453 237.64086 235.48619 233.35252 231.22584 229.25817 227.42150
 225.71083 224.18915 222.82548 221.60381 220.49214 219.45846 218.56879 217.71612
 216.96445 216.15077 215.25510 214.62543 214.08176 213.48221 212.06587 211.49902
 211.51360 211.61076 212.52464 214.80171 218.02731 222.77788 228.90556 233.81880
 237.59573 241.51729 245.77869 250.20363 254.39293 258.20026 261.01401 262.92630
 265.39474 268.07684 270.48950 272.32541 274.38693 276.51883 278.21884 279.74515
 281.21671 282.60605 283.96130 285.31665 286.49677 287.54205 288.49969 289.36969
 290.15808 290.86047 291.48315 292.31631
 366.78100 356.34182 345.78064 334.65345 323.06327 311.26409 299.14091 286.95073
 274.66955 262.57336 250.58918 239.89700 230.02582 221.13664 213.32546 206.33427
 200.17509 195.11991 191.70873 189.75755 188.80137 188.87218 189.71400 191.02882
 192.76064 194.86246 197.13228 199.49809 201.94991 204.43673 206.53155 208.38037
 210.01319 211.16500 211.40082 211.63564 211.57946 211.29128 210.93109 210.56791
 210.19173 209.90855 209.72337 209.59419 209.52900 209.86682 210.25964 210.65546
 211.45528 212.64010 213.89691 215.68673 217.62155 219.67137 221.77319 223.86301
 225.92982 228.02064 230.12446 232.23728 234.37310 236.55192 238.81473 241.19155
 243.81937 246.07719 248.08601 249.85783 251.28164 252.41146 253.24028 253.56310
 253.60692 253.38774 252.75455 251.70937 250.32219 248.49001 246.40583 244.24564
 242.04346 239.85428 237.68110 235.52692 233.39374 231.26755 229.30037 227.46419
 225.75401 224.23283 222.86965 221.64846 220.53728 219.50410 218.61492 217.76274
 217.01156 216.19837 215.30319 214.67401 214.13083 213.53452 212.12563 211.59216
 211.54710 211.66960 212.54488 214.79688 218.01494 222.74147 228.85500 233.74406
 237.51274 241.43700 245.69931 250.13994 254.37129 258.16846 260.95752 262.87183
 265.31613 267.98676 270.39951 272.24274 274.30365 276.43716 278.17899 279.73660
 281.19382 282.56488 283.90552 285.25989 286.44147 287.48672 288.44315 289.31393
 290.10086 290.80618 291.42630 292.25931
 366.78100 356.34230 345.78161 334.65491 323.06522 311.26652 299.14383 286.95413
 274.67344 262.57774 250.59405 239.90235 230.03166 221.14296 213.33227 206.34157
 200.18288 195.12818 191.71749 189.76679 188.81109 188.88240 189.72470 191.04001
 192.77231 194.87462 197.14492 199.51123 201.96353 204.45084 206.54614 208.39545
 210.02875 211.18106 211.41736 211.65267 211.59697 211.30928 210.94958 210.58688
 210.21119 209.92849 209.74380 209.61510 209.55041 209.88871 210.28202 210.67832
 211.47863 212.66393 213.92124 215.71154 217.64685 219.69715 221.79946 223.88976
 225.95707 228.04837 230.15267 232.26598 234.40228 236.58159 238.84489 241.22220
 243.85050 246.10881 248.11811 249.89042 251.31472 252.44503 253.27433 253.59764
 253.64194 253.42325 252.79055 251.74586 250.35916 248.52746 246.44377 244.28407
 242.08238 239.89368 237.72099 235.56729 233.43460 231.30890 229.34221 227.50651
 225.79682 224.27612 222.91343 221.69273 220.58204 219.54934 218.66065 217.80895
 217.05825 216.24556 215.35086 214.72217 214.17947 213.58633 212.18500 211.68236
 211.57166 211.73022 212.58000 214.79607 218.01440 222.70314 228.80011 233.66714
 237.43265 241.35947 245.62259 250.07776 254.34866 258.12943 260.88983 262.80679
 265.23361 267.89594 270.30792 272.16147 274.22470 276.35913 278.13977 279.72729
 281.17010 282.52493 283.85315 285.20789 286.38782 287.43381 288.39090 289.26245
 290.04877 290.75497 291.37445 292.20795
 366.78100 356.34276 345.78252 334.65628 323.06704 311.26880 299.14656 286.95732
 274.67708 262.58184 250.59860 239.90736 230.03712 221.14888 213.33864 206.34840
 200.19016 195.13592 191.72568 189.77544 188.82020 188.89195 189.73471 191.05047
 192.78323 194.88599 197.15675 199.52351 201.97627 204.46403 206.55979 208.40955
 210.04331 211.19607 211.43283 211.66859 211.61335 211.32611 210.96687 210.60463
 210.22939 209.94715 209.76291 209.63467 209.57043 209.90919 210.30295 210.69971
 211.50047 212.68623 213.94399 215.73475 217.67051 219.72127 221.82403 223.91479
 225.98255 228.07431 230.17907 232.29283 234.42959 236.60935 238.87310 241.25086
 243.87962 246.13838 248.14814 249.92090 251.34566 252.47642 253.30618 253.62994
 253.67470 253.45646 252.82422 251.77998 250.39374 248.56250 246.47926 244.32002
 242.11878 239.93054 237.75830 235.60506 233.47282 231.34758 229.38134 227.54610
 225.83686 224.31662 222.95438 221.73414 220.62390 219.59166 218.70342 217.85218
 217.10194 216.28970 215.39546 214.76722 214.22498 213.63652 212.24622 211.76273
 211.60196 211.78278 212.62909 214.80801 218.01205 222.66463 228.74696 233.59372
 237.35353 241.28139 245.54494 250.01463 254.32156 258.08112 260.81097 262.73495
 265.15030 267.80548 270.21722 272.08426 274.14996 276.28476 278.09988 279.71353
 281.14426 282.48636 283.80432 285.15793 286.33884 287.38412 288.34155 289.21185
 289.99823 290.70544 291.32874 292.15860
 366.78100 356.34318 345.78335 334.65753 323.06870 311.27088 299.14906 286.96023
 274.68041 262.58559 250.60276 239.91194 230.04211 221.15429 213.34447 206.35464
 200.19682 195.14299 191.73317 189.78335 188.82852 188.90070 189.74388 191.06005
 192.79323 194.89640 197.16758 199.53476 201.98793 204.47611 206.57229 208.42246
 210.05664 211.20981 211.44699 211.68317 211.62834 211.34152 210.98269 210.62087
 210.24605 209.96422 209.78040 209.65258 209.58875 209.92793 210.32210 210.71928
 211.52046 212.70663 213.96481 215.75598 217.69216 219.74334 221.84651 223.93769
 226.00587 228.09804 230.20322 232.31739 234.45457 236.63475 238.89892 241.27710
 243.90627 246.16545 248.17563 249.94880 251.37398 252.50516 253.33533 253.65951
 253.70468 253.48686 252.85504 251.81121 250.42539 248.59456 246.51174 244.35292
 242.15209 239.96427 237.79245 235.63962 233.50780 231.38297 229.41715 227.58233
 225.87350 224.35368 222.99186 221.77203 220.66221 219.63038 218.74256 217.89174
 217.14191 216.33009 215.43626 214.80844 214.26662 213.68468 212.30977 211.82973
 211.64326 211.83116 212.68594 214.83499 218.00558 222.62643 228.69691 233.52538
 237.27434 241.20029 245.46590 249.95122 254.28996 258.02356 260.72229 262.65692
 265.06729 267.71722 270.12695 272.00742 274.07849 276.21484 278.05893 279.69495
 281.11606 282.44730 283.75842 285.11349 286.29321 287.33795 288.29721 289.16583
 289.95395 290.66156 291.28232 292.11572
 366.78100 356.34373 345.78445 334.65918 323.07090 311.27363 299.15235 286.96408
 274.68481 262.59053 250.60826 239.91798 230.04871 221.16144 213.35216 206.36289
 200.20561 195.15234 191.74306 189.79379 188.83952 188.91224 189.75597 191.07269
 192.80642 194.91014 197.18187 199.54960 202.00332 204.49205 206.58877 208.43950
 210.07423 211.22795 211.46568 211.70240 211.64813 211.36185 211.00358 210.64231
 210.26803 209.98676 209.80348 209.67621 209.61293 209.95266 210.34739 210.74511
 211.54684 212.73356 213.99229 215.78402 217.72074 219.77247 221.87619 223.96792
 226.03664 228.12937 230.23510 232.34982 234.48755 236.66827 238.93300 241.31172
 243.94145 246.20118 248.21190 249.98563 251.41135 252.54308 253.37381 253.69853
 253.74426 253.52698 252.89571 251.85243 250.46716 248.63689 246.55461 244.39634
 242.19606 240.00879 237.83751 235.68524 233.55397 231.42969 229.46442 227.63014
 225.92187 224.40260 223.04132 221.82205 220.71277 219.68150 218.79422 217.94395
 217.19468 216.38340 215.49013 214.86285 214.32158 213.73917 212.36314 211.89435
 211.69478 211.87364 212.74722 214.87428 217.99878 222.59142 228.64934 233.46030
 237.19389 241.11594 245.38599 249.88948 254.25447 257.95627 260.62369 262.57266
 264.98572 267.63037 270.03586 271.93283 274.01044 276.14932 278.01663 279.67004
 281.08551 282.41046 283.71805 285.07224 286.25198 287.29755 288.25455 289.12506
 289.91266 290.61862 291.24164 292.07263
 366.78100 356.34428 345.78556 334.66085 323.07313 311.27641 299.15569 286.96797
 274.68925 262.59554 250.61382 239.92410 230.05538 221.16866 213.35994 206.37123
 200.21451 195.16179 191.75307 189.80435 188.85063 188.92392 189.76820 191.08548
 192.81976 194.92404 197.19632 199.56461 202.01889 204.50817 206.60545 208.45673
 210.09201 211.24630 211.48458 211.72186 211.66814 211.38242 211.02470 210.66399
 210.29027 210.00955 209.82683 209.70011 209.63739 209.97768 210.37296 210.77124
 211.57352 212.76080 214.02008 215.81237 217.74965 219.80193 221.90621 223.99849
 226.06777 228.16106 230.26734 232.38262 234.52090 236.70218 238.96746 241.34675
 243.97703 246.23731 248.24859 250.02287 251.44915 252.58144 253.41272 253.73800
 253.78428 253.56756 252.93684 251.89413 250.50941 248.67969 246.59797 244.44025
 242.24053 240.05382 237.88310 235.73138 233.60066 231.47694 229.51222 227.67851
 225.97079 224.45207 223.09135 221.87263 220.76391 219.73320 218.84648 217.99676
 217.24804 216.43732 215.54460 214.91789 214.37717 213.79340 212.41417 211.95105
 211.75475 211.92090 212.80618 214.92136 218.00032 222.55406 228.59923 233.39163
 237.11113 241.03113 245.30832 249.83099 254.21701 257.88168 260.51315 262.48065
 264.90515 267.54654 269.94479 271.85825 273.94498 276.08722 277.97299 279.64124
 281.05481 282.37601 283.68127 285.03534 286.21484 287.26047 288.21609 289.08795
 289.87439 290.58115 291.20255 292.04080
 366.78100 356.34507 345.78713 334.66320 323.07626 311.28033 299.16039 286.97346
 274.69552 262.60259 250.62166 239.93272 230.06479 221.17885 213.37092 206.38298
 200.22705 195.17511 191.76718 189.81924 188.86631 188.94038 189.78544 191.10351
 192.83857 194.94364 197.21670 199.58577 202.04083 204.53090 206.62897 208.48103
 210.11710 211.27216 211.51123 211.74929 211.69636 211.41142 211.05449 210.69455
 210.32162 210.04169 209.85975 209.73382 209.67188 210.01295 210.40901 210.80808
 211.61114 212.79921 214.05928 215.85234 217.79041 219.84347 221.94854 224.04160
 226.11167 228.20573 230.31280 232.42887 234.56793 236.75000 239.01606 241.39613
 244.02719 246.28826 248.30032 250.07539 251.50245 252.63552 253.46759 253.79365
 253.84072 253.62478 252.99485 251.95291 250.56898 248.74004 246.65911 244.50218
 242.30324 240.11731 237.94737 235.79644 233.66650 231.54357 229.57963 227.74670
 226.03977 224.52183 223.16190 221.94396 220.83603 219.80609 218.92016 218.07122
 217.32329 216.51335 215.62142 214.99549 214.45555 213.85817 212.44678 212.01346
 211.82275 211.96971 212.87558 214.96843 217.99426 222.51515 228.55302 233.31866
 237.02478 240.94383 245.23250 249.77542 254.17798 257.79865 260.39130 262.38156
 264.82773 267.46609 269.85526 271.78677 273.88376 276.03018 277.92868 279.60931
 281.02402 282.34549 283.64844 285.00278 286.18304 287.22797 288.18527 289.05386
 289.84290 290.54611 291.17157 292.00305
 366.78100 356.34605 345.78909 334.66614 323.08018 311.28523 299.16627 286.98032
 274.70336 262.61141 250.63145 239.94350 230.07654 221.19159 213.38463 206.39768
 200.24272 195.19177 191.78481 189.83786 188.88590 188.96095 189.80699 191.12604
 192.86208 194.96813 197.24217 199.61222 202.06826 204.55931 206.65835 208.51140
 210.14844 211.30449 211.54453 211.78358 211.73162 211.44767 211.09171 210.73276
 210.36081 210.08185 209.90090 209.77594 209.71499 210.05703 210.45408 210.85412
 211.65817 212.84721 214.10826 215.90230 217.84135 219.89539 222.00144 224.09548
 226.16653 228.26157 230.36962 232.48666 234.62671 236.80975 239.07680 241.45784
 244.08989 246.35193 248.36498 250.14102 251.56907 252.70311 253.53616 253.86320
 253.91125 253.69629 253.06734 252.02638 250.64343 248.81547 246.73552 244.57956
 242.38161 240.19666 238.02770 235.87775 233.74879 231.62684 229.66388 227.83193
 226.12597 224.60902 223.25006 222.03311 220.92615 219.89720 219.01224 218.16429
 217.41733 216.60838 215.71742 215.09247 214.55351 213.93213 212.46404 212.07120
 211.91325 212.02582 212.92136 215.01523 218.01550 222.47508 228.49547 233.23642
 236.93477 240.85733 245.16002 249.72466 254.13933 257.70938 260.26178 262.27759
 264.75272 267.38873 269.76541 271.71637 273.82550 275.97623 277.88361 279.57327
 280.99347 282.31989 283.62210 284.97485 286.15390 287.19910 288.15506 289.02524
 289.81198 290.51993 291.14050 291.97440
 366.78100 356.34689 345.79077 334.66866 323.08354 311.28943 299.17131 286.98620
 274.71008 262.61897 250.63985 239.95274 230.08662 221.20251 213.39639 206.41028
 200.25616 195.20605 191.79993 189.85382 188.90271 188.97859 189.82548 191.14536
 192.88225 194.98913 197.26402 199.63490 202.09179 204.58367 206.68356 208.53744
 210.17533 211.33221 211.57310 211.81298 211.76187 211.47876 211.12364 210.76553
 210.39441 210.11630 209.93618 209.81207 209.75195 210.09484 210.49272 210.89361
 211.69849 212.88838 214.15026 215.94515 217.88503 219.93992 222.04680 224.14169
 226.21358 228.30946 230.41835 232.53623 234.67712 236.86100 239.12889 241.51077
 244.14366 246.40654 248.42043 250.19731 251.62620 252.76108 253.59497 253.92285
 253.97174 253.75763 253.12951 252.08940 250.70728 248.88017 246.80105 244.64594
 242.44882 240.26471 238.09659 235.94748 233.81936 231.69825 229.73613 227.90502
 226.19990 224.68379 223.32567 222.10956 221.00345 219.97533 219.09122 218.24410
 217.49799 216.68987 215.79976 215.17564 214.63753 213.99800 212.48706 212.12128
 211.99699 212.08417 212.99170 215.06470 218.00612 222.43140 228.45285 233.16771
 236.85020 240.77420 245.09210 249.67821 254.09871 257.61066 260.12186 262.16705
 264.67825 267.31180 269.67358 271.64447 273.76801 275.92255 277.83560 279.53131
 280.96130 282.29465 283.59784 284.95193 286.13062 287.17505 288.12994 288.99979
 289.78757 290.49316 291.11673 291.94910
 366.78100 356.34752 345.79205 334.67057 323.08610 311.29262 299.17514 286.99067
 274.71519 262.62472 250.64624 239.95977 230.09429 221.21081 213.40534 206.41986
 200.26639 195.21691 191.81143 189.86596 188.91548 188.99201 189.83953 191.16006
 192.89758 195.00510 197.28063 199.65215 202.10968 204.60220 206.70272 208.55725
 210.19577 211.35330 211.59482 211.83535 211.78487 211.50239 211.14792 210.79044
 210.41997 210.14249 209.96301 209.83954 209.78006 210.12359 210.52211 210.92364
 211.72916 212.91968 214.18221 215.97773 217.91826 219.97378 222.08130 224.17683
 226.24935 228.34588 230.45540 232.57393 234.71545 236.89997 239.16850 241.55102
 244.18455 246.44807 248.46259 250.24012 251.66964 252.80517 253.63969 253.96822
 254.01774 253.80426 253.17679 252.13731 250.75584 248.92936 246.85088 244.69641
 242.49993 240.31646 238.14898 236.00051 233.87303 231.75255 229.79108 227.96060
 226.25613 224.74065 223.38317 222.16770 221.06222 220.03475 219.15127 218.30480
 217.55932 216.75184 215.86237 215.23889 214.70142 214.05237 212.51894 212.15750
 212.09236 212.11519 213.03836 215.16119 218.05460 222.39256 228.39964 233.08414
 236.75618 240.68492 245.02354 249.63385 254.05586 257.50531 259.97604 262.05411
 264.60620 267.23599 269.58023 271.57278 273.71115 275.86887 277.78354 279.48407
 280.92532 282.26855 283.57870 284.93213 286.11078 287.15533 288.11002 288.97983
 289.76657 290.47287 291.09421 291.93195
 366.78100 356.34776 345.79252 334.67128 323.08704 311.29380 299.17656 286.99232
 274.71708 262.62684 250.64860 239.96236 230.09712 221.21388 213.40864 206.42340
 200.27016 195.22092 191.81568 189.87044 188.92020 188.99695 189.84471 191.16547
 192.90323 195.01099 197.28675 199.65851 202.11627 204.60903 206.70979 208.56455
 210.20331 211.36107 211.60283 211.84359 211.79335 211.51111 211.15687 210.79963
 210.42939 210.15215 209.97291 209.84967 209.79043 210.13419 210.53295 210.93471
 211.74047 212.93123 214.19399 215.98975 217.93051 219.98627 222.09403 224.18979
 226.26255 228.35931 230.46907 232.58783 234.72959 236.91435 239.18310 241.56586
 244.19962 246.46338 248.47814 250.25590 251.68566 252.82142 253.65618 253.98494
 254.03470 253.82146 253.19422 252.15498 250.77374 248.94750 246.86926 244.71502
 242.51878 240.33554 238.16830 236.02006 233.89282 231.77258 229.81134 227.98110
 226.27686 224.76162 223.40438 222.18914 221.08390 220.05666 219.17342 218.32718
 217.58194 216.77470 215.88546 215.26222 214.72498 214.08525 212.57387 212.16428
 212.17856 212.24750 213.05788 215.16315 218.10677 222.35497 228.34845 233.01373
 236.67073 240.60234 244.96182 249.59486 254.01567 257.40048 259.82965 261.94193
 264.53690 267.16147 269.48605 271.49966 273.65479 275.81580 277.73074 279.43384
 280.88782 282.24310 283.56326 284.91687 286.09454 287.13943 288.09521 288.96454
 289.74954 290.45471 291.07901 291.90979
 366.78100 356.34786 345.79272 334.67158 323.08745 311.29431 299.17717 286.99303
 274.71789 262.62775 250.64962 239.96348 230.09834 221.21520 213.41006 206.42492
 200.27178 195.22265 191.81751 189.87237 188.92223 188.99909 189.84695 191.16782
 192.90568 195.01354 197.28940 199.66126 202.11912 204.61198 206.71285 208.56771
 210.20657 211.36443 211.60629 211.84715 211.79702 211.51488 211.16074 210.80360
 210.43346 210.15632 209.97718 209.85405 209.79491 210.13877 210.53763 210.93949
 211.74535 212.93622 214.19908 215.99494 217.93580 219.99166 222.09952 224.19538
 226.26825 228.36511 230.47497 232.59383 234.73569 236.92055 239.18941 241.57228
 244.20614 246.47000 248.48486 250.26272 251.69258 252.82845 253.66331 253.99217
 254.04203 253.82889 253.20175 252.16261 250.78148 248.95534 246.87720 244.72306
 242.52692 240.34378 238.17665 236.02851 233.90137 231.78123 229.82009 227.98995
 226.28581 224.77068 223.41354 222.19840 221.09326 220.06612 219.18298 218.33685
 217.59171 216.78457 215.89543 215.27229 214.73515 214.10931 212.63068 212.17693
 212.26190 212.36072 213.07605 215.17551 218.15862 222.32986 228.30142 232.95164
 236.58910 240.52275 244.90239 249.55753 253.96863 257.28601 259.67267 261.82513
 264.46686 267.08640 269.39105 271.42868 273.60153 275.76660 277.67935 279.38510
 280.85492 282.22324 283.55136 284.90396 286.08163 287.12537 288.08081 288.95016
 289.73566 290.44067 291.06369 291.89462
 366.78100 356.34822 345.79343 334.67265 323.08886 311.29608 299.17929 286.99551
 274.72072 262.63094 250.65315 239.96737 230.10258 221.21980 213.41502 206.43023
 200.27745 195.22866 191.82388 189.87909 188.92931 189.00652 189.85474 191.17595
 192.91417 195.02238 197.29860 199.67082 202.12903 204.62225 206.72346 208.57868
 210.21789 211.37611 211.61832 211.85954 211.80975 211.52797 211.17418 210.81740
 210.44762 210.17083 209.99205 209.86926 209.81048 210.15469 210.55391 210.95612
 211.76234 212.95355 214.21677 216.01298 217.95420 220.01042 222.11863 224.21485
 226.28806 228.38528 230.49549 232.61471 234.75692 236.94214 239.21135 241.59457
 244.22878 246.49300 248.50822 250.28643 251.71665 252.85286 253.68808 254.01729
 254.06751 253.85472 253.22794 252.18915 250.80837 248.98258 246.90480 244.75102
 242.55523 240.37245 238.20566 236.05788 233.93109 231.81131 229.85052 228.02074
 226.31695 224.80217 223.44538 222.23060 221.12582 220.09903 219.21625 218.37046
 217.62568 216.81889 215.93011 215.30732 214.77054 214.14348 212.66202 212.22180
 212.34036 212.43440 213.12006 215.22684 218.19376 222.30263 228.25758 232.88380
 236.50020 240.43858 244.84236 249.51923 253.91441 257.16180 259.50912 261.70859
 264.39923 267.01419 269.30103 271.36261 273.55490 275.72430 277.63449 279.34265
 280.82822 282.20956 283.54086 284.89264 286.07193 287.11462 288.06934 288.93686
 289.72250 290.42804 291.05103 291.88193
 366.78100 356.34877 345.79453 334.67430 323.09107 311.29883 299.18260 286.99937
 274.72513 262.63590 250.65867 239.97344 230.10920 221.22697 213.42274 206.43850
 200.28627 195.23804 191.83380 189.88957 188.94034 189.01810 189.86687 191.18864
 192.92740 195.03617 197.31294 199.68570 202.14447 204.63824 206.74001 208.59577
 210.23554 211.39431 211.63707 211.87884 211.82961 211.54837 211.19514 210.83891
 210.46967 210.19344 210.01521 209.89297 209.83474 210.17951 210.57927 210.98204
 211.78881 212.98057 214.24434 216.04111 217.98288 220.03964 222.14841 224.24518
 226.31894 228.41671 230.52748 232.64724 234.79001 236.97578 239.24554 241.62931
 244.26408 246.52884 248.54461 250.32338 251.75414 252.89091 253.72668 254.05645
 254.10721 253.89498 253.26875 252.23051 250.85028 249.02505 246.94781 244.79458
 242.59935 240.41711 238.25088 236.10365 233.97741 231.85818 229.89795 228.06871
 226.36548 224.85125 223.49502 222.28078 221.17655 220.15032 219.26808 218.42285
 217.67862 216.87238 215.98415 215.36192 214.82568 214.18483 212.67073 212.29738
 212.40996 212.48398 213.18468 215.29996 218.21892 222.26590 228.21104 232.80684
 236.40472 240.35220 244.78340 249.48120 253.85497 257.03418 259.34683 261.59732
 264.33600 266.94501 269.21527 271.30121 273.51202 275.68561 277.59216 279.30206
 280.80313 282.19702 283.53259 284.88522 286.06296 287.10638 288.06027 288.92706
 289.71295 290.41965 291.04126 291.87003
 366.78100 356.34931 345.79563 334.67594 323.09326 311.30157 299.18589 287.00320
 274.72952 262.64083 250.66415 239.97946 230.11578 221.23409 213.43041 206.44672
 200.29504 195.24735 191.84367 189.89998 188.95130 189.02961 189.87893 191.20124
 192.94056 195.04987 197.32719 199.70050 202.15982 204.65413 206.75645 208.61276
 210.25308 211.41239 211.65571 211.89802 211.84934 211.56865 211.21597 210.86028
 210.49160 210.21591 210.03823 209.91654 209.85886 210.20417 210.60449 211.00780
 211.81512 213.00743 214.27175 216.06906 218.01138 220.06869 222.17801 224.27532
 226.34964 228.44795 230.55927 232.67958 234.82290 237.00921 239.27953 241.66384
 244.29916 246.56447 248.58079 250.36010 251.79142 252.92873 253.76505 254.09536
 254.14668 253.93499 253.30930 252.27162 250.89193 249.06725 246.99056 244.83788
 242.64319 240.46151 238.29582 236.14914 234.02345 231.90477 229.94508 228.11640
 226.41371 224.90003 223.54434 222.33066 221.22697 220.20129 219.31960 218.47492
 217.73123 216.92555 216.03786 215.41618 214.88049 214.22353 212.67134 212.38702
 212.47769 212.53149 213.25375 215.37302 218.24130 222.22464 228.15817 232.72659
 236.31076 240.26898 244.72794 249.44351 253.79282 256.90549 259.18753 261.49036
 264.27304 266.87579 269.13107 271.24219 273.47226 275.65030 277.55176 279.26178
 280.77811 282.18469 283.52646 284.87997 286.05664 287.10031 288.05231 288.92075
 289.70511 290.41245 291.03305 291.86246
 366.78100 356.34969 345.79638 334.67707 323.09476 311.30345 299.18814 287.00583
 274.73252 262.64420 250.66789 239.98358 230.12027 221.23896 213.43565 206.45234
 200.30103 195.25372 191.85041 189.90710 188.95879 189.03748 189.88717 191.20986
 192.94955 195.05923 197.33692 199.71061 202.17030 204.66499 206.76768 208.62437
 210.26506 211.42475 211.66844 211.91113 211.86282 211.58251 211.23020 210.87489
 210.50658 210.23126 210.05395 209.93264 209.87533 210.22102 210.62171 211.02540
 211.83309 213.02578 214.29047 216.08816 218.03085 220.08854 222.19823 224.29592
 226.37061 228.46929 230.58098 232.70167 234.84536 237.03205 239.30274 241.68743
 244.32312 246.58881 248.60550 250.38519 251.81688 252.95457 253.79126 254.12195
 254.17364 253.96232 253.33701 252.29970 250.92039 249.09608 247.01977 244.86746
 242.67315 240.49184 238.32653 236.18022 234.05491 231.93660 229.97729 228.14898
 226.44667 224.93336 223.57804 222.36473 221.26142 220.23611 219.35480 218.51049
 217.76718 216.96187 216.07456 215.45325 214.91794 214.25105 212.67548 212.47430
 212.55417 212.58232 213.31938 215.43846 218.25795 222.18567 228.10011 232.64436
 236.21980 240.18982 244.67595 249.40546 253.72540 256.77332 259.02948 261.38669
 264.20920 266.80603 269.04895 271.18646 273.43610 275.61993 277.51791 279.22998
 280.75977 282.17786 283.52048 284.87338 286.04883 287.09174 288.04541 288.91168
 289.69629 290.40207 291.02390 291.85275
 366.78100 356.34984 345.79668 334.67752 323.09536 311.30420 299.18904 287.00688
 274.73372 262.64555 250.66939 239.98523 230.12207 221.24091 213.43775 206.45459
 200.30343 195.25627 191.85311 189.90995 188.96179 189.04063 189.89047 191.21331
 192.95315 195.06298 197.34082 199.71466 202.17450 204.66934 206.77218 208.62902
 210.26986 211.42970 211.67354 211.91638 211.86822 211.58806 211.23590 210.88074
 210.51258 210.23741 210.06025 209.93909 209.88193 210.22777 210.62861 211.03245
 211.84029 213.03313 214.29797 216.09581 218.03865 220.09649 222.20633 224.30417
 226.37901 228.47784 230.58968 232.71052 234.85436 237.04120 239.31204 241.69688
 244.33272 246.59856 248.61540 250.39524 251.82708 252.96492 253.80176 254.13260
 254.18444 253.97327 253.34811 252.31095 250.93179 249.10763 247.03147 244.87931
 242.68515 240.50399 238.33883 236.19267 234.06751 231.94935 229.99019 228.16203
 226.45987 224.94670 223.59154 222.37838 221.27522 220.25006 219.36890 218.52474
 217.78158 216.97642 216.08926 215.46810 214.93294 214.26505 212.68706 212.55832
 212.64342 212.62935 213.37947 215.49663 218.27248 222.14963 228.03711 232.56017
 236.13132 240.11505 244.62750 249.36646 253.65242 256.63815 258.87363 261.28732
 264.14392 266.73419 268.96869 271.13428 273.40298 275.59225 277.48590 279.19806
 280.73907 282.16632 283.51944 284.87326 286.05148 287.09613 288.04953 288.91684
 289.70419 290.40796 291.03107 291.85965
 366.78100 356.34987 345.79675 334.67762 323.09549 311.30437 299.18924 287.00712
 274.73399 262.64586 250.66974 239.98561 230.12248 221.24136 213.43823 206.45511
 200.30398 195.25685 191.85373 189.91060 188.96247 189.04135 189.89122 191.21410
 192.95397 195.06384 197.34172 199.71559 202.17546 204.67034 206.77321 208.63008
 210.27096 211.43083 211.67471 211.91758 211.86945 211.58933 211.23720 210.88207
 210.51395 210.23882 210.06170 209.94057 209.88344 210.22932 210.63019 211.03406
 211.84194 213.03481 214.29969 216.09756 218.04043 220.09831 222.20818 224.30605
 226.38093 228.47980 230.59168 232.71255 234.85642 237.04330 239.31417 241.69904
 244.33492 246.60079 248.61766 250.39754 251.82941 252.96729 253.80416 254.13503
 254.18691 253.97578 253.35065 252.31353 250.93440 249.11028 247.03415 244.88202
 242.68790 240.50677 238.34164 236.19552 234.07039 231.95227 229.99314 228.16501
 226.46289 224.94976 223.59463 222.38151 221.27838 220.25325 219.37213 218.52800
 217.78488 216.97975 216.09262 215.47150 214.93637 214.27118 212.69958 212.64052
 212.74460 212.67632 213.44043 215.54388 218.28166 222.11284 227.96887 232.47279
 236.04471 240.04420 244.58214 249.32477 253.57150 256.49780 258.72076 261.19101
 264.07672 266.66165 268.89340 271.08856 273.37659 275.57144 277.46173 279.17191
 280.72217 282.15451 283.51898 284.87439 286.05267 287.09662 288.05032 288.91605
 289.70255 290.40732 291.03107 291.85437
 366.78100 356.34972 345.79643 334.67715 323.09486 311.30358 299.18829 287.00601
 274.73273 262.64444 250.66816 239.98387 230.12059 221.23930 213.43602 206.45273
 200.30145 195.25417 191.85088 189.90760 188.95931 189.03803 189.88774 191.21046
 192.95018 195.05989 197.33761 199.71132 202.17104 204.66575 206.76847 208.62518
 210.26590 211.42562 211.66933 211.91205 211.86376 211.58348 211.23119 210.87591
 210.50763 210.23234 210.05506 209.93377 209.87649 210.22220 210.62292 211.02663
 211.83435 213.02707 214.29178 216.08950 218.03221 220.08993 222.19964 224.29736
 226.37208 228.47079 230.58251 232.70322 234.84694 237.03365 239.30437 241.68908
 244.32480 246.59052 248.60723 250.38695 251.81866 252.95638 253.79309 254.12381
 254.17553 253.96424 253.33896 252.30167 250.92239 249.09810 247.02182 244.86953
 242.67525 240.49397 238.32868 236.18240 234.05711 231.93883 229.97954 228.15126
 226.44898 224.93569 223.58041 222.36712 221.26384 220.23855 219.35727 218.51298
 217.76970 216.96442 216.07713 215.45585 214.92056 214.26561 212.71823 212.71951
 212.85167 212.72946 213.49951 215.58672 218.28796 222.07718 227.89828 232.38550
 235.96066 239.97835 244.54008 249.28067 253.48091 256.35257 258.57043 261.09897
 264.00626 266.58685 268.82367 271.04874 273.35718 275.56064 277.44922 279.15720
 280.71149 282.14865 283.51910 284.87418 286.05255 287.09561 288.04926 288.91577
 289.69910 290.40561 291.02603 291.85065
 366.78100 356.34966 345.79633 334.67699 323.09465 311.30332 299.18798 287.00564
 274.73231 262.64397 250.66763 239.98330 230.11996 221.23862 213.43529 206.45195
 200.30061 195.25328 191.84994 189.90660 188.95827 189.03693 189.88659 191.20926
 192.94892 195.05858 197.33625 199.70991 202.16957 204.66424 206.76690 208.62356
 210.26423 211.42389 211.66755 211.91022 211.86188 211.58154 211.22921 210.87387
 210.50553 210.23019 210.05286 209.93152 209.87418 210.21985 210.62051 211.02417
 211.83184 213.02450 214.28916 216.08683 218.02949 220.08715 222.19682 224.29448
 226.36914 228.46781 230.57947 232.70013 234.84380 237.03046 239.30112 241.68579
 244.32145 246.58711 248.60378 250.38344 251.81510 252.95277 253.78943 254.12009
 254.17176 253.96042 253.33508 252.29775 250.91841 249.09407 247.01774 244.86540
 242.67106 240.48973 238.32439 236.17805 234.05272 231.93438 229.97504 228.14671
 226.44437 224.93103 223.57570 222.36236 221.25902 220.23369 219.35235 218.50801
 217.76468 216.95934 216.07200 215.45067 214.91533 214.26347 212.72337 212.81949
 212.95026 212.77487 213.56700 215.62027 218.28386 222.04001 227.83128 232.30553
 235.88445 239.92157 244.50340 249.23653 253.38748 256.20926 258.42902 261.01215
 263.93127 266.50763 268.75684 271.01282 273.34225 275.55472 277.43951 279.14450
 280.70233 282.14471 283.52319 284.87866 286.05801 287.09967 288.05411 288.92102
 289.70203 290.40683 291.02808 291.85419
 366.78100 356.34914 345.79527 334.67541 323.09255 311.30069 299.18482 287.00196
 274.72810 262.63924 250.66237 239.97751 230.11365 221.23179 213.42792 206.44406
 200.29220 195.24434 191.84047 189.89661 188.94775 189.02589 189.87502 191.19716
 192.93630 195.04544 197.32257 199.69571 202.15485 204.64899 206.75112 208.60726
 210.24740 211.40654 211.64967 211.89181 211.84295 211.56209 211.20922 210.85336
 210.48450 210.20864 210.03077 209.90891 209.85105 210.19619 210.59632 210.99946
 211.80660 212.99874 214.26287 216.06001 218.00215 220.05929 222.16842 224.26556
 226.33970 228.43784 230.54897 232.66911 234.81225 236.99839 239.26852 241.65266
 244.28780 246.55294 248.56907 250.34821 251.77935 252.91649 253.75262 254.08276
 254.13390 253.92204 253.29617 252.25831 250.87845 249.05359 246.97672 244.82386
 242.62900 240.44714 238.28127 236.13441 234.00855 231.88969 229.92982 228.10096
 226.39810 224.88424 223.52837 222.31451 221.21065 220.18478 219.30292 218.45806
 217.71420 216.90833 216.02047 215.39861 214.86275 214.23721 212.75931 212.88669
 213.06963 212.84283 213.60805 215.64137 218.27097 222.01337 227.76550 232.21964
 235.80675 239.86745 244.46851 249.18869 253.28336 256.05820 258.29230 260.92926
 263.85529 266.43002 268.69891 270.98718 273.33780 275.56146 277.43921 279.13489
 280.69040 282.13986 283.53442 284.89365 286.07315 287.11899 288.07297 288.94321
 289.73306 290.44238 291.06638 291.89038
 366.78100 356.34949 345.79598 334.67647 323.09396 311.30245 299.18694 287.00443
 274.73092 262.64241 250.66590 239.98139 230.11788 221.23637 213.43286 206.44935
 200.29784 195.25033 191.84682 189.90331 188.95480 189.03329 189.88278 191.20527
 192.94476 195.05425 197.33174 199.70523 202.16472 204.65921 206.76170 208.61819
 210.25868 211.41817 211.66166 211.90415 211.85564 211.57513 211.22262 210.86711
 210.49860 210.22309 210.04558 209.92407 209.86656 210.21205 210.61254 211.01603
 211.82352 213.01601 214.28050 216.07799 218.02048 220.07797 222.18746 224.28495
 226.35944 228.45793 230.56942 232.68991 234.83340 237.01989 239.29038 241.67487
 244.31036 246.57585 248.59234 250.37183 251.80332 252.94081 253.77730 254.10779
 254.15928 253.94777 253.32226 252.28475 250.90524 249.08073 247.00422 244.85171
 242.65720 240.47569 238.31018 236.16367 234.03816 231.91965 229.96014 228.13163
 226.42912 224.91561 223.56010 222.34659 221.24308 220.21757 219.33606 218.49155
 217.74804 216.94253 216.05502 215.43351 214.89799 214.25423 212.73326 213.02094
 213.17722 212.90414 213.68802 215.65977 218.22850 221.95189 227.68599 232.11974
 235.72224 239.81366 244.43488 249.13657 253.16940 255.90221 258.16147 260.85336
 263.78140 266.36078 268.65573 270.97385 273.34775 275.58432 277.45236 279.13385
 280.68204 282.13461 283.55325 284.91388 286.09543 287.14169 288.09912 288.96823
 289.76245 290.47211 291.09674 291.91879
 366.78100 356.35058 345.79816 334.67974 323.09832 311.30789 299.19347 287.01205
 274.73963 262.65221 250.67679 239.99337 230.13095 221.25053 213.44811 206.46568
 200.31526 195.26884 191.86642 189.92400 188.97658 189.05616 189.90674 191.23032
 192.97090 195.08147 197.36005 199.73463 202.19521 204.69079 206.79437 208.65195
 210.29353 211.45411 211.69868 211.94226 211.89484 211.61542 211.26400 210.90958
 210.54216 210.26774 210.09132 209.97090 209.91447 210.26105 210.66263 211.06721
 211.87579 213.06937 214.33495 216.13353 218.07711 220.13569 222.24626 224.34484
 226.42042 228.52000 230.63258 232.75416 234.89874 237.08632 239.35790 241.74348
 244.38005 246.64663 248.66421 250.44479 251.87737 253.01595 253.85353 254.18511
 254.23769 254.02726 253.40284 252.36642 250.98800 249.16458 247.08916 244.93774
 242.74432 240.56390 238.39948 236.25405 234.12963 232.01221 230.05379 228.22637
 226.52495 225.01253 223.65811 222.44569 221.34327 220.31884 219.43842 218.59500
 217.85258 217.04816 216.16174 215.54132 215.00690 214.31047 212.66508 213.12997
 213.45888 212.98294 213.61888 215.58279 218.15703 221.92683 227.60770 232.02492
 235.64775 239.76968 244.40721 249.08540 253.05490 255.75311 258.04031 260.78241
 263.70615 266.29147 268.61826 270.96487 273.36203 275.61298 277.47241 279.14215
 280.68307 282.13596 283.57220 284.93405 286.11594 287.16290 288.12097 288.99130
 289.78616 290.49603 291.11978 291.94330
 366.78100 356.34995 345.79689 334.67784 323.09579 311.30473 299.18968 287.00763
 274.73457 262.64652 250.67047 239.98641 230.12336 221.24231 213.43926 206.45620
 200.30515 195.25810 191.85504 189.91199 188.96394 189.04288 189.89283 191.21578
 192.95572 195.06567 197.34362 199.71756 202.17751 204.67246 206.77540 208.63235
 210.27330 211.43324 211.67719 211.92014 211.87208 211.59203 211.23998 210.88493
 210.51687 210.24182 210.06477 209.94371 209.88666 210.23261 210.63355 211.03750
 211.84545 213.03839 214.30334 216.10129 218.04423 220.10218 222.21213 224.31007
 226.38502 228.48397 230.59591 232.71686 234.86081 237.04775 239.31870 241.70365
 244.33960 246.60554 248.62249 250.40244 251.83438 252.97233 253.80928 254.14022
 254.19217 253.98112 253.35606 252.31901 250.93996 249.11590 247.03985 244.88780
 242.69374 240.51269 238.34764 236.20158 234.07653 231.95848 229.99942 228.17137
 226.46932 224.95627 223.60121 222.38816 221.28511 220.26005 219.37900 218.53495
 217.79189 216.98684 216.09979 215.47873 214.94368 214.28056 212.71390 213.14429
 213.64914 213.12035 213.61574 215.56418 218.13774 221.82837 227.53520 231.94609
 235.58035 239.73247 244.38237 249.03070 252.93282 255.59966 257.91873 260.70874
 263.62036 266.21088 268.57520 270.95108 273.37347 275.63766 277.49036 279.14923
 280.68674 282.13757 283.59393 284.95578 286.13864 287.18512 288.14261 289.01614
 289.80753 290.52045 291.14462 291.96643
 366.78100 356.34886 345.79471 334.67457 323.09142 311.29928 299.18313 286.99999
 274.72584 262.63670 250.65955 239.97441 230.11026 221.22812 213.42397 206.43983
 200.28768 195.23954 191.83539 189.89125 188.94210 189.01996 189.86881 191.19067
 192.92952 195.03838 197.31523 199.68809 202.14694 204.64080 206.74265 208.59851
 210.23836 211.39722 211.64007 211.88193 211.83278 211.55164 211.19849 210.84235
 210.47320 210.19706 210.01891 209.89677 209.83862 210.18348 210.58333 210.98619
 211.79304 212.98490 214.24875 216.04561 217.98746 220.04432 222.15317 224.25003
 226.32388 228.42174 230.53259 232.65245 234.79530 236.98116 239.25101 241.63487
 244.26972 246.53458 248.55043 250.32929 251.76014 252.89700 253.73285 254.06271
 254.11356 253.90142 253.27527 252.23713 250.85698 249.03184 246.95469 244.80155
 242.60640 240.42426 238.25811 236.11097 233.98482 231.86568 229.90553 228.07639
 226.37324 224.85910 223.50295 222.28881 221.18466 220.15852 219.27637 218.43123
 217.68708 216.88094 215.99279 215.37065 214.83450 214.22527 212.78590 213.17242
 213.76166 213.24934 213.64848 215.58928 218.14958 221.74146 227.45686 231.86240
 235.51311 239.69736 244.35619 248.96913 252.79926 255.43900 257.79419 260.62817
 263.52267 266.11801 268.52524 270.93292 273.38065 275.65588 277.50183 279.15176
 280.68488 282.12537 283.61816 284.98224 286.16187 287.21045 288.16693 289.04053
 289.83524 290.54608 291.16837 291.99075
 366.78100 356.34852 345.79405 334.67357 323.09009 311.29762 299.18114 286.99766
 274.72318 262.63371 250.65623 239.97075 230.10628 221.22380 213.41932 206.43485
 200.28237 195.23389 191.82941 189.88494 188.93546 189.01298 189.86151 191.18303
 192.92155 195.03008 197.30660 199.67912 202.13764 204.63117 206.73269 208.58821
 210.22774 211.38626 211.62878 211.87031 211.82083 211.53935 211.18587 210.82940
 210.45992 210.18344 210.00497 209.88249 209.82401 210.16854 210.56806 210.97058
 211.77710 212.96863 214.23215 216.02867 217.97020 220.02672 222.13524 224.23177
 226.30529 228.40281 230.51333 232.63286 234.77538 236.96090 239.23043 241.61395
 244.24847 246.51300 248.52852 250.30704 251.73756 252.87409 253.70961 254.03913
 254.08966 253.87718 253.25070 252.21223 250.83175 249.00627 246.92879 244.77532
 242.57984 240.39736 238.23089 236.08341 233.95693 231.83746 229.87698 228.04750
 226.34402 224.82955 223.47307 222.25859 221.15412 220.12764 219.24516 218.39969
 217.65521 216.84873 215.96025 215.33778 214.80130 214.20898 212.80957 213.24045
 213.85043 213.35840 213.69147 215.62787 218.17810 221.66908 227.37605 231.77597
 235.44901 239.66449 244.32906 248.90231 252.65869 255.27547 257.67133 260.54358
 263.41678 266.01910 268.47113 270.91071 273.38327 275.66479 277.50092 279.14127
 280.66785 282.10983 283.64264 285.00516 286.18826 287.23416 288.19159 289.06412
 289.85812 290.57104 291.19211 292.00693
 366.78100 356.34860 345.79419 334.67379 323.09039 311.29799 299.18158 286.99818
 274.72378 262.63438 250.65697 239.97157 230.10717 221.22477 213.42036 206.43596
 200.28356 195.23515 191.83075 189.88635 188.93695 189.01454 189.86314 191.18474
 192.92334 195.03193 197.30853 199.68113 202.13972 204.63332 206.73492 208.59052
 210.23011 211.38871 211.63131 211.87291 211.82350 211.54210 211.18870 210.83230
 210.46289 210.18649 210.00809 209.88568 209.82728 210.17188 210.57148 210.97407
 211.78067 212.97227 214.23587 216.03246 217.97406 220.03066 222.13925 224.23585
 226.30945 228.40705 230.51764 232.63724 234.77984 236.96544 239.23503 241.61863
 244.25323 246.51783 248.53342 250.31202 251.74262 252.87921 253.71481 254.04441
 254.09501 253.88260 253.25620 252.21780 250.83740 249.01199 246.93459 244.78119
 242.58578 240.40338 238.23698 236.08958 233.96317 231.84377 229.88337 228.05397
 226.35056 224.83616 223.47976 222.26536 221.16095 220.13455 219.25215 218.40674
 217.66234 216.85594 215.96754 215.34513 214.80873 214.21599 212.81560 213.30664
 213.93706 213.44934 213.74785 215.66844 218.21645 221.60941 227.29875 231.69765
 235.39281 239.63664 244.30234 248.83246 252.51678 255.11450 257.55267 260.45660
 263.30563 265.91705 268.41541 270.88498 273.37994 275.66354 277.48676 279.11868
 280.64316 282.11234 283.65314 285.02011 286.20187 287.24957 288.20752 289.08002
 289.87338 290.58459 291.20639 292.02121
 366.78100 356.34862 345.79425 334.67387 323.09050 311.29812 299.18175 286.99837
 274.72399 262.63462 250.65724 239.97187 230.10749 221.22512 213.42074 206.43636
 200.28399 195.23561 191.83124 189.88686 188.93749 189.01511 189.86374 191.18536
 192.92398 195.03261 197.30923 199.68186 202.14048 204.63411 206.73573 208.59135
 210.23098 211.38960 211.63223 211.87385 211.82448 211.54310 211.18972 210.83335
 210.46397 210.18760 210.00922 209.88685 209.82847 210.17309 210.57272 210.97534
 211.78197 212.97359 214.23722 216.03384 217.97546 220.03209 222.14071 224.23734
 226.31096 228.40859 230.51921 232.63883 234.78146 236.96708 239.23671 241.62033
 244.25496 246.51958 248.53521 250.31383 251.74445 252.88108 253.71670 254.04633
 254.09695 253.88458 253.25820 252.21982 250.83945 249.01407 246.93670 244.78332
 242.58795 240.40557 238.23919 236.09182 233.96544 231.84607 229.88569 228.05632
 226.35294 224.83856 223.48219 222.26781 221.16344 220.13706 219.25469 218.40931
 217.66493 216.85856 215.97018 215.34781 214.81143 214.22363 212.83488 213.34602
 214.02798 213.53177 213.81633 215.70926 218.24957 221.56128 227.22461 231.62978
 235.34499 239.61354 244.27565 248.76071 252.37498 254.95895 257.44095 260.36917
 263.19260 265.81638 268.36047 270.85776 273.37183 275.65372 277.46536 279.09021
 280.61859 282.11618 283.65906 285.02545 286.20773 287.25461 288.21225 289.08450
 289.87592 290.58780 291.20773 292.01761
 366.78100 356.34856 345.79413 334.67369 323.09026 311.29782 299.18139 286.99795
 274.72352 262.63408 250.65665 239.97121 230.10677 221.22434 213.41990 206.43547
 200.28303 195.23460 191.83016 189.88573 188.93629 189.01385 189.86242 191.18398
 192.92255 195.03111 197.30768 199.68024 202.13881 204.63237 206.73394 208.58950
 210.22906 211.38763 211.63019 211.87176 211.82232 211.54089 211.18745 210.83102
 210.46158 210.18514 210.00671 209.88427 209.82584 210.17040 210.56997 210.97253
 211.77910 212.97066 214.23423 216.03079 217.97235 220.02892 222.13748 224.23405
 226.30761 228.40518 230.51574 232.63531 234.77787 236.96343 239.23300 241.61656
 244.25113 246.51569 248.53126 250.30982 251.74039 252.87695 253.71252 254.04208
 254.09264 253.88021 253.25377 252.21534 250.83490 249.00947 246.93203 244.77860
 242.58316 240.40072 238.23429 236.08685 233.96042 231.84098 229.88055 228.05111
 226.34768 224.83324 223.47681 222.26237 221.15793 220.13150 219.24906 218.40363
 217.65919 216.85276 215.96432 215.34189 214.80545 214.22925 212.86792 213.36623
 214.11189 213.61601 213.89040 215.75592 218.27133 221.52269 227.15219 231.56566
 235.30020 239.59087 244.24594 248.68465 252.23251 254.80785 257.33444 260.28214
 263.08252 265.72067 268.30807 270.82962 273.35965 275.63593 277.43500 279.05313
 280.58884 282.11292 283.65662 285.02237 286.20401 287.24945 288.20636 289.07693
 289.86737 290.57489 291.19336 291.99924
 366.78100 356.34857 345.79414 334.67371 323.09029 311.29786 299.18143 286.99800
 274.72357 262.63414 250.65671 239.97129 230.10686 221.22443 213.42000 206.43557
 200.28314 195.23471 191.83028 189.88586 188.93643 189.01400 189.86257 191.18414
 192.92271 195.03128 197.30786 199.68043 202.13900 204.63257 206.73414 208.58971
 210.22928 211.38786 211.63043 211.87200 211.82257 211.54114 211.18771 210.83128
 210.46185 210.18543 210.00700 209.88457 209.82614 210.17071 210.57028 210.97285
 211.77943 212.97100 214.23457 216.03114 217.97271 220.02928 222.13785 224.23443
 226.30800 228.40557 230.51614 232.63571 234.77828 236.96385 239.23342 241.61700
 244.25157 246.51614 248.53171 250.31028 251.74085 252.87742 253.71300 254.04257
 254.09314 253.88071 253.25428 252.21585 250.83542 249.01000 246.93257 244.77914
 242.58371 240.40128 238.23485 236.08742 233.96100 231.84157 229.88114 228.05171
 226.34828 224.83385 223.47742 222.26299 221.15857 220.13214 219.24971 218.40428
 217.65985 216.85342 215.96499 215.34257 214.80614 214.24026 212.90334 213.38284
 214.18115 213.70457 213.96361 215.81143 218.28633 221.49420 227.08458 231.50455
 235.25775 239.56731 244.21167 248.60353 252.09010 254.66441 257.23615 260.19739
 262.97519 265.62933 268.25558 270.79724 273.33789 275.60321 277.39124 279.00925
 280.55588 282.09854 283.64108 285.00461 286.18369 287.22781 288.18277 289.04877
 289.83646 290.54083 291.15683 291.95471
 366.78100 356.34867 345.79434 334.67401 323.09069 311.29836 299.18203 286.99870
 274.72437 262.63504 250.65771 239.97239 230.10806 221.22573 213.42140 206.43707
 200.28474 195.23641 191.83209 189.88776 188.93843 189.01610 189.86477 191.18644
 192.92512 195.03379 197.31046 199.68313 202.14180 204.63547 206.73714 208.59282
 210.23249 211.39116 211.63383 211.87550 211.82617 211.54484 211.19152 210.83519
 210.46586 210.18953 210.01120 209.88887 209.83054 210.17522 210.57489 210.97756
 211.78423 212.97590 214.23957 216.03624 217.97792 220.03459 222.14326 224.23993
 226.31360 228.41127 230.52195 232.64162 234.78429 236.96996 239.23963 241.62330
 244.25797 246.52265 248.53832 250.31699 251.74766 252.88433 253.72000 254.04967
 254.10035 253.88802 253.26169 252.22336 250.84303 249.01770 246.94037 244.78705
 242.59172 240.40939 238.24306 236.09573 233.96940 231.85007 229.88975 228.06042
 226.35709 224.84276 223.48643 222.27210 221.16778 220.14145 219.25912 218.41379
 217.66946 216.86313 215.97480 215.35248 214.81615 214.25743 212.93741 213.39474
 214.23727 213.79959 214.03775 215.86940 218.29796 221.47018 227.02057 231.44815
 235.21854 239.54245 244.17274 248.51878 251.95296 254.52913 257.14529 260.11566
 262.87659 265.54639 268.20486 270.76093 273.30338 275.54916 277.32281 278.93777
 280.50537 282.07803 283.61453 284.97610 286.15158 287.19086 288.14209 289.00739
 289.79013 290.49326 291.10709 291.89685
 366.78100 356.34879 345.79457 334.67436 323.09114 311.29893 299.18271 286.99950
 274.72529 262.63607 250.65886 239.97364 230.10943 221.22721 213.42300 206.43879
 200.28657 195.23836 191.83414 189.88993 188.94072 189.01850 189.86729 191.18907
 192.92786 195.03664 197.31343 199.68622 202.14500 204.63879 206.74057 208.59636
 210.23614 211.39493 211.63772 211.87950 211.83029 211.54907 211.19586 210.83964
 210.47043 210.19422 210.01600 209.89379 209.83557 210.18036 210.58014 210.98293
 211.78972 212.98150 214.24529 216.04207 217.98386 220.04065 222.14943 224.24622
 226.32000 228.41779 230.52857 232.64836 234.79115 236.97693 239.24672 241.63050
 244.26529 246.53007 248.54586 250.32465 251.75543 252.89222 253.72800 254.05779
 254.10857 253.89636 253.27015 252.23193 250.85172 249.02650 246.94929 244.79607
 242.60086 240.41865 238.25243 236.10522 233.97900 231.85979 229.89958 228.07036
 226.36715 224.85293 223.49672 222.28250 221.17829 220.15208 219.26986 218.42465
 217.68043 216.87422 215.98600 215.36379 214.82758 214.27562 212.97156 213.39278
 214.28082 213.89261 214.11777 215.93372 218.31053 221.45186 226.96425 231.39926
 235.18462 239.51660 244.12860 248.43051 251.81418 254.40578 257.06113 260.03787
 262.77872 265.46542 268.14795 270.71613 273.26056 275.48853 277.25882 278.89633
 280.47321 282.03973 283.56592 284.91934 286.08575 287.12418 288.07510 288.94171
 289.73312 290.44415 291.06192 291.85764
 366.78100 356.34894 345.79489 334.67483 323.09178 311.29972 299.18367 287.00061
 274.72656 262.63750 250.66045 239.97539 230.11134 221.22928 213.42523 206.44117
 200.28912 195.24106 191.83701 189.89295 188.94390 189.02184 189.87079 191.19273
 192.93168 195.04062 197.31757 199.69051 202.14946 204.64340 206.74535 208.60129
 210.24124 211.40018 211.64313 211.88507 211.83602 211.55496 211.20191 210.84585
 210.47680 210.20074 210.02269 209.90063 209.84258 210.18752 210.58747 210.99041
 211.79736 212.98930 214.25325 216.05019 217.99214 220.04908 222.15802 224.25497
 226.32891 228.42686 230.53780 232.65775 234.80069 236.98664 239.25658 241.64053
 244.27547 246.54042 248.55636 250.33531 251.76625 252.90320 253.73914 254.06909
 254.12003 253.90798 253.28192 252.24387 250.86381 249.03876 246.96170 244.80865
 242.61359 240.43154 238.26548 236.11843 233.99237 231.87332 229.91326 228.08421
 226.38115 224.86710 223.51104 222.29699 221.19293 220.16688 219.28482 218.43977
 217.69571 216.88966 216.00160 215.37955 214.84349 214.29521 212.99983 213.38315
 214.32855 213.99522 214.21014 216.00427 218.32578 221.43808 226.90565 231.35257
 235.15080 239.48764 244.07629 248.33472 251.69037 254.28644 256.98224 259.96066
 262.70126 265.40250 268.10602 270.67282 273.19714 275.38968 277.14948 278.77036
 280.38904 282.00577 283.51389 284.86993 286.03320 287.06970 288.01910 288.88571
 289.67773 290.38281 290.98380 291.74121
 366.78100 356.34813 345.79325 334.67238 323.08850 311.29563 299.17875 286.99488
 274.72000 262.63013 250.65225 239.96638 230.10150 221.21863 213.41375 206.42888
 200.27601 195.22713 191.82226 189.87738 188.92751 189.00463 189.85276 191.17388
 192.91201 195.02013 197.29626 199.66838 202.12651 204.61964 206.72076 208.57589
 210.21501 211.37314 211.61526 211.85639 211.80651 211.52464 211.17076 210.81389
 210.44401 210.16714 209.98826 209.86539 209.80652 210.15064 210.54977 210.95189
 211.75802 212.94914 214.21227 216.00839 217.94952 220.00564 222.11377 224.20989
 226.28302 228.38015 230.49027 232.60940 234.75152 236.93665 239.20577 241.58890
 244.22302 246.48715 248.50227 250.28040 251.71052 252.84665 253.68177 254.01090
 254.06103 253.84815 253.22128 252.18240 250.80153 248.97565 246.89778 244.74390
 242.54803 240.36515 238.19828 236.05040 233.92353 231.80366 229.84278 228.01291
 226.30903 224.79416 223.43728 222.22241 221.11753 220.09066 219.20778 218.36191
 217.61703 216.81016 215.92128 215.29841 214.76154 214.26144 213.07996 213.40204
 214.32832 214.05020 214.29196 216.07619 218.34270 221.43584 226.86391 231.33223
 235.13013 239.46402 244.02647 248.24599 251.55064 254.19739 256.92166 259.90121
 262.61249 265.32935 268.02982 270.59589 273.11185 275.27612 277.03152 278.73758
 280.36792 281.90665 283.41983 284.74844 285.88385 286.89423 287.83075 288.69785
 289.49338 290.19174 290.78644 291.54559
 366.78100 356.34587 345.78874 334.66562 323.07949 311.28436 299.16523 286.97911
 274.70198 262.60985 250.62972 239.94159 230.07447 221.18934 213.38221 206.39508
 200.23996 195.18883 191.78170 189.83457 188.88244 188.95732 189.80319 191.12206
 192.85793 194.96381 197.23768 199.60755 202.06342 204.55430 206.65317 208.50604
 210.14291 211.29878 211.53866 211.77753 211.72540 211.44127 211.08515 210.72602
 210.35389 210.07476 209.89363 209.76851 209.70738 210.04925 210.44612 210.84600
 211.64987 212.83874 214.09961 215.89348 217.83236 219.88623 221.99210 224.08597
 226.15685 228.25172 230.35959 232.47646 234.61633 236.79921 239.06608 241.44695
 244.07882 246.34070 248.35357 250.12944 251.55731 252.69118 253.52406 253.85093
 253.89880 253.68367 253.05455 252.01342 250.63029 248.80216 246.72204 244.56591
 242.36778 240.18265 238.01352 235.86340 233.73427 231.61214 229.64901 227.81689
 226.11076 224.59363 223.23450 222.01737 220.91025 219.88112 218.99599 218.14786
 217.40074 216.59161 215.70048 215.07535 214.53622 214.14613 213.22447 213.51376
 214.31796 213.97063 214.21738 216.02888 218.29521 221.41106 226.79208 231.32483
 235.11661 239.45702 243.99908 248.22284 251.60167 254.23547 256.95755 259.91187
 262.64444 265.34656 268.05655 270.61111 273.07138 275.21384 276.96967 278.58646
 280.23779 281.90710 283.37344 284.69064 285.82904 286.86313 287.81448 288.67252
 289.43359 290.08270 290.67154 291.42700
 366.78100 356.34381 345.78462 334.65943 323.07124 311.27405 299.15286 286.96468
 274.68549 262.59130 250.60911 239.91892 230.04973 221.16254 213.35335 206.36416
 200.20697 195.15378 191.74459 189.79540 188.84122 188.91403 189.75784 191.07465
 192.80846 194.91227 197.18408 199.55189 202.00570 204.49451 206.59132 208.44213
 210.07694 211.23076 211.46857 211.70538 211.65119 211.36500 211.00681 210.64562
 210.27143 209.99024 209.80705 209.67986 209.61667 209.95649 210.35130 210.74911
 211.55092 212.73773 213.99654 215.78835 217.72516 219.77697 221.88078 223.97259
 226.04140 228.13421 230.24003 232.35484 234.49265 236.67346 238.93827 241.31708
 243.94689 246.20670 248.21751 249.99132 251.41713 252.54894 253.37975 253.70457
 253.75038 253.53319 252.90200 251.85881 250.47362 248.64343 246.56124 244.40305
 242.20286 240.01567 237.84448 235.69229 233.56111 231.43692 229.47173 227.63754
 225.92935 224.41016 223.04897 221.82978 220.72059 219.68940 218.80221 217.95202
 217.20283 216.39165 215.49846 214.87127 214.33008 214.03860 213.36046 213.64700
 214.34526 213.95184 214.18536 215.92191 218.16139 221.36211 226.66939 231.25462
 235.05258 239.39091 243.87837 248.01932 251.43262 254.44780 257.27393 260.14819
 262.87262 265.56326 268.17984 270.67624 273.03192 275.08188 276.88309 278.57947
 280.09821 281.62814 283.04340 284.27386 285.38635 286.41751 287.36774 288.23410
 289.01486 289.72736 290.34976 291.14297
 366.78100 356.34289 345.78278 334.65668 323.06757 311.26946 299.14735 286.95824
 274.67814 262.58303 250.59992 239.90881 230.03870 221.15059 213.34049 206.35038
 200.19227 195.13816 191.72805 189.77795 188.82284 188.89473 189.73762 191.05351
 192.78641 194.88930 197.16019 199.52708 201.97997 204.46787 206.56376 208.41365
 210.04754 211.20043 211.43732 211.67322 211.61811 211.33100 210.97189 210.60978
 210.23468 209.95257 209.76846 209.64035 209.57624 209.91514 210.30903 210.70592
 211.50681 212.69270 213.95059 215.74149 217.67738 219.72827 221.83116 223.92205
 225.98995 228.08184 230.18673 232.30062 234.43751 236.61741 238.88130 241.25919
 243.88808 246.14697 248.15687 249.92976 251.35465 252.48554 253.31543 253.63932
 253.68422 253.46611 252.83400 251.78989 250.40378 248.57268 246.48957 244.33046
 242.12935 239.94124 237.76914 235.61603 233.48392 231.35881 229.39270 227.55760
 225.84849 224.32838 222.96627 221.74616 220.63605 219.60395 218.71584 217.86473
 217.11462 216.30251 215.40841 214.78030 214.23819 213.98570 213.40382 213.77890
 214.43301 214.02797 214.23378 215.89450 218.10339 221.31956 226.57588 231.17003
 234.98123 239.30946 243.75082 247.82066 251.22513 254.42097 257.41989 260.26065
 262.94202 265.62811 268.22241 270.64059 272.90448 274.88989 276.86694 278.62830
 279.93365 281.37537 282.68900 283.88260 284.97009 285.96884 286.88245 287.63950
 288.09409 288.36502 288.60175 288.90338
 366.78100 356.34506 345.78713 334.66319 323.07626 311.28032 299.16039 286.97345
 274.69552 262.60258 250.62165 239.93271 230.06478 221.17884 213.37091 206.38297
 200.22704 195.17510 191.76717 189.81923 188.86629 188.94036 189.78542 191.10349
 192.83855 194.94362 197.21668 199.58575 202.04081 204.53088 206.62894 208.48101
 210.11707 211.27214 211.51120 211.74927 211.69633 211.41140 211.05446 210.69453
 210.32159 210.04165 209.85972 209.73378 209.67185 210.01291 210.40898 210.80804
 211.61111 212.79917 214.05924 215.85230 217.79037 219.84343 221.94850 224.04156
 226.11163 228.20569 230.31276 232.42882 234.56788 236.74995 239.01601 241.39608
 244.02714 246.28821 248.30027 250.07534 251.50240 252.63547 253.46753 253.79360
 253.84066 253.62473 252.99479 251.95286 250.56892 248.73999 246.65905 244.50212
 242.30318 240.11724 237.94731 235.79637 233.66644 231.54350 229.57957 227.74663
 226.03970 224.52176 223.16183 221.94389 220.83596 219.80602 218.92009 218.07115
 217.32322 216.51328 215.62135 214.99541 214.45547 214.08769 213.23689 213.90961
 214.75514 214.25354 214.34361 215.93275 218.03757 221.18701 226.45735 231.03302
 234.89279 239.20605 243.61142 247.64055 251.03607 254.28590 257.37546 260.22235
 262.88831 265.58282 268.16931 270.55627 272.76648 274.83871 276.92456 278.61374
 279.89709 281.17996 282.46140 283.56958 284.55276 285.47534 286.32761 287.00204
 287.39972 287.35886 287.32315 287.27768
 366.78100 356.34897 345.79494 334.67491 323.09188 311.29986 299.18383 287.00080
 274.72677 262.63774 250.66071 239.97568 230.11165 221.22962 213.42560 206.44157
 200.28954 195.24151 191.83748 189.89345 188.94442 189.02239 189.87137 191.19334
 192.93231 195.04128 197.31825 199.69122 202.15019 204.64416 206.74613 208.60211
 210.24208 211.40105 211.64402 211.88599 211.83696 211.55593 211.20290 210.84687
 210.47785 210.20182 210.02379 209.90176 209.84373 210.18870 210.58867 210.99164
 211.79862 212.99059 214.25456 216.05153 217.99350 220.05047 222.15944 224.25641
 226.33038 228.42836 230.53933 232.65930 234.80227 236.98824 239.25821 241.64218
 244.27715 246.54212 248.55810 250.33707 251.76804 252.90501 253.74098 254.07095
 254.12192 253.90989 253.28387 252.24584 250.86581 249.04078 246.96375 244.81072
 242.61569 240.43366 238.26763 236.12061 233.99458 231.87555 229.91552 228.08649
 226.38346 224.86943 223.51340 222.29937 221.19535 220.16932 219.28729 218.44226
 217.69823 216.89220 216.00417 215.38214 214.84612 214.30112 213.07520 213.84419
 215.08615 214.59039 214.52470 215.93712 217.96722 221.10721 226.26428 230.89984
 234.75558 239.05028 243.38170 247.32651 250.79837 254.15320 257.31464 260.18756
 262.89850 265.62692 268.16565 270.51550 272.58746 274.95404 277.04343 278.58527
 279.84564 280.97644 282.14285 283.22916 284.16895 285.02087 285.71191 285.93210
 285.95267 285.97098 285.98700 286.00739
 366.78100 356.35047 345.79793 334.67940 323.09786 311.30733 299.19279 287.01126
 274.73872 262.65119 250.67566 239.99212 230.12959 221.24905 213.44652 206.46398
 200.31345 195.26692 191.86438 189.92185 188.97431 189.05378 189.90424 191.22771
 192.96817 195.07864 197.35711 199.73157 202.19204 204.68750 206.79097 208.64843
 210.28990 211.45036 211.69483 211.93830 211.89076 211.61123 211.25969 210.90516
 210.53762 210.26309 210.08656 209.96602 209.90949 210.25595 210.65742 211.06188
 211.87035 213.06381 214.32928 216.12775 218.07121 220.12968 222.24014 224.33861
 226.41407 228.51354 230.62600 232.74747 234.89194 237.07940 239.35087 241.73633
 244.37280 246.63926 248.65673 250.43719 251.86966 253.00813 253.84559 254.17706
 254.22952 254.01899 253.39445 252.35792 250.97939 249.15585 247.08032 244.92878
 242.73525 240.55471 238.39018 236.24464 234.12011 232.00258 230.04404 228.21651
 226.51497 225.00244 223.64790 222.43537 221.33283 220.30830 219.42777 218.58423
 217.84170 217.03716 216.15063 215.53009 214.99556 214.40419 213.11925 213.73285
 215.12914 214.83481 214.84323 216.10501 218.04021 221.16687 226.16737 230.83374
 234.67583 238.93915 243.20866 247.08151 250.59482 253.93620 257.27817 260.25015
 263.01920 265.77106 268.28711 270.60141 272.70633 275.11392 276.99597 278.53510
 279.75949 280.82587 281.88950 282.86633 283.68152 284.35773 284.96323 285.51178
 286.00513 286.44449 286.82828 287.31738
 366.78100 356.35121 345.79942 334.68163 323.10084 311.31105 299.19727 287.01648
 274.74469 262.65790 250.68311 240.00032 230.13853 221.25874 213.45695 206.47516
 200.32538 195.27959 191.87780 189.93601 188.98922 189.06943 189.92064 191.24485
 192.98606 195.09727 197.37649 199.75170 202.21291 204.70912 206.81333 208.67154
 210.31375 211.47496 211.72017 211.96438 211.91760 211.63881 211.28802 210.93423
 210.56744 210.29365 210.11786 209.99807 209.94228 210.28949 210.69171 211.09692
 211.90613 213.10034 214.36655 216.16576 218.10997 220.16918 222.28039 224.37960
 226.45582 228.55603 230.66924 232.79145 234.93666 237.12487 239.39708 241.78329
 244.42050 246.68771 248.70593 250.48714 251.92035 253.05956 253.89777 254.22998
 254.28319 254.07340 253.44961 252.41382 251.03604 249.21325 247.13846 244.98767
 242.79488 240.61509 238.45130 236.30651 234.18272 232.06593 230.10815 228.28136
 226.58057 225.06878 223.71499 222.50320 221.40141 220.37762 219.49783 218.65504
 217.91325 217.10947 216.22368 215.60389 215.07010 214.47318 213.19919 213.66351
 215.12274 215.09883 215.24287 216.39209 218.13873 221.22981 226.13577 230.75620
 234.61729 238.85425 243.09001 246.93295 250.43846 253.75293 257.05069 260.18109
 263.07504 265.82275 268.38437 270.60641 272.71201 275.07559 276.97260 278.45941
 279.66312 280.70038 281.65781 282.72147 283.72919 284.62076 285.43420 286.17111
 286.83389 287.42410 287.93967 288.59674
 366.78100 356.35211 345.80122 334.68432 323.10443 311.31554 299.20265 287.02276
 274.75186 262.66597 250.69208 240.01019 230.14929 221.27040 213.46951 206.48862
 200.33973 195.29483 191.89394 189.95305 189.00716 189.08827 189.94037 191.26548
 193.00759 195.11970 197.39981 199.77591 202.23802 204.73513 206.84024 208.69934
 210.34245 211.50456 211.75067 211.99578 211.94988 211.67199 211.32210 210.96921
 210.60332 210.33042 210.15553 210.03664 209.98175 210.32986 210.73296 211.13907
 211.94918 213.14429 214.41140 216.21150 218.15661 220.21672 222.32883 224.42893
 226.50604 228.60715 230.72126 232.84437 234.99047 237.17958 239.45269 241.83980
 244.47791 246.74601 248.76512 250.54723 251.98134 253.12145 253.96055 254.29366
 254.34777 254.13888 253.51598 252.48109 251.10420 249.28231 247.20842 245.05852
 242.86663 240.68774 238.52485 236.38096 234.25806 232.14217 230.18528 228.35939
 226.65950 225.14860 223.79571 222.58482 221.48393 220.46103 219.58214 218.74025
 217.99936 217.19647 216.31157 215.69268 215.15979 214.54608 213.22775 213.56525
 215.04524 215.31984 215.57558 216.66527 218.22658 221.22194 226.11096 230.71268
 234.56218 238.76736 242.95374 246.78825 250.31416 253.65456 256.97021 260.12643
 263.04163 265.82837 268.42740 270.57361 272.93536 275.06943 276.88895 278.36447
 279.62482 280.74997 281.80029 282.94202 283.93008 284.80429 285.60184 286.32440
 286.97424 287.55292 288.05847 288.70270
 366.78100 356.34883 345.79467 334.67450 323.09133 311.29917 299.18300 286.99983
 274.72567 262.63650 250.65933 239.97417 230.11000 221.22783 213.42367 206.43950
 200.28733 195.23917 191.83500 189.89083 188.94167 189.01950 189.86833 191.19017
 192.92900 195.03783 197.31467 199.68750 202.14633 204.64017 206.74200 208.59783
 210.23767 211.39650 211.63933 211.88117 211.83200 211.55083 211.19767 210.84150
 210.47233 210.19617 210.01800 209.89583 209.83767 210.18250 210.58233 210.98517
 211.79200 212.98383 214.24767 216.04450 217.98633 220.04317 222.15200 224.24884
 226.32267 228.42050 230.53134 232.65117 234.79400 236.97984 239.24967 241.63350
 244.26834 246.53317 248.54900 250.32784 251.75867 252.89550 253.73134 254.06117
 254.11200 253.89984 253.27367 252.23550 250.85534 249.03017 246.95300 244.79984
 242.60467 240.42250 238.25634 236.10917 233.98300 231.86384 229.90367 228.07450
 226.37134 224.85717 223.50100 222.28684 221.18267 220.15650 219.27434 218.42917
 217.68500 216.87884 215.99067 215.36850 214.83234 214.37253 213.36743 213.57207
 214.77850 215.26180 215.71185 216.82611 218.43916 221.33548 226.11861 230.74155
 234.56339 238.72183 242.86020 246.70753 250.23846 253.58757 256.97836 260.17892
 263.04865 265.78732 268.27350 270.50531 273.05496 274.97266 276.77176 278.29401
 279.69702 280.88916 281.78894 282.67691 283.39136 284.02344 284.60013 285.12256
 285.59244 286.01086 286.37640 286.84222
 366.78100 356.34580 345.78860 334.66540 323.07920 311.28400 299.16479 286.97859
 274.70139 262.60919 250.62899 239.94079 230.07359 221.18839 213.38119 206.39399
 200.23878 195.18758 191.78038 189.83318 188.88098 188.95578 189.80158 191.12038
 192.85618 194.96198 197.23577 199.60557 202.06137 204.55217 206.65097 208.50377
 210.14057 211.29637 211.53617 211.77497 211.72276 211.43856 211.08236 210.72316
 210.35096 210.07176 209.89056 209.76536 209.70416 210.04596 210.44275 210.84255
 211.64635 212.83515 214.09595 215.88975 217.82855 219.88235 221.98815 224.08195
 226.15274 228.24754 230.35534 232.47214 234.61194 236.79474 239.06154 241.44234
 244.07414 246.33594 248.34873 250.12453 251.55233 252.68613 253.51893 253.84573
 253.89353 253.67833 253.04913 252.00793 250.62472 248.79652 246.71632 244.56012
 242.36192 240.17672 238.00752 235.85732 233.72812 231.60592 229.64271 227.81051
 226.10431 224.58711 223.22791 222.01071 220.90351 219.87431 218.98911 218.14091
 217.39370 216.58450 215.69330 215.06810 214.52890 214.20836 213.51608 213.76227
 214.78156 215.14990 215.67488 216.84120 218.45695 221.32579 226.09261 230.69803
 234.48572 238.58649 242.66235 246.49644 250.05984 253.43251 256.99277 260.11469
 263.01105 265.77191 268.22348 270.52423 273.07339 274.99695 276.71683 278.21863
 279.46899 280.66150 281.53604 282.21936 282.83252 283.37503 283.87000 284.31839
 284.72168 285.08081 285.39453 285.79431
 366.78100 356.34804 345.79308 334.67211 323.08815 311.29519 299.17823 286.99427
 274.71930 262.62934 250.65138 239.96542 230.10046 221.21749 213.41253 206.42757
 200.27461 195.22565 191.82069 189.87572 188.92576 189.00280 189.85084 191.17188
 192.90991 195.01795 197.29399 199.66603 202.12407 204.61710 206.71814 208.57318
 210.21222 211.37026 211.61229 211.85333 211.80337 211.52141 211.16745 210.81048
 210.44052 210.16356 209.98460 209.86164 209.80268 210.14671 210.54575 210.94779
 211.75383 212.94487 214.20790 216.00394 217.94498 220.00102 222.10906 224.20509
 226.27813 228.37517 230.48521 232.60425 234.74628 236.93132 239.20036 241.58340
 244.21744 246.48147 248.49651 250.27455 251.70459 252.84063 253.67567 254.00470
 254.05474 253.84178 253.21482 252.17586 250.79489 248.96893 246.89097 244.73701
 242.54105 240.35808 238.19112 236.04316 233.91620 231.79624 229.83527 228.00531
 226.30135 224.78639 223.42943 222.21446 221.10950 220.08254 219.19958 218.35362
 217.60866 216.80169 215.91273 215.28977 214.75281 214.35298 213.47925 213.71278
 214.94696 215.36571 215.91266 217.03932 218.50122 221.33179 226.10294 230.66830
 234.42081 238.44815 242.43472 246.22258 249.76128 253.34143 256.92133 260.14624
 263.05463 265.75253 268.19092 270.72037 273.09839 275.01923 276.67462 278.10544
 279.27051 280.20706 280.90366 281.51077 282.03619 282.50104 282.92517 283.30936
 283.65494 283.96265 284.23148 284.57404
 366.78100 356.34761 345.79223 334.67084 323.08646 311.29307 299.17569 286.99130
 274.71592 262.62553 250.64715 239.96076 230.09538 221.21199 213.40661 206.42122
 200.26783 195.21845 191.81306 189.86768 188.91729 188.99391 189.84152 191.16214
 192.89975 195.00737 197.28298 199.65460 202.11221 204.60482 206.70544 208.56005
 210.19867 211.35628 211.59790 211.83851 211.78813 211.50574 211.15136 210.79397
 210.42359 210.14620 209.96682 209.84343 209.78404 210.12766 210.52627 210.92789
 211.73350 212.92412 214.18673 215.98235 217.92296 219.97858 222.08619 224.18181
 226.25442 228.35103 230.46065 232.57926 234.72088 236.90549 239.17411 241.55672
 244.19034 246.45395 248.46857 250.24618 251.67580 252.81141 253.64603 253.97464
 254.02425 253.81087 253.18348 252.14410 250.76271 248.93633 246.85794 244.70356
 242.50717 240.32379 238.15640 236.00802 233.88063 231.76024 229.79886 227.96847
 226.26409 224.74870 223.39132 222.17593 221.07055 220.04316 219.15978 218.31339
 217.56801 216.76062 215.87124 215.24785 214.71046 214.38371 213.56323 213.49110
 214.77702 215.49603 216.17632 217.33359 218.74046 221.30377 226.21577 230.75363
 234.47598 238.46117 242.40189 246.19621 249.67770 253.37590 257.18649 260.29727
 263.15640 265.77283 268.05237 270.77570 273.06238 274.97821 276.58502 278.06100
 279.18869 279.92804 280.56781 281.12958 281.61572 282.04587 282.43829 282.79379
 283.11356 283.39828 283.64703 283.96402
 366.78100 356.34316 345.78332 334.65749 323.06865 311.27081 299.14897 286.96014
 274.68030 262.58546 250.60262 239.91179 230.04195 221.15411 213.34427 206.35443
 200.19660 195.14276 191.73292 189.78308 188.82825 188.90041 189.74357 191.05973
 192.79289 194.89606 197.16722 199.53438 201.98754 204.47571 206.57187 208.42203
 210.05619 211.20936 211.44652 211.68268 211.62784 211.34100 210.98217 210.62033
 210.24549 209.96365 209.77982 209.65198 209.58814 209.92730 210.32147 210.71863
 211.51979 212.70595 213.96411 215.75528 217.69144 219.74260 221.84576 223.93693
 226.00509 228.09725 230.20241 232.31657 234.45374 236.63390 238.89806 241.27622
 243.90539 246.16455 248.17471 249.94787 251.37304 252.50420 253.33436 253.65852
 253.70368 253.48585 252.85401 251.81017 250.42433 248.59350 246.51066 244.35182
 242.15098 239.96314 237.79131 235.63847 233.50663 231.38179 229.41596 227.58112
 225.87228 224.35244 222.99061 221.77077 220.66093 219.62909 218.74125 217.89042
 217.14058 216.32874 215.43490 214.80707 214.26523 214.15536 213.81660 213.48607
 214.35909 215.37828 216.23434 217.32672 218.78503 221.57899 226.24437 230.87016
 234.61874 238.60468 242.52989 246.26820 249.82768 253.49977 257.22745 260.37070
 263.15543 265.72046 268.19489 270.79147 273.03882 274.92926 276.56448 278.02722
 279.29218 280.47852 281.71799 282.81519 283.76471 284.60480 285.37125 286.06558
 286.69009 287.24622 287.73203 288.35114
 366.78100 356.34323 345.78347 334.65770 323.06894 311.27117 299.14941 286.96064
 274.68088 262.58611 250.60334 239.91258 230.04281 221.15505 213.34528 206.35552
 200.19775 195.14399 191.73422 189.78445 188.82969 188.90192 189.74516 191.06139
 192.79463 194.89786 197.16910 199.53633 201.98956 204.47780 206.57403 208.42427
 210.05850 211.21174 211.44897 211.68521 211.63044 211.34367 210.98491 210.62314
 210.24838 209.96661 209.78285 209.65508 209.59132 209.93055 210.32479 210.72202
 211.52325 212.70949 213.96772 215.75896 217.69519 219.74643 221.84966 223.94090
 226.00913 228.10136 230.20660 232.32083 234.45807 236.63830 238.90254 241.28077
 243.91001 246.16924 248.17947 249.95271 251.37794 252.50918 253.33941 253.66365
 253.70888 253.49112 252.85935 251.81558 250.42982 248.59905 246.51629 244.35752
 242.15676 239.96899 237.79723 235.64446 233.51269 231.38793 229.42216 227.58740
 225.87863 224.35887 222.99710 221.77734 220.66757 219.63580 218.74804 217.89727
 217.14751 216.33574 215.44198 214.81421 214.27245 214.11754 213.77605 213.83437
 214.47810 215.28059 216.06439 217.07062 218.60809 221.46809 226.11725 230.75722
 234.49100 238.44598 242.33942 246.06047 249.65175 253.39261 257.09756 260.23077
 262.93011 265.61716 268.28552 270.81784 273.01135 274.88214 276.49304 277.89392
 279.20627 280.25372 281.08102 282.07681 283.05298 283.91663 284.70456 285.41840
 286.06039 286.63211 287.13156 287.76804
 366.78100 356.34539 345.78778 334.66417 323.07756 311.28195 299.16234 286.97573
 274.69812 262.60551 250.62490 239.93629 230.06868 221.18306 213.37545 206.38784
 200.23223 195.18062 191.77301 189.82540 188.87279 188.94718 189.79257 191.11096
 192.84635 194.95174 197.22513 199.59452 202.04991 204.54030 206.63869 208.49108
 210.12747 211.28286 211.52225 211.76064 211.70803 211.42342 211.06681 210.70719
 210.33458 210.05497 209.87336 209.74775 209.68614 210.02753 210.42392 210.82331
 211.62670 212.81509 214.07548 215.86887 217.80726 219.86065 221.96604 224.05943
 226.12982 228.22421 230.33160 232.44799 234.58738 236.76977 239.03616 241.41655
 244.04793 246.30932 248.32171 250.09710 251.52449 252.65788 253.49027 253.81666
 253.86405 253.64844 253.01883 251.97722 250.59361 248.76500 246.68439 244.52778
 242.32917 240.14356 237.97395 235.82334 233.69373 231.57112 229.60751 227.77490
 226.06829 224.55068 223.19106 221.97345 220.86584 219.83623 218.95062 218.10201
 217.35440 216.54479 215.65318 215.02757 214.48796 214.23709 213.68953 213.83728
 214.80435 215.53407 216.23175 217.15483 218.58090 221.37297 226.00250 230.59314
 234.31267 238.21768 242.06398 245.77225 249.45302 253.36154 257.03348 260.11240
 262.85513 265.69266 268.48145 270.98010 273.04825 274.81540 276.40408 277.78510
 278.95895 279.89130 280.85516 282.04047 283.06622 283.97375 284.80176 285.55185
 286.22650 286.82727 287.35208 288.02090
 366.78100 356.34396 345.78493 334.65989 323.07186 311.27482 299.15379 286.96575
 274.68672 262.59268 250.61065 239.92061 230.05158 221.16454 213.35551 206.36647
 200.20944 195.15640 191.74737 189.79833 188.84429 188.91726 189.76122 191.07819
 192.81215 194.91612 197.18808 199.55605 202.01001 204.49898 206.59594 208.44691
 210.08187 211.23584 211.47380 211.71077 211.65673 211.37070 211.01266 210.65162
 210.27759 209.99655 209.81352 209.68648 209.62345 209.96341 210.35838 210.75634
 211.55831 212.74527 214.00424 215.79620 217.73317 219.78513 221.88910 223.98106
 226.05003 228.14299 230.24896 232.36392 234.50188 236.68285 238.94781 241.32678
 243.95674 246.21671 248.22767 250.00164 251.42760 252.55957 253.39053 253.71550
 253.76146 253.54443 252.91339 251.87036 250.48532 248.65529 246.57325 244.41521
 242.21518 240.02814 237.85711 235.70507 233.57404 231.45000 229.48497 227.65093
 225.94290 224.42386 223.06283 221.84379 220.73476 219.70372 218.81669 217.96665
 217.21762 216.40658 215.51354 214.88651 214.34547 214.19695 213.80716 213.67816
 214.74104 215.74823 216.50261 217.35957 218.71886 221.43954 226.07945 230.61798
 234.29550 238.15727 241.98170 245.69945 249.46994 253.42001 257.04083 260.13855
 262.99817 265.83890 268.61746 271.01556 273.03458 274.68198 276.27597 277.65637
 278.72186 279.63373 281.00027 282.26813 283.36533 284.33606 285.22171 286.02408
 286.74570 287.38831 287.94965 288.66507
 366.78100 356.34210 345.78119 334.65429 323.06438 311.26548 299.14257 286.95267
 274.67176 262.57586 250.59195 239.90005 230.02914 221.14024 213.32933 206.33843
 200.17952 195.12462 191.71371 189.76281 188.80690 188.87800 189.72010 191.03519
 192.76729 194.86938 197.13948 199.50557 201.95767 204.44476 206.53986 208.38895
 210.02205 211.17414 211.41024 211.64533 211.58943 211.30152 210.94162 210.57871
 210.20281 209.91990 209.73500 209.60610 209.54119 209.87929 210.27238 210.66848
 211.46857 212.65367 213.91076 215.70086 217.63595 219.68605 221.78814 223.87824
 225.94533 228.03643 230.14052 232.25362 234.38971 236.56881 238.83190 241.20900
 243.83710 246.09519 248.10429 249.87638 251.30048 252.43057 253.25967 253.58276
 253.62686 253.40795 252.77505 251.73014 250.34324 248.51133 246.42743 244.26752
 242.06562 239.87671 237.70381 235.54990 233.41700 231.29110 229.32419 227.48829
 225.77838 224.25748 222.89457 221.67367 220.56276 219.52986 218.64095 217.78905
 217.03814 216.22524 215.33033 214.70143 214.15852 214.14224 213.95961 213.64481
 214.65596 215.88643 216.75574 217.52614 218.71555 221.27359 226.04149 230.57248
 234.21088 238.03030 241.81821 245.51707 249.41162 253.40643 256.98520 260.08496
 263.07782 266.02899 268.72430 270.99020 272.93851 274.51163 276.07083 277.38095
 278.48608 280.20468 281.71442 283.04004 284.18729 285.20227 286.12833 286.96722
 287.72174 288.39365 288.98062 289.72864
 366.78100 356.33950 345.77600 334.64650 323.05400 311.25250 299.12700 286.93450
 274.65100 262.55250 250.56600 239.87150 229.99799 221.10649 213.29299 206.29949
 200.13799 195.08049 191.66699 189.71349 188.75499 188.82349 189.66299 190.97549
 192.70499 194.80449 197.07199 199.43549 201.88499 204.36949 206.46199 208.30849
 209.93899 211.08849 211.32199 211.55448 211.49598 211.20548 210.84298 210.47748
 210.09898 209.81348 209.62598 209.49448 209.42698 209.76248 210.15298 210.54648
 211.34398 212.52648 213.78098 215.56848 217.50098 219.54848 221.64798 223.73548
 225.79998 227.88848 229.98997 232.10047 234.23397 236.41047 238.67097 241.04547
 243.67097 245.92647 247.93297 249.70247 251.12397 252.25147 253.07797 253.39847
 253.43997 253.21847 252.58297 251.53547 250.14597 248.31147 246.22497 244.06247
 241.85797 239.66646 237.49096 235.33446 233.19896 231.07046 229.10096 227.26246
 225.54996 224.02646 222.66096 221.43746 220.32396 219.28846 218.39696 217.54246
 216.78896 215.97346 215.07596 214.44446 213.89896 214.04697 214.12500 213.60962
 214.40211 215.78313 216.83649 217.74577 218.96173 221.40958 226.08885 230.58247
 234.18111 237.96835 241.74113 245.42288 249.42110 253.44418 256.98648 260.14893
 263.23102 266.14395 268.63062 270.86963 272.82816 274.32040 275.84265 277.22296
 279.25400 281.05811 282.61926 283.99008 285.17639 286.22598 287.18359 288.05112
 288.83133 289.52612 290.13309 290.90662
 366.78100 356.33910 345.77520 334.64530 323.05240 311.25051 299.12461 286.93171
 274.64781 262.54891 250.56201 239.86711 229.99321 221.10131 213.28741 206.29352
 200.13162 195.07372 191.65982 189.70592 188.74702 188.81512 189.65422 190.96632
 192.69542 194.79453 197.06163 199.42473 201.87383 204.35793 206.45003 208.29613
 209.92623 211.07533 211.30843 211.54054 211.48164 211.19074 210.82784 210.46194
 210.08304 209.79714 209.60924 209.47734 209.40944 209.74455 210.13465 210.52775
 211.32485 212.50695 213.76105 215.54815 217.48025 219.52735 221.62645 223.71356
 225.77766 227.86576 229.96686 232.07696 234.21006 236.38616 238.64626 241.02036
 243.64546 245.90057 247.90667 249.67577 251.09687 252.22397 253.05007 253.37017
 253.41127 253.18937 252.55347 251.50558 250.11568 248.28078 246.19388 244.03098
 241.82608 239.63418 237.45828 235.30138 233.16548 231.03659 229.06669 227.22779
 225.51489 223.99099 222.62509 221.40119 220.28729 219.25139 218.35949 217.50460
 216.75070 215.93480 215.03690 214.40500 213.85910 214.00400 214.19562 213.82153
 214.19337 215.46175 216.70226 217.72185 218.96718 221.48907 226.16501 230.65085
 234.23645 238.00761 241.77478 245.52391 249.48531 253.50075 257.04306 260.20789
 263.25967 266.16495 268.68048 270.85553 272.72348 274.23325 275.79330 277.55624
 279.46268 281.36346 283.00830 284.45258 285.70248 286.80832 287.81723 288.73123
 289.55328 290.28531 290.92480 291.73975
 366.78100 356.34154 345.78008 334.65262 323.06216 311.26271 299.13925 286.94879
 274.66733 262.57087 250.58641 239.89395 230.02249 221.13304 213.32158 206.33012
 200.17066 195.11520 191.70374 189.75228 188.79582 188.86636 189.70791 191.02245
 192.75399 194.85553 197.12507 199.49061 201.94215 204.42869 206.52324 208.37178
 210.00432 211.15586 211.39140 211.62594 211.56948 211.28102 210.92057 210.55711
 210.18065 209.89719 209.71173 209.58227 209.51681 209.85435 210.24689 210.64244
 211.44198 212.62652 213.88306 215.67260 217.60714 219.65668 221.75822 223.84777
 225.91431 228.00485 230.10839 232.22093 234.35647 236.53501 238.79755 241.17409
 243.80164 246.05918 248.06772 249.83926 251.26280 252.39234 253.22088 253.54342
 253.58697 253.36751 252.73405 251.68859 250.30113 248.46867 246.38421 244.22375
 242.02130 239.83184 237.65838 235.50392 233.37046 231.24400 229.27654 227.44008
 225.72962 224.20817 222.84471 221.62325 220.51179 219.47833 218.58887 217.73641
 216.98495 216.17150 215.27604 214.64658 214.10312 214.10509 214.08484 214.07516
 214.52690 215.51152 216.57230 217.50801 218.73384 221.43884 226.06033 230.54962
 234.10100 237.82477 241.57518 245.36586 249.37718 253.37932 256.91031 260.07254
 263.12579 265.98227 268.49234 270.71518 272.61847 273.99225 275.48996 277.34561
 279.10339 280.96912 282.59595 284.02444 285.26068 286.35443 287.35229 288.25632
 289.06937 289.79340 290.42590 291.23193
 366.78100 356.34281 345.78262 334.65643 323.06723 311.26904 299.14685 286.95766
 274.67747 262.58228 250.59908 239.90789 230.03770 221.14951 213.33932 206.34913
 200.19093 195.13674 191.72655 189.77636 188.82117 188.89298 189.73579 191.05159
 192.78440 194.88721 197.15802 199.52483 201.97764 204.46544 206.56125 208.41106
 210.04487 211.19768 211.43449 211.67030 211.61510 211.32791 210.96872 210.60653
 210.23134 209.94915 209.76495 209.63676 209.57257 209.91138 210.30519 210.70200
 211.50280 212.68861 213.94642 215.73723 217.67304 219.72385 221.82666 223.91746
 225.98527 228.07708 230.18189 232.29570 234.43251 236.61231 238.87612 241.25393
 243.88274 246.14155 248.15136 249.92416 251.34897 252.47978 253.30959 253.63340
 253.67821 253.46002 252.82782 251.78363 250.39744 248.56625 246.48306 244.32387
 242.12267 239.93448 237.76229 235.60910 233.47691 231.35172 229.38553 227.55033
 225.84114 224.32095 222.95876 221.73857 220.62838 219.59618 218.70799 217.85680
 217.10661 216.29442 215.40023 214.77203 214.22984 214.20236 214.04120 213.98796
 214.76411 215.83139 216.75194 217.57123 218.82745 221.40851 225.98901 230.40266
 233.89268 237.57268 241.32014 245.13571 249.26689 253.26097 256.77881 260.00699
 263.08511 265.91910 268.48053 270.66812 272.42194 273.89273 275.47018 277.39838
 279.64359 281.58893 283.27228 284.75040 286.02957 287.16132 288.19385 289.12927
 289.97058 290.71976 291.37421 292.20828
 366.78100 356.34134 345.77969 334.65203 323.06138 311.26172 299.13806 286.94741
 274.66575 262.56910 250.58444 239.89178 230.02013 221.13047 213.31881 206.32716
 200.16750 195.11185 191.70019 189.74853 188.79188 188.86222 189.70357 191.01791
 192.74925 194.85060 197.11994 199.48529 201.93663 204.42297 206.51732 208.36566
 209.99800 211.14935 211.38469 211.61904 211.56238 211.27372 210.91307 210.54941
 210.17276 209.88910 209.70344 209.57379 209.50813 209.84548 210.23782 210.63316
 211.43251 212.61685 213.87319 215.66254 217.59688 219.64623 221.74757 223.83691
 225.90326 227.99360 230.09695 232.20929 234.34463 236.52298 238.78532 241.16167
 243.78901 246.04635 248.05470 249.82604 251.24938 252.37873 253.20707 253.52942
 253.57276 253.35310 252.71945 251.67379 250.28614 248.45348 246.36882 244.20817
 242.00551 239.81586 237.64220 235.48754 233.35389 231.22723 229.25957 227.42292
 225.71226 224.19061 222.82695 221.60529 220.49364 219.45998 218.57033 217.71767
 216.96601 216.15236 215.25670 214.62705 214.08339 214.16747 214.13521 213.81459
 214.57184 215.88144 216.95506 217.79939 219.02698 221.54120 226.05479 230.41382
 233.87218 237.51785 241.26221 245.12444 249.30376 253.30446 256.81702 260.06042
 263.15323 265.98108 268.49692 270.65921 272.51425 273.78574 275.36267 277.74146
 280.03873 282.00784 283.71179 285.20795 286.50278 287.64835 288.69351 289.64038
 290.49197 291.25031 291.91278 292.75702
 366.78100 356.33942 345.77584 334.64625 323.05367 311.25209 299.12651 286.93393
 274.65034 262.55176 250.56518 239.87060 229.99702 221.10543 213.29185 206.29827
 200.13669 195.07910 191.66552 189.71194 188.75336 188.82178 189.66119 190.97361
 192.70303 194.80245 197.06987 199.43328 201.88270 204.36712 206.45954 208.30596
 209.93637 211.08579 211.31921 211.55163 211.49305 211.20246 210.83988 210.47430
 210.09572 209.81014 209.62255 209.49097 209.42339 209.75881 210.14922 210.54264
 211.34006 212.52248 213.77690 215.56431 217.49673 219.54415 221.64357 223.73099
 225.79540 227.88382 229.98524 232.09566 234.22908 236.40549 238.66591 241.04033
 243.66575 245.92117 247.92758 249.69700 251.11842 252.24584 253.07225 253.39267
 253.43409 253.21251 252.57693 251.52934 250.13976 248.30518 246.21860 244.05602
 241.85143 239.65985 237.48427 235.32769 233.19211 231.06352 229.09394 227.25536
 225.54278 224.01920 222.65361 221.43003 220.31645 219.28087 218.38929 217.53470
 216.78112 215.96554 215.06796 214.43637 213.89079 214.07481 214.29482 213.83963
 214.31656 215.67348 216.97340 217.89400 219.07594 221.60884 226.15985 230.47575
 233.90399 237.51190 241.23933 245.15318 249.31418 253.31378 256.80234 260.05719
 263.14102 265.95126 268.40668 270.55139 272.31058 273.76550 275.40002 277.49487
 279.53723 281.41858 283.04657 284.47607 285.71320 286.80771 287.80630 288.71097
 289.52460 290.24915 290.88211 291.68872
 366.78100 356.33742 345.77184 334.64026 323.04569 311.24211 299.11453 286.91995
 274.63437 262.53379 250.54522 239.84864 229.97306 221.07948 213.26390 206.26832
 200.10475 195.04517 191.62959 189.67401 188.71343 188.77985 189.61728 190.92770
 192.65512 194.75254 197.01796 199.37938 201.82681 204.30923 206.39965 208.24407
 209.87249 211.01991 211.25134 211.48176 211.42118 211.12860 210.76402 210.39644
 210.01586 209.72829 209.53871 209.40513 209.33555 209.66897 210.05739 210.44882
 211.24424 212.42466 213.67708 215.46250 217.39292 219.43835 221.53577 223.62119
 225.68361 227.77003 229.86945 231.97788 234.10930 236.28372 238.54214 240.91456
 243.53798 245.79141 247.79583 249.56325 250.98267 252.10809 252.93251 253.25094
 253.29036 253.06678 252.42920 251.37962 249.98804 248.15146 246.06289 243.89831
 241.69173 239.49815 237.32057 235.16199 233.02442 230.89384 228.92226 227.08168
 225.36710 223.84152 222.47395 221.24837 220.13279 219.09521 218.20163 217.34505
 216.58948 215.77190 214.87232 214.23874 213.69116 213.96510 214.44496 214.00935
 214.17567 215.43167 216.85001 217.89482 219.16400 221.85387 226.16003 230.47661
 233.89182 237.46596 241.15445 245.09108 249.23872 253.21425 256.75638 260.02161
 263.08316 265.83459 268.27939 270.40524 272.16962 273.68454 275.26907 277.02933
 278.51276 279.85022 281.33942 282.64706 283.77872 284.77994 285.69339 286.52094
 287.26520 287.92798 288.50696 289.24481
 366.78100 356.33741 345.77181 334.64022 323.04563 311.24203 299.11444 286.91984
 274.63425 262.53366 250.54506 239.84847 229.97288 221.07928 213.26369 206.26810
 200.10450 195.04491 191.62931 189.67372 188.71313 188.77953 189.61694 190.92735
 192.65475 194.75216 197.01757 199.37897 201.82638 204.30878 206.39919 208.24360
 209.87200 211.01941 211.25082 211.48122 211.42063 211.12804 210.76344 210.39585
 210.01525 209.72766 209.53807 209.40447 209.33488 209.66829 210.05669 210.44810
 211.24351 212.42391 213.67632 215.46172 217.39213 219.43754 221.53494 223.62035
 225.68276 227.76916 229.86857 231.97698 234.10838 236.28279 238.54119 240.91360
 243.53701 245.79041 247.79482 249.56223 250.98163 252.10704 252.93145 253.24985
 253.28926 253.06566 252.42807 251.37848 249.98688 248.15029 246.06170 243.89710
 241.69051 239.49692 237.31932 235.16073 233.02313 230.89254 228.92095 227.08035
 225.36576 223.84017 222.47257 221.24698 220.13139 219.09379 218.20020 217.34360
 216.58801 215.77042 214.87082 214.23723 213.68964 213.95615 214.47655 214.24554
 214.28151 215.33195 216.67482 217.75137 219.09114 221.83514 226.16959 230.49026
 233.86771 237.38271 241.03619 245.00700 249.20888 253.18433 256.73413 260.02145
 263.10065 265.84903 268.22940 270.28677 272.06839 273.51062 275.07150 276.94043
 278.28647 279.16406 280.69153 282.03278 283.19348 284.22043 285.15735 286.00616
 286.76953 287.44934 288.04321 288.80002
 366.78100 356.33997 345.77695 334.64792 323.05590 311.25487 299.12985 286.93782
 274.65479 262.55677 250.57074 239.87672 230.00369 221.11267 213.29964 206.30661
 200.14559 195.08856 191.67554 189.72251 188.76449 188.83346 189.67343 190.98641
 192.71638 194.81636 197.08433 199.44831 201.89828 204.38325 206.47623 208.32320
 209.95418 211.10415 211.33812 211.57110 211.51307 211.22305 210.86102 210.49600
 210.11797 209.83294 209.64592 209.51489 209.44787 209.78384 210.17482 210.56879
 211.36676 212.54974 213.80471 215.59269 217.52566 219.57364 221.67361 223.76158
 225.82656 227.91553 230.01751 232.12848 234.26246 236.43943 238.70040 241.07538
 243.70135 245.95733 247.96430 249.73428 251.15625 252.28422 253.11120 253.43217
 253.47415 253.25312 252.61810 251.57107 250.18204 248.34802 246.26199 244.09997
 241.89594 239.70492 237.52989 235.37386 233.23884 231.11081 229.14179 227.30376
 225.59174 224.06871 222.70368 221.48066 220.36763 219.33261 218.44158 217.58756
 216.83453 216.01950 215.12248 214.49145 213.94643 214.10638 214.39174 214.32930
 214.60661 215.51328 216.65744 217.58188 218.87813 221.53879 226.10345 230.35233
 233.69580 237.20938 240.88982 244.94400 249.19852 253.15324 256.66727 259.94635
 263.00522 265.78229 268.21661 270.31671 272.13431 273.55801 275.06186 276.85092
 278.37799 280.25583 281.88080 283.30762 284.54242 285.63489 286.63162 287.53458
 288.34668 289.06989 289.70163 290.50674
 366.78100 356.33917 345.77534 334.64550 323.05267 311.25084 299.12501 286.93217
 274.64834 262.54951 250.56268 239.86785 229.99401 221.10218 213.28835 206.29452
 200.13269 195.07485 191.66102 189.70719 188.74836 188.81652 189.65569 190.96786
 192.69703 194.79620 197.06336 199.42653 201.87570 204.35987 206.45204 208.29820
 209.92837 211.07754 211.31071 211.54287 211.48404 211.19321 210.83038 210.46455
 210.08571 209.79988 209.61205 209.48022 209.41238 209.74755 210.13772 210.53089
 211.32806 212.51022 213.76439 215.55156 217.48373 219.53090 221.63006 223.71723
 225.78140 227.86957 229.97073 232.08090 234.21407 236.39024 238.65041 241.02457
 243.64974 245.90491 247.91108 249.68025 251.10141 252.22858 253.05475 253.37492
 253.41608 253.19425 252.55842 251.51059 250.12076 248.28592 246.19909 244.03626
 241.83143 239.63959 237.46376 235.30693 233.17110 231.04227 229.07243 227.23360
 225.52077 223.99694 222.63111 221.40727 220.29344 219.25761 218.36578 217.51094
 216.75711 215.94128 215.04345 214.41162 213.86578 214.11870 214.44746 214.19348
 214.54282 215.56020 216.79883 217.77960 219.12958 221.72070 226.08234 230.25760
 233.56505 237.09042 240.82123 244.93747 249.14917 253.06081 256.61136 259.90302
 262.94156 265.71112 268.18420 270.34842 272.15247 273.51831 275.14984 277.34201
 279.59894 281.53348 283.20752 284.67743 285.94952 287.07498 288.10181 289.03204
 289.86868 290.61371 291.26456 292.09396
 366.78100 356.33607 345.76915 334.63622 323.04029 311.23536 299.10644 286.91051
 274.62358 262.52165 250.53173 239.83380 229.95687 221.06195 213.24502 206.24809
 200.08316 195.02224 191.60531 189.64838 188.68645 188.75153 189.58760 190.89667
 192.62275 194.71882 196.98289 199.34296 201.78904 204.27011 206.35918 208.20226
 209.82933 210.97540 211.20547 211.43455 211.37262 211.07869 210.71276 210.34384
 209.96191 209.67298 209.48206 209.34713 209.27620 209.60827 209.99535 210.38542
 211.17949 212.35856 213.60964 215.39371 217.32278 219.36686 221.46293 223.54700
 225.60807 227.69315 229.79122 231.89829 234.02836 236.20144 238.45851 240.82958
 243.45166 245.70373 247.70680 249.47287 250.89095 252.01502 252.83809 253.15516
 253.19324 252.96831 252.32938 251.27846 249.88553 248.04760 245.95767 243.79175
 241.58382 239.38889 237.20997 235.05004 232.91111 230.77918 228.80626 226.96433
 225.24840 223.72147 222.35255 221.12562 220.00869 218.96977 218.07484 217.21691
 216.45998 215.64106 214.74013 214.10520 213.55627 213.99446 214.65262 214.11812
 214.16649 215.30043 216.86241 218.04898 219.39169 221.89981 226.22586 230.32930
 233.61549 237.12997 240.87160 245.02214 249.23705 253.12404 256.65579 259.93472
 262.97491 265.73517 268.17572 270.31476 272.22580 273.54666 275.12613 277.54324
 279.81442 281.76117 283.44577 284.92499 286.20508 287.33768 288.37097 289.30707
 290.14899 290.89871 291.55368 292.38834
 366.78100 356.33766 345.77232 334.64098 323.04664 311.24330 299.11596 286.92162
 274.63627 262.53593 250.54759 239.85125 229.97591 221.08257 213.26723 206.27189
 200.10855 195.04921 191.63387 189.67853 188.71819 188.78485 189.62251 190.93317
 192.66082 194.75848 197.02414 199.38580 201.83346 204.31612 206.40678 208.25144
 209.88010 211.02776 211.25942 211.49008 211.42974 211.13740 210.77306 210.40571
 210.02537 209.73803 209.54869 209.41535 209.34601 209.67967 210.06833 210.45999
 211.25565 212.43631 213.68897 215.47463 217.40529 219.45095 221.54861 223.63426
 225.69692 227.78358 229.88324 231.99190 234.12356 236.29822 238.55688 240.92954
 243.55320 245.80686 247.81152 249.57918 250.99884 252.12450 252.94915 253.26781
 253.30747 253.08413 252.44679 251.39745 250.00611 248.16977 246.08143 243.91709
 241.71075 239.51741 237.34007 235.18173 233.04439 230.91405 228.94270 227.10236
 225.38802 223.86268 222.49534 221.27000 220.15466 219.11732 218.22398 217.36764
 216.61230 215.79496 214.89562 214.26228 213.71494 214.04376 214.68781 214.39842
 214.08994 215.01192 216.55580 217.83116 219.28488 221.97289 226.36226 230.45299
 233.69891 237.19501 240.96249 245.06824 249.23044 253.10884 256.65524 259.94400
 262.96384 265.68329 268.09781 270.24359 272.12030 273.58325 275.11069 277.17371
 279.19986 281.18152 282.89630 284.40201 285.70508 286.85794 287.90976 288.86264
 289.71967 290.48282 291.14951 291.99915
 366.78100 356.33946 345.77591 334.64637 323.05382 311.25228 299.12673 286.93419
 274.65064 262.55210 250.56556 239.87101 229.99747 221.10592 213.29238 206.29883
 200.13729 195.07975 191.66620 189.71266 188.75411 188.82257 189.66202 190.97448
 192.70393 194.80339 197.07085 199.43430 201.88376 204.36821 206.46067 208.30712
 209.93758 211.08704 211.32049 211.55295 211.49440 211.20386 210.84131 210.47577
 210.09722 209.81168 209.62414 209.49259 209.42505 209.76050 210.15096 210.54441
 211.34187 212.52433 213.77878 215.56624 217.49869 219.54615 221.64560 223.73306
 225.79751 227.88597 229.98743 232.09788 234.23134 236.40779 238.66825 241.04270
 243.66816 245.92362 247.93007 249.69953 251.12098 252.24844 253.07489 253.39535
 253.43680 253.21526 252.57972 251.53217 250.14263 248.30808 246.22154 244.05899
 241.85445 239.66291 237.48736 235.33082 233.19527 231.06673 229.09718 227.25864
 225.54609 224.02255 222.65701 221.43346 220.31992 219.28437 218.39283 217.53828
 216.78474 215.96919 215.07165 214.44011 213.89456 214.11079 214.60918 214.69513
 214.29768 214.90767 216.18619 217.43980 219.13094 222.06705 226.29033 230.44031
 233.65254 237.10941 240.85310 244.96536 249.14284 253.04239 256.60513 259.87167
 262.84778 265.53275 267.92648 270.07208 271.94986 273.59592 275.29761 277.03464
 278.75714 280.13583 281.21191 282.34888 283.33282 284.20334 284.99759 285.71710
 286.36423 286.94052 287.44394 288.08548
 366.78100 356.33927 345.77554 334.64580 323.05307 311.25134 299.12561 286.93287
 274.64914 262.55041 250.56368 239.86895 229.99521 221.10348 213.28975 206.29602
 200.13428 195.07655 191.66282 189.70909 188.75036 188.81862 189.65789 190.97016
 192.69943 194.79869 197.06596 199.42923 201.87850 204.36277 206.45503 208.30130
 209.93157 211.08084 211.31410 211.54637 211.48764 211.19691 210.83418 210.46844
 210.08971 209.80398 209.61625 209.48451 209.41678 209.75205 210.14232 210.53559
 211.33285 212.51512 213.76939 215.55666 217.48892 219.53619 221.63546 223.72273
 225.78700 227.87526 229.97653 232.08680 234.22007 236.39633 238.65660 241.03087
 243.65614 245.91141 247.91767 249.68694 251.10821 252.23548 253.06174 253.38201
 253.42328 253.20155 252.56582 251.51808 250.12835 248.29362 246.20689 244.04415
 241.83942 239.64769 237.47196 235.31523 233.17949 231.05076 229.08103 227.24230
 225.52956 224.00583 222.64010 221.41637 220.30264 219.26690 218.37517 217.52044
 216.76671 215.95097 215.05324 214.42151 213.87578 214.11449 214.65028 214.72221
 214.49910 215.04195 216.17778 217.29385 218.92345 221.89552 226.20197 230.32619
 233.50468 236.91583 240.68652 244.90573 249.10040 252.98878 256.54257 259.80408
 262.78268 265.46204 267.83774 270.01160 271.91217 273.45285 275.08038 277.10880
 278.69662 279.89441 280.51541 281.75601 282.96335 284.03152 285.00607 285.88895
 286.68298 287.39011 288.00781 288.79501
 366.78100 356.33924 345.77547 334.64571 323.05294 311.25118 299.12542 286.93265
 274.64889 262.55012 250.56336 239.86860 229.99483 221.10307 213.28930 206.29554
 200.13378 195.07601 191.66225 189.70848 188.74972 188.81796 189.65719 190.96943
 192.69867 194.79790 197.06514 199.42837 201.87761 204.36185 206.45408 208.30032
 209.93055 211.07979 211.31303 211.54526 211.48650 211.19573 210.83297 210.46721
 210.08844 209.80268 209.61491 209.48315 209.41539 209.75062 210.14086 210.53409
 211.33133 212.51357 213.76780 215.55504 217.48727 219.53451 221.63375 223.72098
 225.78522 227.87345 229.97469 232.08493 234.21816 236.39440 238.65463 241.02887
 243.65411 245.90934 247.91558 249.68481 251.10605 252.23329 253.05952 253.37976
 253.42100 253.19923 252.56347 251.51570 250.12594 248.29118 246.20441 244.04165
 241.83688 239.64512 237.46936 235.31259 233.17683 231.04806 229.07830 227.23954
 225.52677 224.00301 222.63724 221.41348 220.29972 219.26395 218.37219 217.51742
 216.76366 215.94790 215.05013 214.41837 213.87260 214.15018 214.72444 214.63824
 214.57036 215.24789 216.33632 217.35915 218.87999 221.82503 226.19627 230.23311
 233.40819 236.81976 240.62999 244.87163 249.06563 252.94128 256.48813 259.74576
 262.74298 265.43021 267.83603 269.99649 271.92795 273.48288 275.04550 276.88669
 278.20297 279.29901 280.92026 282.34381 283.57581 284.66577 285.66022 286.56113
 287.37137 288.09293 288.72324 289.52652
 366.78100 356.33978 345.77656 334.64734 323.05511 311.25389 299.12867 286.93645
 274.65323 262.55501 250.56879 239.87457 230.00134 221.11012 213.29690 206.30368
 200.14246 195.08524 191.67202 189.71879 188.76057 188.82935 189.66913 190.98191
 192.71169 194.81147 197.07924 199.44302 201.89280 204.37758 206.47036 208.31714
 209.94792 211.09770 211.33147 211.56425 211.50603 211.21581 210.85359 210.48837
 210.11015 209.82492 209.63770 209.50648 209.43926 209.77504 210.16582 210.55960
 211.35738 212.54015 213.79493 215.58271 217.51549 219.56327 221.66305 223.75083
 225.81560 227.90438 230.00616 232.11694 234.25072 236.42750 238.68828 241.06305
 243.68883 245.94461 247.95139 249.72117 251.14295 252.27073 253.09751 253.41828
 253.46006 253.23884 252.60362 251.55640 250.16718 248.33296 246.24673 244.08451
 241.88029 239.68907 237.51385 235.35763 233.22241 231.09418 229.12496 227.28674
 225.57452 224.05130 222.68608 221.46286 220.34964 219.31441 218.42319 217.56897
 216.81575 216.00053 215.10331 214.47209 213.92686 214.22433 214.77014 214.56114
 214.55783 215.33453 216.42482 217.43755 218.95760 221.73788 226.21797 230.19310
 233.33691 236.78419 240.64938 244.88515 249.05179 252.90225 256.44766 259.70523
 262.68103 265.37692 267.80383 269.99295 271.89951 273.52029 275.10492 276.68262
 278.87512 280.78760 282.44250 283.89566 285.15323 286.26587 287.28094 288.20056
 289.02768 289.76419 290.40762 291.22757
 366.78100 356.33957 345.77613 334.64670 323.05426 311.25283 299.12739 286.93496
 274.65153 262.55309 250.56666 239.87222 229.99879 221.10736 213.29392 206.30049
 200.13905 195.08162 191.66818 189.71475 188.75632 188.82488 189.66445 190.97701
 192.70658 194.80614 197.07371 199.43728 201.88684 204.37141 206.46397 208.31054
 209.94111 211.09067 211.32424 211.55680 211.49837 211.20793 210.84550 210.48007
 210.10163 209.81620 209.62876 209.49733 209.42989 209.76546 210.15603 210.54959
 211.34716 212.52972 213.78429 215.57186 217.50442 219.55199 221.65155 223.73912
 225.80368 227.89225 229.99382 232.10438 234.23795 236.41451 238.67508 241.04964
 243.67521 245.93078 247.93734 249.70691 251.12847 252.25604 253.08261 253.40317
 253.44474 253.22330 252.58787 251.54043 250.15100 248.31657 246.23013 244.06770
 241.86326 239.67183 237.49639 235.33996 233.20453 231.07609 229.10666 227.26822
 225.55579 224.03235 222.66692 221.44349 220.33005 219.29462 218.40318 217.54875
 216.79532 215.97988 215.08245 214.45101 213.90558 214.26111 214.84647 214.51527
 214.43254 215.18515 216.31764 217.40524 219.02899 221.91251 226.18282 230.18123
 233.32736 236.81294 240.70088 244.90630 249.04349 252.90205 256.44797 259.69324
 262.66418 265.36575 267.79257 269.99548 271.94244 273.58289 275.14072 276.49384
 277.66830 278.67499 279.54611 280.31100 280.97296 281.55865 282.09296 282.57703
 283.01239 283.40009 283.73877 284.17038
 366.78100 356.33907 345.77514 334.64521 323.05229 311.25036 299.12443 286.93150
 274.64757 262.54864 250.56172 239.86679 229.99286 221.10093 213.28700 206.29307
 200.13114 195.07322 191.65929 189.70536 188.74643 188.81450 189.65357 190.96565
 192.69472 194.79379 197.06086 199.42393 201.87300 204.35708 206.44915 208.29522
 209.92529 211.07436 211.30743 211.53950 211.48058 211.18965 210.82672 210.46079
 210.08186 209.79593 209.60801 209.47608 209.40815 209.74322 210.13329 210.52636
 211.32343 212.50551 213.75958 215.54665 217.47872 219.52579 221.62486 223.71194
 225.77601 227.86408 229.96515 232.07522 234.20829 236.38436 238.64444 241.01851
 243.64358 245.89865 247.90472 249.67379 251.09487 252.22194 253.04801 253.36808
 253.40915 253.18722 252.55129 251.50337 250.11344 248.27851 246.19158 244.02865
 241.82372 239.63180 237.45587 235.29894 233.16301 231.03408 229.06415 227.22523
 225.51230 223.98837 222.62244 221.39851 220.28458 219.24865 218.35673 217.50180
 216.74787 215.93194 215.03401 214.40208 213.85616 214.26764 214.94365 214.52483
 214.26262 215.06625 216.14600 217.17210 218.93927 222.02254 226.28445 230.26003
 233.40895 236.90916 240.79091 244.98552 249.11432 252.94470 256.48596 259.74573
 262.71863 265.44049 267.88614 270.13315 272.06284 273.59064 274.96237 276.18536
 277.24686 278.15671 278.94406 279.63538 280.23367 280.76303 281.24597 281.68347
 282.07697 282.42737 282.73349 283.12357
 366.78100 356.33915 345.77530 334.64545 323.05260 311.25076 299.12491 286.93206
 274.64821 262.54936 250.56251 239.86766 229.99381 221.10197 213.28812 206.29427
 200.13242 195.07457 191.66072 189.70687 188.74802 188.81618 189.65533 190.96748
 192.69663 194.79578 197.06293 199.42608 201.87523 204.35938 206.45154 208.29769
 209.92784 211.07699 211.31014 211.54229 211.48344 211.19259 210.82975 210.46390
 210.08505 209.79920 209.61135 209.47950 209.41165 209.74680 210.13696 210.53011
 211.32726 212.50941 213.76356 215.55071 217.48286 219.53001 221.62917 223.71632
 225.78047 227.86862 229.96977 232.07992 234.21307 236.38922 238.64937 241.02353
 243.64868 245.90383 247.90998 249.67913 251.10028 252.22743 253.05358 253.37374
 253.41489 253.19304 252.55719 251.50934 250.11949 248.28464 246.19779 244.03495
 241.83010 239.63825 237.46240 235.30555 233.16970 231.04085 229.07100 227.23215
 225.51931 223.99546 222.62961 221.40576 220.29191 219.25606 218.36421 217.50936
 216.75552 215.93967 215.04182 214.40997 213.86412 214.28340 215.01103 214.59741
 214.25133 214.99075 215.96729 216.92197 218.83284 222.01399 226.35300 230.32855
 233.46390 236.95457 240.83789 245.04134 249.15910 252.98885 256.53305 259.80383
 262.77731 265.47061 267.93689 270.29172 272.37115 273.59296 275.70401 278.45279
 280.83859 282.88361 284.65323 286.20709 287.55182 288.74158 289.82703 290.81039
 291.69479 292.48239 293.17038 294.04718
 366.78100 356.33984 345.77668 334.64752 323.05536 311.25420 299.12904 286.93688
 274.65372 262.55557 250.56941 239.87525 230.00209 221.11093 213.29777 206.30461
 200.14345 195.08629 191.67313 189.71997 188.76181 188.83065 189.67049 190.98333
 192.71317 194.81301 197.08086 199.44470 201.89454 204.37938 206.47222 208.31906
 209.94990 211.09974 211.33358 211.56642 211.50826 211.21810 210.85594 210.49078
 210.11262 209.82746 209.64031 209.50915 209.44199 209.77783 210.16867 210.56251
 211.36035 212.54319 213.79803 215.58587 217.51871 219.56655 221.66639 223.75423
 225.81907 227.90791 230.00975 232.12060 234.25444 236.43128 238.69212 241.06696
 243.69280 245.94864 247.95548 249.72532 251.14716 252.27500 253.10184 253.42268
 253.46452 253.24336 252.60820 251.56104 250.17189 248.33773 246.25157 244.08941
 241.88525 239.69409 237.51893 235.36277 233.22761 231.09945 229.13029 227.29213
 225.57997 224.05681 222.69165 221.46849 220.35533 219.32018 218.42902 217.57486
 216.82170 216.00654 215.10938 214.47822 213.93306 214.31799 215.03751 214.69626
 214.36984 215.06885 215.88696 216.68558 218.66841 221.94582 226.42493 230.35695
 233.46460 236.93997 240.82619 245.04485 249.14569 252.94414 256.48340 259.74332
 262.67764 265.33380 267.81940 270.19266 272.31396 274.10391 275.77646 278.05905
 280.41846 282.44083 284.19083 285.72748 287.05731 288.23389 289.30734 290.27979
 291.15442 291.93326 292.61365 293.48074
 366.78100 356.34139 345.77978 334.65217 323.06157 311.26196 299.13835 286.94774
 274.66613 262.56952 250.58492 239.89231 230.02070 221.13109 213.31948 206.32787
 200.16827 195.11266 191.70105 189.74944 188.79283 188.86322 189.70462 191.01901
 192.75040 194.85179 197.12118 199.48657 201.93797 204.42436 206.51875 208.36714
 209.99953 211.15092 211.38632 211.62071 211.56410 211.27549 210.91488 210.55127
 210.17467 209.89106 209.70545 209.57584 209.51023 209.84762 210.24002 210.63541
 211.43480 212.61919 213.87558 215.66497 217.59937 219.64876 221.75015 223.83954
 225.90593 227.99632 230.09972 232.21211 234.34750 236.52589 238.78828 241.16467
 243.79207 246.04946 248.05785 249.82924 251.25263 252.38202 253.21042 253.53281
 253.57620 253.35659 252.72298 251.67737 250.28977 248.45716 246.37255 244.21194
 242.00933 239.81972 237.64612 235.49151 233.35790 231.23129 229.26368 227.42707
 225.71647 224.19486 222.83125 221.60964 220.49803 219.46442 218.57482 217.72221
 216.97060 216.15699 215.26138 214.63177 214.08817 214.39824 215.01141 214.77470
 214.48578 215.08142 215.80183 216.45879 218.44049 221.94884 226.38841 230.34145
 233.44714 236.93515 240.82866 245.00833 249.09152 252.88982 256.42789 259.67285
 262.59338 265.23090 267.67407 269.97647 272.05411 273.89929 275.68698 277.27637
 278.80392 280.64810 282.27524 283.70398 284.94043 286.03436 287.03241 287.93658
 288.74979 289.47397 290.10657 290.91278
 366.78100 356.34328 345.78357 334.65785 323.06914 311.27142 299.14971 286.96099
 274.68128 262.58656 250.60385 239.91313 230.04341 221.15570 213.34598 206.35627
 200.19855 195.14484 191.73512 189.78541 188.83069 188.90297 189.74626 191.06254
 192.79583 194.89911 197.17040 199.53768 201.99097 204.47925 206.57554 208.42582
 210.06010 211.21339 211.45067 211.68696 211.63224 211.34553 210.98681 210.62510
 210.25038 209.96866 209.78495 209.65723 209.59352 209.93280 210.32709 210.72437
 211.52566 212.71194 213.97023 215.76151 217.69779 219.74908 221.85236 223.94365
 226.01193 228.10422 230.20950 232.32379 234.46107 236.64135 238.90564 241.28392
 243.91321 246.17249 248.18278 249.95606 251.38135 252.51263 253.34292 253.66720
 253.71248 253.49477 252.86305 251.81934 250.43362 248.60291 246.52019 244.36148
 242.16076 239.97304 237.80133 235.64861 233.51690 231.39218 229.42647 227.59175
 225.88304 224.36332 223.00161 221.78189 220.67217 219.64046 218.75274 217.90203
 217.15231 216.34060 215.44688 214.81917 214.27745 214.51335 214.97549 214.73479
 214.51363 215.05075 215.77356 216.48053 218.47018 221.93666 226.39714 230.31671
 233.39555 236.86575 240.76909 244.98318 249.07909 252.88307 256.42993 259.69159
 262.63116 265.25934 267.68585 269.98685 272.08649 273.72305 275.63211 277.38748
 278.17169 279.28134 280.91708 282.35339 283.59637 284.69611 285.69946 286.60843
 287.42593 288.15393 288.78989 289.60034
 366.78100 356.34287 345.78273 334.65660 323.06747 311.26933 299.14720 286.95807
 274.67793 262.58280 250.59967 239.90854 230.03840 221.15027 213.34014 206.35000
 200.19187 195.13774 191.72760 189.77747 188.82234 188.89420 189.73707 191.05294
 192.78580 194.88867 197.15954 199.52641 201.97927 204.46714 206.56301 208.41287
 210.04674 211.19961 211.43647 211.67234 211.61721 211.33007 210.97094 210.60881
 210.23367 209.95154 209.76741 209.63928 209.57514 209.91401 210.30788 210.70474
 211.50561 212.69148 213.94934 215.74021 217.67608 219.72694 221.82981 223.92068
 225.98854 228.08041 230.18528 232.29915 234.43601 236.61588 238.87975 241.25761
 243.88648 246.14535 248.15521 249.92808 251.35295 252.48381 253.31368 253.63755
 253.68241 253.46428 252.83215 251.78802 250.40188 248.57075 246.48762 244.32848
 242.12735 239.93922 237.76708 235.61395 233.48182 231.35668 229.39055 227.55542
 225.84628 224.32615 222.96402 221.74389 220.63375 219.60162 218.71349 217.86235
 217.11222 216.30009 215.40595 214.77782 214.23569 214.51677 215.06766 214.66846
 214.34372 214.90277 215.70050 216.53099 218.53810 221.98895 226.47910 230.38022
 233.40843 236.83900 240.75629 245.02980 249.14258 252.94403 256.48349 259.73068
 262.64606 265.25406 267.66986 269.99289 272.05969 273.71848 275.73889 277.43616
 278.18137 279.14343 280.64896 282.11465 283.38312 284.50537 285.52924 286.45682
 287.29105 288.03397 288.68292 289.50998
 366.78100 356.34072 345.77844 334.65016 323.05888 311.25860 299.13432 286.94304
 274.66076 262.56348 250.57820 239.88491 230.01263 221.12235 213.31007 206.31779
 200.15751 195.10123 191.68895 189.73667 188.77939 188.84911 189.68983 191.00355
 192.73427 194.83499 197.10371 199.46843 201.91915 204.40487 206.49859 208.34630
 209.97802 211.12874 211.36346 211.59718 211.53990 211.25062 210.88934 210.52506
 210.14778 209.86350 209.67722 209.54694 209.48066 209.81738 210.20910 210.60382
 211.40254 212.58626 213.84198 215.63069 217.56441 219.61313 221.71385 223.80257
 225.86829 227.95801 230.06073 232.17245 234.30717 236.48489 238.74661 241.12233
 243.74905 246.00577 248.01349 249.78421 251.20693 252.33565 253.16337 253.48508
 253.52780 253.30752 252.67324 251.62696 250.23868 248.40540 246.32012 244.15884
 241.95556 239.76528 237.59100 235.43572 233.30144 231.17416 229.20588 227.36860
 225.65732 224.13504 222.77076 221.54847 220.43619 219.40191 218.51163 217.65835
 216.90607 216.09179 215.19551 214.56523 214.02095 214.41354 215.25427 214.79597
 214.06055 214.55753 215.44737 216.42107 218.48503 221.96687 226.53661 230.42281
 233.48892 236.94069 240.84624 245.07578 249.17964 252.97134 256.48785 259.72501
 262.63101 265.24179 267.65109 269.93225 271.98007 273.69638 275.53104 277.20050
 278.21484 279.20306 280.34854 281.44415 282.64209 283.75836 284.77679 285.69940
 286.52921 287.26813 287.91364 288.73630
 366.78100 356.34019 345.77738 334.64857 323.05676 311.25595 299.13114 286.93933
 274.65652 262.55871 250.57290 239.87909 230.00628 221.11547 213.30266 206.30985
 200.14904 195.09223 191.67941 189.72660 188.76879 188.83798 189.67817 190.99136
 192.72155 194.82174 197.08993 199.45412 201.90431 204.38950 206.48269 208.32988
 209.96107 211.11126 211.34545 211.57864 211.52083 211.23102 210.86921 210.50440
 210.12659 209.84178 209.65497 209.52416 209.45735 209.79354 210.18473 210.57892
 211.37711 212.56030 213.81549 215.60368 217.53687 219.58506 221.68524 223.77343
 225.83862 227.92781 230.03000 232.14119 234.27538 236.45257 238.71376 241.08895
 243.71514 245.97133 247.97852 249.74871 251.17090 252.29909 253.12628 253.44747
 253.48966 253.26885 252.63404 251.58723 250.19842 248.36461 246.27880 244.11699
 241.91318 239.72237 237.54756 235.39175 233.25694 231.12913 229.16032 227.32251
 225.61070 224.08788 222.72307 221.50026 220.38745 219.35264 218.46183 217.60802
 216.85521 216.04040 215.14359 214.51278 213.96797 214.38831 215.33586 215.02626
 213.94681 214.24472 215.16254 216.15820 218.27258 221.84286 226.54114 230.37610
 233.49884 236.94980 240.86374 245.08919 249.19220 252.96660 256.46637 259.68259
 262.58368 265.19928 267.61600 269.90683 271.96457 273.70514 275.45172 277.08633
 278.01038 278.98849 280.34344 281.29135 282.01562 282.95853 283.96472 284.88794
 285.71826 286.45767 287.10361 287.92676
 366.78100 356.34078 345.77856 334.65035 323.05913 311.25891 299.13469 286.94347
 274.66126 262.56404 250.57882 239.88560 230.01338 221.12316 213.31095 206.31873
 200.15851 195.10229 191.69007 189.73786 188.78064 188.85042 189.69120 191.00498
 192.73577 194.83655 197.10533 199.47011 201.92089 204.40668 206.50046 208.34824
 209.98002 211.13080 211.36558 211.59937 211.54215 211.25293 210.89171 210.52749
 210.15028 209.86606 209.67984 209.54962 209.48340 209.82019 210.21197 210.60675
 211.40553 212.58931 213.84510 215.63388 217.56766 219.61644 221.71722 223.80601
 225.87179 227.96157 230.06435 232.17613 234.31091 236.48870 238.75048 241.12626
 243.75304 246.00982 248.01761 249.78839 251.21117 252.33995 253.16773 253.48952
 253.53230 253.31208 252.67786 251.63164 250.24343 248.41021 246.32499 244.16377
 241.96055 239.77033 237.59612 235.44090 233.30668 231.17946 229.21124 227.37403
 225.66281 224.14059 222.77637 221.55415 220.44194 219.40772 218.51750 217.66428
 216.91206 216.09785 215.20163 214.57141 214.02719 214.43904 215.35725 215.05324
 214.01697 214.13766 215.02365 216.14557 218.31139 221.86069 226.55014 230.42029
 233.48619 236.95857 240.89401 245.13634 249.23241 252.99934 256.49173 259.69763
 262.58545 265.19147 267.60812 269.89243 271.94870 273.70145 275.42288 277.01819
 277.82263 278.75998 280.27216 281.24417 281.96005 283.01303 284.02661 284.94485
 285.77072 286.50613 287.14859 287.96732
 366.78100 356.34006 345.77712 334.64819 323.05625 311.25531 299.13037 286.93843
 274.65549 262.55756 250.57162 239.87768 230.00474 221.11380 213.30087 206.30793
 200.14699 195.09005 191.67711 189.72418 188.76624 188.83530 189.67536 190.98842
 192.71848 194.81855 197.08661 199.45067 201.90073 204.38579 206.47886 208.32592
 209.95698 211.10704 211.34110 211.57416 211.51623 211.22629 210.86435 210.49941
 210.12147 209.83654 209.64960 209.51866 209.45172 209.78778 210.17885 210.57291
 211.37097 212.55403 213.80909 215.59715 217.53022 219.57828 221.67834 223.76640
 225.83146 227.92053 230.02259 232.13365 234.26771 236.44477 238.70583 241.08090
 243.70696 245.96302 247.97008 249.74014 251.16221 252.29027 253.11733 253.43839
 253.48045 253.25952 252.62458 251.57764 250.18870 248.35476 246.26882 244.10689
 241.90295 239.71201 237.53707 235.38113 233.24620 231.11826 229.14932 227.31138
 225.59944 224.07650 222.71157 221.48863 220.37569 219.34075 218.44981 217.59588
 216.84294 216.02800 215.13106 214.50012 213.95518 214.42450 215.45210 215.05576
 213.95760 213.98018 214.94304 216.21698 218.40579 221.92622 226.61737 230.50285
 233.53757 237.01146 240.95909 245.21864 249.31337 253.07285 256.55258 259.74530
 262.62186 265.21552 267.62439 269.87772 271.94330 273.65601 275.36703 276.88928
 277.68787 278.79636 280.26874 281.16000 282.29062 283.38263 284.37894 285.28149
 286.09326 286.81616 287.44763 288.25241
 366.78100 356.34013 345.77727 334.64840 323.05654 311.25567 299.13081 286.93894
 274.65608 262.55821 250.57235 239.87848 230.00562 221.11475 213.30188 206.30902
 200.14815 195.09129 191.67842 189.72556 188.76769 188.83683 189.67696 190.99010
 192.72023 194.82037 197.08850 199.45264 201.90277 204.38790 206.48104 208.32817
 209.95931 211.10944 211.34358 211.57671 211.51885 211.22898 210.86712 210.50225
 210.12439 209.83952 209.65265 209.52179 209.45492 209.79106 210.18219 210.57633
 211.37446 212.55760 213.81273 215.60087 217.53400 219.58214 221.68227 223.77040
 225.83554 227.92467 230.02681 232.13794 234.27208 236.44921 238.71035 241.08548
 243.71162 245.96775 247.97489 249.74502 251.16716 252.29529 253.12242 253.44356
 253.48569 253.26483 252.62996 251.58310 250.19423 248.36037 246.27450 244.11264
 241.90877 239.71791 237.54304 235.38717 233.25231 231.12444 229.15558 227.31771
 225.60585 224.08298 222.71812 221.49525 220.38239 219.34752 218.45666 217.60279
 216.84992 216.03506 215.13819 214.50733 213.96246 214.43477 215.48895 215.25716
 213.90453 213.76611 214.71159 215.99347 218.29996 221.92343 226.66672 230.56094
 233.58006 237.05820 241.01265 245.27850 249.37161 253.11342 256.57056 259.74945
 262.62732 265.22821 267.61600 269.84836 271.91559 273.67377 275.40479 276.88303
 277.65845 278.81235 280.32935 281.32767 282.41141 283.49371 284.48740 285.38757
 286.19720 286.91818 287.54800 288.35065
 366.78100 356.34188 345.78077 334.65365 323.06353 311.26442 299.14130 286.95119
 274.67007 262.57395 250.58984 239.89772 230.02660 221.13749 213.32637 206.33526
 200.17614 195.12102 191.70991 189.75879 188.80267 188.87356 189.71544 191.03033
 192.76221 194.86409 197.13398 199.49986 201.95174 204.43863 206.53351 208.38240
 210.01528 211.16716 211.40305 211.63793 211.58181 211.29370 210.93358 210.57047
 210.19435 209.91123 209.72612 209.59700 209.53188 209.86977 210.26265 210.65854
 211.45842 212.64330 213.90019 215.69007 217.62495 219.67484 221.77672 223.86661
 225.93349 228.02437 230.12826 232.24114 234.37702 236.55591 238.81879 241.19568
 243.82356 246.08144 248.09033 249.86221 251.28609 252.41598 253.24486 253.56775
 253.61163 253.39251 252.75940 251.71428 250.32716 248.49505 246.41093 244.25082
 242.04870 239.85958 237.68647 235.53235 233.39923 231.27312 229.30600 227.46989
 225.75977 224.23865 222.87554 221.65442 220.54330 219.51019 218.62107 217.76896
 217.01784 216.20472 215.30961 214.68049 214.13737 214.53178 215.43045 215.43576
 214.06876 213.65388 214.45984 215.70792 218.11871 221.86636 226.65002 230.55112
 233.57771 237.07014 241.04642 245.32692 249.42009 253.15323 256.59204 259.74954
 262.61508 265.21478 267.59479 269.81235 271.88123 273.69046 275.43884 276.74048
 277.60474 278.89722 280.42999 281.41135 282.44061 283.51151 284.50232 285.39990
 286.20718 286.92609 287.55408 288.35440
 366.78100 356.34260 345.78220 334.65581 323.06641 311.26801 299.14561 286.95621
 274.67581 262.58042 250.59702 239.90562 230.03522 221.14682 213.33642 206.34603
 200.18763 195.13323 191.72283 189.77243 188.81703 188.88864 189.73124 191.04684
 192.77944 194.88204 197.15264 199.51925 201.97185 204.45945 206.55505 208.40465
 210.03825 211.19086 211.42746 211.66306 211.60766 211.32026 210.96086 210.59847
 210.22307 209.94067 209.75627 209.62787 209.56347 209.90208 210.29568 210.69228
 211.49288 212.67848 213.93608 215.72669 217.66229 219.71289 221.81549 223.90609
 225.97369 228.06530 230.16990 232.28350 234.42010 236.59970 238.86330 241.24091
 243.86951 246.12811 248.13771 249.91031 251.33491 252.46552 253.29512 253.61872
 253.66332 253.44492 252.81252 251.76813 250.38173 248.55033 246.46693 244.30753
 242.10613 239.91774 237.74534 235.59194 233.45954 231.33414 229.36774 227.53235
 225.82295 224.30255 222.94015 221.71975 220.60935 219.57696 218.68856 217.83716
 217.08676 216.27436 215.37996 214.75157 214.20917 214.58974 215.44873 215.41354
 214.27457 213.69052 214.29182 215.52838 218.02591 221.84357 226.69110 230.60057
 233.60484 237.09888 241.08951 245.38837 249.47865 253.18344 256.59174 259.73605
 262.59967 265.19839 267.56165 269.75955 271.88028 273.69537 275.44440 276.67841
 277.49973 278.86475 280.32547 281.39447 282.49619 283.56943 284.54858 285.43564
 286.23346 286.94391 287.56454 288.35550
 366.78100 356.34405 345.78511 334.66016 323.07222 311.27527 299.15433 286.96638
 274.68744 262.59349 250.61154 239.92160 230.05265 221.16571 213.35676 206.36782
 200.21087 195.15793 191.74898 189.80003 188.84609 188.91914 189.76320 191.08025
 192.81431 194.91836 197.19042 199.55847 202.01252 204.50158 206.59863 208.44969
 210.08474 211.23880 211.47685 211.71391 211.65996 211.37402 211.01607 210.65512
 210.28118 210.00023 209.81729 209.69034 209.62740 209.96745 210.36251 210.76056
 211.56261 212.74967 214.00872 215.80078 217.73783 219.78989 221.89394 223.98600
 226.05505 228.14810 230.25416 232.36921 234.50727 236.68832 238.95338 241.33243
 243.96249 246.22254 248.23359 250.00765 251.43370 252.56576 253.39681 253.72187
 253.76792 253.55098 252.92003 251.87708 250.49214 248.66219 246.58025 244.42230
 242.22236 240.03541 237.86447 235.71252 233.58157 231.45763 229.49268 227.65874
 225.95079 224.43185 223.07090 221.85196 220.74301 219.71207 218.82512 217.97517
 217.22623 216.41528 215.52234 214.89539 214.35445 214.69193 215.44116 215.39696
 214.36270 213.81967 214.26060 215.45551 218.03358 221.85164 226.77704 230.59288
 233.59509 237.07761 241.10258 245.45082 249.55170 253.25085 256.62549 259.72690
 262.56638 265.16940 267.52945 269.73474 271.84433 273.71191 275.39108 276.63663
 277.76797 279.01627 280.26254 281.61032 282.77744 283.81003 284.75211 285.60556
 286.37317 287.05670 287.65384 288.41483
 366.78100 356.34566 345.78832 334.66499 323.07865 311.28331 299.16397 286.97763
 274.70029 262.60796 250.62762 239.93928 230.07194 221.18660 213.37927 206.39193
 200.23659 195.18525 191.77791 189.83057 188.87824 188.95290 189.79856 191.11722
 192.85288 194.95855 197.23221 199.60187 202.05753 204.54819 206.64685 208.49952
 210.13618 211.29184 211.53150 211.77016 211.71783 211.43349 211.07715 210.71781
 210.34547 210.06613 209.88480 209.75946 209.69812 210.03978 210.43644 210.83611
 211.63977 212.82843 214.08909 215.88275 217.82141 219.87508 221.98074 224.07440
 226.14506 228.23972 230.34739 232.46405 234.60371 236.78637 239.05303 241.43369
 244.06536 246.32702 248.33968 250.11534 251.54300 252.67667 253.50933 253.83599
 253.88365 253.66831 253.03898 251.99764 250.61430 248.78596 246.70562 244.54928
 242.35095 240.16561 237.99627 235.84593 233.71659 231.59426 229.63092 227.79858
 226.09224 224.57490 223.21556 221.99823 220.89089 219.86155 218.97621 218.12787
 217.38054 216.57120 215.67986 215.05452 214.51518 214.79819 215.43457 215.43484
 214.43988 213.86105 214.07446 215.06340 217.78273 221.71019 226.88832 230.63950
 233.66867 237.20306 241.25438 245.57018 249.70343 253.46094 256.86523 259.95645
 262.76492 265.34775 267.67715 269.78998 271.83344 273.73172 275.35260 276.71503
 277.97098 279.24533 280.59543 281.78091 282.80685 283.71457 284.54269 285.29294
 285.96768 286.56854 287.09344 287.76239
 366.78100 356.34501 345.78701 334.66302 323.07603 311.28003 299.16004 286.97305
 274.69506 262.60206 250.62107 239.93208 230.06408 221.17809 213.37010 206.38210
 200.22611 195.17412 191.76612 189.81813 188.86514 188.93915 189.78415 191.10216
 192.83717 194.94217 197.21518 199.58419 202.03919 204.52920 206.62721 208.47921
 210.11522 211.27023 211.50924 211.74724 211.69425 211.40926 211.05226 210.69227
 210.31928 210.03928 209.85729 209.73130 209.66930 210.01031 210.40632 210.80533
 211.60833 212.79634 214.05635 215.84935 217.78736 219.84037 221.94537 224.03838
 226.10839 228.20239 230.30940 232.42541 234.56442 236.74642 239.01243 241.39244
 244.02344 246.28445 248.29646 250.07146 251.49847 252.63148 253.46348 253.78949
 253.83650 253.62050 252.99051 251.94852 250.56453 248.73553 246.65454 244.49755
 242.29855 240.11256 237.94257 235.79157 233.66158 231.53859 229.57459 227.74160
 226.03461 224.51662 223.15662 221.93863 220.83064 219.80064 218.91465 218.06566
 217.31766 216.50767 215.61568 214.98968 214.44969 214.78101 215.49547 215.48369
 214.72314 213.97795 213.75554 214.57646 217.44536 221.60948 226.74699 230.55721
 233.61975 237.21164 241.32080 245.69153 249.87593 253.66919 257.09192 260.20660
 263.03265 265.60562 267.89441 269.90060 271.84366 273.68790 275.41183 276.77939
 277.97665 279.46613 281.05420 282.44864 283.65540 284.72308 285.69717 286.57962
 287.37332 288.08008 288.69751 289.48434
 366.78100 356.34449 345.78598 334.66147 323.07396 311.27745 299.15694 286.96943
 274.69092 262.59741 250.61590 239.92639 230.05788 221.17138 213.36287 206.37436
 200.21785 195.16534 191.75683 189.80832 188.85481 188.92830 189.77279 191.09028
 192.82477 194.92926 197.20175 199.57024 202.02473 204.51422 206.61171 208.46320
 210.09869 211.25318 211.49167 211.72916 211.67565 211.39015 211.03264 210.67213
 210.29862 210.01811 209.83560 209.70909 209.64658 209.98707 210.38256 210.78105
 211.58354 212.77103 214.03052 215.82301 217.76050 219.81299 221.91748 224.00997
 226.07946 228.17295 230.27944 232.39493 234.53342 236.71491 238.98041 241.35990
 243.99039 246.25088 248.26237 250.03686 251.46335 252.59584 253.42733 253.75282
 253.79931 253.58280 252.95229 251.90978 250.52527 248.69576 246.61425 244.45674
 242.25723 240.07072 237.90021 235.74870 233.61819 231.49468 229.53018 227.69667
 225.98916 224.47065 223.11014 221.89163 220.78312 219.75261 218.86610 218.01659
 217.26808 216.45757 215.56506 214.93855 214.39804 214.76823 215.54253 215.46306
 214.91092 214.30879 213.82927 214.31877 217.15695 221.41705 226.41808 230.25740
 233.36243 237.05159 241.25252 245.67613 249.87825 253.68004 257.11737 260.26062
 263.11765 265.70578 267.97610 269.91708 271.82144 273.66495 275.45160 276.85733
 278.00284 279.57446 281.21780 282.66077 283.90952 285.01434 286.02234 286.93549
 287.75677 288.48816 289.12704 289.94125
 366.78100 356.34438 345.78575 334.66113 323.07351 311.27688 299.15626 286.96863
 274.69001 262.59639 250.61476 239.92514 230.05652 221.16989 213.36127 206.37264
 200.21602 195.16340 191.75477 189.80615 188.85253 188.92590 189.77028 191.08765
 192.82203 194.92641 197.19878 199.56716 202.02154 204.51091 206.60829 208.45966
 210.09504 211.24942 211.48779 211.72517 211.67155 211.38592 211.02830 210.66767
 210.29405 210.01343 209.83080 209.70418 209.64156 209.98193 210.37731 210.77568
 211.57806 212.76544 214.02481 215.81719 217.75457 219.80694 221.91132 224.00369
 226.07307 228.16645 230.27282 232.38820 234.52658 236.70795 238.97333 241.35271
 243.98308 246.24346 248.25483 250.02921 251.45559 252.58796 253.41934 253.74472
 253.79109 253.57447 252.94384 251.90122 250.51660 248.68697 246.60535 244.44773
 242.24810 240.06148 237.89085 235.73923 233.60861 231.48498 229.52036 227.68674
 225.97911 224.46049 223.09986 221.88124 220.77262 219.74199 218.85537 218.00575
 217.25712 216.44650 215.55387 214.92725 214.38663 214.76883 215.56845 215.41920
 214.81685 214.45085 214.13127 214.44839 217.12077 221.35732 226.22176 230.04741
 233.15730 236.91081 241.19304 245.67255 249.88776 253.68016 257.10834 260.26288
 263.17239 265.82947 268.15735 270.08386 271.90805 273.65677 275.42645 276.91745
 278.11411 279.74857 281.48267 283.00534 284.32309 285.48895 286.55264 287.51624
 288.38290 289.15469 289.82889 290.68808
 366.78100 356.34365 345.78429 334.65894 323.07058 311.27323 299.15188 286.96352
 274.68417 262.58981 250.60746 239.91710 230.04775 221.16040 213.35104 206.36169
 200.20433 195.15098 191.74163 189.79227 188.83792 188.91056 189.75421 191.07085
 192.80450 194.90815 197.17979 199.54744 202.00108 204.48973 206.58638 208.43702
 210.07167 211.22531 211.46296 211.69960 211.64525 211.35890 211.00054 210.63919
 210.26483 209.98348 209.80013 209.67277 209.60942 209.94906 210.34371 210.74135
 211.54300 212.72965 213.98829 215.77994 217.71658 219.76823 221.87188 223.96352
 226.03217 228.12481 230.23046 232.34510 234.48275 236.66340 238.92804 241.30669
 243.93633 246.19598 248.20663 249.98027 251.40592 252.53756 253.36821 253.69285
 253.73850 253.52115 252.88979 251.84644 250.46108 248.63073 246.54838 244.39002
 242.18967 240.00231 237.83096 235.67860 233.54725 231.42290 229.45754 227.62319
 225.91483 224.39548 223.03413 221.81477 220.70542 219.67406 218.78671 217.93635
 217.18700 216.37565 215.48229 214.85494 214.31358 214.72188 215.61578 215.53564
 214.69897 214.20906 214.11220 214.66997 217.23538 221.39035 226.17723 230.03432
 233.11852 236.88385 241.18571 245.69009 249.86008 253.58096 256.94800 260.08804
 263.02829 265.75021 268.17191 270.17590 272.04614 273.84180 275.49744 277.02454
 278.44760 279.78708 281.30942 282.84048 284.20529 285.41281 286.51447 287.51251
 288.41013 289.20947 289.90775 290.79764
 366.78100 356.34413 345.78526 334.66040 323.07253 311.27566 299.15479 286.96693
 274.68806 262.59419 250.61232 239.92246 230.05359 221.16672 213.35785 206.36898
 200.21212 195.15925 191.75038 189.80151 188.84765 188.92078 189.76491 191.08204
 192.81617 194.92031 197.19244 199.56057 202.01470 204.50384 206.60097 208.45210
 210.08723 211.24137 211.47950 211.71663 211.66276 211.37689 211.01903 210.65816
 210.28429 210.00342 209.82056 209.69369 209.63082 209.97095 210.36609 210.76422
 211.56635 212.75348 214.01261 215.80475 217.74188 219.79401 221.89814 223.99028
 226.05941 228.15254 230.25867 232.37380 234.51194 236.69307 238.95820 241.33733
 243.96747 246.22760 248.23873 250.01286 251.43900 252.57113 253.40226 253.72739
 253.77352 253.55666 252.92579 251.88292 250.49805 248.66819 246.58632 244.42845
 242.22858 240.04171 237.87085 235.71898 233.58811 231.46424 229.49938 227.66551
 225.95764 224.43877 223.07791 221.85904 220.75017 219.71930 218.83243 217.98257
 217.23370 216.42283 215.52996 214.90310 214.36223 214.74002 215.59242 215.69322
 214.82964 214.01302 213.79791 214.51126 217.20326 221.39221 226.21303 230.05367
 233.15791 236.93062 241.25061 245.76994 249.94632 253.61557 256.90079 259.97241
 262.87085 265.58636 268.02499 270.07697 272.01852 273.93771 275.67395 277.18597
 278.58572 279.92947 281.36758 282.82758 284.16718 285.35239 286.43372 287.41333
 288.29437 289.07895 289.76434 290.63779
 366.78100 356.34660 345.79020 334.66780 323.08240 311.28800 299.16960 286.98420
 274.70780 262.61640 250.63700 239.94960 230.08320 221.19880 213.39240 206.40600
 200.25160 195.20120 191.79480 189.84840 188.89700 188.97261 189.81921 191.13881
 192.87541 194.98201 197.25661 199.62721 202.08381 204.57541 206.67501 208.52861
 210.16621 211.32281 211.56341 211.80301 211.75161 211.46821 211.11281 210.75441
 210.38301 210.10461 209.92421 209.79981 209.73941 210.08201 210.47961 210.88021
 211.68481 212.87441 214.13601 215.93061 217.87021 219.92481 222.03141 224.12601
 226.19761 228.29321 230.40181 232.51941 234.66001 236.84361 239.11121 241.49282
 244.12542 246.38802 248.40162 250.17822 251.60682 252.74142 253.57502 253.90262
 253.95122 253.73682 253.10842 252.06802 250.68562 248.85822 246.77882 244.62342
 242.42602 240.24162 238.07322 235.92382 233.79542 231.67402 229.71162 227.88022
 226.17482 224.65842 223.30002 222.08362 220.97722 219.94882 219.06442 218.21702
 217.47062 216.66222 215.77182 215.14742 214.60902 214.86771 215.47748 215.72874
 215.01743 214.05226 213.61208 214.29688 217.09358 221.32346 226.18439 230.00336
 233.12750 236.95448 241.32942 245.88420 250.09016 253.80061 257.09180 260.12045
 262.96207 265.64136 268.08563 270.17142 272.19302 274.15692 275.93219 277.37350
 278.66983 280.22137 281.78436 283.33176 284.67087 285.85565 286.93658 287.91583
 288.79654 289.58084 290.26599 291.13910
 366.78100 356.34840 345.79380 334.67320 323.08960 311.29700 299.18040 286.99680
 274.72220 262.63260 250.65500 239.96940 230.10480 221.22220 213.41760 206.43300
 200.28040 195.23180 191.82720 189.88260 188.93300 189.01040 189.85880 191.18020
 192.91860 195.02700 197.30340 199.67580 202.13420 204.62760 206.72900 208.58440
 210.22380 211.38220 211.62460 211.86600 211.81640 211.53479 211.18119 210.82459
 210.45499 210.17839 209.99979 209.87719 209.81859 210.16299 210.56239 210.96479
 211.77119 212.96259 214.22599 216.02239 217.96379 220.02019 222.12859 224.22499
 226.29839 228.39579 230.50619 232.62559 234.76799 236.95339 239.22279 241.60619
 244.24059 246.50499 248.52039 250.29879 251.72919 252.86559 253.70099 254.03039
 254.08079 253.86819 253.24159 252.20299 250.82239 248.99679 246.91919 244.76559
 242.56999 240.38739 238.22079 236.07319 233.94659 231.82699 229.86639 228.03679
 226.33319 224.81859 223.46199 222.24739 221.14279 220.11619 219.23359 218.38799
 217.64339 216.83679 215.94819 215.32559 214.78899 214.96062 215.38852 215.74141
 215.25011 214.18884 213.54831 214.11137 216.93428 221.17981 225.99596 229.83521
 233.02597 236.93535 241.36958 245.95508 250.18298 253.90646 257.20377 260.23166
 263.05579 265.70334 268.12366 270.22507 272.33481 274.37283 276.12326 277.53455
 278.94904 280.57953 282.10043 283.60901 284.92862 286.09613 287.16132 288.12631
 288.99420 289.76706 290.44223 291.30261
 366.78100 356.34978 345.79655 334.67733 323.09510 311.30388 299.18866 287.00643
 274.73321 262.64498 250.66876 239.98454 230.12131 221.24009 213.43686 206.45364
 200.30242 195.25519 191.85197 189.90874 188.96052 189.03930 189.88907 191.21185
 192.95163 195.06140 197.33918 199.71295 202.17273 204.66751 206.77028 208.62706
 210.26783 211.42761 211.67139 211.91416 211.86594 211.58571 211.23349 210.87827
 210.51004 210.23482 210.05759 209.93637 209.87915 210.22492 210.62570 211.02947
 211.83725 213.03003 214.29480 216.09258 218.03535 220.09313 222.20291 224.30068
 226.37546 228.47423 230.58601 232.70679 234.85056 237.03734 239.30812 241.69289
 244.32867 246.59444 248.61122 250.39100 251.82277 252.96055 253.79732 254.12810
 254.17988 253.96865 253.34343 252.30620 250.92698 249.10276 247.02653 244.87431
 242.68008 240.49886 238.33364 236.18741 234.06219 231.94396 229.98474 228.15652
 226.45429 224.94107 223.58584 222.37262 221.26940 220.24417 219.36295 218.51872
 217.77550 216.97028 216.08305 215.46183 214.92661 215.03633 215.32878 215.73088
 215.53114 214.43272 213.54312 213.96034 216.76591 220.99727 225.74417 229.58293
 232.82391 236.84334 241.33578 245.93092 250.15642 253.89832 257.23108 260.29755
 263.14597 265.79211 268.15967 270.22012 272.30988 274.30139 276.08893 277.49649
 279.09406 280.76831 282.33105 283.86426 285.19110 286.36502 287.43604 288.40631
 289.27896 290.05606 290.73492 291.60007
 366.78100 356.34822 345.79343 334.67265 323.08887 311.29608 299.17930 286.99552
 274.72073 262.63095 250.65316 239.96738 230.10260 221.21981 213.41503 206.43025
 200.27746 195.22868 191.82390 189.87911 188.92933 189.00655 189.85476 191.17598
 192.91419 195.02241 197.29863 199.67084 202.12906 204.62228 206.72349 208.57871
 210.21793 211.37614 211.61836 211.85958 211.80979 211.52801 211.17423 210.81744
 210.44766 210.17087 209.99209 209.86931 209.81052 210.15474 210.55396 210.95617
 211.76239 212.95361 214.21682 216.01304 217.95426 220.01047 222.11869 224.21490
 226.28812 228.38534 230.49555 232.61477 234.75699 236.94220 239.21142 241.59464
 244.22885 246.49307 248.50829 250.28650 251.71672 252.85294 253.68815 254.01737
 254.06758 253.85480 253.22802 252.18923 250.80845 248.98267 246.90488 244.75110
 242.55532 240.37253 238.20575 236.05797 233.93118 231.81140 229.85061 228.02083
 226.31705 224.80226 223.44548 222.23070 221.12591 220.09913 219.21635 218.37056
 217.62578 216.81900 215.93021 215.30743 214.77065 214.97946 215.41386 215.49573
 215.66301 214.78185 213.76015 213.95288 216.66045 220.83153 225.49399 229.32828
 232.62379 236.71712 241.29640 245.91454 250.15714 253.92537 257.30704 260.42551
 263.30606 265.98978 268.37900 270.40277 272.44562 274.44073 276.04343 277.44504
 279.37537 281.12430 282.76956 284.28616 285.59866 286.75992 287.81937 288.77914
 289.64236 290.41107 291.08258 291.93835
 366.78100 356.34459 345.78618 334.66177 323.07436 311.27795 299.15754 286.97013
 274.69172 262.59831 250.61690 239.92749 230.05908 221.17266 213.36425 206.37584
 200.21943 195.16702 191.75861 189.81020 188.85679 188.93038 189.77497 191.09256
 192.82715 194.93174 197.20433 199.57292 202.02751 204.51710 206.61469 208.46628
 210.10187 211.25646 211.49505 211.73264 211.67923 211.39381 211.03640 210.67599
 210.30258 210.02217 209.83976 209.71335 209.65094 209.99153 210.38712 210.78571
 211.58830 212.77589 214.03548 215.82807 217.76566 219.81825 221.92284 224.01543
 226.08502 228.17861 230.28520 232.40079 234.53938 236.72096 238.98655 241.36614
 243.99673 246.25732 248.26891 250.04350 251.47009 252.60268 253.43427 253.75986
 253.80645 253.59004 252.95963 251.91722 250.53281 248.70340 246.62199 244.46458
 242.26517 240.07876 237.90835 235.75694 233.62653 231.50312 229.53870 227.70529
 225.99788 224.47947 223.11906 221.90065 220.79224 219.76183 218.87542 218.02601
 217.27760 216.46719 215.57478 214.94837 214.40796 214.79384 215.60255 215.26288
 215.44136 215.08424 214.11591 214.11320 216.59203 220.68878 225.28012 229.10605
 232.48540 236.66341 241.27821 245.87173 250.08107 253.83522 257.23010 260.41086
 263.37830 266.10797 268.51086 270.55780 272.53418 274.46701 276.14456 277.70557
 279.40079 280.98224 282.37857 283.65536 284.85782 285.93250 286.91296 287.80118
 288.60007 289.31146 289.93292 290.72491
 366.78100 356.34601 345.78901 334.66602 323.08002 311.28503 299.16604 286.98004
 274.70305 262.61105 250.63106 239.94307 230.07607 221.19108 213.38408 206.39709
 200.24210 195.19110 191.78411 189.83712 188.88512 188.96013 189.80613 191.12514
 192.86115 194.96715 197.24116 199.61116 202.06717 204.55818 206.65718 208.51019
 210.14719 211.30320 211.54321 211.78221 211.73022 211.44622 211.09023 210.73124
 210.35924 210.08025 209.89925 209.77426 209.71327 210.05527 210.45228 210.85228
 211.65629 212.84530 214.10630 215.90031 217.83932 219.89332 221.99933 224.09333
 226.16434 228.25935 230.36735 232.48436 234.62436 236.80737 239.07438 241.45538
 244.08739 246.34939 248.36240 250.13841 251.56641 252.70042 253.53342 253.86043
 253.90844 253.69344 253.06445 252.02345 250.64046 248.81247 246.73247 244.57648
 242.37849 240.19349 238.02450 235.87450 233.74551 231.62352 229.66052 227.82853
 226.12253 224.60554 223.24655 222.02955 220.92256 219.89356 219.00857 218.16058
 217.41358 216.60459 215.71359 215.08860 214.54961 214.83206 215.48668 215.52116
 215.30721 215.04790 214.20197 213.99934 216.37718 220.50621 225.23730 228.87666
 232.43068 236.61349 241.22789 245.75352 249.91148 253.63681 257.05096 260.26010
 263.28564 266.08716 268.57492 270.71127 272.67755 274.60730 276.33237 277.84018
 279.25140 280.58444 281.74417 282.75095 283.67606 284.51120 285.38025 286.24557
 287.02692 287.72272 288.33057 289.10519
 366.78100 356.34925 345.79550 334.67575 323.09301 311.30126 299.18551 287.00276
 274.72901 262.64026 250.66352 239.97877 230.11502 221.23327 213.42952 206.44577
 200.29403 195.24628 191.84253 189.89878 188.95003 189.02828 189.87754 191.19979
 192.93904 195.04829 197.32554 199.69879 202.15805 204.65230 206.75455 208.61080
 210.25105 211.41030 211.65355 211.89581 211.84706 211.56631 211.21356 210.85781
 210.48906 210.21332 210.03557 209.91382 209.85607 210.20132 210.60157 211.00483
 211.81208 213.00433 214.26858 216.06583 218.00808 220.06534 222.17459 224.27184
 226.34609 228.44434 230.55559 232.67584 234.81910 237.00535 239.27560 241.65985
 244.29510 246.56035 248.57661 250.35586 251.78711 252.92436 253.76061 254.09086
 254.14212 253.93037 253.30462 252.26687 250.88712 249.06237 246.98563 244.83288
 242.63813 240.45638 238.29063 236.14388 234.01814 231.89939 229.93964 228.11089
 226.40814 224.89439 223.53864 222.32490 221.22115 220.19540 219.31365 218.46890
 217.72515 216.91941 216.03166 215.40991 214.87416 214.98674 215.25784 215.66705
 215.54399 215.12013 214.14769 213.85303 216.24382 220.38600 225.12663 228.71535
 232.30905 236.59068 241.28253 245.81909 249.95216 253.63885 257.01608 260.20193
 263.22726 266.05365 268.57867 270.74167 272.73013 274.67377 276.41391 277.92444
 279.31003 280.58322 281.67273 282.56070 283.35089 284.13367 284.94473 285.75729
 286.50378 287.16852 287.74921 288.48926
 366.78100 356.34923 345.79547 334.67570 323.09294 311.30117 299.18541 287.00264
 274.72887 262.64011 250.66334 239.97858 230.11481 221.23304 213.42928 206.44551
 200.29375 195.24598 191.84222 189.89845 188.94968 189.02792 189.87715 191.19939
 192.93862 195.04786 197.32509 199.69832 202.15756 204.65179 206.75403 208.61026
 210.25049 211.40973 211.65296 211.89520 211.84643 211.56567 211.21290 210.85713
 210.48837 210.21260 210.03484 209.91307 209.85531 210.20054 210.60077 211.00401
 211.81124 213.00348 214.26771 216.06494 218.00718 220.06441 222.17365 224.27088
 226.34512 228.44335 230.55458 232.67482 234.81805 237.00429 239.27452 241.65876
 244.29399 246.55922 248.57546 250.35469 251.78593 252.92316 253.75939 254.08963
 254.14086 253.92910 253.30333 252.26557 250.88580 249.06103 246.98427 244.83150
 242.63674 240.45497 238.28921 236.14244 234.01667 231.89791 229.93814 228.10938
 226.40661 224.89284 223.53708 222.32331 221.21955 220.19378 219.31202 218.46725
 217.72348 216.91772 216.02995 215.40819 214.87242 214.99182 215.27724 215.55055
 215.51633 215.05153 214.08002 213.88892 216.27689 220.36105 225.05730 228.75945
 232.28592 236.61674 241.34567 245.92964 250.07101 253.74042 257.07452 260.21487
 263.20392 266.03650 268.58987 270.77390 272.78839 274.75851 276.50229 278.03085
 279.41321 280.64862 281.69153 282.53256 283.29749 284.18420 285.05264 285.82288
 286.51559 287.13248 287.67139 288.35812
 366.78100 356.34800 345.79299 334.67199 323.08799 311.29499 299.17798 286.99398
 274.71898 262.62898 250.65097 239.96497 230.09997 221.21697 213.41196 206.42696
 200.27396 195.22496 191.81995 189.87495 188.92495 189.00195 189.84994 191.17094
 192.90894 195.01694 197.29293 199.66493 202.12293 204.61593 206.71692 208.57192
 210.21092 211.36892 211.61091 211.85191 211.80191 211.51991 211.16590 210.80890
 210.43890 210.16190 209.98289 209.85989 209.80089 210.14489 210.54388 210.94588
 211.75188 212.94288 214.20587 216.00187 217.94287 219.99887 222.10686 224.20286
 226.27586 228.37286 230.48285 232.60185 234.74385 236.92885 239.19784 241.58084
 244.21484 246.47884 248.49383 250.27183 251.70183 252.83783 253.67282 254.00182
 254.05182 253.83882 253.21181 252.17281 250.79181 248.96581 246.88780 244.73380
 242.53780 240.35480 238.18779 236.03979 233.91279 231.79279 229.83178 228.00178
 226.29778 224.78278 223.42577 222.21077 221.10577 220.07877 219.19576 218.34976
 217.60476 216.79776 215.90875 215.28575 214.74875 214.92619 215.34097 215.50179
 215.50310 215.03612 214.04788 213.86057 216.28822 220.38814 225.10738 228.78596
 232.27936 236.61185 241.37430 245.99026 250.12024 253.74429 257.01913 260.10831
 263.07364 265.91037 268.49771 270.74585 272.82422 274.81909 276.56778 278.10202
 279.49789 280.74619 281.78156 282.59402 283.37241 284.27399 285.13129 285.82968
 286.45779 287.01712 287.50577 288.12845
 366.78100 356.34822 345.79343 334.67265 323.08886 311.29608 299.17929 286.99551
 274.72072 262.63094 250.65315 239.96737 230.10258 221.21980 213.41502 206.43023
 200.27745 195.22866 191.82388 189.87909 188.92931 189.00652 189.85474 191.17595
 192.91417 195.02238 197.29860 199.67082 202.12903 204.62225 206.72346 208.57868
 210.21789 211.37611 211.61832 211.85954 211.80975 211.52797 211.17418 210.81740
 210.44762 210.17083 209.99205 209.86926 209.81048 210.15469 210.55391 210.95612
 211.76234 212.95355 214.21677 216.01298 217.95420 220.01042 222.11863 224.21485
 226.28806 228.38528 230.49549 232.61471 234.75692 236.94214 239.21135 241.59457
 244.22878 246.49300 248.50822 250.28643 251.71665 252.85286 253.68808 254.01729
 254.06751 253.85472 253.22794 252.18915 250.80837 248.98258 246.90480 244.75102
 242.55523 240.37245 238.20566 236.05788 233.93109 231.81131 229.85052 228.02074
 226.31695 224.80217 223.44538 222.23060 221.12582 220.09903 219.21625 218.37046
 217.62568 216.81889 215.93011 215.30732 214.77054 214.93170 215.31119 215.53362
 215.54916 215.04500 214.00212 213.78867 216.26125 220.38884 225.11874 228.77063
 232.24599 236.58308 241.37595 246.01830 250.14661 253.74921 256.99408 260.04004
 262.95877 265.77704 268.37146 270.64557 272.75778 274.74509 276.46252 277.99600
 279.40897 280.64420 281.62827 282.42117 283.22070 284.11047 284.94894 285.62259
 286.22314 286.75797 287.22516 287.82056
 366.78100 356.34823 345.79346 334.67269 323.08892 311.29615 299.17938 286.99561
 274.72084 262.63107 250.65330 239.96754 230.10277 221.22000 213.41523 206.43046
 200.27769 195.22892 191.82415 189.87938 188.92961 189.00684 189.85507 191.17630
 192.91453 195.02276 197.29899 199.67122 202.12945 204.62268 206.72391 208.57915
 210.21838 211.37661 211.61884 211.86007 211.81030 211.52853 211.17476 210.81799
 210.44822 210.17145 209.99268 209.86991 209.81114 210.15537 210.55460 210.95683
 211.76306 212.95429 214.21752 216.01375 217.95499 220.01122 222.11945 224.21568
 226.28891 228.38614 230.49637 232.61560 234.75783 236.94306 239.21229 241.59552
 244.22975 246.49398 248.50921 250.28744 251.71767 252.85390 253.68913 254.01836
 254.06860 253.85583 253.22906 252.19029 250.80952 248.98375 246.90598 244.75221
 242.55644 240.37367 238.20690 236.05913 233.93236 231.81259 229.85182 228.02205
 226.31828 224.80351 223.44674 222.23197 221.12721 220.10044 219.21767 218.37190
 217.62713 216.82036 215.93159 215.30882 214.77205 214.93181 215.30768 215.52638
 215.51387 214.97235 213.99863 213.79457 216.24515 220.36023 225.05186 228.73746
 232.20683 236.56578 241.37932 246.04558 250.20572 253.84872 257.12149 260.15259
 263.01846 265.79489 268.37894 270.65683 272.76523 274.71829 276.38000 277.88754
 279.29819 280.50177 281.40286 282.13351 282.95764 283.81424 284.62247 285.33142
 285.96902 286.53683 287.03284 287.66495
 366.78100 356.34702 345.79105 334.66907 323.08410 311.29012 299.17214 286.98717
 274.71119 262.62021 250.64124 239.95426 230.08829 221.20431 213.39833 206.41236
 200.25838 195.20841 191.80243 189.85645 188.90548 188.98150 189.82852 191.14855
 192.88557 194.99260 197.26762 199.63864 202.09567 204.58769 206.68771 208.54174
 210.17976 211.33679 211.57781 211.81783 211.76686 211.48388 211.12891 210.77093
 210.39995 210.12198 209.94200 209.81802 209.75805 210.10107 210.49910 210.90012
 211.70514 212.89517 214.15719 215.95222 217.89224 219.94726 222.05429 224.14931
 226.22133 228.31736 230.42638 232.54441 234.68543 236.86945 239.13748 241.51950
 244.15252 246.41555 248.42957 250.20660 251.63562 252.77064 253.60467 253.93269
 253.98172 253.76774 253.13976 252.09979 250.71781 248.89083 246.81186 244.65688
 242.45991 240.27593 238.10795 235.95898 233.83100 231.71003 229.74805 227.91707
 226.21210 224.69612 223.33814 222.12217 221.01619 219.98822 219.10424 218.25726
 217.51129 216.70331 215.81333 215.18936 214.65138 214.86940 215.37494 215.47722
 215.48253 214.96236 214.07600 213.78957 216.18263 220.28830 224.94722 228.63014
 232.13850 236.53447 241.37492 246.06310 250.25014 253.92882 257.24158 260.29111
 263.13190 265.87378 268.46448 270.77374 272.89310 274.83838 276.47253 277.94659
 279.34769 280.54407 281.40793 282.06284 282.80859 283.63705 284.46863 285.20050
 285.85873 286.44489 286.95694 287.60950
 366.78100 356.34665 345.79031 334.66796 323.08261 311.28826 299.16992 286.98457
 274.70822 262.61688 250.63753 239.95018 230.08383 221.19949 213.39314 206.40679
 200.25245 195.20210 191.79575 189.84940 188.89806 188.97371 189.82036 191.14002
 192.87667 194.98332 197.25797 199.62863 202.08528 204.57693 206.67659 208.53024
 210.16789 211.32455 211.56520 211.80485 211.75350 211.47016 211.11481 210.75646
 210.38512 210.10677 209.92642 209.80207 209.74173 210.08438 210.48203 210.88269
 211.68734 212.87699 214.13864 215.93330 217.87295 219.92760 222.03426 224.12891
 226.20056 228.29621 230.40487 232.52252 234.66317 236.84683 239.11448 241.49613
 244.12878 246.39144 248.40509 250.18174 251.61040 252.74505 253.57870 253.90635
 253.95501 253.74066 253.11231 252.07197 250.68962 248.86227 246.78292 244.62758
 242.43023 240.24588 238.07754 235.92819 233.79984 231.67850 229.71615 227.88480
 226.17945 224.66311 223.30476 222.08841 220.98207 219.95372 219.06937 218.22202
 217.47568 216.66733 215.77698 215.15264 214.61429 214.84534 215.38445 215.45932
 215.54431 215.06894 214.20830 213.75040 216.08636 220.19556 224.84213 228.46216
 232.04547 236.48401 241.35005 246.03152 250.20648 253.88565 257.21738 260.28693
 263.13513 265.86691 268.48105 270.85666 273.02979 275.01965 276.68002 278.13806
 279.54465 280.76282 281.66110 282.27576 282.87521 283.61478 284.45721 285.22455
 285.89844 286.49854 287.02277 287.69086
 366.78100 356.34709 345.79119 334.66928 323.08437 311.29047 299.17256 286.98765
 274.71175 262.62084 250.64194 239.95503 230.08912 221.20522 213.39931 206.41340
 200.25950 195.20959 191.80368 189.85778 188.90687 188.98296 189.83006 191.15015
 192.88725 194.99434 197.26943 199.64053 202.09762 204.58971 206.68981 208.54390
 210.18199 211.33909 211.58018 211.82027 211.76937 211.48646 211.13156 210.77365
 210.40274 210.12484 209.94493 209.82102 209.76112 210.10421 210.50230 210.90340
 211.70849 212.89858 214.16068 215.95577 217.89586 219.95096 222.05805 224.15315
 226.22524 228.32133 230.43043 232.54852 234.68961 236.87371 239.14180 241.52389
 244.15699 246.42008 248.43417 250.21127 251.64036 252.77546 253.60955 253.93764
 253.98674 253.77283 253.14492 252.10502 250.72311 248.89620 246.81730 244.66239
 242.46548 240.28158 238.11367 235.96477 233.83686 231.71595 229.75405 227.92314
 226.21823 224.70233 223.34442 222.12851 221.02261 219.99470 219.11079 218.26389
 217.51798 216.71008 215.82017 215.19626 214.65836 214.86250 215.34380 215.46613
 215.59827 215.19136 214.31250 213.71718 216.02318 220.14658 224.78166 228.31255
 231.96165 236.44237 241.33337 245.99608 250.14116 253.80194 257.13168 260.20261
 263.04831 265.76807 268.39456 270.82257 273.05829 275.10181 276.82718 278.31372
 279.72705 280.95856 281.86691 282.48410 283.03262 283.64902 284.42468 285.18329
 285.79779 286.31244 286.76199 287.33490
 366.78100 356.34752 345.79204 334.67057 323.08609 311.29261 299.17513 286.99066
 274.71518 262.62470 250.64622 239.95975 230.09427 221.21079 213.40531 206.41983
 200.26636 195.21688 191.81140 189.86592 188.91545 188.99197 189.83949 191.16001
 192.89754 195.00506 197.28058 199.65210 202.10963 204.60215 206.70267 208.55719
 210.19571 211.35324 211.59476 211.83528 211.78480 211.50233 211.14785 210.79037
 210.41989 210.14242 209.96294 209.83946 209.77998 210.12350 210.52203 210.92355
 211.72907 212.91959 214.18212 215.97764 217.91816 219.97368 222.08121 224.17673
 226.24925 228.34577 230.45530 232.57382 234.71534 236.89986 239.16838 241.55091
 244.18443 246.44795 248.46247 250.24000 251.66952 252.80504 253.63956 253.96809
 254.01761 253.80413 253.17665 252.13717 250.75570 248.92922 246.85074 244.69626
 242.49979 240.31631 238.14883 236.00035 233.87288 231.75240 229.79092 227.96044
 226.25596 224.74049 223.38301 222.16753 221.06205 220.03458 219.15110 218.30462
 217.55914 216.75167 215.86219 215.23871 214.70123 214.88142 215.30714 215.50244
 215.56392 215.20706 214.33336 213.68553 216.01073 220.14645 224.74887 228.24397
 231.91963 236.42657 241.33788 245.99170 250.12279 253.78241 257.11469 260.18143
 263.00183 265.68597 268.28839 270.73560 273.02603 275.12558 276.89404 278.40656
 279.83118 281.04697 281.93250 282.51355 283.05972 283.67685 284.41092 285.13947
 285.74332 286.18494 286.57074 287.06238
 366.78100 356.34744 345.79188 334.67032 323.08576 311.29220 299.17464 286.99008
 274.71452 262.62396 250.64540 239.95884 230.09328 221.20972 213.40416 206.41860
 200.26504 195.21548 191.80992 189.86436 188.91380 188.99024 189.83768 191.15811
 192.89555 195.00299 197.27843 199.64987 202.10731 204.59975 206.70019 208.55463
 210.19307 211.35051 211.59195 211.83239 211.78183 211.49927 211.14471 210.78715
 210.41659 210.13903 209.95947 209.83591 209.77635 210.11979 210.51823 210.91967
 211.72511 212.91555 214.17799 215.97343 217.91387 219.96931 222.07675 224.17219
 226.24463 228.34107 230.45051 232.56895 234.71039 236.89483 239.16327 241.54571
 244.17915 246.44259 248.45703 250.23447 251.66390 252.79934 253.63378 253.96222
 254.01166 253.79810 253.17054 252.13098 250.74942 248.92286 246.84430 244.68974
 242.49318 240.30962 238.14206 235.99350 233.86594 231.74538 229.78382 227.95326
 226.24870 224.73314 223.37558 222.16002 221.05446 220.02690 219.14334 218.29678
 217.55122 216.74366 215.85410 215.23054 214.69298 214.87852 215.31664 215.51678
 215.49596 215.16936 214.27390 213.69022 216.01718 220.15192 224.69682 228.25824
 231.90428 236.42679 241.33739 245.98924 250.12509 253.80458 257.15579 260.22571
 263.02917 265.67612 268.22668 270.65921 272.99191 275.14484 276.94504 278.48459
 279.92514 281.12640 281.93134 282.47318 282.99387 283.61331 284.34601 285.04727
 285.59622 286.02484 286.39929 286.87646
 366.78100 356.34638 345.78976 334.66714 323.08152 311.28691 299.16829 286.98267
 274.70605 262.61443 250.63481 239.94719 230.08057 221.19595 213.38934 206.40272
 200.24810 195.19748 191.79086 189.84424 188.89262 188.96800 189.81438 191.13377
 192.87015 194.97653 197.25091 199.62129 202.07767 204.56905 206.66843 208.52181
 210.15920 211.31558 211.55596 211.79534 211.74372 211.46010 211.10448 210.74586
 210.37424 210.09563 209.91501 209.79039 209.72977 210.07215 210.46953 210.86991
 211.67429 212.86368 214.12506 215.91944 217.85882 219.91320 222.01958 224.11396
 226.18534 228.28072 230.38911 232.50649 234.64687 236.83025 239.09763 241.47901
 244.11139 246.37377 248.38715 250.16354 251.59192 252.72630 253.55968 253.88706
 253.93544 253.72082 253.09220 252.05158 250.66897 248.84135 246.76173 244.60611
 242.40849 240.22387 238.05525 235.90563 233.77701 231.65540 229.69278 227.86116
 226.15554 224.63892 223.28030 222.06368 220.95706 219.92844 219.04383 218.19621
 217.44959 216.64097 215.75035 215.12573 214.58711 214.82613 215.38867 215.50017
 215.38127 215.11415 214.29619 213.69864 216.01556 220.11566 224.63295 228.25566
 231.89241 236.42529 241.33228 245.97606 250.11661 253.81561 257.18860 260.26923
 263.07263 265.70090 268.21109 270.61832 272.98196 275.20026 277.05307 278.61191
 280.05856 281.21994 281.97217 282.45346 282.92804 283.53586 284.23926 284.90659
 285.41064 285.84546 286.22531 286.70935
 366.78100 356.34518 345.78736 334.66353 323.07671 311.28089 299.16107 286.97424
 274.69642 262.60360 250.62278 239.93395 230.06613 221.18031 213.37249 206.38466
 200.22884 195.17702 191.76920 189.82138 188.86855 188.94273 189.78791 191.10609
 192.84126 194.94644 197.21962 199.58880 202.04397 204.53415 206.63233 208.48451
 210.12069 211.27586 211.51504 211.75322 211.70040 211.41557 211.05875 210.69893
 210.32611 210.04628 209.86446 209.73864 209.67682 210.01799 210.41417 210.81335
 211.61653 212.80471 214.06488 215.85806 217.79624 219.84942 221.95459 224.04777
 226.11795 228.21213 230.31930 232.43548 234.57466 236.75684 239.02302 241.40319
 244.03437 246.29555 248.30773 250.08290 251.51008 252.64326 253.47544 253.80161
 253.84879 253.63297 253.00315 251.96132 250.57750 248.74868 246.66786 244.51104
 242.31221 240.12639 237.95657 235.80575 233.67592 231.55310 229.58928 227.75646
 226.04963 224.53181 223.17199 221.95417 220.84635 219.81652 218.93070 218.08188
 217.33406 216.52423 215.63241 215.00659 214.46677 214.76265 215.46115 215.50328
 215.32539 215.04541 214.35153 213.67723 215.99353 220.06680 224.58530 228.20480
 231.86798 236.41652 241.32001 245.94809 250.08063 253.78923 257.17807 260.27322
 263.08704 265.71051 268.19720 270.58841 272.98254 275.28381 277.22247 278.82007
 280.25961 281.43054 282.16385 282.59070 283.00232 283.54779 284.21976 284.88660
 285.43069 285.86154 286.23788 286.71753
 366.78100 356.34455 345.78609 334.66164 323.07418 311.27773 299.15727 286.96982
 274.69137 262.59791 250.61646 239.92700 230.05855 221.17209 213.36364 206.37518
 200.21873 195.16628 191.75782 189.80937 188.85591 188.92946 189.77400 191.09155
 192.82610 194.93064 197.20319 199.57173 202.02628 204.51582 206.61337 208.46491
 210.10046 211.25501 211.49355 211.73110 211.67764 211.39219 211.03473 210.67428
 210.30083 210.02037 209.83792 209.71146 209.64901 209.98955 210.38510 210.78365
 211.58619 212.77374 214.03328 215.82583 217.76337 219.81592 221.92046 224.01301
 226.08256 228.17610 230.28265 232.39819 234.53674 236.71828 238.98383 241.36338
 243.99392 246.25447 248.26601 250.04056 251.46710 252.59965 253.43120 253.75674
 253.80329 253.58683 252.95638 251.91392 250.52947 248.70001 246.61856 244.46111
 242.26165 240.07520 237.90474 235.75329 233.62283 231.49938 229.53493 227.70147
 225.99402 224.47556 223.11511 221.89665 220.78820 219.75774 218.87129 218.02184
 217.27338 216.46293 215.57047 214.94402 214.40356 214.72610 215.48811 215.51750
 215.35742 214.96347 214.33458 213.69250 215.97353 220.02422 224.56441 228.14059
 231.83899 236.40347 241.31357 245.92079 250.03618 253.74162 257.13452 260.23376
 263.05133 265.67163 268.14441 270.52917 272.94711 275.34137 277.38889 279.03488
 280.46866 281.63803 282.40402 282.83902 283.21143 283.64951 284.22787 284.88275
 285.48264 285.89825 286.22083 286.63190
 366.78100 356.34401 345.78501 334.66002 323.07202 311.27503 299.15403 286.96604
 274.68705 262.59305 250.61106 239.92106 230.05207 221.16508 213.35608 206.36709
 200.21009 195.15710 191.74810 189.79911 188.84512 188.91812 189.76213 191.07913
 192.81314 194.91714 197.18915 199.55716 202.01116 204.50017 206.59717 208.44818
 210.08319 211.23719 211.47520 211.71220 211.65821 211.37221 211.01422 210.65323
 210.27923 209.99824 209.81524 209.68825 209.62525 209.96526 210.36027 210.75827
 211.56028 212.74728 214.00629 215.79830 217.73530 219.78731 221.89131 223.98332
 226.05232 228.14533 230.25134 232.36634 234.50435 236.68535 238.95036 241.32936
 243.95937 246.21938 248.23038 250.00439 251.43039 252.56240 253.39341 253.71841
 253.76442 253.54742 252.91643 251.87343 250.48844 248.65845 246.57645 244.41846
 242.21846 240.03147 237.86047 235.70848 233.57749 231.45349 229.48850 227.65450
 225.94651 224.42752 223.06652 221.84753 220.73853 219.70754 218.82054 217.97055
 217.22156 216.41056 215.51757 214.89057 214.34958 214.69514 215.51160 215.53297
 215.38680 214.90263 214.25235 213.71304 216.01347 219.99268 224.53632 228.12854
 231.84023 236.40800 241.31068 245.90540 250.01144 253.72095 257.11942 260.21661
 263.02591 265.62604 268.06641 270.42355 272.87286 275.35654 277.48209 279.16797
 280.62683 281.78180 282.53979 282.95847 283.32697 283.75540 284.28696 284.93512
 285.56686 286.07547 286.36023 286.72311
 366.78100 356.34414 345.78529 334.66043 323.07257 311.27571 299.15486 286.96700
 274.68814 262.59429 250.61243 239.92257 230.05372 221.16686 213.35800 206.36914
 200.21229 195.15943 191.75057 189.80172 188.84786 188.92100 189.76515 191.08229
 192.81643 194.92057 197.19272 199.56086 202.01500 204.50415 206.60129 208.45243
 210.08757 211.24172 211.47986 211.71700 211.66315 211.37729 211.01943 210.65858
 210.28472 210.00386 209.82100 209.69415 209.63129 209.97143 210.36658 210.76472
 211.56686 212.75401 214.01315 215.80529 217.74243 219.79458 221.89872 223.99086
 226.06001 228.15315 230.25929 232.37443 234.51258 236.69372 238.95886 241.33801
 243.96815 246.22829 248.23944 250.01358 251.43972 252.57186 253.40301 253.72815
 253.77429 253.55744 252.92658 251.88372 250.49887 248.66901 246.58715 244.42929
 242.22944 240.04258 237.87172 235.71987 233.58901 231.46515 229.50029 227.66644
 225.95858 224.43972 223.07887 221.86001 220.75115 219.72030 218.83344 217.98358
 217.23472 216.42387 215.53101 214.90415 214.36330 214.69922 215.49289 215.61699
 215.35811 214.82190 214.12228 213.63405 215.98380 219.96834 224.52145 228.16072
 231.85095 236.41096 241.30560 245.90266 250.01125 253.73215 257.13922 260.23639
 263.04272 265.63361 268.04520 270.35779 272.79489 275.34052 277.53870 279.26410
 280.72745 281.86707 282.62561 283.06693 283.43341 283.80594 284.25241 284.83908
 285.44699 285.94550 286.24591 286.62875
 366.78100 356.34402 345.78505 334.66007 323.07210 311.27512 299.15415 286.96617
 274.68720 262.59322 250.61125 239.92127 230.05230 221.16532 213.35635 206.36737
 200.21040 195.15742 191.74844 189.79947 188.84549 188.91852 189.76254 191.07957
 192.81359 194.91762 197.18964 199.55767 202.01169 204.50072 206.59774 208.44877
 210.08379 211.23782 211.47584 211.71286 211.65889 211.37291 211.01494 210.65396
 210.27999 209.99901 209.81604 209.68906 209.62609 209.96611 210.36114 210.75916
 211.56119 212.74821 214.00724 215.79926 217.73628 219.78831 221.89233 223.98436
 226.05338 228.14641 230.25243 232.36746 234.50548 236.68651 238.95153 241.33056
 243.96058 246.22061 248.23163 250.00566 251.43168 252.56370 253.39473 253.71975
 253.76578 253.54880 252.91783 251.87485 250.48988 248.65990 246.57793 244.41995
 242.21998 240.03300 237.86203 235.71005 233.57908 231.45510 229.49013 227.65615
 225.94817 224.42920 223.06822 221.84925 220.74027 219.70930 218.82232 217.97235
 217.22337 216.41240 215.51942 214.89245 214.35147 214.69521 215.50729 215.64479
 215.40520 214.76491 213.91826 213.41426 215.92891 219.94035 224.48001 228.25494
 231.92279 236.45593 241.31152 245.90521 250.02007 253.74786 257.15097 260.23837
 263.03201 265.59955 267.99478 270.32947 272.81021 275.39673 277.64664 279.44257
 280.92078 282.01498 282.64267 282.94904 283.32724 283.80865 284.35117 285.02917
 285.68082 286.22247 286.63818 287.16797
 354.97500 345.04800 334.58700 324.11500 313.32600 302.53700 291.65000 280.76700
 269.93100 259.19300 248.62200 238.61700 229.08700 220.35500 212.54000 205.53500
 199.46400 194.49300 191.14300 189.19000 188.08900 188.01400 188.72400 189.90600
 191.46900 193.38200 195.40300 197.55600 199.80700 202.06000 204.28800 206.47900
 208.55200 210.37800 212.02500 213.65900 214.99800 216.11800 217.17200 218.25900
 219.49400 220.64500 221.67900 222.61400 223.54500 224.98200 226.57100 228.19000
 229.79700 231.81100 233.86500 235.97200 238.24200 240.55300 242.89900 245.25300
 247.48800 249.53500 251.36600 252.84800 254.09800 255.16700 256.02700 256.25300
 256.09500 255.54300 253.93500 252.56600 251.38400 250.24500 249.05200 247.70100
 246.01600 243.99600 241.78400 239.39300 236.81300 234.22300 231.65800 229.14400
 226.74000 224.47300 222.33500 220.32500 218.44000 216.67700 214.96200 213.47200
 212.20000 211.10800 210.26000 209.63900 209.24400 209.03100 209.05800 209.33300
 209.78400 210.62600 211.33100 212.39100 213.62500 214.84668 217.72949 219.47640
 220.32566 220.86828 220.88710 220.27371 219.43733 218.84250 219.04934 220.86203
 222.60583 225.72206 229.03064 232.61777 236.12270 239.51333 242.70767 245.68587
 248.41061 250.90679 253.19353 254.91714 256.48655 257.94920 259.39966 260.69384
 261.81714 262.77997 263.71679 264.54570 265.26305 265.89772 266.47676 267.00133
 267.47312 267.89325 268.26027 268.72800
