|-------------------------------------------------------------------------|
|   File Name : in_temp.dat
|   Subject   : temperature profiles used for initial guess atmosphere
|   File Type : input of gmtr
|   Data Type : atmospherical data
|   Author/s  : WRF-Chem
|   Date      : Fri Jul 26 15:39:24 2024
|-------------------------------------------------------------------------|

 WRF-Chem temperature
#
 values of T (K)    (8f10.5)
#
 354.97500 345.04800 334.58700 324.11500 313.32600 302.53700 291.65000 280.76700
 269.93100 259.19300 248.62200 238.61700 229.08700 220.35500 212.54000 205.53500
 199.46400 194.49300 191.14300 189.19000 188.08900 188.01400 188.72400 189.90600
 191.46900 193.38200 195.40300 197.55600 199.80700 202.06000 204.28800 206.47900
 208.55200 210.37800 212.02500 213.65900 214.99800 216.11800 217.17200 218.25900
 219.49400 220.64500 221.67900 222.61400 223.54500 224.98200 226.57100 228.19000
 229.79700 231.81100 233.86500 235.97200 238.24200 240.55300 242.89900 245.25300
 247.48800 249.53500 251.36600 252.84800 254.09800 255.16700 256.02700 256.25300
 256.09500 255.54300 253.93500 252.56600 251.38400 250.24500 249.05200 247.70100
 246.01600 243.99600 241.78400 239.39300 236.81300 234.22300 231.65800 229.14400
 226.74000 224.47300 222.33500 220.32500 218.44000 216.67700 214.96200 213.47200
 212.20000 211.10800 210.26000 209.63900 209.24400 209.03100 209.05800 209.33300
 209.78400 210.62600 211.33100 212.39100 213.62500 214.84668 217.72949 219.47640
 220.32566 220.86828 220.88710 220.27371 219.43733 218.84250 219.04934 220.86203
 222.60583 225.72206 229.03064 232.61777 236.12270 239.51333 242.70767 245.68587
 248.41061 250.90679 253.19353 254.91714 256.48655 257.94920 259.39966 260.69384
 261.81714 262.77997 263.71679 264.54570 265.26305 265.89772 266.47676 267.00133
 267.47312 267.89325 268.26027 268.72800
 366.78100 356.33500 345.76700 334.63300 323.03600 311.23000 299.10000 286.90300
 274.61500 262.51200 250.52100 239.82200 229.94400 221.04800 213.23000 206.23200
 200.06600 195.00400 191.58600 189.62800 188.66500 188.72900 189.56400 190.87200
 192.59700 194.69200 196.95500 199.31400 201.75900 204.23900 206.32700 208.16900
 209.79500 210.94000 211.16900 211.39700 211.33400 211.03900 210.67200 210.30200
 209.91900 209.62900 209.43700 209.30100 209.22900 209.56000 209.94600 210.33500
 211.12800 212.30600 213.55600 215.33900 217.26700 219.31000 221.40500 223.48800
 225.54800 227.63200 229.72900 231.83500 233.96400 236.13600 238.39200 240.76200
 243.38300 245.63400 247.63600 249.40100 250.81800 251.94100 252.76300 253.07900
 253.11600 252.89000 252.25000 251.19800 249.80400 247.96500 245.87400 243.70700
 241.49800 239.30200 237.12200 234.96100 232.82100 230.68800 228.71400 226.87100
 225.15400 223.62600 222.25600 221.02800 219.91000 218.87000 217.97400 217.11500
 216.35700 215.53700 214.63500 213.99900 213.44900 212.85855 212.01316 212.61654
 214.26826 216.08686 218.14273 220.53346 223.40855 226.78828 231.49734 235.90155
 239.42278 243.28576 247.23140 251.11907 254.80144 258.23331 261.38913 264.27520
 266.89312 269.26852 271.44504 273.08845 274.58484 275.98591 277.39845 278.65879
 279.75272 280.69038 281.56708 282.34086 283.01050 283.60295 284.14348 284.63317
 285.07358 285.46577 285.80838 286.24500
 381.81900 372.39900 361.20600 349.77600 337.62200 324.85300 311.81000 298.35300
 284.86000 271.32400 258.56100 246.30400 236.08700 226.79600 218.44800 211.29000
 205.52200 200.89400 197.38100 194.84800 193.01500 192.31500 192.25000 192.43100
 192.91200 193.53700 194.13600 194.71200 195.26200 195.83100 196.39300 196.97600
 197.60400 198.14900 198.58400 199.05700 199.69500 200.37800 201.05400 201.70800
 202.31300 202.85700 203.35500 203.86200 204.56900 205.29700 206.02600 206.98700
 208.19300 209.44100 210.96900 212.57600 214.46200 216.51300 218.63000 220.85300
 223.34100 225.96200 228.73900 231.69700 234.70600 237.70600 240.69200 243.65700
 246.73700 249.69900 252.52100 255.06300 257.29000 259.23300 260.63300 261.68000
 262.46100 262.79800 262.69100 262.22400 261.06900 259.52500 257.70700 255.50700
 253.00100 250.30200 247.39800 244.45200 241.65400 239.05400 236.73300 234.59000
 232.59500 230.72500 228.83400 226.82600 224.66600 222.38700 220.10400 217.71500
 215.45900 213.06600 210.54600 208.09300 205.35400 202.08130 196.05959 200.71215
 209.01611 216.90438 223.84126 229.78593 235.00632 240.20838 245.98943 250.68668
 254.32982 257.93487 261.55666 264.96801 268.15192 271.06452 273.76717 276.25691
 278.57680 280.74479 282.77456 284.60533 286.27232 287.81705 289.31715 290.65561
 291.81734 292.81312 293.70701 294.49387 295.17482 295.77730 296.32696 296.82492
 297.27278 297.67160 298.02000 298.46400
 399.33000 389.90700 379.81300 368.66800 357.52200 345.30100 333.07400 320.22700
 307.21600 293.84800 280.37600 267.29600 254.61000 242.98700 232.15100 221.97700
 212.67200 204.28600 197.66900 192.82100 189.48600 187.45200 186.81400 187.08900
 187.78100 189.05400 190.64800 192.54200 194.63000 196.75200 198.67100 200.15800
 201.53500 202.48700 202.97500 203.34000 203.53900 203.49700 203.38500 203.24700
 203.00500 202.78600 202.60300 202.43700 202.42600 202.88800 203.42000 203.95100
 204.89500 205.99200 207.30100 208.95800 210.73800 213.10000 215.56400 218.18000
 220.96600 223.91800 226.96100 230.09200 233.29300 236.55700 239.95500 243.53700
 246.84500 249.39000 251.54200 253.47400 255.19500 256.48400 257.43100 258.05900
 258.21200 258.04000 257.58200 256.64300 255.23900 253.50700 251.40800 249.05600
 246.57600 243.99400 241.38900 238.83000 236.34400 233.98600 231.96900 230.11800
 228.42300 226.89900 225.54800 224.29700 223.10500 221.96500 220.95800 220.11300
 219.49000 218.92000 218.32500 217.88100 217.42300 216.96366 216.35568 216.80261
 217.73415 218.28582 218.64258 219.10077 220.44626 222.53987 226.38451 230.35736
 233.59734 237.39164 241.29814 245.22796 248.98002 252.51130 255.78595 258.80109
 261.54781 264.05210 266.34239 268.04198 269.58951 271.01303 272.35754 273.55718
 274.59842 275.49092 276.28989 276.99307 277.60161 278.14001 278.63122 279.07623
 279.47646 279.83287 280.14422 280.54100
 399.73800 389.78500 379.66200 368.15100 356.64100 344.35000 331.79200 318.88800
 305.72600 292.49300 279.20900 266.73800 254.69600 244.21100 234.45700 225.43300
 217.56900 210.45100 204.30000 199.30600 195.45800 192.57600 191.02700 190.38600
 190.23900 190.53400 191.16600 191.92500 192.79500 193.76600 194.73200 195.31200
 195.80000 196.05200 196.11500 196.11500 196.03900 195.72300 195.34000 194.98900
 194.75100 194.79200 195.13300 195.59800 196.50600 198.13600 199.85800 201.56600
 204.17900 206.82300 209.89300 213.28400 216.82800 220.60500 224.38700 228.20900
 232.03200 235.82500 239.56000 243.25800 246.84500 250.20100 253.70900 257.46800
 261.53000 264.22100 266.60100 268.68100 270.32900 271.74100 272.83600 273.47400
 273.89800 274.00200 273.75700 273.28800 272.37100 271.10000 269.58900 267.77900
 265.81600 263.72100 261.39300 258.91600 256.29800 253.42300 250.33100 247.11400
 243.83700 240.52900 237.24900 233.99900 230.72800 227.51500 224.25400 220.95200
 217.62700 213.65600 210.12100 206.78900 204.01000 201.99491 199.07309 198.76551
 199.40006 200.48994 201.46112 202.31912 203.45100 204.96110 207.47502 210.85391
 213.70530 217.29629 220.99574 224.72316 228.28753 231.64854 234.68024 237.40893
 239.70644 241.60899 243.46854 245.67368 247.68154 249.52395 251.24767 252.78566
 254.12057 255.26479 256.23740 257.09036 257.82852 258.48160 259.07744 259.61723
 260.10271 260.53504 260.91270 261.39400
 399.73800 389.78500 379.66200 368.15100 356.64100 344.35000 331.79200 318.88800
 305.72600 292.49300 279.20900 266.73800 254.69600 244.21100 234.45700 225.43300
 217.56900 210.45100 204.30000 199.30600 195.45800 192.57600 191.02700 190.38600
 190.23900 190.53400 191.16600 191.92500 192.79500 193.76600 194.73200 195.31200
 195.80000 196.05200 196.11500 196.11500 196.03900 195.72300 195.34000 194.98900
 194.75100 194.79200 195.13300 195.59800 196.50600 198.13600 199.85800 201.56600
 204.17900 206.82300 209.89300 213.28400 216.82800 220.60500 224.38700 228.20900
 232.03200 235.82500 239.56000 243.25800 246.84500 250.20100 253.70900 257.46800
 261.53000 264.22100 266.60100 268.68100 270.32900 271.74100 272.83600 273.47400
 273.89800 274.00200 273.75700 273.28800 272.37100 271.10000 269.58900 267.77900
 265.81600 263.72100 261.39300 258.91600 256.29800 253.42300 250.33100 247.11400
 243.83700 240.52900 237.24900 233.99900 230.72800 227.51500 224.25400 220.95200
 217.62700 213.65600 210.12100 206.78900 204.01000 201.99491 199.07309 198.76551
 199.40006 200.48994 201.46112 202.31912 203.45100 204.96110 207.47502 210.85391
 213.70530 217.29629 220.99574 224.72316 228.28753 231.64854 234.68024 237.40893
 239.70644 241.60899 243.46854 245.67368 247.68154 249.52395 251.24767 252.78566
 254.12057 255.26479 256.23740 257.09036 257.82852 258.48160 259.07744 259.61723
 260.10271 260.53504 260.91270 261.39400
 399.33000 389.90700 379.81300 368.66800 357.52200 345.30100 333.07400 320.22700
 307.21600 293.84800 280.37600 267.29600 254.61000 242.98700 232.15100 221.97700
 212.67200 204.28600 197.66900 192.82100 189.48600 187.45200 186.81400 187.08900
 187.78100 189.05400 190.64800 192.54200 194.63000 196.75200 198.67100 200.15800
 201.53500 202.48700 202.97500 203.34000 203.53900 203.49700 203.38500 203.24700
 203.00500 202.78600 202.60300 202.43700 202.42600 202.88800 203.42000 203.95100
 204.89500 205.99200 207.30100 208.95800 210.73800 213.10000 215.56400 218.18000
 220.96600 223.91800 226.96100 230.09200 233.29300 236.55700 239.95500 243.53700
 246.84500 249.39000 251.54200 253.47400 255.19500 256.48400 257.43100 258.05900
 258.21200 258.04000 257.58200 256.64300 255.23900 253.50700 251.40800 249.05600
 246.57600 243.99400 241.38900 238.83000 236.34400 233.98600 231.96900 230.11800
 228.42300 226.89900 225.54800 224.29700 223.10500 221.96500 220.95800 220.11300
 219.49000 218.92000 218.32500 217.88100 217.42300 216.96366 216.35568 216.80261
 217.73415 218.28582 218.64258 219.10077 220.44626 222.53987 226.38451 230.35736
 233.59734 237.39164 241.29814 245.22796 248.98002 252.51130 255.78595 258.80109
 261.54781 264.05210 266.34239 268.04198 269.58951 271.01303 272.35754 273.55718
 274.59842 275.49092 276.28989 276.99307 277.60161 278.14001 278.63122 279.07623
 279.47646 279.83287 280.14422 280.54100
 381.81900 372.39900 361.20600 349.77600 337.62200 324.85300 311.81000 298.35300
 284.86000 271.32400 258.56100 246.30400 236.08700 226.79600 218.44800 211.29000
 205.52200 200.89400 197.38100 194.84800 193.01500 192.31500 192.25000 192.43100
 192.91200 193.53700 194.13600 194.71200 195.26200 195.83100 196.39300 196.97600
 197.60400 198.14900 198.58400 199.05700 199.69500 200.37800 201.05400 201.70800
 202.31300 202.85700 203.35500 203.86200 204.56900 205.29700 206.02600 206.98700
 208.19300 209.44100 210.96900 212.57600 214.46200 216.51300 218.63000 220.85300
 223.34100 225.96200 228.73900 231.69700 234.70600 237.70600 240.69200 243.65700
 246.73700 249.69900 252.52100 255.06300 257.29000 259.23300 260.63300 261.68000
 262.46100 262.79800 262.69100 262.22400 261.06900 259.52500 257.70700 255.50700
 253.00100 250.30200 247.39800 244.45200 241.65400 239.05400 236.73300 234.59000
 232.59500 230.72500 228.83400 226.82600 224.66600 222.38700 220.10400 217.71500
 215.45900 213.06600 210.54600 208.09300 205.35400 202.08130 196.05959 200.71215
 209.01611 216.90438 223.84126 229.78593 235.00632 240.20838 245.98943 250.68668
 254.32982 257.93487 261.55666 264.96801 268.15192 271.06452 273.76717 276.25691
 278.57680 280.74479 282.77456 284.60533 286.27232 287.81705 289.31715 290.65561
 291.81734 292.81312 293.70701 294.49387 295.17482 295.77730 296.32696 296.82492
 297.27278 297.67160 298.02000 298.46400
 366.78100 356.32620 345.74940 334.60660 323.00080 311.18600 299.04720 286.84140
 274.54460 262.43280 250.43300 239.72520 229.83840 220.93360 213.10680 206.10000
 199.92520 194.85439 191.42759 189.46079 188.48899 188.54419 189.37039 190.66959
 192.38579 194.47199 196.72619 199.07639 201.51259 203.98379 206.06299 207.89619
 209.51339 210.64959 210.86979 211.08899 211.01719 210.71339 210.33759 209.95879
 209.56699 209.26819 209.06739 208.92259 208.84179 209.16399 209.54119 209.92139
 210.70559 211.87479 213.11598 214.89018 216.80938 218.84358 220.92978 223.00398
 225.05518 227.13038 229.21858 231.31578 233.43598 235.59918 237.84638 240.20758
 242.81978 245.06198 247.05518 248.81138 250.21958 251.33378 252.14698 252.45418
 252.48238 252.24758 251.59878 250.53798 249.13518 247.28738 245.18758 243.01178
 240.79398 238.58918 236.40038 234.23057 232.08177 229.93997 227.95717 226.10537
 224.37957 222.84277 221.46397 220.22717 219.10037 218.05157 217.14677 216.27897
 215.51217 214.68337 213.77257 213.12777 212.56897 212.47729 212.27063 213.39748
 215.22206 217.36670 218.59999 218.69028 219.91983 223.24135 228.33841 232.93773
 236.72566 240.54230 244.23143 247.73892 251.04674 253.81561 256.12711 258.50266
 261.68811 264.58112 266.73840 268.49197 270.28851 272.22433 274.03076 275.62320
 277.00894 278.36893 279.83710 281.19934 282.38409 283.43637 284.40167 285.28250
 286.08188 286.80093 287.43698 288.28421
 366.78100 356.32614 345.74929 334.60643 323.00058 311.18572 299.04687 286.84101
 274.54416 262.43230 250.43244 239.72459 229.83773 220.93288 213.10602 206.09917
 199.92431 194.85346 191.42660 189.45974 188.48789 188.54303 189.36918 190.66832
 192.38447 194.47061 196.72476 199.07490 201.51104 203.98219 206.06133 207.89448
 209.51162 210.64777 210.86791 211.08706 211.01520 210.71135 210.33549 209.95663
 209.56478 209.26592 209.06507 208.92021 208.83936 209.16150 209.53865 209.91879
 210.70293 211.87208 213.11322 214.88737 216.80651 218.84066 220.92680 223.00095
 225.05209 227.12723 229.21538 231.31252 233.43267 235.59581 237.84296 240.20410
 242.81625 245.05839 247.05153 248.80768 250.21582 251.32997 252.14311 252.45026
 252.47840 252.24355 251.59469 250.53383 249.13098 247.28312 245.18327 243.00741
 240.78956 238.58470 236.39585 234.22599 232.07713 229.93528 227.95242 226.10057
 224.37471 222.83786 221.45900 220.22215 219.09529 218.04643 217.14158 216.27372
 215.50687 214.67801 213.76716 213.12230 212.56345 212.50645 212.38025 213.52461
 215.29092 217.39966 218.74304 218.91486 220.07524 223.28305 228.27396 232.80420
 236.54996 240.36334 244.07475 247.58583 250.84879 253.57671 255.91602 258.36948
 261.53513 264.40335 266.57202 268.34763 270.14474 272.06827 273.87192 275.48062
 276.90060 278.27979 279.76495 281.12772 282.31262 283.36502 284.33005 285.21060
 286.00995 286.72900 287.36542 288.21347
 366.78100 356.32612 345.74924 334.60636 323.00048 311.18560 299.04672 286.84084
 274.54396 262.43208 250.43220 239.72432 229.83744 220.93256 213.10568 206.09880
 199.92392 194.85304 191.42616 189.45928 188.48740 188.54252 189.36864 190.66776
 192.38388 194.47000 196.72412 199.07424 201.51036 203.98148 206.06060 207.89372
 209.51084 210.64696 210.86708 211.08620 211.01432 210.71044 210.33456 209.95568
 209.56380 209.26492 209.06404 208.91916 208.83828 209.16040 209.53752 209.91764
 210.70175 211.87087 213.11199 214.88611 216.80523 218.83935 220.92547 222.99959
 225.05071 227.12583 229.21395 231.31107 233.43119 235.59431 237.84143 240.20255
 242.81467 245.05679 247.04991 248.80603 250.21415 251.32827 252.14139 252.44851
 252.47663 252.24175 251.59287 250.53199 249.12911 247.28123 245.18135 243.00547
 240.78759 238.58271 236.39383 234.22395 232.07507 229.93319 227.95031 226.09843
 224.37255 222.83567 221.45679 220.21991 219.09303 218.04415 217.13927 216.27139
 215.50451 214.67563 213.76475 213.11987 212.56099 212.53877 212.49327 213.65498
 215.34814 217.44351 218.86780 219.14609 220.25513 223.33757 228.21002 232.66513
 236.37074 240.18410 243.91280 247.41547 250.63347 253.33044 255.70312 258.23361
 261.37915 264.22247 266.40256 268.20386 270.00839 271.92334 273.72507 275.34937
 276.80203 278.19742 279.69708 281.06155 282.24680 283.29926 284.26443 285.14481
 285.94415 286.66223 287.29968 288.14822
 366.78100 356.32611 345.74922 334.60632 323.00043 311.18554 299.04665 286.84075
 274.54386 262.43197 250.43208 239.72419 229.83729 220.93240 213.10551 206.09862
 199.92373 194.85283 191.42594 189.45905 188.48716 188.54226 189.36837 190.66748
 192.38359 194.46970 196.72380 199.07391 201.51002 203.98113 206.06024 207.89334
 209.51045 210.64656 210.86667 211.08577 211.01388 210.70999 210.33410 209.95521
 209.56331 209.26442 209.06353 208.91864 208.83774 209.15985 209.53696 209.91707
 210.70118 211.87028 213.11139 214.88550 216.80461 218.83872 220.92482 222.99893
 225.05004 227.12515 229.21325 231.31036 233.43047 235.59358 237.84069 240.20179
 242.81390 245.05601 247.04912 248.80523 250.21333 251.32744 252.14055 252.44766
 252.47576 252.24087 251.59198 250.53109 249.12820 247.28030 245.18041 243.00452
 240.78663 238.58173 236.39284 234.22295 232.07406 229.93217 227.94927 226.09738
 224.37149 222.83460 221.45571 220.21881 219.09192 218.04303 217.13814 216.27024
 215.50335 214.67446 213.76357 213.11868 212.55978 212.57333 212.61095 213.78418
 215.40446 217.48668 218.98137 219.38139 220.45409 223.40445 228.15491 232.51736
 236.19318 240.01141 243.74376 247.22498 250.39688 253.07224 255.48567 258.09381
 261.21985 264.03879 266.23077 268.06171 269.88000 271.79007 273.59116 275.22949
 276.71176 278.12683 279.63220 280.99850 282.18436 283.23724 284.20255 285.08295
 285.88232 286.60159 287.23828 288.08719
 366.78100 356.32609 345.74917 334.60626 323.00035 311.18543 299.04652 286.84061
 274.54369 262.43178 250.43186 239.72395 229.83704 220.93212 213.10521 206.09830
 199.92338 194.85247 191.42556 189.45864 188.48673 188.54182 189.36790 190.66699
 192.38308 194.46916 196.72325 199.07333 201.50942 203.98051 206.05959 207.89268
 209.50977 210.64585 210.86594 211.08503 211.01311 210.70920 210.33329 209.95437
 209.56246 209.26355 209.06263 208.91772 208.83680 209.15889 209.53598 209.91606
 210.70015 211.86924 213.11032 214.88441 216.80350 218.83758 220.92367 222.99776
 225.04884 227.12393 229.21202 231.30910 233.42919 235.59228 237.83936 240.20045
 242.81253 245.05462 247.04771 248.80379 250.21188 251.32597 252.13905 252.44614
 252.47423 252.23931 251.59040 250.52949 249.12657 247.27866 245.17875 243.00283
 240.78492 238.58000 236.39109 234.22118 232.07226 229.93035 227.94744 226.09552
 224.36961 222.83270 221.45378 220.21687 219.08996 218.04104 217.13613 216.26822
 215.50130 214.67239 213.76147 213.11656 212.55765 212.60828 212.73221 213.91472
 215.45692 217.52678 219.10320 219.61029 220.66109 223.48129 228.10680 232.37482
 236.01950 239.83926 243.56288 247.01436 250.14221 252.80334 255.26239 257.94794
 261.05792 263.85291 266.05664 267.91971 269.75891 271.66956 273.47067 275.12192
 276.62946 278.06299 279.57147 280.93857 282.12518 283.17828 284.14374 285.02435
 285.82330 286.54367 287.17996 288.02933
 366.78100 356.32615 345.74931 334.60646 323.00062 311.18577 299.04693 286.84108
 274.54424 262.43239 250.43254 239.72470 229.83785 220.93301 213.10616 206.09932
 199.92447 194.85362 191.42678 189.45993 188.48809 188.54324 189.36940 190.66855
 192.38471 194.47086 196.72501 199.07517 201.51132 203.98248 206.06163 207.89479
 209.51194 210.64809 210.86825 211.08740 211.01556 210.71171 210.33587 209.95702
 209.56518 209.26633 209.06548 208.92064 208.83979 209.16195 209.53910 209.91926
 210.70341 211.87256 213.11372 214.88787 216.80703 218.84118 220.92734 223.00149
 225.05265 227.12780 229.21595 231.31311 233.43326 235.59642 237.84357 240.20473
 242.81688 245.05903 247.05219 248.80834 250.21650 251.33065 252.14381 252.45096
 252.47912 252.24427 251.59542 250.53458 249.13173 247.28389 245.18404 243.00820
 240.79035 238.58550 236.39666 234.22681 232.07797 229.93612 227.95328 226.10143
 224.37559 222.83874 221.45989 220.22305 219.09620 218.04736 217.14251 216.27467
 215.50782 214.67897 213.76813 213.12328 212.56444 212.64873 212.85101 214.04532
 215.51332 217.56984 219.22981 219.82701 220.87057 223.56360 228.06241 232.25055
 235.85431 239.66443 243.36876 246.78345 249.87328 252.52951 255.03763 257.79532
 260.89148 263.66464 265.87860 267.77460 269.64182 271.56110 273.36530 275.02850
 276.55731 278.00375 279.51355 280.88080 282.06754 283.12122 284.08694 284.96747
 285.76740 286.48679 287.12402 287.97418
 366.78100 356.32634 345.74968 334.60702 323.00137 311.18671 299.04805 286.84239
 274.54573 262.43407 250.43442 239.72676 229.84010 220.93544 213.10878 206.10212
 199.92747 194.85681 191.43015 189.46349 188.49183 188.54717 189.37352 190.67286
 192.38920 194.47554 196.72988 199.08022 201.51656 203.98791 206.06725 207.90059
 209.51793 210.65427 210.87461 211.09396 211.02230 210.71864 210.34298 209.96432
 209.57266 209.27401 209.07335 208.92869 208.84803 209.17037 209.54771 209.92806
 210.71240 211.88174 213.12308 214.89742 216.81676 218.85111 220.93745 223.01179
 225.06313 227.13847 229.22681 231.32415 233.44450 235.60784 237.85518 240.21652
 242.82886 245.07120 247.06455 248.82089 250.22923 251.34357 252.15691 252.46425
 252.49260 252.25794 251.60928 250.54862 249.14596 247.29830 245.19865 243.02299
 240.80533 238.60067 236.41201 234.24235 232.09369 229.95204 227.96938 226.11772
 224.39206 222.85540 221.47674 220.24009 219.11343 218.06477 217.16011 216.29245
 215.52579 214.69714 213.78648 213.14182 212.58316 212.69601 212.96474 214.17186
 215.58000 217.61528 219.35014 220.03540 221.08125 223.65149 228.02382 232.14484
 235.70557 239.49469 243.16560 246.53181 249.58588 252.24835 254.80965 257.63303
 260.71509 263.46893 265.69568 267.63095 269.53201 271.46628 273.27634 274.94836
 276.49442 277.94931 279.45868 280.82733 282.01392 283.06775 284.03369 284.91461
 285.71436 286.43472 287.07242 287.92365
 366.78100 356.32664 345.75028 334.60792 323.00256 311.18820 299.04984 286.84448
 274.54812 262.43676 250.43740 239.73004 229.84368 220.93932 213.11296 206.10660
 199.93224 194.86188 191.43552 189.46916 188.49780 188.55344 189.38008 190.67972
 192.39636 194.48300 196.73764 199.08828 201.52492 203.99656 206.07620 207.90984
 209.52748 210.66412 210.88476 211.10440 211.03304 210.72968 210.35432 209.97596
 209.58460 209.28624 209.08588 208.94152 208.86116 209.18380 209.56144 209.94208
 210.72672 211.89636 213.13800 214.91264 216.83228 218.86692 220.95356 223.02820
 225.07984 227.15548 229.24412 231.34176 233.46240 235.62604 237.87368 240.23532
 242.84796 245.09060 247.08424 248.84088 250.24952 251.36416 252.17780 252.48544
 252.51408 252.27972 251.63136 250.57100 249.16865 247.32129 245.22193 243.04657
 240.82921 238.62485 236.43649 234.26713 232.11877 229.97741 227.99505 226.14369
 224.41833 222.88197 221.50361 220.26725 219.14089 218.09253 217.18817 216.32081
 215.55445 214.72609 213.81573 213.17137 212.61301 212.74902 213.07156 214.29828
 215.65434 217.66118 219.46280 220.23981 221.29022 223.74899 227.99580 232.05145
 235.57678 239.33760 242.96036 246.26076 249.27547 251.95230 254.57339 257.45938
 260.52991 263.26758 265.51321 267.49362 269.43347 271.38635 273.20135 274.88043
 276.43790 277.89935 279.41010 280.77780 281.96506 283.01907 283.98651 284.86771
 285.66748 286.38803 287.02637 287.87860
 366.78100 356.32699 345.75099 334.60898 323.00398 311.18997 299.05197 286.84696
 274.55096 262.43995 250.44095 239.73394 229.84793 220.94393 213.11792 206.11192
 199.93791 194.86791 191.44190 189.47590 188.50489 188.56089 189.38788 190.68787
 192.40487 194.49186 196.74686 199.09785 201.53485 204.00684 206.08684 207.92083
 209.53882 210.67582 210.89681 211.11681 211.04580 210.74280 210.36779 209.98979
 209.59878 209.30078 209.10077 208.95676 208.87676 209.19975 209.57775 209.95874
 210.74374 211.91373 213.15573 214.93072 216.85072 218.88571 220.97270 223.04770
 225.09969 227.17569 229.26468 231.36268 233.48367 235.64767 237.89566 240.25766
 242.87065 245.11364 247.10764 248.86463 250.27363 251.38862 252.20262 252.51061
 252.53961 252.30560 251.65760 250.59759 249.19558 247.34858 245.24957 243.07457
 240.85756 238.65356 236.46555 234.29655 232.14854 230.00753 228.02553 226.17452
 224.44952 222.91351 221.53551 220.29950 219.17350 218.12549 217.22149 216.35448
 215.58847 214.76047 213.85046 213.20646 212.64845 212.80435 213.17296 214.42514
 215.73190 217.71201 219.57753 220.43874 221.49239 223.85269 227.97588 231.96570
 235.46240 239.19055 242.75078 245.97214 248.94652 251.64308 254.32687 257.27493
 260.33932 263.06793 265.33844 267.36560 269.34702 271.31964 273.13834 274.81943
 276.38708 277.85403 279.36578 280.73325 281.92206 282.97653 283.94315 284.82520
 285.62555 286.34818 286.98541 287.83966
 366.78100 356.32732 345.75163 334.60995 323.00526 311.19158 299.05390 286.84921
 274.55353 262.44285 250.44416 239.73748 229.85179 220.94811 213.12243 206.11674
 199.94306 194.87338 191.44769 189.48201 188.51132 188.56764 189.39496 190.69527
 192.41259 194.49990 196.75522 199.10654 201.54385 204.01617 206.09649 207.93080
 209.54912 210.68643 210.90775 211.12807 211.05738 210.75470 210.38001 210.00233
 209.61165 209.31396 209.11428 208.97060 208.89091 209.21423 209.59254 209.97386
 210.75918 211.92949 213.17181 214.94713 216.86744 218.90276 220.99007 223.06539
 225.11771 227.19402 229.28334 231.38165 233.50297 235.66729 237.91560 240.27792
 242.89124 245.13455 247.12887 248.88618 250.29550 251.41082 252.22513 252.53345
 252.56277 252.32908 251.68140 250.62171 249.22003 247.37335 245.27466 243.09998
 240.88329 238.67961 236.49193 234.32324 232.17556 230.03488 228.05319 226.20251
 224.47782 222.94214 221.56446 220.32877 219.20309 218.15541 217.25172 216.38504
 215.61935 214.79167 213.88199 213.23830 212.68062 212.85742 213.27510 214.54466
 215.81828 217.77524 219.70006 220.62941 221.68456 223.94937 227.95547 231.88092
 235.35591 239.05490 242.54326 245.67291 248.60208 251.32086 254.07410 257.08896
 260.15445 262.87753 265.16882 267.24164 269.26666 271.26202 273.08423 274.76544
 276.34195 277.81271 279.32581 280.69437 281.88330 282.93900 283.90555 284.78793
 285.58899 286.31064 286.94937 287.80984
 366.78100 356.32768 345.75235 334.61103 323.00670 311.19338 299.05605 286.85173
 274.55640 262.44608 250.44776 239.74143 229.85611 220.95278 213.12746 206.12213
 199.94881 194.87948 191.45416 189.48884 188.51851 188.57519 189.40286 190.70354
 192.42121 194.50889 196.76456 199.11624 201.55391 204.02659 206.10727 207.94194
 209.56062 210.69829 210.91997 211.14064 211.07032 210.76799 210.39367 210.01635
 209.62602 209.32870 209.12937 208.98605 208.90672 209.23040 209.60907 209.99075
 210.77643 211.94710 213.18978 214.96545 216.88613 218.92180 221.00948 223.08515
 225.13783 227.21451 229.30418 231.40286 233.52453 235.68921 237.93788 240.30056
 242.91423 245.15791 247.15258 248.91026 250.31994 251.43561 252.25029 252.55896
 252.58864 252.35531 251.70799 250.64866 249.24734 247.40102 245.30269 243.12837
 240.91204 238.70872 236.52139 234.35307 232.20574 230.06542 228.08410 226.23377
 224.50945 222.97412 221.59680 220.36147 219.23615 218.18882 217.28550 216.41918
 215.65385 214.82653 213.91720 213.27388 212.71655 212.91119 213.37105 214.66356
 215.90881 217.85573 219.82587 220.80978 221.86543 224.03227 227.93886 231.80682
 235.25455 238.91772 242.32462 245.36324 248.25774 251.00912 253.83176 256.90616
 259.96735 262.67801 264.99460 267.12183 269.19693 271.21805 273.04343 274.72235
 276.30731 277.77713 279.29065 280.65964 281.84842 282.90494 283.87305 284.75476
 285.55609 286.27963 286.91940 287.77679
 366.78100 356.32809 345.75318 334.61226 323.00835 311.19544 299.05853 286.85462
 274.55971 262.44979 250.45188 239.74597 229.86106 220.95815 213.13324 206.12832
 199.95541 194.88650 191.46159 189.49668 188.52677 188.58385 189.41194 190.71303
 192.43112 194.51921 196.77530 199.12738 201.56547 204.03856 206.11965 207.95474
 209.57382 210.71191 210.93400 211.15509 211.08518 210.78327 210.40935 210.03244
 209.64253 209.34562 209.14671 209.00380 208.92488 209.24897 209.62806 210.01015
 210.79624 211.96733 213.21041 214.98650 216.90759 218.94368 221.03177 223.10786
 225.16094 227.23803 229.32812 231.42721 233.54930 235.71438 237.96347 240.32656
 242.94065 245.18474 247.17983 248.93791 250.34800 251.46409 252.27918 252.58827
 252.61836 252.38544 251.73853 250.67962 249.27871 247.43280 245.33489 243.16097
 240.94506 238.74215 236.55524 234.38733 232.24042 230.10050 228.11959 226.26968
 224.54577 223.01086 221.63394 220.39903 219.27412 218.22721 217.32430 216.45839
 215.69347 214.86656 213.95765 213.31474 212.75783 212.96609 213.45813 214.78151
 216.01923 217.92087 219.96236 221.00641 222.02672 224.09892 227.91078 231.73093
 235.16093 238.79111 242.11942 245.06534 247.91754 250.69562 253.58217 256.71091
 259.76895 262.47488 264.82831 267.01523 269.14072 271.18765 273.01297 274.68677
 276.27438 277.74588 279.25998 280.62946 281.81891 282.87546 283.84341 284.72629
 285.52832 286.25253 286.89273 287.75208
 366.78100 356.32862 345.75424 334.61387 323.01049 311.19811 299.06173 286.85835
 274.56397 262.45460 250.45722 239.75184 229.86746 220.96508 213.14070 206.13633
 199.96395 194.89557 191.47119 189.50681 188.53743 188.59506 189.42368 190.72530
 192.44392 194.53254 196.78916 199.14179 201.58041 204.05403 206.13565 207.97127
 209.59090 210.72952 210.95214 211.17376 211.10438 210.80300 210.42963 210.05325
 209.66387 209.36749 209.16911 209.02673 208.94836 209.27298 209.65260 210.03522
 210.82184 211.99346 213.23709 215.01371 216.93533 218.97195 221.06057 223.13719
 225.19082 227.26844 229.35906 231.45868 233.58130 235.74693 237.99655 240.36017
 242.97479 245.21941 247.21503 248.97366 250.38428 251.50090 252.31652 252.62614
 252.65676 252.42439 251.77801 250.71963 249.31925 247.47387 245.37649 243.20312
 240.98774 238.78536 236.59898 234.43160 232.28522 230.14585 228.16547 226.31609
 224.59271 223.05833 221.68196 220.44758 219.32320 218.27682 217.37444 216.50906
 215.74469 214.91831 214.00993 213.36755 212.81117 213.02544 213.53162 214.89960
 216.14867 217.99475 220.08842 221.21133 222.15347 224.14412 227.88271 231.67105
 235.08940 238.68706 241.93175 244.76355 247.55659 250.36028 253.31982 256.51086
 259.57516 262.28555 264.67532 266.92130 269.09515 271.16516 272.98880 274.65588
 276.24741 277.71860 279.23318 280.60236 281.79208 282.85037 283.81808 284.70258
 285.50427 286.22662 286.86972 287.73059
 366.78100 356.32911 345.75523 334.61534 323.01246 311.20057 299.06468 286.86180
 274.56791 262.45902 250.46214 239.75725 229.87337 220.97148 213.14759 206.14371
 199.97182 194.90393 191.48005 189.51616 188.54728 188.60539 189.43450 190.73662
 192.45573 194.54485 196.80196 199.15507 201.59419 204.06830 206.15041 207.98653
 209.60664 210.74576 210.96887 211.19098 211.12210 210.82121 210.44833 210.07244
 209.68355 209.38767 209.18978 209.04789 208.97001 209.29512 209.67524 210.05835
 210.84546 212.01758 213.26169 215.03880 216.96092 218.99803 221.08715 223.16426
 225.21837 227.29649 229.38760 231.48772 233.61083 235.77694 238.02706 240.39117
 243.00628 245.25140 247.24751 249.00663 250.41774 251.53485 252.35097 252.66108
 252.69220 252.46031 251.81442 250.75654 249.35665 247.51176 245.41488 243.24199
 241.02711 238.82522 236.63933 234.47245 232.32656 230.18767 228.20779 226.35890
 224.63602 223.10213 221.72624 220.49236 219.36847 218.32259 217.42070 216.55581
 215.79193 214.96604 214.05815 213.41627 212.86038 213.08153 213.60403 214.99966
 216.28793 218.12726 220.18733 221.39810 222.26215 224.17381 227.88362 231.65791
 235.03911 238.58070 241.71497 244.41899 247.16756 250.01559 253.06129 256.32153
 259.39700 262.10999 264.53320 266.83655 269.05835 271.15027 272.96793 274.62317
 276.21188 277.69418 279.21167 280.58014 281.77124 282.82864 283.79773 284.68130
 285.48511 286.21002 286.85059 287.71399
 366.78100 356.32943 345.75586 334.61629 323.01372 311.20215 299.06658 286.86401
 274.57044 262.46187 250.46530 239.76073 229.87716 220.97559 213.15202 206.14845
 199.97688 194.90931 191.48574 189.52217 188.55360 188.61203 189.44146 190.74389
 192.46332 194.55275 196.81018 199.16361 201.60304 204.07747 206.15989 207.99632
 209.61675 210.75618 210.97961 211.20204 211.13347 210.83290 210.46033 210.08476
 209.69619 209.40062 209.20305 209.06148 208.98391 209.30934 209.68977 210.07320
 210.86063 212.03306 213.27749 215.05492 216.97735 219.01478 221.10421 223.18164
 225.23607 227.31450 229.40593 231.50636 233.62979 235.79622 238.04665 240.41108
 243.02651 245.27194 247.26837 249.02780 250.43923 251.55666 252.37309 252.68352
 252.71495 252.48338 251.83781 250.78024 249.38067 247.53610 245.43953 243.26696
 241.05239 238.85082 236.66525 234.49868 232.35311 230.21454 228.23497 226.38640
 224.66383 223.13025 221.75468 220.52111 219.39754 218.35197 217.45040 216.58583
 215.82226 214.99669 214.08912 213.44755 212.89198 213.12639 213.68019 215.09802
 216.41507 218.27100 220.27388 221.57211 222.38069 224.22398 227.92241 231.65596
 234.98550 238.45081 241.46233 244.05733 246.77951 249.68077 252.81252 256.13821
 259.21985 261.93381 264.39453 266.75848 269.03134 271.14804 272.96307 274.61032
 276.19272 277.67206 279.18835 280.55801 281.74860 282.80649 283.77560 284.65930
 285.46381 286.18924 286.83072 287.69620
 366.78100 356.33016 345.75732 334.61848 323.01664 311.20580 299.07096 286.86912
 274.57627 262.46843 250.47259 239.76875 229.88591 220.98507 213.16223 206.15939
 199.98855 194.92171 191.49887 189.53603 188.56819 188.62735 189.45751 190.76067
 192.48082 194.57098 196.82914 199.18330 201.62346 204.09862 206.18178 208.01894
 209.64010 210.78026 211.00442 211.22758 211.15974 210.85990 210.48806 210.11321
 209.72537 209.43053 209.23369 209.09285 209.01601 209.34217 209.72333 210.10749
 210.89565 212.06881 213.31397 215.09213 217.01529 219.05345 221.14361 223.22176
 225.27692 227.35608 229.44824 231.54940 233.67356 235.84072 238.09188 240.45704
 243.07320 245.31936 247.31652 249.07668 250.48884 251.60700 252.42415 252.73531
 252.76747 252.53663 251.89179 250.83495 249.43611 247.59227 245.49643 243.32459
 241.11075 238.90991 236.72507 234.55923 232.41439 230.27655 228.29770 226.44986
 224.72802 223.19518 221.82034 220.58750 219.46466 218.41982 217.51898 216.65514
 215.89230 215.06746 214.16062 213.51978 212.96494 213.18980 213.72107 215.21384
 216.55646 218.40681 220.36470 221.71381 222.53455 224.29953 227.96172 231.63242
 234.90280 238.28983 241.19704 243.71298 246.40559 249.35556 252.57437 255.96034
 259.05380 261.77560 264.27179 266.69043 269.00793 271.14392 272.95782 274.60406
 276.18506 277.65576 279.17072 280.54062 281.73187 282.79007 283.75980 284.64423
 285.44888 286.17407 286.81766 287.68195
 366.78100 356.33083 345.75866 334.62049 323.01932 311.20916 299.07499 286.87382
 274.58165 262.47448 250.47931 239.77614 229.89397 220.99381 213.17164 206.16947
 199.99930 194.93313 191.51096 189.54879 188.58162 188.64146 189.47229 190.77612
 192.49695 194.58778 196.84661 199.20144 201.64227 204.11810 206.20194 208.03977
 209.66160 210.80243 211.02726 211.25109 211.18392 210.88475 210.51359 210.13942
 209.75225 209.45808 209.26191 209.12174 209.04557 209.37240 209.75424 210.13907
 210.92790 212.10173 213.34756 215.12639 217.05022 219.08905 221.17988 223.25872
 225.31455 227.39438 229.48721 231.58904 233.71387 235.88170 238.13353 240.49937
 243.11620 245.36303 247.36086 249.12169 250.53452 251.65335 252.47118 252.78302
 252.81585 252.58568 251.94151 250.88534 249.48717 247.64400 245.54883 243.37766
 241.16450 238.96433 236.78016 234.61499 232.47082 230.33365 228.35548 226.50831
 224.78715 223.25498 221.88081 220.64864 219.52647 218.48230 217.58213 216.71896
 215.95679 215.13263 214.22646 213.58629 213.03212 213.24876 213.76057 215.31805
 216.72163 218.56624 220.46098 221.81641 222.70824 224.38751 227.97083 231.58815
 234.79677 238.10139 240.91624 243.36530 246.03406 249.03903 252.34946 255.79851
 258.91434 261.64493 264.17194 266.63446 268.98520 271.12601 272.92868 274.56186
 276.12967 277.64621 279.16977 280.53983 281.73224 282.78912 283.75937 284.64401
 285.44821 286.17294 286.81561 287.67966
 366.78100 356.33070 345.75840 334.62011 323.01881 311.20851 299.07421 286.87291
 274.58061 262.47332 250.47802 239.77472 229.89242 220.99212 213.16983 206.16753
 199.99723 194.93093 191.50863 189.54633 188.57904 188.63874 189.46944 190.77314
 192.49384 194.58455 196.84325 199.19795 201.63865 204.11435 206.19805 208.03576
 209.65746 210.79816 211.02286 211.24656 211.17926 210.87997 210.50867 210.13437
 209.74707 209.45277 209.25648 209.11618 209.03988 209.36658 209.74828 210.13298
 210.92169 212.09539 213.34109 215.11979 217.04349 219.08220 221.17290 223.25160
 225.30730 227.38700 229.47970 231.58141 233.70611 235.87381 238.12551 240.49121
 243.10792 245.35462 247.35232 249.11302 250.52572 251.64442 252.46213 252.77383
 252.80653 252.57623 251.93193 250.87564 249.47734 247.63404 245.53874 243.36744
 241.15414 238.95385 236.76955 234.60425 232.45995 230.32265 228.34436 226.49706
 224.77576 223.24346 221.86916 220.63686 219.51457 218.47027 217.56997 216.70667
 215.94437 215.12007 214.21378 213.57348 213.01918 213.26498 213.84575 215.39635
 216.88150 218.74312 220.55690 221.90222 222.88631 224.49794 227.96326 231.53954
 234.68944 237.89919 240.61462 242.99776 245.66623 248.73422 252.13420 255.64954
 258.78113 261.52026 264.07559 266.58289 268.96649 271.11353 272.90784 274.53061
 276.08917 277.63083 279.15753 280.52765 281.71924 282.77634 283.74622 284.62943
 285.43585 286.16055 286.80292 287.66824
 366.78100 356.33091 345.75882 334.62073 323.01964 311.20955 299.07546 286.87437
 274.58228 262.47519 250.48010 239.77701 229.89492 220.99483 213.17273 206.17064
 200.00055 194.93446 191.51237 189.55028 188.58319 188.64310 189.47401 190.77792
 192.49883 194.58974 196.84865 199.20356 201.64447 204.12038 206.20429 208.04220
 209.66411 210.80502 211.02993 211.25384 211.18675 210.88766 210.51657 210.14248
 209.75539 209.46129 209.26520 209.12511 209.04902 209.37593 209.75784 210.14275
 210.93166 212.10557 213.35148 215.13039 217.05430 219.09321 221.18412 223.26303
 225.31894 227.39885 229.49176 231.59367 233.71858 235.88649 238.13840 240.50431
 243.12122 245.36813 247.36604 249.12695 250.53985 251.65876 252.47667 252.78858
 252.82149 252.59140 251.94731 250.89122 249.49313 247.65004 245.55495 243.38386
 241.17077 238.97068 236.78659 234.62150 232.47741 230.34032 228.36223 226.51514
 224.79405 223.26196 221.88787 220.65578 219.53369 218.48960 217.58951 216.72641
 215.96432 215.14023 214.23414 213.59405 213.03996 213.29669 213.90320 215.48332
 217.04761 218.91527 220.67436 221.98589 223.04871 224.63560 227.96347 231.48119
 234.56847 237.67458 240.28510 242.61932 245.30942 248.44693 251.93140 255.51027
 258.65137 261.39856 263.98599 266.53485 268.95078 271.11453 272.90515 274.52341
 276.10660 277.60135 279.12317 280.49521 281.68817 282.74799 283.71954 284.60370
 285.40869 286.13376 286.77866 287.64496
 366.78100 356.33135 345.75969 334.62204 323.02138 311.21173 299.07807 286.87742
 274.58576 262.47911 250.48445 239.78180 229.90014 221.00049 213.17883 206.17718
 200.00752 194.94187 191.52021 189.55856 188.59190 188.65225 189.48359 190.78794
 192.50928 194.60063 196.85997 199.21532 201.65666 204.13301 206.21735 208.05570
 209.67804 210.81939 211.04473 211.26908 211.20242 210.90377 210.53311 210.15946
 209.77280 209.47915 209.28349 209.14384 209.06818 209.39553 209.77788 210.16322
 210.95257 212.12691 213.37326 215.15260 217.07695 219.11629 221.20764 223.28698
 225.34333 227.42367 229.51702 231.61936 233.74471 235.91305 238.16540 240.53174
 243.14909 245.39643 247.39478 249.15612 250.56947 251.68881 252.50716 252.81950
 252.85285 252.62319 251.97954 250.92388 249.52623 247.68357 245.58892 243.41826
 241.20561 239.00595 236.82230 234.65764 232.51399 230.37733 228.39968 226.55302
 224.83237 223.30072 221.92706 220.69541 219.57375 218.53010 217.63044 216.76779
 216.00613 215.18248 214.27682 213.63717 213.08351 213.33850 213.94092 215.57129
 217.22163 219.08919 220.81276 222.08125 223.19214 224.79031 227.98880 231.41461
 234.41615 237.40349 239.91362 242.23250 244.96637 248.18123 251.74797 255.38606
 258.54352 261.30066 263.91351 266.49231 268.93219 271.10645 272.88770 274.49475
 275.96664 277.62909 279.15091 280.50763 281.68964 282.74408 283.70947 284.59174
 285.39496 286.11987 286.76392 287.63217
 366.78100 356.33159 345.76018 334.62277 323.02236 311.21295 299.07954 286.87913
 274.58773 262.48132 250.48691 239.78450 229.90309 221.00368 213.18227 206.18086
 200.01145 194.94604 191.52463 189.56322 188.59681 188.65740 189.48899 190.79358
 192.51518 194.60677 196.86636 199.22195 201.66354 204.14013 206.22472 208.06331
 209.68590 210.82749 211.05308 211.27767 211.21126 210.91285 210.54244 210.16903
 209.78263 209.48922 209.29381 209.15440 209.07899 209.40658 209.78917 210.17476
 210.96435 212.13894 213.38553 215.16512 217.08971 219.12930 221.22089 223.30048
 225.35708 227.43767 229.53126 231.63385 233.75944 235.92803 238.18062 240.54721
 243.16480 245.41239 247.41098 249.17257 250.58616 251.70575 252.52434 252.83693
 252.87053 252.64112 251.99771 250.94230 249.54489 247.70248 245.60807 243.43766
 241.22525 239.02584 236.84243 234.67802 232.53461 230.39820 228.42079 226.57438
 224.85398 223.32257 221.94916 220.71775 219.59634 218.55293 217.65352 216.79111
 216.02970 215.20629 214.30088 213.66147 213.10806 213.36804 213.98225 215.65877
 217.39188 219.26688 220.95450 222.18144 223.33102 224.96202 228.04428 231.34981
 234.23843 237.08028 239.49586 241.83244 244.63408 247.93324 251.58028 255.27071
 258.44791 261.21982 263.85370 266.45541 268.91245 271.09464 272.86731 274.46652
 275.98462 277.57831 279.11197 280.48029 281.67081 282.72833 283.69800 284.58221
 285.38660 286.11237 286.75711 287.62952
 366.78100 356.33152 345.76004 334.62257 323.02209 311.21261 299.07913 286.87865
 274.58718 262.48070 250.48622 239.78374 229.90226 221.00279 213.18131 206.17983
 200.01035 194.94487 191.52340 189.56192 188.59544 188.65596 189.48748 190.79201
 192.51353 194.60505 196.86457 199.22009 201.66161 204.13814 206.22266 208.06118
 209.68370 210.82522 211.05075 211.27527 211.20879 210.91031 210.53983 210.16636
 209.77988 209.48640 209.29092 209.15144 209.07597 209.40349 209.78601 210.17153
 210.96105 212.13558 213.38210 215.16162 217.08614 219.12566 221.21719 223.29671
 225.35323 227.43375 229.52727 231.62980 233.75532 235.92384 238.17636 240.54288
 243.16041 245.40793 247.40645 249.16797 250.58149 251.70102 252.51954 252.83206
 252.86558 252.63610 251.99263 250.93715 249.53967 247.69719 245.60271 243.43224
 241.21976 239.02028 236.83680 234.67232 232.52884 230.39237 228.41489 226.56841
 224.84793 223.31645 221.94298 220.71150 219.59002 218.54654 217.64706 216.78459
 216.02311 215.19963 214.29415 213.65467 213.10120 213.37901 214.03540 215.74863
 217.55229 219.44434 221.09366 222.27937 223.47612 225.14836 228.11755 231.30057
 234.05121 236.71405 239.03792 241.42307 244.31436 247.70274 251.42575 255.16353
 258.36591 261.15204 263.80176 266.41858 268.88528 271.07184 272.84375 274.43616
 275.91101 277.57007 279.11603 280.48660 281.67569 282.73404 283.70593 284.59387
 285.40683 286.14041 286.79071 287.66177
 366.78100 356.33125 345.75951 334.62176 323.02102 311.21127 299.07753 286.87678
 274.58504 262.47829 250.48355 239.78080 229.89906 220.99931 213.17756 206.17582
 200.00607 194.94033 191.51858 189.55684 188.59009 188.65035 189.48160 190.78586
 192.50711 194.59837 196.85762 199.21287 201.65413 204.13038 206.21464 208.05289
 209.67515 210.81640 211.04166 211.26591 211.19917 210.90042 210.52968 210.15593
 209.76919 209.47544 209.27969 209.13995 209.06420 209.39146 209.77371 210.15897
 210.94822 212.12248 213.36873 215.14799 217.07224 219.11150 221.20275 223.28200
 225.33826 227.41851 229.51177 231.61402 233.73928 235.90753 238.15979 240.52604
 243.14330 245.39055 247.38881 249.15006 250.56331 251.68257 252.50082 252.81308
 252.84633 252.61659 251.97284 250.91710 249.51935 247.67661 245.58186 243.41112
 241.19837 238.99862 236.81488 234.65013 232.50639 230.36964 228.39190 226.54515
 224.82441 223.29266 221.91892 220.68717 219.56543 218.52168 217.62194 216.75919
 215.99744 215.17370 214.26795 213.62821 213.07446 213.37744 214.09326 215.84666
 217.70094 219.60854 221.23468 222.38033 223.62595 225.35336 228.20328 231.23950
 233.84564 236.33025 238.56134 241.00781 244.00484 247.49176 251.28833 255.06718
 258.29218 261.09225 263.75519 266.37933 268.85098 271.03937 272.81534 274.40848
 275.86975 277.56876 279.11734 280.48633 281.67688 282.73544 283.70767 284.59848
 285.41498 286.15082 286.80038 287.67368
 366.78100 356.33092 345.75884 334.62076 323.01968 311.20961 299.07553 286.87445
 274.58237 262.47529 250.48021 239.77713 229.89505 220.99498 213.17290 206.17082
 200.00074 194.93466 191.51258 189.55050 188.58342 188.64335 189.47427 190.77819
 192.49911 194.59003 196.84895 199.20387 201.64479 204.12072 206.20464 208.04256
 209.66448 210.80540 211.03032 211.25424 211.18716 210.88809 210.51701 210.14293
 209.75585 209.46177 209.26569 209.12561 209.04953 209.37646 209.75838 210.14330
 210.93222 212.10614 213.35206 215.13098 217.05490 219.09382 221.18475 223.26367
 225.31959 227.39951 229.49243 231.59435 233.71927 235.88719 238.13912 240.50504
 243.12196 245.36888 247.36680 249.12772 250.54064 251.65956 252.47749 252.78941
 252.82233 252.59225 251.94817 250.89209 249.49401 247.65093 245.55586 243.38478
 241.17170 238.97162 236.78754 234.62246 232.47838 230.34130 228.36323 226.51615
 224.79507 223.26299 221.88891 220.65683 219.53475 218.49067 217.59060 216.72752
 215.96544 215.14136 214.23528 213.59520 213.04112 213.37086 214.14990 215.95245
 217.84267 219.75810 221.36774 222.48653 223.79883 225.56178 228.28519 231.19292
 233.64496 235.91652 238.05330 240.59114 243.71797 247.30775 251.16765 254.97597
 258.22095 261.03870 263.71335 266.34149 268.81342 271.00024 272.78091 274.37708
 275.85568 277.56485 279.11584 280.48547 281.67484 282.73508 283.70676 284.59915
 285.41528 286.15002 286.80060 287.67651
 366.78100 356.33068 345.75837 334.62005 323.01874 311.20842 299.07411 286.87279
 274.58048 262.47316 250.47785 239.77453 229.89222 220.99190 213.16959 206.16727
 199.99696 194.93064 191.50833 189.54601 188.57870 188.63838 189.46907 190.77275
 192.49344 194.58412 196.84281 199.19749 201.63818 204.11386 206.19755 208.03523
 209.65692 210.79760 211.02229 211.24597 211.17866 210.87934 210.50802 210.13371
 209.74639 209.45208 209.25576 209.11545 209.03913 209.36582 209.74750 210.13219
 210.92087 212.09456 213.34024 215.11893 217.04261 219.08130 221.17198 223.25067
 225.30635 227.38604 229.47872 231.58041 233.70509 235.87278 238.12446 240.49015
 243.10683 245.35352 247.35120 249.11189 250.52457 251.64326 252.46094 252.77263
 252.80531 252.57500 251.93068 250.87436 249.47605 247.63273 245.53742 243.36610
 241.15279 238.95247 236.76816 234.60284 232.45853 230.32121 228.34290 226.49558
 224.77427 223.24195 221.86764 220.63532 219.51301 218.46869 217.56838 216.70506
 215.94275 215.11843 214.21212 213.57180 213.01749 213.36813 214.19659 216.06630
 217.98824 219.88736 221.48541 222.60155 223.97256 225.79259 228.38600 231.13213
 233.40598 235.47487 237.53264 240.19293 243.46123 247.14116 251.05637 254.89012
 258.15503 260.99249 263.67715 266.30447 268.77380 270.96124 272.75116 274.35635
 275.84500 277.55603 279.10785 280.47690 281.66895 282.72736 283.70197 284.59283
 285.40872 286.14642 286.79529 287.67126
 366.78100 356.32992 345.75683 334.61775 323.01566 311.20458 299.06949 286.86741
 274.57432 262.46624 250.47016 239.76607 229.88299 220.98190 213.15882 206.15573
 199.98465 194.91756 191.49448 189.53139 188.56331 188.62223 189.45214 190.75506
 192.47497 194.56489 196.82280 199.17672 201.61663 204.09155 206.17447 208.01138
 209.63230 210.77221 210.99613 211.21904 211.15096 210.85087 210.47879 210.10371
 209.71562 209.42054 209.22345 209.08237 209.00528 209.33120 209.71211 210.09603
 210.88394 212.05686 213.30178 215.07969 217.00261 219.04052 221.13044 223.20835
 225.26327 227.34218 229.43410 231.53502 233.65893 235.82585 238.07676 240.44168
 243.05759 245.30351 247.30042 249.06034 250.47226 251.59017 252.40709 252.71800
 252.74992 252.51883 251.87375 250.81666 249.41758 247.57349 245.47741 243.30533
 241.09124 238.89016 236.70507 234.53899 232.39390 230.25582 228.27673 226.42865
 224.70657 223.17348 221.79840 220.56531 219.44223 218.39714 217.49606 216.63197
 215.86889 215.04381 214.13672 213.49564 212.94055 213.33820 214.27768 216.14204
 218.15143 220.02892 221.58784 222.68800 224.13202 226.01205 228.50647 231.07390
 233.15974 235.01323 237.02339 239.81598 243.21564 246.99326 250.95981 254.81055
 258.09421 260.95139 263.64413 266.26773 268.73260 270.92065 272.72018 274.33356
 275.83481 277.54834 279.10132 280.47104 281.66183 282.72174 283.69424 284.58832
 285.40491 286.14114 286.79019 287.66724
 366.78100 356.32923 345.75546 334.61569 323.01292 311.20115 299.06538 286.86261
 274.56884 262.46007 250.46330 239.75853 229.87476 220.97300 213.14923 206.14546
 199.97369 194.90592 191.48215 189.51838 188.54961 188.60784 189.43707 190.73930
 192.45853 194.54776 196.80499 199.15822 201.59745 204.07168 206.15391 207.99014
 209.61037 210.74960 210.97283 211.19506 211.12629 210.82552 210.45276 210.07699
 209.68822 209.39245 209.19468 209.05291 208.97514 209.30037 209.68060 210.06383
 210.85106 212.02329 213.26752 215.04475 216.96698 219.00421 221.09344 223.17067
 225.22490 227.30313 229.39436 231.49459 233.61782 235.78405 238.03428 240.39852
 243.01375 245.25898 247.25521 249.01444 250.42567 251.54290 252.35913 252.66936
 252.70059 252.46882 251.82305 250.76528 249.36551 247.52074 245.42397 243.25120
 241.03643 238.83466 236.64889 234.48212 232.33635 230.19758 228.21781 226.36904
 224.64628 223.11251 221.73674 220.50297 219.37920 218.33343 217.43166 216.56689
 215.80312 214.97735 214.06958 213.42781 212.87204 213.31210 214.35181 216.22649
 218.29076 220.17581 221.72333 222.75911 224.25424 226.23511 228.57132 231.00993
 232.96152 234.60454 236.50360 239.44548 242.99684 246.86635 250.87491 254.73451
 258.03372 260.91086 263.61487 266.23462 268.69284 270.88113 272.69122 274.31232
 275.82693 277.54388 279.09683 280.46582 281.65576 282.71671 283.68954 284.58170
 285.39743 286.13620 286.78519 287.66202
 366.78100 356.32886 345.75472 334.61458 323.01144 311.19930 299.06316 286.86002
 274.56589 262.45675 250.45961 239.75447 229.87033 220.96819 213.14405 206.13991
 199.96777 194.89963 191.47549 189.51135 188.54221 188.60007 189.42893 190.73080
 192.44966 194.53852 196.79538 199.14824 201.58710 204.06096 206.14282 207.97868
 209.59854 210.73740 210.96026 211.18212 211.11298 210.81185 210.43871 210.06257
 209.67343 209.37729 209.17915 209.03701 208.95887 209.28373 209.66359 210.04645
 210.83331 212.00517 213.24903 215.02589 216.94776 218.98462 221.07348 223.15034
 225.20420 227.28206 229.37292 231.47278 233.59564 235.76150 238.01136 240.37522
 242.99008 245.23494 247.23080 248.98967 250.40053 251.51739 252.33325 252.64311
 252.67397 252.44183 251.79569 250.73755 249.33741 247.49227 245.39513 243.22199
 241.00685 238.80471 236.61858 234.45144 232.30530 230.16616 228.18602 226.33688
 224.61374 223.07960 221.70346 220.46932 219.34518 218.29904 217.39690 216.53176
 215.76763 214.94149 214.03335 213.39121 212.83507 213.30115 214.40231 216.34077
 218.40392 220.31522 221.86337 222.92310 224.34810 226.33281 228.61084 230.99182
 232.80081 234.20755 235.99524 239.08084 242.80060 246.75832 250.79730 254.66206
 257.97922 260.87897 263.59076 266.20233 268.65024 270.83371 272.65134 274.27753
 275.81772 277.54309 279.09851 280.46799 281.65894 282.71860 283.69241 284.58612
 285.40280 286.13995 286.79129 287.66638
 366.78100 356.32810 345.75320 334.61230 323.00840 311.19551 299.05861 286.85471
 274.55981 262.44991 250.45201 239.74611 229.86121 220.95831 213.13342 206.12852
 199.95562 194.88672 191.46182 189.49692 188.52702 188.58412 189.41222 190.71333
 192.43143 194.51953 196.77563 199.12773 201.56583 204.03893 206.12003 207.95513
 209.57424 210.71234 210.93444 211.15554 211.08564 210.78374 210.40984 210.03294
 209.64304 209.34614 209.14725 209.00435 208.92545 209.24955 209.62865 210.01075
 210.79685 211.96795 213.21105 214.98716 216.90826 218.94436 221.03246 223.10856
 225.16166 227.23876 229.32886 231.42796 233.55007 235.71517 237.96427 240.32737
 242.94147 245.18557 247.18067 248.93877 250.34887 251.46498 252.28008 252.58918
 252.61928 252.38638 251.73948 250.68058 249.27968 247.43378 245.33589 243.16199
 240.94609 238.74319 236.55629 234.38839 232.24149 230.10159 228.12069 226.27080
 224.54690 223.01200 221.63510 220.40020 219.27530 218.22840 217.32550 216.45960
 215.69471 214.86781 213.95891 213.31601 212.75911 213.26967 214.47592 216.45102
 218.50356 220.45355 221.96887 223.10097 224.46304 226.39154 228.67380 230.99092
 232.62370 233.79358 235.52234 238.74052 242.61131 246.66286 250.72797 254.58812
 257.91821 260.84250 263.56827 266.17365 268.61401 270.79980 272.63110 274.26770
 275.81229 277.53305 279.08530 280.45447 281.64423 282.70334 283.67676 284.56857
 285.38425 286.12323 286.77173 287.64908
 366.78100 356.32711 345.75121 334.60932 323.00443 311.19053 299.05264 286.84775
 274.55185 262.44096 250.44207 239.73517 229.84928 220.94539 213.11949 206.11360
 199.93971 194.86981 191.44392 189.47803 188.50713 188.56324 189.39035 190.69045
 192.40756 194.49467 196.74977 199.10088 201.53799 204.01009 206.09020 207.92431
 209.54241 210.67952 210.90063 211.12073 211.04984 210.74695 210.37205 209.99416
 209.60327 209.30537 209.10548 208.96159 208.88169 209.20480 209.58291 209.96401
 210.74912 211.91923 213.16133 214.93644 216.85655 218.89165 220.97876 223.05387
 225.10597 227.18208 229.27119 231.36929 233.49040 235.65451 237.90261 240.26472
 242.87783 245.12093 247.11504 248.87215 250.28125 251.39636 252.21047 252.51857
 252.54768 252.31379 251.66589 250.60600 249.20411 247.35721 245.25832 243.08343
 240.86653 238.66264 236.47475 234.30585 232.15796 230.01707 228.03517 226.18428
 224.45939 222.92349 221.54560 220.30971 219.18381 218.13592 217.23203 216.36513
 215.59924 214.77135 213.86145 213.21756 212.65967 213.22591 214.56372 216.55812
 218.61441 220.56689 222.04674 223.23470 224.62094 226.46352 228.74260 230.99011
 232.42360 233.36804 235.08360 238.43404 242.43785 246.57503 250.66220 254.51926
 257.85983 260.80899 263.54996 266.15067 268.58499 270.77429 272.61884 274.27979
 275.80304 277.51791 279.06912 280.43787 281.62729 282.68488 283.65701 284.54962
 285.36606 286.10370 286.75211 287.63324
 366.78100 356.32629 345.74958 334.60687 323.00116 311.18645 299.04775 286.84204
 274.54533 262.43362 250.43391 239.72620 229.83949 220.93478 213.10807 206.10136
 199.92666 194.85595 191.42924 189.46253 188.49082 188.54611 189.37240 190.67169
 192.38798 194.47427 196.72856 199.07886 201.51515 203.98644 206.06573 207.89902
 209.51631 210.65260 210.87289 211.09218 211.02047 210.71676 210.34106 209.96235
 209.57064 209.27193 209.07122 208.92651 208.84580 209.16809 209.54538 209.92567
 210.70997 211.87926 213.12055 214.89484 216.81413 218.84842 220.93471 223.00900
 225.06029 227.13558 229.22387 231.32117 233.44146 235.60475 237.85204 240.21333
 242.82562 245.06791 247.06120 248.81749 250.22578 251.34008 252.15337 252.46066
 252.48895 252.25424 251.60553 250.54482 249.14211 247.29440 245.19469 243.01898
 240.80128 238.59657 236.40786 234.23815 232.08944 229.94773 227.96502 226.11331
 224.38760 222.85089 221.47219 220.23548 219.10877 218.06006 217.15535 216.28764
 215.52093 214.69222 213.78151 213.13680 212.57809 213.19075 214.63821 216.67902
 218.73438 220.64671 222.11945 223.35553 224.78935 226.53484 228.80296 230.97743
 232.20100 232.94450 234.67030 238.15182 242.28645 246.49353 250.59795 254.45068
 257.81097 260.78769 263.54205 266.13724 268.56384 270.75467 272.60526 274.26288
 275.79886 277.51645 279.06805 280.43634 281.62448 282.68301 283.65530 284.54834
 285.36682 286.10532 286.75467 287.63522
 366.78100 356.32557 345.74814 334.60471 322.99829 311.18286 299.04343 286.83700
 274.53957 262.42714 250.42672 239.71829 229.83086 220.92543 213.09800 206.09057
 199.91515 194.84372 191.41629 189.44886 188.47643 188.53100 189.35658 190.65515
 192.37072 194.45629 196.70986 199.05943 201.49501 203.96558 206.04415 207.87672
 209.49329 210.62886 210.84844 211.06701 210.99458 210.69015 210.31372 209.93429
 209.54187 209.24244 209.04101 208.89558 208.81415 209.13572 209.51230 209.89187
 210.67544 211.84401 213.08458 214.85815 216.77673 218.81030 220.89587 222.96944
 225.02001 227.09458 229.18216 231.27873 233.39830 235.56087 237.80744 240.16801
 242.77959 245.02116 247.01373 248.76930 250.17687 251.29044 252.10302 252.40959
 252.43716 252.20173 251.55230 250.49087 249.08745 247.23902 245.13859 242.96216
 240.74373 238.53830 236.34887 234.17845 232.02902 229.88659 227.90316 226.05073
 224.32430 222.78688 221.40745 220.17002 219.04259 217.99316 217.08773 216.21931
 215.45188 214.62245 213.71102 213.06559 212.50616 213.16063 214.70685 216.80959
 218.83760 220.71213 222.19167 223.49149 224.95113 226.60385 228.85339 230.92592
 231.94388 232.53433 234.28575 237.89276 242.14996 246.40860 250.53183 254.38824
 257.76764 260.77173 263.54141 266.13300 268.55124 270.74374 272.59860 274.25424
 275.78406 277.51645 279.06931 280.43790 281.62683 282.68484 283.65842 284.55338
 285.37210 286.11517 286.77039 287.65671
 366.78100 356.32477 345.74654 334.60231 322.99508 311.17885 299.03861 286.83138
 274.53315 262.41992 250.41869 239.70946 229.82123 220.91500 213.08677 206.07854
 199.90230 194.83007 191.40184 189.43361 188.46038 188.51415 189.33892 190.63669
 192.35146 194.43623 196.68899 199.03776 201.47253 203.94230 206.02007 207.85184
 209.46761 210.60238 210.82115 211.03892 210.96569 210.66045 210.28322 209.90299
 209.50976 209.20953 209.00730 208.86107 208.77884 209.09961 209.47538 209.85414
 210.63691 211.80468 213.04445 214.81722 216.73499 218.76776 220.85253 222.92530
 224.97507 227.04883 229.13560 231.23137 233.35014 235.51191 237.75768 240.11745
 242.72822 244.96899 246.96076 248.71553 250.12229 251.23506 252.04683 252.35260
 252.37937 252.14314 251.49291 250.43068 249.02645 247.17722 245.07598 242.89875
 240.67952 238.47329 236.28306 234.11183 231.96160 229.81837 227.83414 225.98091
 224.25367 222.71544 221.33521 220.09698 218.96875 217.91852 217.01229 216.14306
 215.37483 214.54460 213.63237 212.98613 212.42590 213.12610 214.78036 216.95309
 218.92490 220.76834 222.25507 223.63733 225.10454 226.68034 228.90994 230.82663
 231.67094 232.16103 233.93655 237.67085 242.02466 246.32806 250.44974 254.32076
 257.71970 260.75305 263.54398 266.13605 268.55081 270.74496 272.60724 274.27026
 275.80939 277.50122 279.05222 280.42191 281.61322 282.67087 283.64542 284.54239
 285.36279 286.10800 286.76480 287.65494
 366.78100 356.32376 345.74453 334.59929 322.99105 311.17381 299.03258 286.82434
 274.52510 262.41086 250.40863 239.69839 229.80915 220.90191 213.07268 206.06344
 199.88620 194.81296 191.38373 189.41449 188.44025 188.49301 189.31678 190.61354
 192.32730 194.41106 196.66283 199.01059 201.44435 203.91311 205.98988 207.82064
 209.43540 210.56916 210.78693 211.00369 210.92945 210.62321 210.24498 209.86374
 209.46950 209.16827 208.96503 208.81779 208.73455 209.05432 209.42908 209.80684
 210.58860 211.75537 212.99413 214.76589 216.68265 218.71442 220.79818 222.86994
 224.91870 226.99147 229.07723 231.17199 233.28975 235.45052 237.69528 240.05404
 242.66380 244.90357 246.89433 248.64809 250.05385 251.16562 251.97638 252.28114
 252.30690 252.06967 251.41843 250.35519 248.94995 247.09972 244.99748 242.81924
 240.59901 238.39177 236.20053 234.02829 231.87706 229.73282 227.74758 225.89334
 224.16511 222.62587 221.24463 220.00539 218.87616 217.82492 216.91768 216.04744
 215.27821 214.44697 213.53373 212.88649 212.32526 213.08105 214.86670 217.10185
 219.00941 220.81500 222.31189 223.77998 225.24493 226.75827 228.96037 230.68355
 231.37932 231.81477 233.64256 237.47079 241.91302 246.26025 250.38223 254.25240
 257.67230 260.73544 263.54742 266.14130 268.54971 270.73859 272.59903 274.25610
 275.79260 277.51306 279.06540 280.43408 281.62277 282.68155 283.65533 284.55005
 285.36951 286.11273 286.76675 287.65771
 366.78100 356.32271 345.74242 334.59613 322.98684 311.16855 299.02625 286.81696
 274.51667 262.40138 250.39809 239.68680 229.79651 220.88822 213.05793 206.04764
 199.86935 194.79505 191.36476 189.39447 188.41918 188.47089 189.29360 190.58931
 192.30202 194.38473 196.63544 198.98215 201.41485 203.88256 205.95827 207.78798
 209.40169 210.53440 210.75111 210.96682 210.89153 210.58424 210.20495 209.82265
 209.42736 209.12507 208.92078 208.77249 208.68820 209.00691 209.38062 209.75733
 210.53804 211.70375 212.94145 214.71216 216.62787 218.65858 220.74129 222.81200
 224.85971 226.93142 229.01613 231.10984 233.22655 235.38625 237.62996 239.98767
 242.59638 244.83509 246.82480 248.57751 249.98222 251.09293 251.90264 252.20635
 252.23105 251.99276 251.34047 250.27618 248.86989 247.01860 244.91531 242.73602
 240.51473 238.30644 236.11415 233.94086 231.78856 229.64327 227.65698 225.80169
 224.07240 222.53211 221.14982 219.90953 218.77924 217.72695 216.81866 215.94736
 215.17707 214.34478 213.43049 212.78220 212.21991 213.03418 214.95796 217.25362
 219.08488 220.84483 222.36958 223.91948 225.38191 226.83144 228.99693 230.52734
 231.07797 231.47784 233.37477 237.30347 241.81389 246.19531 250.31593 254.18578
 257.62408 260.71729 263.55417 266.15366 268.55627 270.74078 272.59042 274.24237
 275.78931 277.51541 279.07077 280.43997 281.63098 282.68988 283.66327 284.55936
 285.37753 286.11847 286.77124 287.66675
 366.78100 356.32168 345.74037 334.59305 322.98273 311.16342 299.02010 286.80979
 274.50847 262.39215 250.38784 239.67552 229.78420 220.87489 213.04357 206.03226
 199.85294 194.77762 191.34631 189.37499 188.39867 188.44936 189.27104 190.56573
 192.27741 194.35909 196.60878 198.95446 201.38614 203.85283 205.92751 207.75619
 209.36888 210.50056 210.71625 210.93093 210.85461 210.54630 210.16598 209.78266
 209.38635 209.08303 208.87772 208.72840 208.64308 208.96077 209.33345 209.70913
 210.48882 211.65350 212.89019 214.65987 216.57455 218.60424 220.68592 222.75560
 224.80229 226.87297 228.95665 231.04934 233.16502 235.32371 237.56639 239.92307
 242.53076 244.76844 246.75712 248.50881 249.91249 251.02218 251.83086 252.13354
 252.15723 251.91791 251.26459 250.19928 248.79196 246.93965 244.83533 242.65501
 240.43270 238.22338 236.03006 233.85575 231.70243 229.55612 227.56880 225.71248
 223.98217 222.44085 221.05753 219.81622 218.68490 217.63158 216.72227 215.84995
 215.07864 214.24532 213.33000 212.68069 212.11737 212.98965 215.05051 217.40527
 219.14928 220.86551 222.42987 224.05212 225.51907 226.90895 229.02069 230.36594
 230.77328 231.14253 233.12337 237.16695 241.73282 246.12703 250.25090 254.10930
 257.56885 260.69904 263.56723 266.17758 268.57996 270.76392 272.60349 274.24643
 275.78781 277.51276 279.06805 280.43781 281.62628 282.68640 283.65973 284.55356
 285.37234 286.11230 286.76501 287.66095
 366.78100 356.32076 345.73853 334.59029 322.97906 311.15882 299.01458 286.80335
 274.50111 262.38388 250.37864 239.66540 229.77317 220.86293 213.03069 206.01846
 199.83822 194.76199 191.32975 189.35751 188.38028 188.43004 189.25081 190.54457
 192.25533 194.33610 196.58486 198.92963 201.36039 203.82615 205.89992 207.72768
 209.33944 210.47021 210.68497 210.89874 210.82150 210.51226 210.13103 209.74679
 209.34956 209.04532 208.83908 208.68885 208.60261 208.91938 209.29114 209.66590
 210.44467 211.60843 212.84420 214.61296 216.52672 218.55549 220.63625 222.70501
 224.75078 226.82054 228.90331 230.99507 233.10983 235.26760 237.50936 239.86513
 242.47189 244.70865 246.69642 248.44718 249.84995 250.95871 251.76647 252.06824
 252.09100 251.85077 251.19653 250.13029 248.72206 246.86882 244.76358 242.58235
 240.35911 238.14888 235.95464 233.77940 231.62517 229.47793 227.48970 225.63246
 223.90122 222.35899 220.97475 219.73252 218.60028 217.54604 216.63581 215.76257
 214.99033 214.15610 213.23986 212.58963 212.02539 212.95172 215.14027 217.55933
 219.20688 220.88322 222.49107 224.17413 225.65842 226.97942 229.02534 230.21852
 230.48335 230.81281 232.88823 237.05092 241.66660 246.06139 250.18404 254.02827
 257.51221 260.68295 263.58582 266.21133 268.61578 270.79834 272.62524 274.25403
 275.78381 277.50687 279.06238 280.43179 281.62082 282.67908 283.65207 284.54541
 285.36356 286.10385 286.75708 287.65576
 366.78100 356.32013 345.73727 334.58840 322.97654 311.15567 299.01081 286.79894
 274.49607 262.37821 250.37234 239.65848 229.76561 220.85475 213.02188 206.00901
 199.82815 194.75128 191.31842 189.34555 188.36769 188.41682 189.23696 190.53009
 192.24022 194.32036 196.56849 198.91263 201.34276 203.80790 205.88103 207.70816
 209.31930 210.44943 210.66357 210.87670 210.79884 210.48897 210.10710 209.72224
 209.32437 209.01951 208.81264 208.66178 208.57491 208.89104 209.26218 209.63631
 210.41445 211.57758 212.81272 214.58085 216.49399 218.52212 220.60225 222.67039
 224.71552 226.78466 228.86679 230.95793 233.07206 235.22919 237.47033 239.82546
 242.43160 244.66773 246.65487 248.40500 249.80713 250.91527 251.72240 252.02354
 252.04567 251.80481 251.14994 250.08307 248.67421 246.82034 244.71448 242.53261
 240.30875 238.09788 235.90301 233.72715 231.57228 229.42442 227.43555 225.57769
 223.84582 222.30296 220.91809 219.67522 218.54236 217.48749 216.57663 215.70276
 214.92990 214.09503 213.17816 212.52730 211.96243 212.93056 215.21786 217.70952
 219.28926 220.88544 222.52054 224.29054 225.79153 227.07005 229.02768 230.04471
 230.18671 230.50525 232.68526 236.94659 241.59682 245.99529 250.11003 253.95169
 257.46445 260.67392 263.61011 266.25076 268.65479 270.83249 272.64221 274.25485
 275.77802 277.50085 279.05688 280.42682 281.61557 282.67523 283.64737 284.54016
 285.35873 286.09879 286.75195 287.65494
 366.78100 356.31931 345.73561 334.58592 322.97322 311.15153 299.00583 286.79314
 274.48944 262.37075 250.36406 239.64936 229.75567 220.84397 213.01028 205.99658
 199.81489 194.73720 191.30350 189.32981 188.35111 188.39942 189.21872 190.51103
 192.22033 194.29964 196.54695 198.89025 201.31956 203.78386 205.85617 207.68247
 209.29278 210.42209 210.63539 210.84770 210.76900 210.45831 210.07561 209.68992
 209.29122 208.98553 208.77784 208.62614 208.53845 208.85375 209.22406 209.59736
 210.37467 211.53698 212.77128 214.53859 216.45089 218.47820 220.55750 222.62481
 224.66911 226.73742 228.81873 230.90903 233.02234 235.17864 237.41895 239.77325
 242.37856 244.61387 246.60017 248.34948 249.75078 250.85809 251.66439 251.96470
 251.98600 251.74431 251.08862 250.02092 248.61123 246.75653 244.64984 242.46714
 240.24245 238.03076 235.83506 233.65837 231.50267 229.35398 227.36428 225.50559
 223.77289 222.22920 220.84351 219.59981 218.46612 217.41042 216.49873 215.62403
 214.85034 214.01465 213.09695 212.44526 211.87956 212.90176 215.31685 217.83202
 219.36292 220.95158 222.52461 224.31792 225.93575 227.17120 229.04372 229.93523
 229.91063 230.16719 232.46187 236.84258 241.53178 245.94698 250.05484 253.88623
 257.41718 260.66376 263.63412 266.29083 268.69696 270.86951 272.65985 274.25388
 275.77200 277.49527 279.05093 280.42157 281.61099 282.67023 283.64209 284.53381
 285.35278 286.09323 286.74710 287.65344
 366.78100 356.31862 345.73423 334.58385 322.97046 311.14808 299.00169 286.78831
 274.48393 262.36454 250.35716 239.64177 229.74739 220.83501 213.00062 205.98624
 199.80385 194.72547 191.29108 189.31670 188.33732 188.38493 189.20355 190.49516
 192.20378 194.28239 196.52901 198.87163 201.30024 203.76386 205.83547 207.66109
 209.27070 210.39932 210.61194 210.82355 210.74417 210.43278 210.04940 209.66302
 209.26363 208.95725 208.74886 208.59648 208.50809 208.82271 209.19233 209.56494
 210.34156 211.50317 212.73679 214.50340 216.41502 218.44164 220.52025 222.58687
 224.63048 226.69810 228.77871 230.86833 232.98095 235.13656 237.37618 239.72979
 242.33441 244.56903 246.55464 248.30326 249.70387 250.81049 251.61610 251.91572
 251.93634 251.69395 251.03757 249.96918 248.55880 246.70341 244.59603 242.41265
 240.18726 237.97488 235.77849 233.60111 231.44473 229.29534 227.30496 225.44557
 223.71219 222.16780 220.78142 219.53704 218.40265 217.34627 216.43388 215.55850
 214.78411 213.94773 213.02935 212.37696 211.81058 212.88203 215.41348 217.94948
 219.41847 221.01924 222.64944 224.34293 225.84816 227.21761 229.11707 230.00868
 229.70566 229.66634 232.24524 236.80240 241.49913 245.91359 250.00172 253.81825
 257.36523 260.64938 263.65686 266.33344 268.74493 270.91235 272.68420 274.25668
 275.76465 277.48630 279.04395 280.41330 281.60333 282.66214 283.63385 284.52670
 285.34470 286.08560 286.73962 287.65005
 366.78100 356.31823 345.73347 334.58270 322.96893 311.14617 298.99940 286.78563
 274.48087 262.36110 250.35333 239.63757 229.74280 220.83003 212.99527 205.98050
 199.79773 194.71897 191.28420 189.30943 188.32966 188.37690 189.19513 190.48636
 192.19460 194.27283 196.51906 198.86130 201.28953 203.75276 205.82400 207.64923
 209.25846 210.38670 210.59893 210.81016 210.73040 210.41863 210.03486 209.64810
 209.24833 208.94156 208.73280 208.58003 208.49126 208.80550 209.17473 209.54696
 210.32320 211.48443 212.71766 214.48390 216.39513 218.42136 220.49959 222.56583
 224.60906 226.67629 228.75653 230.84576 232.95799 235.11323 237.35246 239.70569
 242.30993 244.54416 246.52939 248.27763 249.67786 250.78409 251.58933 251.88856
 251.90879 251.66603 251.00926 249.94049 248.52973 246.67396 244.56619 242.38243
 240.15666 237.94389 235.74713 233.56936 231.41259 229.26283 227.27206 225.41229
 223.67852 222.13376 220.74699 219.50222 218.36746 217.31069 216.39792 215.52216
 214.74739 213.91062 212.99186 212.33909 211.77232 212.87941 215.49503 218.07265
 219.48248 221.04803 222.75079 224.47218 225.87376 227.24292 229.05325 229.88359
 229.48532 229.35170 232.09547 236.75919 241.47353 245.87611 249.93463 253.74313
 257.31146 260.63571 263.68109 266.37973 268.79633 270.95950 272.71124 274.25958
 275.75714 277.47791 279.03519 280.40512 281.59549 282.65445 283.62616 284.51828
 285.33624 286.07700 286.73154 287.64560
 366.78100 356.31793 345.73286 334.58180 322.96773 311.14466 298.99759 286.78352
 274.47845 262.35839 250.35032 239.63425 229.73918 220.82611 212.99104 205.97598
 199.79291 194.71384 191.27877 189.30370 188.32363 188.37057 189.18850 190.47943
 192.18736 194.26529 196.51122 198.85316 201.28109 203.74402 205.81495 207.63988
 209.24882 210.37675 210.58868 210.79961 210.71954 210.40747 210.02341 209.63634
 209.23627 208.92920 208.72013 208.56706 208.47800 208.79193 209.16086 209.53279
 210.30872 211.46965 212.70259 214.46852 216.37945 218.40538 220.48331 222.54924
 224.59218 226.65911 228.73904 230.82797 232.93990 235.09484 237.33377 239.68670
 242.29063 244.52456 246.50949 248.25743 249.65736 250.76329 251.56822 251.86715
 251.88708 251.64402 250.98695 249.91788 248.50681 246.65074 244.54267 242.35861
 240.13254 237.91947 235.72240 233.54433 231.38726 229.23720 227.24613 225.38606
 223.65199 222.10692 220.71986 219.47479 218.33972 217.28265 216.36958 215.49351
 214.71845 213.88138 212.96231 212.30924 211.74217 212.88211 215.57530 218.18956
 219.54659 221.10626 222.78880 224.56003 226.03474 227.32729 228.89201 229.64304
 229.25829 229.15413 231.98152 236.69794 241.44389 245.83752 249.87494 253.67473
 257.26123 260.62186 263.70428 266.42413 268.84595 271.00226 272.73474 274.25839
 275.74734 277.46817 279.02600 280.39746 281.58630 282.64557 283.61710 284.50992
 285.32584 286.06757 286.72247 287.64011
 366.78100 356.31771 345.73241 334.58112 322.96682 311.14353 298.99623 286.78194
 274.47665 262.35635 250.34806 239.63176 229.73647 220.82317 212.98788 205.97259
 199.78929 194.71000 191.27470 189.29941 188.31911 188.36582 189.18353 190.47423
 192.18194 194.25964 196.50535 198.84705 201.27476 203.73747 205.80817 207.63288
 209.24158 210.36929 210.58100 210.79170 210.71141 210.39911 210.01482 209.62752
 209.22723 208.91994 208.71064 208.55735 208.46805 208.78176 209.15046 209.52217
 210.29788 211.45858 212.69129 214.45699 216.36770 218.39340 220.47111 222.53682
 224.57952 226.64623 228.72593 230.81464 232.92634 235.08105 237.31976 239.67246
 242.27617 244.50987 246.49458 248.24228 249.64199 250.74770 251.55240 251.85111
 251.87081 251.62752 250.97022 249.90093 248.48964 246.63334 244.52505 242.34075
 240.11446 237.90116 235.70387 233.52558 231.36828 229.21799 227.22669 225.36640
 223.63211 222.08681 220.69952 219.45422 218.31893 217.26163 216.34834 215.47205
 214.69675 213.85946 212.94016 212.28687 211.71957 212.89023 215.65605 218.29482
 219.61652 221.18573 222.82603 224.58839 226.19411 227.42628 228.73428 229.41045
 229.02652 228.97549 231.88016 236.63354 241.41043 245.80182 249.82686 253.61676
 257.21414 260.60593 263.72281 266.46542 268.89301 271.04153 272.75778 274.25610
 275.73691 277.45758 279.01581 280.38663 281.57635 282.63516 283.60669 284.49771
 285.31726 286.05750 286.71283 287.63196
 366.78100 356.31769 345.73237 334.58106 322.96675 311.14343 298.99612 286.78180
 274.47649 262.35618 250.34786 239.63155 229.73624 220.82292 212.98761 205.97230
 199.78898 194.70967 191.27435 189.29904 188.31873 188.36541 189.18310 190.47379
 192.18147 194.25916 196.50485 198.84653 201.27422 203.73690 205.80759 207.63228
 209.24096 210.36865 210.58034 210.79102 210.71071 210.39840 210.01408 209.62677
 209.22645 208.91914 208.70983 208.55651 208.46720 208.78089 209.14957 209.52126
 210.29695 211.45763 212.69032 214.45600 216.36669 218.39238 220.47006 222.53575
 224.57844 226.64512 228.72481 230.81350 232.92518 235.07987 237.31855 239.67124
 242.27493 244.50861 246.49330 248.24099 249.64067 250.74636 251.55105 251.84973
 251.86942 251.62610 250.96879 249.89948 248.48816 246.63185 244.52354 242.33922
 240.11291 237.89960 235.70228 233.52397 231.36665 229.21634 227.22503 225.36471
 223.63040 222.08509 220.69777 219.45246 218.31715 217.25983 216.34652 215.47020
 214.69489 213.85758 212.93826 212.28495 211.71764 212.91049 215.72874 218.38873
 219.70602 221.25455 222.88744 224.62579 226.28384 227.47479 228.63225 229.19408
 228.76390 228.80037 231.79951 236.58537 241.37457 245.76324 249.78304 253.56479
 257.17065 260.58887 263.73730 266.50134 268.93475 271.07605 272.77866 274.25369
 275.72577 277.44556 279.00485 280.37607 281.56644 282.62497 283.59698 284.48849
 285.30621 286.04648 286.70093 287.62540
 366.78100 356.31781 345.73263 334.58144 322.96725 311.14407 298.99688 286.78269
 274.47751 262.35732 250.34913 239.63294 229.73776 220.82457 212.98938 205.97420
 199.79101 194.71182 191.27664 189.30145 188.32126 188.36808 189.18589 190.47670
 192.18452 194.26233 196.50814 198.84996 201.27777 203.74058 205.81139 207.63621
 209.24502 210.37283 210.58465 210.79546 210.71527 210.40309 210.01890 209.63171
 209.23153 208.92434 208.71515 208.56197 208.47278 208.78659 209.15541 209.52722
 210.30303 211.46384 212.69666 214.46247 216.37328 218.39910 220.47691 222.54272
 224.58554 226.65235 228.73216 230.82098 232.93279 235.08760 237.32642 239.67923
 242.28304 244.51686 246.50167 248.24948 249.64929 250.75511 251.55992 251.85873
 251.87855 251.63536 250.97817 249.90899 248.49780 246.64161 244.53343 242.34924
 240.12305 237.90987 235.71268 233.53449 231.37731 229.22712 227.23593 225.37575
 223.64156 222.09637 220.70918 219.46400 218.32881 217.27162 216.35844 215.48225
 214.70706 213.86988 212.95069 212.29750 211.73032 212.93948 215.79625 218.47511
 219.80229 221.31906 222.96602 224.69336 226.32100 227.46739 228.57219 228.97572
 228.47815 228.64398 231.74075 236.54338 241.33255 245.72142 249.73952 253.51720
 257.13058 260.57104 263.74777 266.53217 268.97034 271.10492 272.79388 274.24817
 275.71329 277.43317 278.99133 280.36362 281.55521 282.61295 283.58475 284.47525
 285.29376 286.03271 286.68903 287.61389
 366.78100 356.31799 345.73297 334.58196 322.96794 311.14493 298.99791 286.78390
 274.47888 262.35887 250.35085 239.63484 229.73982 220.82681 212.99179 205.97678
 199.79376 194.71475 191.27973 189.30472 188.32470 188.37169 189.18967 190.48066
 192.18864 194.26663 196.51261 198.85460 201.28258 203.74557 205.81655 207.64154
 209.25052 210.37851 210.59049 210.80148 210.72146 210.40945 210.02543 209.63842
 209.23841 208.93139 208.72238 208.56936 208.48035 208.79433 209.16332 209.53530
 210.31129 211.47227 212.70526 214.47124 216.38223 218.40821 220.48620 222.55218
 224.59517 226.66215 228.74214 230.83112 232.94311 235.09809 237.33708 239.69006
 242.29405 244.52803 246.51302 248.26100 249.66099 250.76697 251.57196 251.87094
 251.89093 251.64791 250.99090 249.92188 248.51087 246.65485 244.54684 242.36283
 240.13681 237.92380 235.72678 233.54877 231.39175 229.24174 227.25072 225.39071
 223.65669 222.11168 220.72466 219.47965 218.34463 217.28762 216.37460 215.49859
 214.72357 213.88656 212.96754 212.31453 211.74751 212.97176 215.86417 218.55128
 219.89410 221.39706 223.05637 224.76953 226.32378 227.43593 228.52814 228.75862
 228.19614 228.50833 231.69641 236.50049 241.28531 245.67668 249.69739 253.47482
 257.09436 260.55264 263.75284 266.55505 268.99811 271.12759 272.80157 274.24176
 275.70001 277.41818 278.97784 280.34924 281.54166 282.59918 283.57153 284.46332
 285.27859 286.01816 286.67227 287.60556
 366.78100 356.31823 345.73345 334.58268 322.96890 311.14613 298.99935 286.78558
 274.48080 262.36103 250.35326 239.63748 229.74271 220.82993 212.99516 205.98038
 199.79761 194.71884 191.28406 189.30929 188.32951 188.37674 189.19496 190.48619
 192.19441 194.27264 196.51887 198.86109 201.28932 203.75254 205.82377 207.64899
 209.25822 210.38645 210.59867 210.80990 210.73012 210.41835 210.03457 209.64780
 209.24802 208.94125 208.73248 208.57970 208.49093 208.80515 209.17438 209.54660
 210.32283 211.48405 212.71728 214.48351 216.39473 218.42096 220.49918 222.56541
 224.60863 226.67586 228.75609 230.84531 232.95754 235.11276 237.35199 239.70521
 242.30944 244.54366 246.52889 248.27712 249.67734 250.78357 251.58879 251.88802
 251.90824 251.66547 251.00869 249.93992 248.52915 246.67337 244.56560 242.38182
 240.15605 237.94327 235.74650 233.56873 231.41195 229.26218 227.27140 225.41163
 223.67785 222.13308 220.74630 219.50153 218.36676 217.30998 216.39721 215.52143
 214.74666 213.90988 212.99111 212.33834 211.77156 213.00842 215.93065 218.61519
 219.98582 221.49052 223.14934 224.83920 226.30661 227.40126 228.48453 228.55319
 227.93974 228.39241 231.65343 236.45222 241.23447 245.63136 249.65938 253.43848
 257.06049 260.53079 263.75027 266.56949 269.01758 271.14169 272.80490 274.23462
 275.68607 277.40393 278.96350 280.33508 281.52664 282.58649 283.55710 284.44852
 285.26569 286.00446 286.65948 287.58954
 366.78100 356.31859 345.73418 334.58378 322.97037 311.14796 299.00155 286.78814
 274.48374 262.36433 250.35692 239.64151 229.74710 220.83470 213.00029 205.98588
 199.80347 194.72506 191.29066 189.31625 188.33684 188.38443 189.20302 190.49462
 192.20321 194.28180 196.52839 198.87098 201.29958 203.76317 205.83476 207.66035
 209.26994 210.39854 210.61113 210.82272 210.74331 210.43190 210.04849 209.66209
 209.26268 208.95627 208.74786 208.59545 208.50705 208.82164 209.19123 209.56382
 210.34041 211.50201 212.73560 214.50219 216.41378 218.44037 220.51897 222.58556
 224.62915 226.69674 228.77733 230.86693 232.97952 235.13511 237.37470 239.72829
 242.33289 244.56748 246.55307 248.30166 249.70225 250.80885 251.61444 251.91403
 251.93462 251.69221 251.03581 249.96740 248.55699 246.70158 244.59417 242.41077
 240.18536 237.97295 235.77654 233.59913 231.44273 229.29332 227.30291 225.44350
 223.71009 222.16569 220.77928 219.53487 218.40046 217.34405 216.43165 215.55624
 214.78183 213.94542 213.02701 212.37461 211.80820 213.05209 215.99095 218.66893
 220.08212 221.59206 223.24220 224.90144 226.28448 227.36810 228.43404 228.36127
 227.71239 228.29459 231.60933 236.39783 241.17868 245.58583 249.62582 253.40877
 257.02988 260.50674 263.74075 266.57513 269.02808 271.14627 272.80420 274.22916
 275.67264 277.38947 278.94934 280.32278 281.51392 282.57416 283.54608 284.43658
 285.25287 285.99298 286.64886 287.58044
 366.78100 356.31910 345.73519 334.58529 322.97238 311.15048 299.00457 286.79167
 274.48776 262.36886 250.36196 239.64705 229.75315 220.84124 213.00734 205.99343
 199.81153 194.73362 191.29972 189.32581 188.34691 188.39501 189.21410 190.50620
 192.21529 194.29439 196.54148 198.88458 201.31367 203.77777 205.84987 207.67596
 209.28606 210.41515 210.62825 210.84034 210.76144 210.45053 210.06763 209.68172
 209.28282 208.97692 208.76901 208.61711 208.52920 208.84430 209.21439 209.58749
 210.36458 211.52668 212.76078 214.52787 216.43997 218.46706 220.54616 222.61325
 224.65735 226.72544 228.80654 230.89664 233.00973 235.16583 237.40592 239.76002
 242.36511 244.60021 246.58630 248.33540 249.73649 250.84359 251.64969 251.94978
 251.97088 251.72897 251.07307 250.00516 248.59526 246.74035 244.63345 242.45055
 240.22564 238.01374 235.81783 233.64093 231.48502 229.33612 227.34621 225.48731
 223.75440 222.21050 220.82460 219.58069 218.44679 217.39088 216.47898 215.60407
 214.83017 213.99426 213.07636 212.42446 211.85855 213.10297 216.04301 218.71796
 220.17824 221.69913 223.33568 224.95999 226.26897 227.33830 228.37036 228.18149
 227.51221 228.20917 231.56308 236.33856 241.12000 245.54121 249.59708 253.38577
 257.00397 260.48166 263.72626 266.57370 269.02972 271.14145 272.79782 274.22043
 275.66147 277.37820 278.93924 280.31299 281.50354 282.56320 283.53659 284.42786
 285.24380 285.98383 286.64212 287.57416
 366.78100 356.31958 345.73616 334.58674 322.97432 311.15290 299.00748 286.79506
 274.49163 262.37321 250.36679 239.65237 229.75895 220.84753 213.01411 206.00069
 199.81927 194.74185 191.30843 189.33501 188.35659 188.40517 189.22475 190.51733
 192.22690 194.30648 196.55406 198.89764 201.32722 203.79180 205.86438 207.69096
 209.30154 210.43112 210.64470 210.85728 210.77886 210.46844 210.08602 209.70060
 209.30217 208.99675 208.78933 208.63791 208.55049 208.86607 209.23665 209.61023
 210.38781 211.55039 212.78497 214.55255 216.46513 218.49271 220.57229 222.63987
 224.68444 226.75302 228.83460 230.92518 233.03876 235.19534 237.43592 239.79050
 242.39608 244.63166 246.61824 248.36782 249.76940 250.87698 251.68356 251.98414
 252.00571 251.76429 251.10887 250.04145 248.63203 246.77761 244.67119 242.48877
 240.26435 238.05293 235.85751 233.68109 231.52567 229.37725 227.38783 225.52940
 223.79698 222.25356 220.86814 219.62472 218.49130 217.43588 216.52446 215.65004
 214.87662 214.04120 213.12378 212.47236 211.90694 213.15298 216.09694 218.75772
 220.27176 221.81273 223.43646 225.00955 226.26109 227.31892 228.29880 228.00249
 227.32434 228.13576 231.52118 236.27538 241.05746 245.49652 249.57291 253.37122
 256.98462 260.45840 263.70831 266.56583 269.02295 271.12604 272.78207 274.20615
 275.65186 277.36975 278.93094 280.30527 281.49750 282.55792 283.53073 284.42218
 285.23734 285.97925 286.63419 287.57227
 366.78100 356.32009 345.73719 334.58828 322.97638 311.15547 299.01057 286.79866
 274.49575 262.37785 250.37194 239.65804 229.76513 220.85423 213.02132 206.00842
 199.82751 194.75060 191.31770 189.34479 188.36689 188.41598 189.23608 190.52917
 192.23926 194.31936 196.56745 198.91155 201.34164 203.80674 205.87983 207.70692
 209.31802 210.44811 210.66221 210.87530 210.79740 210.48749 210.10559 209.72068
 209.32277 209.01787 208.81096 208.66006 208.57315 208.88925 209.26034 209.63443
 210.41253 211.57562 212.81072 214.57881 216.49191 218.52000 220.60009 222.66819
 224.71328 226.78238 228.86447 230.95557 233.06966 235.22676 237.46785 239.82294
 242.42904 244.66513 246.65223 248.40232 249.80442 250.91251 251.71960 252.02070
 252.04279 251.80189 251.14698 250.08008 248.67117 246.81726 244.71136 242.52945
 240.30555 238.09464 235.89974 233.72383 231.56893 229.42102 227.43211 225.57421
 223.84230 222.29940 220.91449 219.67159 218.53868 217.48377 216.57287 215.69896
 214.92606 214.09115 213.17425 212.52334 211.95844 213.20457 216.14873 218.79176
 220.36139 221.92680 223.53850 225.07088 226.26071 227.29648 228.22227 227.83044
 227.15016 228.07016 231.47333 236.20615 240.99449 245.45467 249.55641 253.36676
 256.97198 260.43594 263.68619 266.55008 269.00647 271.10089 272.75748 274.18777
 275.64267 277.36145 278.92401 280.29803 281.49179 282.55264 283.52612 284.41782
 285.23410 285.97516 286.63153 287.56815
 366.78100 356.32079 345.73858 334.59037 322.97916 311.15894 299.01473 286.80352
 274.50131 262.38410 250.37889 239.66568 229.77347 220.86326 213.03105 206.01883
 199.83862 194.76241 191.33020 189.35799 188.38078 188.43057 189.25136 190.54515
 192.25593 194.33672 196.58551 198.93030 201.36109 203.82688 205.90067 207.72846
 209.34025 210.47103 210.68582 210.89961 210.82240 210.51319 210.13198 209.74777
 209.35056 209.04635 208.84014 208.68992 208.60371 208.92050 209.29229 209.66708
 210.44587 211.60966 212.84545 214.61424 216.52802 218.55681 220.63760 222.70639
 224.75218 226.82197 228.90476 230.99655 233.11134 235.26912 237.51091 239.86670
 242.47349 244.71028 246.69807 248.44886 249.85165 250.96044 251.76823 252.07001
 252.09280 251.85259 251.19838 250.13217 248.72396 246.87075 244.76554 242.58433
 240.36111 238.15090 235.95669 233.78148 231.62727 229.48006 227.49185 225.63464
 223.90343 222.36121 220.97700 219.73479 218.60258 217.54837 216.63816 215.76495
 214.99274 214.15853 213.24232 212.59210 212.02789 213.26515 216.18828 218.83298
 220.43472 222.05176 223.64224 225.11606 226.27988 227.30029 228.12724 227.66914
 227.00249 228.00107 231.42990 236.13954 240.92769 245.41264 249.54552 253.36848
 256.96329 260.41367 263.65988 266.52826 268.98401 271.06995 272.72961 274.16708
 275.63425 277.35593 278.91763 280.29288 281.48709 282.54871 283.52274 284.41498
 285.23093 285.97327 286.62833 287.56888
 366.78100 356.32153 345.74005 334.59258 322.98210 311.16263 299.01916 286.80868
 274.50721 262.39074 250.38626 239.67379 229.78231 220.87284 213.04137 206.02989
 199.85042 194.77495 191.34347 189.37200 188.39552 188.44605 189.26758 190.56210
 192.27363 194.35516 196.60468 198.95021 201.38173 203.84826 205.92279 207.75131
 209.36384 210.49537 210.71089 210.92542 210.84894 210.54047 210.16000 209.77652
 209.38005 209.07658 208.87110 208.72163 208.63615 208.95368 209.32621 209.70173
 210.48126 211.64579 212.88231 214.65184 216.56636 218.59589 220.67742 222.74694
 224.79347 226.86400 228.94752 231.04005 233.15557 235.31410 237.55663 239.91315
 242.52068 244.75821 246.74673 248.49826 249.90178 251.01131 251.81984 252.12236
 252.14589 251.90642 251.25294 250.18747 248.77999 246.92752 244.82305 242.64257
 240.42010 238.21063 236.01715 233.84268 231.68920 229.54273 227.55526 225.69878
 223.96831 222.42683 221.04336 219.80189 218.67041 217.61694 216.70747 215.83499
 215.06352 214.23004 213.31457 212.66510 212.10162 213.32722 216.22281 218.87584
 220.49355 222.17029 223.78082 225.16762 226.25113 227.27696 228.10931 227.50850
 226.80183 227.93216 231.37241 236.05508 240.85818 245.37920 249.54370 253.37671
 256.95886 260.39294 263.63287 266.50354 268.95587 271.03241 272.69406 274.14362
 275.62500 277.34912 278.91208 280.28766 281.48242 282.54453 283.51904 284.41187
 285.22925 285.96927 286.62396 287.56827
 366.78100 356.32220 345.74141 334.59461 322.98481 311.16601 299.02322 286.81342
 274.51262 262.39682 250.39303 239.68123 229.79043 220.88163 213.05084 206.04004
 199.86124 194.78644 191.35565 189.38485 188.40905 188.46025 189.28246 190.57766
 192.28986 194.37206 196.62227 198.96847 201.40067 203.86787 205.94308 207.77228
 209.38548 210.51768 210.73389 210.94909 210.87329 210.56549 210.18570 209.80290
 209.40710 209.10430 208.89951 208.75071 208.66591 208.98411 209.35732 209.73352
 210.51372 211.67892 212.91613 214.68633 216.60153 218.63173 220.71394 222.78414
 224.83134 226.90254 228.98675 231.07995 233.19615 235.35535 237.59856 239.95576
 242.56396 244.80216 246.79137 248.54357 249.94777 251.05797 251.86718 252.17038
 252.19458 251.95578 251.30299 250.23819 248.83139 246.97959 244.87580 242.69600
 240.47420 238.26540 236.07261 233.89881 231.74601 229.60021 227.61342 225.75762
 224.02782 222.48702 221.10423 219.86343 218.73263 217.67983 216.77104 215.89924
 215.12844 214.29564 213.38085 212.73205 212.16925 213.38617 216.26126 218.90865
 220.56822 222.23782 223.93129 225.32561 226.25174 227.18108 228.02063 227.55536
 226.73038 227.69966 231.27719 236.00352 240.81332 245.36356 249.54955 253.39050
 256.95950 260.37485 263.60587 266.47629 268.92230 270.98581 272.64911 274.11127
 275.61472 277.34213 278.90482 280.28113 281.47723 282.54019 283.51508 284.40775
 285.22449 285.96539 286.62030 287.56522
 366.78100 356.32281 345.74262 334.59643 322.98724 311.16905 299.02686 286.81767
 274.51748 262.40229 250.39910 239.68791 229.79772 220.88953 213.05934 206.04915
 199.87096 194.79677 191.36658 189.39639 188.42120 188.47301 189.29582 190.59163
 192.30444 194.38725 196.63805 198.98486 201.41767 203.88548 205.96129 207.79110
 209.40491 210.53772 210.75453 210.97034 210.89515 210.58796 210.20877 209.82658
 209.43139 209.12920 208.92501 208.77682 208.69263 209.01144 209.38525 209.76206
 210.54287 211.70868 212.94649 214.71730 216.63311 218.66392 220.74673 222.81754
 224.86535 226.93716 229.02197 231.11578 233.23259 235.39240 237.63621 239.99402
 242.60283 244.84164 246.83145 248.58426 249.98907 251.09988 251.90969 252.21350
 252.23831 252.00012 251.34793 250.28374 248.87755 247.02635 244.92316 242.74397
 240.52278 238.31459 236.12240 233.94921 231.79702 229.65183 227.66564 225.81045
 224.08126 222.54107 221.15888 219.91869 218.78850 217.73631 216.82812 215.95693
 215.18674 214.35455 213.44036 212.79217 212.22998 213.44159 216.30415 218.93216
 220.65604 222.30768 224.02864 225.47224 226.33614 227.14125 227.82796 227.51530
 226.72289 227.56007 231.21335 235.96552 240.76921 245.34029 249.55064 253.40445
 256.96198 260.35776 263.57773 266.44467 268.88184 270.93051 272.59363 274.07043
 275.60129 277.33310 278.89703 280.27356 281.46976 282.53296 283.50851 284.40298
 285.21786 285.95911 286.61407 287.56140
 366.78100 356.32346 345.74392 334.59838 322.98984 311.17231 299.03077 286.82223
 274.52269 262.40815 250.40561 239.69507 229.80553 220.89799 213.06845 206.05892
 199.88138 194.80784 191.37830 189.40876 188.43422 188.48668 189.31014 190.60660
 192.32007 194.40353 196.65499 199.00245 201.43591 203.90437 205.98083 207.81129
 209.42575 210.55921 210.77668 210.99314 210.91860 210.61206 210.23352 209.85198
 209.45744 209.15590 208.95236 208.80483 208.72129 209.04075 209.41521 209.79267
 210.57413 211.74059 212.97905 214.75051 216.66697 218.69844 220.78190 222.85336
 224.90182 226.97428 229.05974 231.15420 233.27166 235.43212 237.67659 240.03505
 242.64451 244.88397 246.87443 248.62789 250.03335 251.14481 251.95527 252.25973
 252.28520 252.04766 251.39612 250.33258 248.92704 247.07650 244.97396 242.79542
 240.57488 238.36735 236.17581 234.00327 231.85173 229.70719 227.72165 225.86711
 224.13857 222.59903 221.21749 219.97796 218.84842 217.79688 216.88934 216.01880
 215.24926 214.41772 213.50418 212.85664 212.29510 213.49832 216.34103 218.96227
 220.72923 222.40050 224.08412 225.56270 226.47762 227.16008 227.63377 227.41028
 226.69591 227.47183 231.16423 235.92232 240.71881 245.31374 249.55365 253.42075
 256.96573 260.34119 263.54849 266.41141 268.83823 270.86920 272.53256 274.02084
 275.58435 277.32230 278.88617 280.26297 281.45853 282.52380 283.49930 284.39401
 285.20734 285.94833 286.60645 287.54855
 366.78100 356.32411 345.74523 334.60034 322.99246 311.17557 299.03469 286.82680
 274.52792 262.41403 250.41215 239.70226 229.81338 220.90649 213.07760 206.06872
 199.89183 194.81895 191.39006 189.42118 188.44729 188.50041 189.32452 190.62164
 192.33575 194.41986 196.67198 199.02009 201.45421 203.92332 206.00044 207.83155
 209.44667 210.58078 210.79890 211.01601 210.94213 210.63624 210.25835 209.87747
 209.48358 209.18270 208.97981 208.83293 208.75004 209.07016 209.44527 209.82339
 210.60550 211.77261 213.01173 214.78384 216.70096 218.73307 220.81719 222.88930
 224.93842 227.01153 229.09765 231.19276 233.31088 235.47199 237.71710 240.07622
 242.68633 244.92645 246.91756 248.67168 250.07779 251.18991 252.00102 252.30614
 252.33225 252.09536 251.44448 250.38159 248.97671 247.12682 245.02494 242.84705
 240.62717 238.42028 236.22940 234.05751 231.90663 229.76274 227.77785 225.92397
 224.19608 222.65720 221.27631 220.03743 218.90854 217.85766 216.95077 216.08089
 215.31200 214.48111 213.56823 212.92134 212.36046 213.55417 216.37447 219.00002
 220.78946 222.49631 224.13420 225.61815 226.61650 227.19936 227.48740 227.28435
 226.62581 227.39638 231.11943 235.87497 240.67068 245.29237 249.55959 253.43805
 256.96884 260.32303 263.51770 266.37543 268.79031 270.80191 272.46310 273.97644
 275.56189 277.30283 278.86755 280.24484 281.44275 282.50772 283.48483 284.37976
 285.19458 285.93573 286.58975 287.54044
 366.78100 356.32473 345.74646 334.60219 322.99491 311.17864 299.03837 286.83110
 274.53283 262.41956 250.41829 239.70901 229.82074 220.91447 213.08620 206.07793
 199.90166 194.82939 191.40111 189.43284 188.45957 188.51330 189.33803 190.63576
 192.35049 194.43521 196.68794 199.03667 201.47140 203.94113 206.01886 207.85059
 209.46632 210.60104 210.81977 211.03750 210.96423 210.65896 210.28169 209.90142
 209.50814 209.20787 209.00560 208.85933 208.77706 209.09779 209.47352 209.85224
 210.63497 211.80270 213.04243 214.81516 216.73289 218.76562 220.85034 222.92307
 224.97280 227.04653 229.13326 231.22899 233.34772 235.50944 237.75517 240.11490
 242.72563 244.96636 246.95809 248.71282 250.11954 251.23227 252.04400 252.34973
 252.37646 252.14019 251.48992 250.42764 249.02337 247.17410 245.07283 242.89556
 240.67629 238.47002 236.27974 234.10847 231.95820 229.81493 227.83066 225.97739
 224.25012 222.71185 221.33157 220.09330 218.96503 217.91476 217.00849 216.13922
 215.37095 214.54067 213.62840 212.98213 212.42186 213.60770 216.40936 219.03783
 220.84824 222.58026 224.18510 225.66621 226.73427 227.24753 227.38390 227.13301
 226.51031 227.33289 231.08180 235.83083 240.62968 245.27631 249.56807 253.45612
 256.97342 260.30658 263.48663 266.33609 268.73636 270.72592 272.38358 273.90244
 275.53973 277.28745 278.85065 280.22659 281.42392 282.48984 283.46576 284.35931
 285.17545 285.91595 286.57074 287.52173
 366.78100 356.32528 345.74755 334.60383 322.99710 311.18138 299.04165 286.83493
 274.53720 262.42448 250.42375 239.71503 229.82730 220.92158 213.09385 206.08613
 199.91041 194.83868 191.41096 189.44323 188.47051 188.52478 189.35006 190.64833
 192.36361 194.44888 196.70216 199.05143 201.48671 203.95698 206.03526 207.86753
 209.48381 210.61909 210.83836 211.05664 210.98391 210.67919 210.30246 209.92274
 209.53001 209.23029 209.02856 208.88284 208.80111 209.12239 209.49866 209.87794
 210.66122 211.82949 213.06977 214.84304 216.76132 218.79459 220.87987 222.95314
 225.00342 227.07769 229.16497 231.26124 233.38052 235.54279 237.78907 240.14935
 242.76062 245.00190 246.99417 248.74945 250.15672 251.27000 252.08227 252.38855
 252.41582 252.18010 251.53037 250.46865 249.06492 247.21620 245.11547 242.93875
 240.72003 238.51430 236.32458 234.15385 232.00413 229.86140 227.87768 226.02495
 224.29823 222.76050 221.38078 220.14305 219.01533 217.96560 217.05988 216.19116
 215.42343 214.59371 213.68198 213.03626 212.47653 213.65790 216.44901 219.06892
 220.91086 222.65315 224.23033 225.71370 226.83331 227.30640 227.30797 226.95287
 226.36076 227.28772 231.05630 235.79362 240.59612 245.26166 249.57509 253.47098
 256.97601 260.29028 263.45544 266.29602 268.67969 270.64752 272.30243 273.86542
 275.49652 277.24615 278.81491 280.19629 281.39548 282.46179 283.43988 284.33441
 285.15063 285.89200 286.54556 287.49994
 366.78100 356.32582 345.74865 334.60547 322.99929 311.18411 299.04494 286.83876
 274.54158 262.42940 250.42922 239.72105 229.83387 220.92869 213.10151 206.09434
 199.91916 194.84798 191.42081 189.45363 188.48145 188.53627 189.36209 190.66092
 192.37674 194.46256 196.71639 199.06621 201.50203 203.97285 206.05167 207.88450
 209.50132 210.63714 210.85697 211.07579 211.00361 210.69943 210.32325 209.94408
 209.55190 209.25272 209.05155 208.90637 208.82519 209.14701 209.52383 209.90366
 210.68748 211.85630 213.09713 214.87095 216.78977 218.82359 220.90941 222.98324
 225.03406 227.10888 229.19671 231.29353 233.41335 235.57617 237.82299 240.18382
 242.79564 245.03746 247.03028 248.78611 250.19393 251.30775 252.12058 252.42740
 252.45522 252.22004 251.57086 250.50969 249.10651 247.25833 245.15815 242.98198
 240.76380 238.55862 236.36945 234.19927 232.05009 229.90791 227.92473 226.07256
 224.34638 222.80920 221.43003 220.19285 219.06567 218.01649 217.11131 216.24314
 215.47596 214.64678 213.73560 213.09043 212.53125 213.70798 216.48811 219.10007
 220.97400 222.71646 224.27226 225.76273 226.91763 227.37129 227.25093 226.75348
 226.19054 227.25853 231.04341 235.76613 240.57036 245.24919 249.57867 253.48134
 256.97531 260.27203 263.42227 266.25372 268.61951 270.56335 272.21222 273.65082
 275.52304 277.27518 278.81662 280.18362 281.37512 282.43692 283.41153 284.30585
 285.12070 285.86148 286.51636 287.46661
 366.78100 356.32641 345.74982 334.60723 323.00164 311.18706 299.04847 286.84288
 274.54629 262.43470 250.43511 239.72752 229.84093 220.93634 213.10975 206.10317
 199.92858 194.85799 191.43140 189.46481 188.49322 188.54863 189.37504 190.67445
 192.39086 194.47728 196.73169 199.08210 201.51851 203.98992 206.06933 207.90274
 209.52015 210.65656 210.87698 211.09639 211.02480 210.72121 210.34562 209.96703
 209.57544 209.27685 209.07626 208.93167 208.85109 209.17350 209.55091 209.93132
 210.71573 211.88514 213.12655 214.90096 216.82037 218.85478 220.94120 223.01561
 225.06702 227.14243 229.23084 231.32825 233.44866 235.61207 237.85948 240.22089
 242.83331 245.07572 247.06913 248.82554 250.23395 251.34836 252.16177 252.46918
 252.49759 252.26301 251.61442 250.55383 249.15124 247.30365 245.20406 243.02847
 240.81088 238.60629 236.41770 234.24812 232.09953 229.95794 227.97535 226.12376
 224.39817 222.86158 221.48299 220.24640 219.11981 218.07123 217.16664 216.29905
 215.53246 214.70387 213.79328 213.14869 212.59010 213.75961 216.52274 219.13690
 221.03423 222.76588 224.31627 225.81792 226.99110 227.43378 227.20552 226.54706
 226.00789 227.23616 231.03969 235.74860 240.55206 245.23831 249.57909 253.48714
 256.97101 260.25119 263.38724 266.20840 268.55875 270.48123 272.12476 273.54819
 275.48254 277.24155 278.78635 280.15317 281.34274 282.40158 283.37585 284.26779
 285.08142 285.82172 286.47653 287.42599
 366.78100 356.32700 345.75099 334.60899 323.00398 311.18998 299.05197 286.84697
 274.55096 262.43996 250.44096 239.73395 229.84795 220.94394 213.11794 206.11193
 199.93793 194.86793 191.44192 189.47592 188.50491 188.56091 189.38790 190.68790
 192.40489 194.49189 196.74689 199.09788 201.53488 204.00687 206.08687 207.92086
 209.53886 210.67585 210.89685 211.11685 211.04584 210.74284 210.36783 209.98983
 209.59882 209.30082 209.10082 208.95681 208.87681 209.19980 209.57780 209.95879
 210.74379 211.91378 213.15578 214.93078 216.85077 218.88577 220.97276 223.04776
 225.09975 227.17575 229.26474 231.36274 233.48374 235.64773 237.89573 240.25772
 242.87072 245.11371 247.10771 248.86470 250.27370 251.38870 252.20269 252.51069
 252.53968 252.30568 251.65767 250.59767 249.19567 247.34866 245.24966 243.07465
 240.85765 238.65364 236.46564 234.29663 232.14863 230.00763 228.02562 226.17462
 224.44961 222.91361 221.53560 220.29960 219.17359 218.12559 217.22159 216.35458
 215.58858 214.76057 213.85057 213.20656 212.64856 213.81056 216.55589 219.17615
 221.09230 222.80296 224.35835 225.87619 227.06006 227.49658 227.16771 226.34659
 225.82173 227.21313 231.04260 235.73834 240.53949 245.22806 249.57817 253.48944
 256.96344 260.22745 263.34961 266.16043 268.49518 270.39941 272.03857 273.47711
 275.41696 277.19299 278.74069 280.10843 281.29703 282.35626 283.32956 284.22073
 285.03348 285.77658 286.43057 287.38251
 366.78100 356.32757 345.75214 334.61072 323.00629 311.19286 299.05543 286.85101
 274.55558 262.44515 250.44672 239.74030 229.85487 220.95144 213.12601 206.12059
 199.94716 194.87773 191.45230 189.48688 188.51645 188.57302 189.40059 190.70116
 192.41874 194.50631 196.76188 199.11345 201.55103 204.02360 206.10417 207.93874
 209.55732 210.69489 210.91646 211.13703 211.06661 210.76418 210.38975 210.01232
 209.62190 209.32447 209.12504 208.98161 208.90218 209.22576 209.60433 209.98590
 210.77147 211.94205 213.18462 214.96019 216.88076 218.91634 221.00391 223.07948
 225.13205 227.20863 229.29820 231.39677 233.51834 235.68292 237.93149 240.29406
 242.90763 245.15120 247.14578 248.90335 250.31292 251.42849 252.24307 252.55164
 252.58121 252.34778 251.70036 250.64093 249.23950 247.39307 245.29465 243.12022
 240.90379 238.70036 236.51293 234.34451 232.19708 230.05665 228.07522 226.22480
 224.50037 222.96494 221.58751 220.35209 219.22666 218.17923 217.27580 216.40938
 215.64395 214.81652 213.90709 213.26367 212.70624 213.86047 216.58748 219.21790
 221.14555 222.83467 224.39792 225.92577 227.12282 227.57355 227.14052 226.14848
 225.63818 227.18887 231.04524 235.73535 240.53436 245.22005 249.57242 253.48343
 256.94952 260.19913 263.30807 266.11133 268.43484 270.32645 271.96252 273.41721
 275.37128 277.12421 278.67264 280.04288 281.23465 282.29361 283.26932 284.16055
 284.97470 285.71671 286.37302 287.32166
 366.78100 356.32816 345.75333 334.61249 323.00866 311.19582 299.05899 286.85515
 274.56031 262.45048 250.45264 239.74681 229.86197 220.95914 213.13430 206.12946
 199.95663 194.88779 191.46296 189.49812 188.52829 188.58545 189.41361 190.71478
 192.43294 194.52111 196.77727 199.12944 201.56760 204.04076 206.12193 207.95709
 209.57626 210.71442 210.93659 211.15775 211.08791 210.78608 210.41224 210.03541
 209.64557 209.34873 209.14990 209.00706 208.92823 209.25239 209.63156 210.01372
 210.79988 211.97105 213.21421 214.99038 216.91154 218.94771 221.03587 223.11203
 225.16520 227.24236 229.33253 231.43169 233.55386 235.71902 237.96818 240.33135
 242.94551 245.18968 247.18484 248.94301 250.35317 251.46933 252.28450 252.59366
 252.62383 252.39099 251.74416 250.68532 249.28448 247.43865 245.34081 243.16698
 240.95114 238.74831 236.56147 234.39363 232.24680 230.10696 228.12613 226.27629
 224.55246 223.01762 221.64078 220.40595 219.28111 218.23428 217.33144 216.46561
 215.70077 214.87393 213.96510 213.32226 212.76543 213.91034 216.61533 219.25867
 221.20142 222.85315 224.42886 225.97726 227.19151 227.65169 227.12401 225.95949
 225.44801 227.16336 231.05418 235.73756 240.53307 245.20944 249.56125 253.47285
 256.93280 260.16928 263.26511 266.05997 268.37167 270.25089 271.89005 273.46771
 275.25620 277.02048 278.58087 279.95425 281.14868 282.21368 283.18924 284.08395
 284.90015 285.64221 286.30127 287.25403
 366.78100 356.32882 345.75464 334.61447 323.01129 311.19911 299.06293 286.85975
 274.56557 262.45640 250.45922 239.75404 229.86986 220.96768 213.14350 206.13933
 199.96715 194.89897 191.47479 189.51061 188.54144 188.59926 189.42808 190.72990
 192.44872 194.53754 196.79437 199.14719 201.58601 204.05983 206.14165 207.97747
 209.59730 210.73612 210.95894 211.18076 211.11158 210.81041 210.43723 210.06105
 209.67187 209.37569 209.17751 209.03534 208.95716 209.28198 209.66180 210.04462
 210.83144 212.00327 213.24709 215.02391 216.94573 218.98255 221.07138 223.14820
 225.20202 227.27984 229.37066 231.47048 233.59331 235.75913 238.00895 240.37277
 242.98759 245.23241 247.22824 248.98706 250.39788 251.51470 252.33052 252.64035
 252.67117 252.43899 251.79281 250.73463 249.33445 247.48928 245.39210 243.21892
 241.00374 238.80156 236.61538 234.44821 232.30203 230.16285 228.18267 226.33349
 224.61032 223.07614 221.69996 220.46578 219.34160 218.29542 217.39325 216.52807
 215.76389 214.93771 214.02953 213.38735 212.83118 213.96268 216.63600 219.30237
 221.25201 222.87843 224.44131 226.00632 227.27380 227.76376 227.10403 225.76595
 225.28206 227.14101 231.04872 235.74246 240.53856 245.20303 249.55035 253.45970
 256.91129 260.13501 263.21960 266.00726 268.30930 270.17563 271.81781 273.45200
 275.17484 276.93063 278.49219 279.86697 281.06461 282.12909 283.10767 284.00266
 284.81958 285.56454 286.22318 287.17300
 366.78100 356.32947 345.75593 334.61640 323.01387 311.20234 299.06680 286.86427
 274.57074 262.46221 250.46567 239.76114 229.87761 220.97608 213.15254 206.14901
 199.97748 194.90995 191.48641 189.52288 188.55435 188.61281 189.44228 190.74475
 192.46422 194.55368 196.81115 199.16462 201.60409 204.07855 206.16102 207.99749
 209.61796 210.75742 210.98089 211.20336 211.13483 210.83429 210.46176 210.08623
 209.69769 209.40216 209.20463 209.06310 208.98556 209.31103 209.69150 210.07497
 210.86243 212.03490 213.27937 215.05684 216.97930 219.01677 221.10624 223.18371
 225.23817 227.31664 229.40811 231.50857 233.63204 235.79851 238.04898 240.41344
 243.02891 245.27438 247.27085 249.03031 250.44178 251.55925 252.37572 252.68618
 252.71765 252.48612 251.84059 250.78305 249.38352 247.53899 245.44245 243.26992
 241.05539 238.85386 236.66832 234.50179 232.35626 230.21773 228.23819 226.38966
 224.66713 223.13360 221.75806 220.52453 219.40100 218.35547 217.45393 216.58940
 215.82587 215.00033 214.09280 213.45127 212.89574 214.01360 216.65466 219.34195
 221.31175 222.89159 224.46886 226.02124 227.30960 227.87691 227.15639 225.53307
 225.01161 227.12321 231.08321 235.76981 240.55540 245.19595 249.53062 253.43399
 256.87973 260.09555 263.17221 265.95779 268.25562 270.11368 271.75504 273.39252
 275.10043 276.85046 278.41071 279.78586 280.98022 282.04520 283.02304 283.91846
 284.73685 285.48209 286.14169 287.09177
 366.78100 356.32982 345.75664 334.61745 323.01527 311.20409 299.06891 286.86673
 274.57355 262.46536 250.46918 239.76500 229.88182 220.98064 213.15746 206.15427
 199.98309 194.91591 191.49273 189.52955 188.56137 188.62018 189.45000 190.75282
 192.47264 194.56246 196.82028 199.17409 201.61391 204.08873 206.17155 208.00837
 209.62919 210.76900 210.99282 211.21564 211.14746 210.84728 210.47510 210.09991
 209.71173 209.41655 209.21937 209.07819 209.00101 209.32682 209.70764 210.09146
 210.87928 212.05210 213.29692 215.07473 216.99755 219.03537 221.12519 223.20301
 225.25783 227.33664 229.42846 231.52928 233.65310 235.81992 238.07074 240.43555
 243.05137 245.29719 247.29401 249.05383 250.46565 251.58346 252.40028 252.71110
 252.74292 252.51174 251.86656 250.80937 249.41019 247.56601 245.46983 243.29765
 241.08347 238.88228 236.69710 234.53092 232.38574 230.24756 228.26838 226.42019
 224.69801 223.16483 221.78965 220.55647 219.43329 218.38810 217.48692 216.62274
 215.85956 215.03438 214.12720 213.48601 212.93083 214.04890 216.69048 219.35567
 221.39375 222.92406 224.42696 226.03976 227.39691 227.96689 227.17802 225.42967
 224.85446 227.06375 231.09338 235.79056 240.56000 245.17633 249.49995 253.40157
 256.84705 260.05838 263.12845 265.91174 268.20615 270.06012 271.69974 273.33569
 275.02176 276.76608 278.32556 279.69879 280.89313 281.95682 282.93423 283.82907
 284.64798 285.39505 286.05334 287.00809
 366.78100 356.33023 345.75746 334.61868 323.01691 311.20614 299.07137 286.86960
 274.57683 262.46905 250.47328 239.76951 229.88674 220.98597 213.16320 206.16042
 199.98965 194.92288 191.50011 189.53734 188.56957 188.62879 189.45902 190.76225
 192.48248 194.57271 196.83094 199.18516 201.62539 204.10062 206.18385 208.02108
 209.64231 210.78253 211.00676 211.22999 211.16222 210.86245 210.49068 210.11590
 209.72813 209.43336 209.23659 209.09582 209.01905 209.34527 209.72650 210.11073
 210.89896 212.07219 213.31742 215.09564 217.01887 219.05710 221.14733 223.22556
 225.28079 227.36001 229.45224 231.55347 233.67770 235.84493 238.09616 240.46138
 243.07761 245.32384 247.32107 249.08130 250.49353 251.61175 252.42898 252.74021
 252.77244 252.54167 251.89690 250.84012 249.44135 247.59758 245.50181 243.33004
 241.11627 238.91549 236.73072 234.56495 232.42018 230.28241 228.30364 226.45586
 224.73409 223.20132 221.82655 220.59378 219.47101 218.42623 217.52546 216.66169
 215.89892 215.07415 214.16738 213.52660 212.97183 214.08563 216.71710 219.37956
 221.44046 222.97458 224.45143 226.08812 227.45351 227.98027 227.14922 225.41162
 224.81148 227.00079 231.07066 235.79417 240.55611 245.15402 249.47058 253.37268
 256.81900 260.02451 263.08539 265.86606 268.15787 270.00830 271.64899 273.28586
 274.94086 276.67841 278.23624 279.60861 280.80209 281.86536 282.84253 283.73859
 284.55685 285.30417 285.96506 286.91391
 366.78100 356.33079 345.75857 334.62036 323.01914 311.20893 299.07471 286.87350
 274.58129 262.47407 250.47886 239.77564 229.89343 220.99321 213.17100 206.16879
 199.99857 194.93236 191.51014 189.54793 188.58071 188.64050 189.47129 190.77507
 192.49586 194.58664 196.84543 199.20021 201.64100 204.11679 206.20057 208.03836
 209.66014 210.80093 211.02571 211.24950 211.18229 210.88307 210.51186 210.13764
 209.75043 209.45621 209.26000 209.11979 209.04357 209.37036 209.75214 210.13693
 210.92571 212.09950 213.34529 215.12407 217.04786 219.08664 221.17743 223.25621
 225.31200 227.39179 229.48457 231.58636 233.71114 235.87893 238.13072 240.49650
 243.11329 245.36007 247.35786 249.11864 250.53143 251.65022 252.46800 252.77979
 252.81257 252.58236 251.93814 250.88193 249.48372 247.64050 245.54529 243.37407
 241.16086 238.96064 236.77643 234.61122 232.46700 230.32979 228.35157 226.50436
 224.78314 223.25093 221.87672 220.64450 219.52229 218.47807 217.57786 216.71464
 215.95243 215.12822 214.22200 213.58179 213.02757 214.12892 216.73100 219.41386
 221.47728 223.01501 224.49164 226.12820 227.48473 227.98729 227.13112 225.41475
 224.79384 226.93651 231.03362 235.79552 240.55681 245.13678 249.44510 253.34578
 256.79019 259.98880 263.04190 265.82101 268.11200 269.95935 271.60098 273.23962
 274.86035 276.58820 278.14478 279.51620 280.70822 281.77036 282.74844 283.64404
 284.46240 285.20871 285.87219 286.81708
 366.78100 356.33133 345.75966 334.62200 323.02133 311.21166 299.07799 286.87733
 274.58566 262.47899 250.48432 239.78166 229.89999 221.00032 213.17865 206.17698
 200.00732 194.94165 191.51998 189.55831 188.59165 188.65198 189.48331 190.78764
 192.50898 194.60031 196.85964 199.21497 201.65630 204.13264 206.21697 208.05530
 209.67763 210.81897 211.04430 211.26863 211.20196 210.90329 210.53263 210.15896
 209.77229 209.47862 209.28296 209.14329 209.06762 209.39495 209.77729 210.16262
 210.95195 212.12628 213.37261 215.15195 217.07628 219.11561 221.20694 223.28628
 225.34261 227.42294 229.51627 231.61861 233.74394 235.91227 238.16460 240.53093
 243.14827 245.39560 247.39393 249.15526 250.56860 251.68793 252.50626 252.81859
 252.85193 252.62226 251.97859 250.92292 249.52525 247.68259 245.58792 243.41725
 241.20458 239.00492 236.82125 234.65658 232.51291 230.37625 228.39858 226.55191
 224.83124 223.29957 221.92591 220.69424 219.57257 218.52890 217.62924 216.76657
 216.00490 215.18123 214.27557 213.63590 213.08223 214.17146 216.74492 219.44510
 221.52261 223.05635 224.52072 226.14183 227.49928 228.01170 227.13358 225.40843
 224.76614 226.87599 230.99986 235.80411 240.56261 245.12238 249.41991 253.31754
 256.76038 259.95441 262.99988 265.77817 268.06946 269.91577 271.55795 273.19360
 274.77939 276.49771 278.05161 279.42239 280.61420 281.67529 282.65234 283.54791
 284.36685 285.11499 285.77676 286.72226
 366.78100 356.33183 345.76065 334.62348 323.02330 311.21413 299.08095 286.88078
 274.58960 262.48343 250.48925 239.78708 229.90590 221.00673 213.18555 206.18438
 200.01520 194.95003 191.52886 189.56768 188.60151 188.66233 189.49416 190.79898
 192.52081 194.61263 196.87246 199.22828 201.67011 204.14693 206.23176 208.07058
 209.69341 210.83524 211.06106 211.28589 211.21971 210.92154 210.55136 210.17819
 209.79201 209.49884 209.30366 209.16449 209.08931 209.41714 209.79996 210.18579
 210.97561 212.15044 213.39727 215.17709 217.10192 219.14174 221.23357 223.31339
 225.37022 227.45104 229.54487 231.64769 233.77352 235.94234 238.19517 240.56199
 243.17982 245.42764 247.42647 249.18830 250.60212 251.72195 252.54077 252.85360
 252.88742 252.65825 252.01507 250.95990 249.56272 247.72055 245.62637 243.45620
 241.24402 239.04485 236.86168 234.69750 232.55433 230.41815 228.44098 226.59480
 224.87463 223.34345 221.97028 220.73910 219.61793 218.57475 217.67558 216.81340
 216.05223 215.22905 214.32388 213.68471 213.13153 214.21043 216.75946 219.47008
 221.57341 223.09938 224.54303 226.14163 227.49947 228.03954 227.14252 225.39883
 224.73932 226.82428 230.97588 235.81839 240.56961 245.10855 249.39615 253.29121
 256.73325 259.92160 262.96057 265.73755 268.03009 269.87521 271.51758 273.15073
 274.70547 276.41302 277.96158 279.32831 280.51782 281.57864 282.55383 283.44760
 284.26688 285.01703 285.67908 286.62097
 366.78100 356.33229 345.76158 334.62486 323.02515 311.21644 299.08373 286.88402
 274.59330 262.48759 250.49388 239.79217 229.91146 221.01275 213.19203 206.19132
 200.02261 194.95790 191.53719 189.57647 188.61076 188.67205 189.50434 190.80963
 192.53191 194.62420 196.88449 199.24078 201.68307 204.16036 206.24564 208.08493
 209.70822 210.85051 211.07680 211.30208 211.23637 210.93866 210.56895 210.19624
 209.81052 209.51781 209.32310 209.18439 209.10968 209.43796 209.82125 210.20754
 210.99783 212.17312 213.42041 215.20069 217.12598 219.16627 221.25856 223.33885
 225.39613 227.47742 229.57171 231.67500 233.80129 235.97057 238.22386 240.59115
 243.20944 245.45773 247.45702 249.21930 250.63359 251.75388 252.57317 252.88646
 252.92074 252.69203 252.04932 250.99461 249.59790 247.75618 245.66247 243.49276
 241.28105 239.08234 236.89962 234.73591 232.59320 230.45749 228.48078 226.63507
 224.91535 223.38464 222.01193 220.78122 219.66051 218.61779 217.71908 216.85737
 216.09666 215.27395 214.36923 213.73052 213.17781 214.24689 216.77271 219.49045
 221.62697 223.14497 224.56270 226.13560 227.49217 228.05960 227.14920 225.39883
 224.72391 226.78244 230.96254 235.83344 240.57518 245.09537 249.37384 253.26659
 256.70663 259.88953 262.92358 265.69901 267.99313 269.84018 271.48196 273.11069
 274.64859 276.33060 277.86835 279.23343 280.42163 281.48166 282.45630 283.35211
 284.16916 284.91846 285.58249 286.52295
 366.78100 356.33273 345.76245 334.62618 323.02691 311.21864 299.08636 286.88709
 274.59682 262.49155 250.49827 239.79700 229.91673 221.01846 213.19818 206.19791
 200.02964 194.96537 191.54509 189.58482 188.61955 188.68128 189.51400 190.81973
 192.54246 194.63519 196.89591 199.25264 201.69537 204.17309 206.25882 208.09855
 209.72228 210.86500 211.09173 211.31746 211.25219 210.95491 210.58564 210.21337
 209.82810 209.53582 209.34155 209.20328 209.12901 209.45773 209.84146 210.22819
 211.01892 212.19464 213.44237 215.22310 217.14883 219.18955 221.28228 223.36301
 225.42073 227.50246 229.59719 231.70092 233.82764 235.99737 238.25110 240.61883
 243.23755 245.48628 247.48601 249.24874 250.66346 251.78419 252.60392 252.91765
 252.95237 252.72410 252.08183 251.02756 249.63128 247.79001 245.69674 243.52747
 241.31619 239.11792 236.93565 234.77237 232.63010 230.49483 228.51856 226.67328
 224.95401 223.42374 222.05147 220.82119 219.70092 218.65865 217.76038 216.89910
 216.13883 215.31656 214.41229 213.77401 213.22174 214.28162 216.78571 219.50639
 221.67896 223.19569 224.57912 226.12062 227.48232 228.06717 227.14900 225.41023
 224.72058 226.75162 230.95847 235.84764 240.57916 245.08365 249.35341 253.24290
 256.68097 259.85898 262.88712 265.66193 267.96057 269.81039 271.45117 273.07272
 274.61987 276.23880 277.76944 279.13712 280.32669 281.38647 282.36197 283.25726
 284.07617 284.82343 285.48816 286.42041
 366.78100 356.33316 345.76332 334.62748 323.02864 311.22080 299.08896 286.89012
 274.60028 262.49543 250.50259 239.80175 229.92191 221.02407 213.20423 206.20439
 200.03655 194.97271 191.55287 189.59303 188.62819 188.69035 189.52351 190.82967
 192.55283 194.64598 196.90714 199.26430 201.70746 204.18562 206.27178 208.11194
 209.73610 210.87926 211.10642 211.33258 211.26774 210.97090 210.60206 210.23022
 209.84538 209.55353 209.35969 209.22185 209.14801 209.47717 209.86133 210.24849
 211.03965 212.21581 213.46397 215.24513 217.17129 219.21245 221.30561 223.38677
 225.44493 227.52708 229.62224 231.72640 233.85356 236.02372 238.27788 240.64604
 243.26520 245.51436 247.51452 249.27768 250.69284 251.81400 252.63416 252.94832
 252.98348 252.75563 252.11379 251.05995 249.66411 247.82327 245.73043 243.56159
 241.35075 239.15291 236.97107 234.80823 232.66639 230.53155 228.55571 226.71087
 224.99203 223.46219 222.09034 220.86050 219.74066 218.69882 217.80098 216.94014
 216.18030 215.35846 214.45462 213.81678 213.26494 214.31628 216.80022 219.51767
 221.72766 223.25270 224.59431 226.09882 227.46901 228.06047 227.14230 225.43074
 224.72881 226.73271 230.96123 235.86154 240.58435 245.07530 249.33560 253.22037
 256.65634 259.83002 262.85275 265.62613 267.92889 269.78220 271.42188 273.03720
 274.58929 276.15579 277.67838 279.04749 280.23624 281.29788 282.27499 283.17072
 283.99124 284.74005 285.40823 286.33206
 366.78100 356.33360 345.76421 334.62881 323.03041 311.22301 299.09162 286.89322
 274.60382 262.49943 250.50703 239.80663 229.92723 221.02984 213.21044 206.21104
 200.04364 194.98025 191.56085 189.60145 188.63706 188.69966 189.53326 190.83986
 192.56347 194.65707 196.91867 199.27628 201.71988 204.19848 206.28508 208.12569
 209.75029 210.89389 211.12150 211.34810 211.28370 210.98730 210.61891 210.24751
 209.86311 209.57171 209.37832 209.24092 209.16752 209.49713 209.88173 210.26933
 211.06093 212.23754 213.48614 215.26774 217.19435 219.23595 221.32955 223.41115
 225.46976 227.55236 229.64796 231.75257 233.88017 236.05077 238.30537 240.67398
 243.29358 245.54318 247.54379 249.30739 250.72299 251.84459 252.66520 252.97980
 253.01540 252.78800 252.14661 251.09321 249.69781 247.85742 245.76502 243.59662
 241.38622 239.18883 237.00743 234.84503 232.70364 230.56924 228.59384 226.74944
 225.03105 223.50165 222.13025 220.90086 219.78146 218.74006 217.84266 216.98227
 216.22287 215.40147 214.49807 213.86068 213.30928 214.35185 216.81503 219.52385
 221.77167 223.31392 224.61087 226.07594 227.44701 228.03670 227.12978 225.45650
 224.74821 226.72488 230.96857 235.87798 240.59337 245.07178 249.32130 253.20036
 256.63263 259.80173 262.81894 265.59052 267.89859 269.75696 271.39664 273.00266
 274.54294 276.08621 277.60373 278.97223 280.16147 281.22241 282.19998 283.09570
 283.91727 284.66922 285.33704 286.26166
 366.78100 356.33404 345.76507 334.63011 323.03215 311.22518 299.09422 286.89626
 274.60730 262.50333 250.51137 239.81141 229.93244 221.03548 213.21652 206.21755
 200.05059 194.98763 191.56866 189.60970 188.64574 188.70878 189.54281 190.84985
 192.57389 194.66792 196.92996 199.28800 201.73203 204.21107 206.29811 208.13914
 209.76418 210.90822 211.13626 211.36329 211.29933 211.00337 210.63540 210.26444
 209.88048 209.58951 209.39655 209.25959 209.18662 209.51666 209.90170 210.28974
 211.08177 212.25881 213.50785 215.28988 217.21692 219.25896 221.35299 223.43503
 225.49407 227.57710 229.67314 231.77818 233.90621 236.07725 238.33229 240.70133
 243.32136 245.57140 247.57244 249.33647 250.75251 251.87455 252.69558 253.01062
 253.04666 252.81969 252.17873 251.12577 249.73081 247.89084 245.79888 243.63092
 241.42095 239.22399 237.04303 234.88106 232.74010 230.60614 228.63117 226.78721
 225.06925 223.54029 222.16932 220.94036 219.82140 218.78043 217.88347 217.02351
 216.26454 215.44358 214.54062 213.90365 213.35269 214.38678 216.82994 219.52631
 221.81087 223.37769 224.63275 226.05724 227.41296 227.99254 227.10985 225.48885
 224.78035 226.72604 230.97971 235.89864 240.60825 245.07147 249.30928 253.17999
 256.60751 259.77145 262.78296 265.55563 267.86972 269.73465 271.37625 272.96954
 274.48798 276.02448 277.53879 278.90598 280.09528 281.15582 282.13147 283.02847
 283.84900 284.60388 285.27029 286.18149
 366.78100 356.33447 345.76593 334.63140 323.03386 311.22733 299.09679 286.89926
 274.61072 262.50719 250.51566 239.81612 229.93759 221.04105 213.22252 206.22398
 200.05745 194.99491 191.57638 189.61785 188.65431 188.71778 189.55224 190.85971
 192.58417 194.67864 196.94110 199.29957 201.74404 204.22350 206.31097 208.15243
 209.77790 210.92236 211.15083 211.37829 211.31476 211.01922 210.65169 210.28116
 209.89762 209.60709 209.41455 209.27802 209.20548 209.53595 209.92141 210.30988
 211.10235 212.27981 213.52928 215.31174 217.23921 219.28167 221.37614 223.45860
 225.51807 227.60154 229.69800 231.80347 233.93193 236.10340 238.35886 240.72833
 243.34879 245.59926 247.60073 249.36519 250.78166 251.90412 252.72559 253.04105
 253.07752 252.85098 252.21045 251.15792 249.76338 247.92385 245.83231 243.66478
 241.45524 239.25871 237.07817 234.91664 232.77611 230.64257 228.66804 226.82450
 225.10697 223.57843 222.20790 220.97936 219.86083 218.82029 217.92376 217.06423
 216.30569 215.48516 214.58262 213.94609 213.39555 214.42119 216.84436 219.52852
 221.84483 223.44247 224.66434 226.04367 227.36534 227.92717 227.08006 225.52475
 224.82353 226.73405 230.99356 235.92406 240.62929 245.07886 249.30161 253.15961
 256.57993 259.73788 262.74469 265.51825 267.84186 269.71667 271.36069 272.94006
 274.43808 275.96671 277.47717 278.84235 280.03110 281.09018 282.06561 282.96115
 283.78378 284.53644 285.20291 286.09723
 366.78100 356.33477 345.76655 334.63232 323.03509 311.22887 299.09864 286.90142
 274.61319 262.50996 250.51874 239.81951 229.94128 221.04506 213.22683 206.22860
 200.06238 195.00015 191.58192 189.62370 188.66047 188.72425 189.55902 190.86679
 192.59157 194.68634 196.94911 199.30789 201.75266 204.23243 206.32021 208.16198
 209.78776 210.93253 211.16130 211.38908 211.32585 211.03062 210.66340 210.29317
 209.90994 209.61972 209.42749 209.29127 209.21904 209.54981 209.93559 210.32436
 211.11713 212.29491 213.54468 215.32745 217.25523 219.29800 221.39277 223.47555
 225.53532 227.61910 229.71587 231.82164 233.95042 236.12219 238.37796 240.74774
 243.36851 245.61928 247.62106 249.38583 250.80261 251.92538 252.74715 253.06293
 253.09970 252.87347 252.23325 251.18102 249.78679 247.94757 245.85634 243.68912
 241.47989 239.28366 237.10344 234.94221 232.80198 230.66876 228.69453 226.85130
 225.13408 223.60585 222.23562 221.00740 219.88917 218.84895 217.95272 217.09349
 216.33527 215.51504 214.61281 213.97659 213.42636 214.44936 216.86630 219.52206
 221.87833 223.51038 224.69884 226.03374 227.30896 227.84639 227.03973 225.55917
 224.87566 226.74902 231.00955 235.95355 240.65552 245.09175 249.29912 253.14267
 256.55197 259.70145 262.70203 265.47696 267.81226 269.70081 271.34750 272.91422
 274.39859 275.91089 277.41492 278.77911 279.96786 281.02551 281.99973 282.89578
 283.71701 284.47220 285.13721 286.02139
 366.78100 356.33510 345.76721 334.63331 323.03642 311.23052 299.10063 286.90373
 274.61584 262.51294 250.52205 239.82315 229.94526 221.04936 213.23147 206.23357
 200.06768 195.00578 191.58789 189.62999 188.66710 188.73120 189.56631 190.87441
 192.59952 194.69462 196.95773 199.31683 201.76194 204.24204 206.33015 208.17225
 209.79836 210.94346 211.17257 211.40067 211.33778 211.04288 210.67599 210.30609
 209.92320 209.63330 209.44140 209.30551 209.23361 209.56472 209.95082 210.33993
 211.13303 212.31114 213.56124 215.34435 217.27245 219.31556 221.41066 223.49377
 225.55387 227.63798 229.73508 231.84119 233.97029 236.14240 238.39850 240.76861
 243.38971 245.64082 247.64292 249.40803 250.82513 251.94824 252.77034 253.08645
 253.12355 252.89766 252.25776 251.20587 249.81197 247.97308 245.88218 243.71529
 241.50639 239.31050 237.13060 234.96970 232.82981 230.69691 228.72302 226.88012
 225.16323 223.63533 222.26544 221.03754 219.91965 218.87975 217.98386 217.12496
 216.36707 215.54717 214.64528 214.00938 213.45949 214.47897 216.88759 219.51593
 221.90004 223.58156 224.74309 226.02896 227.24930 227.74812 226.98711 225.59207
 224.93271 226.76926 231.02502 235.98582 240.68462 245.11255 249.30389 253.12860
 256.52457 259.66266 262.65485 265.42990 267.77740 269.68161 271.33350 272.89111
 274.36771 275.85651 277.35248 278.71500 279.90295 280.95990 281.93289 282.82684
 283.65048 284.40521 285.06653 285.93735
 366.78100 356.33553 345.76807 334.63460 323.03813 311.23267 299.10320 286.90673
 274.61927 262.51680 250.52633 239.82787 229.95040 221.05494 213.23747 206.24000
 200.07454 195.01307 191.59560 189.63814 188.67567 188.74020 189.57574 190.88427
 192.60980 194.70534 196.96887 199.32840 201.77394 204.25447 206.34300 208.18554
 209.81207 210.95761 211.18714 211.41567 211.35321 211.05874 210.69227 210.32281
 209.94034 209.65087 209.45941 209.32394 209.25247 209.58401 209.97054 210.36007
 211.15361 212.33214 213.58267 215.36621 217.29474 219.33828 221.43381 223.51734
 225.57788 227.66241 229.75994 231.86648 233.99601 236.16854 238.42508 240.79561
 243.41714 245.66868 247.67121 249.43674 250.85428 251.97781 252.80034 253.11688
 253.15441 252.92895 252.28948 251.23801 249.84455 248.00608 245.91561 243.74915
 241.54068 239.34521 237.16575 235.00528 232.86581 230.73335 228.75988 226.91741
 225.20095 223.67348 222.30401 221.07655 219.95908 218.91962 218.02415 217.16568
 216.40822 215.58875 214.68728 214.05182 213.50235 214.51317 216.90131 219.52005
 221.90585 223.64275 224.81853 226.04308 227.16068 227.62004 226.93633 225.62619
 224.98500 226.78929 231.04292 236.01898 240.72060 245.14085 249.31583 253.11758
 256.49738 259.62265 262.60696 265.38303 267.74304 269.66434 271.31830 272.86261
 274.33191 275.80579 277.29272 278.65414 279.83957 280.89731 281.86688 282.75949
 283.58279 284.34003 284.99234 285.85272
 366.78100 356.33581 345.76862 334.63542 323.03923 311.23404 299.10485 286.90866
 274.62147 262.51927 250.52908 239.83089 229.95370 221.05851 213.24132 206.24412
 200.07893 195.01774 191.60055 189.64336 188.68117 188.74597 189.58178 190.89059
 192.61640 194.71221 196.97602 199.33582 201.78163 204.26244 206.35125 208.19406
 209.82087 210.96667 211.19648 211.42529 211.36310 211.06891 210.70272 210.33352
 209.95133 209.66214 209.47095 209.33576 209.26457 209.59637 209.98318 210.37299
 211.16680 212.34561 213.59642 215.38022 217.30903 219.35284 221.44865 223.53246
 225.59327 227.67807 229.77588 231.88269 234.01250 236.18531 238.44212 240.81292
 243.43473 245.68654 247.68935 249.45516 250.87297 251.99677 252.81958 253.13639
 253.17420 252.94901 252.30981 251.25862 249.86543 248.02724 245.93705 243.77086
 241.56266 239.36747 237.18828 235.02809 232.88890 230.75671 228.78351 226.94132
 225.22513 223.69794 222.32875 221.10156 219.98436 218.94517 218.04998 217.19179
 216.43460 215.61541 214.71421 214.07902 213.52983 214.53883 216.92270 219.52116
 221.90373 223.70108 224.89613 226.05415 227.06940 227.49344 226.88765 225.65073
 225.02586 226.81091 231.06351 236.04399 240.76430 245.18240 249.33603 253.10947
 256.46832 259.58047 262.55850 265.33560 267.70950 269.64764 271.30292 272.83411
 274.29202 275.75500 277.23694 278.59616 279.78329 280.83884 281.80722 282.69830
 283.52112 284.27954 284.92352 285.77524
 366.78100 356.33605 345.76911 334.63616 323.04022 311.23527 299.10632 286.91038
 274.62343 262.52148 250.53154 239.83359 229.95665 221.06170 213.24475 206.24781
 200.08286 195.02191 191.60497 189.64802 188.68608 188.75113 189.58718 190.89624
 192.62229 194.71835 196.98240 199.34245 201.78851 204.26956 206.35861 208.20167
 209.82872 210.97478 211.20483 211.43388 211.37194 211.07799 210.71205 210.34310
 209.96115 209.67221 209.48126 209.34631 209.27537 209.60742 209.99448 210.38453
 211.17858 212.35764 213.60869 215.39274 217.32180 219.36585 221.46191 223.54596
 225.60701 227.69207 229.79012 231.89718 234.02723 236.20028 238.45734 240.82839
 243.45044 245.70250 247.70555 249.47161 250.88966 252.01371 252.83677 253.15382
 253.19188 252.96693 252.32798 251.27704 249.88409 248.04614 245.95620 243.79025
 241.58231 239.38736 237.20841 235.04847 232.90952 230.77757 228.80463 226.96268
 225.24674 223.71979 222.35084 221.12390 220.00695 218.96801 218.07306 217.21511
 216.45817 215.63922 214.73827 214.10333 213.55438 214.56218 216.94321 219.53137
 221.89430 223.74890 224.96590 226.06819 226.99202 227.36723 226.83293 225.66328
 225.05247 226.84004 231.08243 236.06728 240.81352 245.22903 249.35709 253.10181
 256.44217 259.54202 262.51364 265.29175 267.68106 269.63916 271.29752 272.81708
 274.26627 275.71506 277.16595 278.51736 279.70291 280.75638 281.71982 282.60785
 283.43756 284.20459 284.83829 285.68622
 366.78100 356.33636 345.76972 334.63708 323.04145 311.23681 299.10817 286.91253
 274.62589 262.52425 250.53462 239.83698 229.96034 221.06570 213.24906 206.25242
 200.08779 195.02715 191.61051 189.65387 188.69223 188.75759 189.59396 190.90332
 192.62968 194.72604 196.99040 199.35076 201.79712 204.27849 206.36785 208.21121
 209.83857 210.98493 211.21529 211.44466 211.38302 211.08938 210.72374 210.35510
 209.97346 209.68483 209.49419 209.35955 209.28891 209.62127 210.00863 210.39899
 211.19336 212.37272 213.62408 215.40844 217.33780 219.38216 221.47853 223.56289
 225.62425 227.70961 229.80797 231.91533 234.04570 236.21906 238.47642 240.84778
 243.47014 245.72250 247.72587 249.49223 250.91059 252.03495 252.85831 253.17567
 253.21403 252.98940 252.35076 251.30012 249.90748 248.06984 245.98020 243.81457
 241.60693 239.41229 237.23365 235.07401 232.93537 230.80374 228.83110 226.98946
 225.27382 223.74718 222.37854 221.15190 220.03527 218.99663 218.10199 217.24435
 216.48771 215.66907 214.76844 214.13380 213.58516 214.58699 216.95390 219.54802
 221.88362 223.77620 225.03305 226.08591 226.92435 227.25209 226.77460 225.64951
 225.06386 226.88272 231.10504 236.09215 240.86397 245.27730 249.38318 253.09833
 256.41623 259.50229 262.46786 265.24722 267.65088 269.62659 271.28265 272.79440
 274.24329 275.66675 277.11084 278.46469 279.65219 280.71429 281.70178 282.61075
 283.42963 284.16034 284.78357 285.62219
 366.78100 356.33677 345.77055 334.63832 323.04309 311.23887 299.11064 286.91541
 274.62919 262.52796 250.53873 239.84151 229.96528 221.07105 213.25483 206.25860
 200.09437 195.03415 191.61792 189.66169 188.70047 188.76624 189.60301 190.91279
 192.63956 194.73633 197.00111 199.36188 201.80865 204.29042 206.38020 208.22397
 209.85174 210.99852 211.22929 211.45906 211.39784 211.10461 210.73938 210.37116
 209.98993 209.70170 209.51148 209.37725 209.30702 209.63980 210.02757 210.41834
 211.21312 212.39289 213.64466 215.42944 217.35921 219.40398 221.50076 223.58553
 225.64730 227.73308 229.83185 231.93962 234.07040 236.24417 238.50194 240.87372
 243.49649 245.74926 247.75304 249.51981 250.93858 252.06336 252.88713 253.20490
 253.24368 253.01945 252.38122 251.33100 249.93877 248.10154 246.01232 243.84709
 241.63986 239.44564 237.26741 235.10818 232.96996 230.83873 228.86650 227.02527
 225.31005 223.78382 222.41559 221.18937 220.07314 219.03491 218.14069 217.28346
 216.52723 215.70901 214.80878 214.17455 213.62633 214.61707 216.95781 219.55330
 221.89740 223.78612 225.07478 226.08469 226.86316 227.18222 226.73392 225.59337
 225.02599 226.91185 231.13205 236.12207 240.92165 245.34602 249.43643 253.12175
 256.41470 259.47552 262.42337 265.19257 267.59732 269.57913 271.23672 272.73093
 274.16699 275.62494 277.09604 278.45438 279.64093 280.70422 281.69522 282.60706
 283.42368 284.14368 284.76810 285.60843
 366.78100 356.33735 345.77169 334.64004 323.04538 311.24173 299.11407 286.91942
 274.63376 262.53311 250.54445 239.84780 229.97215 221.07849 213.26284 206.26718
 200.10353 195.04387 191.62822 189.67256 188.71191 188.77826 189.61560 190.92595
 192.65329 194.75064 197.01598 199.37733 201.82467 204.30702 206.39736 208.24171
 209.87006 211.01740 211.24875 211.47909 211.41844 211.12578 210.76113 210.39347
 210.01282 209.72516 209.53551 209.40186 209.33220 209.66555 210.05389 210.44524
 211.24058 212.42093 213.67327 215.45862 217.38896 219.43431 221.53166 223.61700
 225.67935 227.76569 229.86504 231.97338 234.10473 236.27907 238.53742 240.90977
 243.53311 245.78646 247.79080 249.55815 250.97749 252.10284 252.92718 253.24553
 253.28487 253.06122 252.42357 251.37391 249.98226 248.14560 246.05695 243.89229
 241.68564 239.49198 237.31433 235.15567 233.01802 230.88737 228.91571 227.07506
 225.36040 223.83475 222.46709 221.24144 220.12578 219.08813 218.19448 217.33782
 216.58217 215.76451 214.86486 214.23120 213.68355 214.65982 216.96638 219.54655
 221.92657 223.79305 225.08919 226.05167 226.78178 227.13400 226.74446 225.56604
 224.97710 226.88840 231.12497 236.14043 240.95547 245.40346 249.49063 253.16841
 256.45172 259.49814 262.42157 265.17780 267.57425 269.53366 271.12903 272.63342
 274.11304 275.54248 276.98764 278.34048 279.53040 280.59451 281.59552 282.51611
 283.32471 284.00726 284.51688 285.16995
 366.78100 356.33750 345.77201 334.64051 323.04602 311.24252 299.11503 286.92053
 274.63504 262.53454 250.54604 239.84955 229.97405 221.08056 213.26506 206.26957
 200.10607 195.04658 191.63108 189.67559 188.71509 188.78159 189.61910 190.92960
 192.65711 194.75461 197.02012 199.38162 201.82913 204.31163 206.40213 208.24664
 209.87514 211.02265 211.25415 211.48466 211.42416 211.13167 210.76717 210.39967
 210.01918 209.73168 209.54219 209.40869 209.33920 209.67270 210.06121 210.45271
 211.24821 212.42872 213.68122 215.46673 217.39723 219.44274 221.54024 223.62575
 225.68825 227.77476 229.87426 231.98276 234.11427 236.28877 238.54728 240.91978
 243.54329 245.79679 247.80130 249.56880 250.98830 252.11381 252.93831 253.25682
 253.29632 253.07283 252.43533 251.38584 249.99434 248.15784 246.06935 243.90485
 241.69836 239.50486 237.32737 235.16887 233.03138 230.90088 228.92938 227.08889
 225.37439 223.84890 222.48140 221.25591 220.14041 219.10292 218.20942 217.35293
 216.59743 215.77993 214.88044 214.24694 213.69945 214.67990 216.99634 219.52397
 221.93315 223.79901 225.08444 226.01517 226.71039 227.07431 226.74231 225.62488
 225.02960 226.87543 231.11890 236.14397 240.94189 245.40317 249.49557 253.14932
 256.43427 259.48367 262.42197 265.19000 267.60617 269.59503 271.18756 272.49652
 274.07040 275.46265 276.86319 278.10217 279.16190 280.21069 281.18463 282.07556
 282.86392 283.55035 284.14941 284.91605
 366.78100 356.33691 345.77082 334.63873 323.04364 311.23955 299.11146 286.91637
 274.63028 262.52920 250.54011 239.84302 229.96693 221.07284 213.25675 206.26066
 200.09657 195.03648 191.62039 189.66430 188.70321 188.76912 189.60603 190.91594
 192.64285 194.73977 197.00468 199.36559 201.81250 204.29441 206.38432 208.22823
 209.85614 211.00305 211.23396 211.46387 211.40278 211.10969 210.74460 210.37651
 209.99542 209.70733 209.51725 209.38316 209.31307 209.64598 210.03389 210.42480
 211.21971 212.39962 213.65153 215.43644 217.36635 219.41126 221.50817 223.59308
 225.65499 227.74090 229.83982 231.94773 234.07864 236.25255 238.51046 240.88237
 243.50528 245.75819 247.76210 249.52901 250.94792 252.07283 252.89674 253.21465
 253.25356 253.02947 252.39138 251.34130 249.94921 248.11212 246.02303 243.85794
 241.65085 239.45676 237.27867 235.11958 232.98149 230.85040 228.87831 227.03722
 225.32213 223.79604 222.42795 221.20186 220.08578 219.04769 218.15360 217.29651
 216.54042 215.72233 214.82224 214.18815 213.64006 214.65855 217.06487 219.48293
 221.88728 223.74352 225.04539 226.02805 226.72717 227.04019 226.67320 225.67177
 225.08965 226.91057 231.11569 236.13843 240.93205 245.43364 249.48837 253.11784
 256.40707 259.42691 262.37857 265.13928 267.56213 269.55453 271.15921 272.56247
 274.01752 275.42416 276.71674 277.84842 278.87473 279.92404 280.90152 281.80527
 282.61804 283.35596 284.00272 284.82690
 366.78100 356.33704 345.77109 334.63913 323.04418 311.24022 299.11226 286.91731
 274.63135 262.53040 250.54144 239.84449 229.96853 221.07457 213.25862 206.26266
 200.09871 195.03875 191.62279 189.66684 188.70588 188.77193 189.60897 190.91901
 192.64606 194.74310 197.00815 199.36919 201.81624 204.29828 206.38832 208.23237
 209.86041 211.00746 211.23850 211.46854 211.40759 211.11463 210.74968 210.38172
 210.00076 209.71281 209.52285 209.38890 209.31894 209.65199 210.04003 210.43107
 211.22612 212.40616 213.65821 215.44325 217.37329 219.41834 221.51538 223.60043
 225.66247 227.74851 229.84756 231.95560 234.08665 236.26069 238.51874 240.89078
 243.51382 245.76687 247.77091 249.53796 250.95700 252.08204 252.90609 253.22413
 253.26318 253.03922 252.40126 251.35131 249.95935 248.12240 246.03344 243.86849
 241.66153 239.46757 237.28962 235.13066 232.99271 230.86175 228.88979 227.04884
 225.33388 223.80793 222.43997 221.21401 220.09806 219.06010 218.16615 217.30919
 216.55324 215.73528 214.83532 214.20137 213.65341 214.67249 217.09029 219.50803
 221.79129 223.62163 225.02780 226.07188 226.74403 227.00281 226.60271 225.69708
 225.09845 226.94756 231.10054 236.09044 240.90445 245.41360 249.49918 253.11699
 256.39627 259.41394 262.33981 265.08749 267.50668 269.52151 271.17892 272.50165
 273.98642 275.38553 276.63742 277.71484 278.73645 279.79089 280.78162 281.70853
 282.59735 283.38882 284.08026 284.96143
 366.78100 356.33807 345.77315 334.64222 323.04829 311.24536 299.11844 286.92451
 274.63958 262.53965 250.55173 239.85580 229.98087 221.08794 213.27302 206.27809
 200.11516 195.05623 191.64131 189.68638 188.72645 188.79352 189.63160 190.94267
 192.67074 194.76881 197.03489 199.39696 201.84503 204.32810 206.41918 208.26425
 209.89332 211.04139 211.27347 211.50454 211.44461 211.15268 210.78876 210.42183
 210.04190 209.75498 209.56605 209.43312 209.36419 209.69827 210.08734 210.47941
 211.27548 212.45656 213.70963 215.49570 217.42677 219.47285 221.57092 223.65699
 225.72006 227.80714 229.90721 232.01628 234.14835 236.32343 238.58250 240.95557
 243.57964 245.83372 247.83879 249.60686 251.02693 252.15301 252.97808 253.29715
 253.33722 253.11430 252.47737 251.42844 250.03751 248.20159 246.11366 243.94973
 241.74380 239.55088 237.37395 235.21602 233.07910 230.94917 228.97824 227.13831
 225.42439 223.89946 222.53253 221.30760 220.19268 219.15575 218.26282 217.40689
 216.65197 215.83504 214.93611 214.30318 213.75626 214.73569 217.07477 219.59569
 221.67360 223.50729 225.04851 226.05792 226.70505 226.97502 226.56317 225.65723
 225.08655 226.95869 231.08192 236.04886 240.87877 245.38582 249.51198 253.14243
 256.39624 259.41684 262.32907 265.05518 267.45618 269.47592 271.14697 272.51367
 274.03064 275.40121 276.61963 277.77628 278.96054 280.05414 281.10895 282.17169
 283.13669 283.99603 284.74673 285.70340
 366.78100 356.33862 345.77424 334.64385 323.05047 311.24809 299.12171 286.92833
 274.64395 262.54456 250.55718 239.86180 229.98742 221.09504 213.28066 206.28627
 200.12389 195.06551 191.65113 189.69675 188.73736 188.80498 189.64360 190.95522
 192.68384 194.78246 197.04907 199.41169 201.86031 204.34393 206.43555 208.28116
 209.91078 211.05940 211.29202 211.52364 211.46426 211.17287 210.80949 210.44311
 210.06373 209.77735 209.58897 209.45658 209.38820 209.72282 210.11244 210.50506
 211.30167 212.48329 213.73691 215.52353 217.45515 219.50177 221.60038 223.68700
 225.75062 227.83824 229.93886 232.04847 234.18109 236.35671 238.61633 240.98995
 243.61457 245.86918 247.87480 249.64342 251.06404 252.19066 253.01628 253.33589
 253.37651 253.15413 252.51775 251.46937 250.07898 248.24360 246.15622 243.99284
 241.78746 239.59508 237.41869 235.26131 233.12493 230.99555 229.02517 227.18578
 225.47240 223.94802 222.58164 221.35726 220.24288 219.20649 218.31411 217.45873
 216.70435 215.88797 214.98959 214.35720 213.81082 214.76689 217.06592 219.63229
 221.59285 223.35556 225.06937 226.09787 226.70045 226.95767 226.52263 225.63715
 225.07416 227.05424 231.14693 236.05269 240.81734 245.25005 249.47339 253.10709
 256.36383 259.41003 262.31750 265.05566 267.47836 269.50443 271.13742 272.54715
 273.94678 275.30127 276.49298 277.65482 278.84625 279.92691 280.97440 281.95157
 282.83041 283.61304 284.29672 285.16800
 366.78100 356.33803 345.77305 334.64208 323.04810 311.24513 299.11815 286.92418
 274.63921 262.53923 250.55126 239.85528 229.98031 221.08733 213.27236 206.27739
 200.11441 195.05544 191.64046 189.68549 188.72551 188.79254 189.63057 190.94159
 192.66962 194.76764 197.03367 199.39569 201.84372 204.32675 206.41777 208.26280
 209.89182 211.03985 211.27187 211.50290 211.44293 211.15095 210.78698 210.42000
 210.04003 209.75305 209.56408 209.43111 209.36213 209.69616 210.08518 210.47721
 211.27323 212.45426 213.70729 215.49331 217.42434 219.47036 221.56839 223.65441
 225.71744 227.80447 229.90449 232.01352 234.14554 236.32057 238.57959 240.95262
 243.57665 245.83067 247.83570 249.60372 251.02375 252.14977 252.97480 253.29383
 253.33385 253.11088 252.47390 251.42493 250.03395 248.19798 246.11001 243.94603
 241.74006 239.54708 237.37011 235.21213 233.07516 230.94519 228.97421 227.13424
 225.42026 223.89529 222.52831 221.30334 220.18837 219.15139 218.25842 217.40244
 216.64747 215.83049 214.93152 214.29855 213.75157 214.74771 217.15150 219.59747
 221.59656 223.48462 225.16161 226.09267 226.63503 226.87166 226.45273 225.75812
 225.29265 227.22249 231.22418 236.08217 240.81297 245.21751 249.42068 253.09143
 256.36276 259.40021 262.31018 265.03867 267.47357 269.51685 271.16089 272.55759
 273.89398 275.17368 276.35928 277.54645 278.76447 279.94672 281.04816 282.04599
 282.94345 283.74261 284.44077 285.33047
 366.78100 356.33622 345.76943 334.63665 323.04086 311.23608 299.10729 286.91151
 274.62472 262.52294 250.53315 239.83537 229.95858 221.06380 213.24702 206.25023
 200.08545 195.02466 191.60788 189.65109 188.68931 188.75452 189.59074 190.89995
 192.62617 194.72239 196.98660 199.34682 201.79303 204.27425 206.36346 208.20668
 209.83389 210.98011 211.21032 211.43954 211.37775 211.08397 210.71819 210.34940
 209.96762 209.67883 209.48805 209.35326 209.28248 209.61469 210.00191 210.39212
 211.18634 212.36556 213.61677 215.40099 217.33020 219.37442 221.47063 223.55485
 225.61606 227.70128 229.79949 231.90671 234.03692 236.21014 238.46736 240.83857
 243.46079 245.71300 247.71622 249.48243 250.90065 252.02486 252.84808 253.16529
 253.20351 252.97873 252.33994 251.28916 249.89637 248.05859 245.96880 243.80302
 241.59523 239.40045 237.22166 235.06188 232.92309 230.79131 228.81853 226.97674
 225.26096 223.73417 222.36539 221.13860 220.02182 218.98303 218.08825 217.23046
 216.47368 215.65490 214.75411 214.11933 213.57054 214.66292 217.27408 219.54453
 221.55504 223.60179 225.19513 225.98590 226.54167 226.81294 226.42490 225.72702
 225.45212 227.30077 231.25333 236.09512 240.81743 245.21008 249.40979 253.07867
 256.35242 259.40176 262.29318 265.00192 267.44470 269.55576 271.23999 272.63989
 273.95190 275.22424 276.40259 277.77744 279.09341 280.40683 281.60516 282.69073
 283.66711 284.53659 285.29614 286.26407
 366.78100 356.33665 345.77030 334.63795 323.04260 311.23826 299.10991 286.91456
 274.62821 262.52686 250.53751 239.84016 229.96381 221.06947 213.25312 206.25677
 200.09242 195.03207 191.61572 189.65937 188.69802 188.76368 189.60033 190.90998
 192.63663 194.73328 196.99793 199.35858 201.80523 204.28688 206.37654 208.22019
 209.84784 210.99449 211.22514 211.45479 211.39344 211.10009 210.73475 210.36640
 209.98505 209.69670 209.50635 209.37200 209.30165 209.63430 210.02196 210.41261
 211.20726 212.38691 213.63856 215.42321 217.35286 219.39751 221.49417 223.57882
 225.64047 227.72612 229.82477 231.93242 234.06307 236.23672 238.49437 240.86603
 243.48868 245.74133 247.74498 249.51163 250.93028 252.05493 252.87858 253.19624
 253.23489 253.01054 252.37219 251.32184 249.92949 248.09214 246.00279 243.83745
 241.63010 239.43575 237.25740 235.09805 232.95970 230.82835 228.85600 227.01465
 225.29931 223.77296 222.40461 221.17826 220.06191 219.02356 218.12921 217.27186
 216.51552 215.69717 214.79682 214.16247 213.61412 214.68364 217.23343 219.59746
 221.53400 223.30972 225.05371 226.01140 226.48232 226.63800 226.52232 225.48924
 225.31226 227.30814 231.24217 236.06644 240.84897 245.22287 249.33264 253.12651
 256.40771 259.44690 262.27646 264.89771 267.30573 269.47452 271.29297 272.80569
 274.16766 275.44205 276.58484 277.77209 278.96753 280.05188 281.13251 282.14603
 283.05756 283.86929 284.57840 285.48206
 366.78100 356.33832 345.77363 334.64295 323.04927 311.24658 299.11990 286.92622
 274.64153 262.54185 250.55417 239.85848 229.98380 221.09112 213.27643 206.28175
 200.11906 195.06038 191.64570 189.69101 188.73133 188.79865 189.63696 190.94828
 192.67660 194.77491 197.04123 199.40355 201.85186 204.33518 206.42650 208.27181
 209.90113 211.04945 211.28176 211.51308 211.45340 211.16171 210.79803 210.43135
 210.05166 209.76498 209.57630 209.44361 209.37493 209.70924 210.09856 210.49088
 211.28719 212.46851 213.72183 215.50814 217.43946 219.48578 221.58409 223.67041
 225.73373 227.82104 229.92136 232.03068 234.16299 236.33831 238.59763 240.97094
 243.59526 245.84958 247.85489 249.62321 251.04353 252.16984 252.99516 253.31447
 253.35479 253.13211 252.49542 251.44674 250.05606 248.22037 246.13269 243.96901
 241.76332 239.57064 237.39396 235.23627 233.09959 230.96991 228.99922 227.15954
 225.44586 223.92117 222.55449 221.32981 220.21512 219.17844 218.28576 217.43007
 216.67539 215.85871 214.96002 214.32734 213.78065 214.77542 217.13457 219.60938
 221.73781 223.44917 224.90474 225.97005 226.46086 226.52690 226.29211 225.65520
 225.62506 227.40991 231.29721 236.04561 240.85025 245.29419 249.35194 253.14754
 256.43588 259.49683 262.34241 264.90665 267.18555 269.25372 271.08170 272.66537
 274.09662 275.44534 276.66589 277.87460 279.04773 280.11426 281.12457 282.05923
 283.00128 283.84021 284.57309 285.50702
 366.78100 356.33995 345.77690 334.64785 323.05580 311.25475 299.12970 286.93765
 274.65460 262.55655 250.57050 239.87645 230.00340 221.11235 213.29930 206.30625
 200.14520 195.08814 191.67509 189.72204 188.76399 188.83294 189.67289 190.98584
 192.71579 194.81574 197.08369 199.44764 201.89759 204.38254 206.47549 208.32244
 209.95339 211.10334 211.33729 211.57024 211.51219 211.22214 210.86009 210.49504
 210.11699 209.83194 209.64489 209.51384 209.44679 209.78274 210.17369 210.56764
 211.36559 212.54854 213.80348 215.59143 217.52438 219.57233 221.67228 223.76023
 225.82518 227.91413 230.01608 232.12703 234.26098 236.43793 238.69888 241.07383
 243.69978 245.95573 247.96268 249.73263 251.15458 252.28253 253.10948 253.43043
 253.47238 253.25133 252.61628 251.56923 250.18018 248.34613 246.26008 244.09803
 241.89398 239.70293 237.52788 235.37182 233.23677 231.10872 229.13967 227.30162
 225.58957 224.06652 222.70147 221.47842 220.36537 219.33032 218.43927 217.58522
 216.83217 216.01712 215.12007 214.48902 213.94397 214.86955 217.07042 219.63452
 221.73770 223.46025 224.81885 225.82326 226.38988 226.54550 226.18216 225.76921
 225.68538 227.37589 231.33064 236.04613 240.84221 245.32603 249.41287 253.14394
 256.46729 259.53885 262.39780 264.95346 267.20151 269.21024 270.97162 272.53549
 273.98453 275.36441 276.63461 277.92645 279.11862 280.19830 281.22287 282.17691
 283.11133 283.94345 284.67038 285.59674
 366.78100 356.34098 345.77897 334.65095 323.05994 311.25992 299.13591 286.94489
 274.66288 262.56586 250.58084 239.88783 230.01581 221.12580 213.31378 206.32177
 200.16175 195.10573 191.69372 189.74170 188.78469 188.85467 189.69566 191.00964
 192.74063 194.84161 197.11059 199.47558 201.92656 204.41255 206.50653 208.35452
 209.98650 211.13749 211.37247 211.60645 211.54944 211.26042 210.89941 210.53539
 210.15838 209.87436 209.68834 209.55833 209.49231 209.82930 210.22128 210.61627
 211.41525 212.59924 213.85522 215.64420 217.57819 219.62717 221.72816 223.81714
 225.88313 227.97311 230.07609 232.18808 234.32306 236.50105 238.76303 241.13902
 243.76600 246.02299 248.03097 249.80195 251.22494 252.35392 253.18191 253.50389
 253.54688 253.32686 252.69285 251.64683 250.25881 248.42580 246.34078 244.17977
 241.97675 239.78674 237.61272 235.45770 233.32369 231.19667 229.22866 227.39164
 225.68063 224.15861 222.79460 221.57258 220.46056 219.42655 218.53653 217.68352
 216.93150 216.11749 215.22147 214.59146 214.04744 214.93019 217.03915 219.65439
 221.70711 223.42824 224.76917 225.66046 226.30424 226.53110 226.06273 225.79262
 225.75589 227.34682 231.38963 236.07260 240.85280 245.35608 249.45795 253.17743
 256.52304 259.58853 262.41327 264.93893 267.19476 269.20499 270.94077 272.50543
 273.99026 275.37576 276.67410 278.01929 279.23032 280.32800 281.35245 282.31061
 283.18997 283.97305 284.65710 285.52890
 366.78100 356.34070 345.77841 334.65011 323.05881 311.25852 299.13422 286.94292
 274.66063 262.56333 250.57803 239.88473 230.01244 221.12214 213.30984 206.31755
 200.15725 195.10095 191.68866 189.73636 188.77906 188.84877 189.68947 191.00317
 192.73388 194.83458 197.10328 199.46799 201.91869 204.40439 206.49810 208.34580
 209.97750 211.12820 211.36291 211.59661 211.53931 211.25002 210.88872 210.52442
 210.14713 209.86283 209.67653 209.54624 209.47994 209.81664 210.20835 210.60305
 211.40175 212.58546 213.84116 215.62986 217.56357 219.61227 221.71297 223.80167
 225.86738 227.95708 230.05978 232.17149 234.30619 236.48389 238.74560 241.12130
 243.74800 246.00471 248.01241 249.78311 251.20582 252.33452 253.16222 253.48393
 253.52663 253.30633 252.67204 251.62574 250.23744 248.40414 246.31885 244.15755
 241.95425 239.76396 237.58966 235.43436 233.30007 231.17277 229.20447 227.36718
 225.65588 224.13358 222.76929 221.54699 220.43469 219.40040 218.51010 217.65680
 216.90450 216.09021 215.19391 214.56361 214.01932 214.92439 217.09714 219.61530
 221.65700 223.33177 224.69276 225.60690 226.24084 226.41986 225.92561 225.86922
 225.71297 227.31688 231.48552 236.12090 240.86575 245.37283 249.49352 253.23035
 256.60318 259.67471 262.45663 264.91925 267.14590 269.16473 270.90250 272.46515
 273.94693 275.32843 276.74936 278.12503 279.35168 280.46432 281.53958 282.58725
 283.52951 284.36859 285.10159 286.03574
 366.78100 356.33999 345.77698 334.64797 323.05596 311.25495 299.12994 286.93793
 274.65492 262.55691 250.57090 239.87689 230.00389 221.11288 213.29987 206.30686
 200.14585 195.08884 191.67583 189.72282 188.76481 188.83380 189.67379 190.98678
 192.71677 194.81676 197.08475 199.44874 201.89873 204.38372 206.47671 208.32370
 209.95469 211.10468 211.33867 211.57167 211.51366 211.22365 210.86164 210.49663
 210.11862 209.83361 209.64660 209.51559 209.44858 209.78457 210.17556 210.56955
 211.36754 212.55053 213.80552 215.59351 217.52650 219.57449 221.67448 223.76247
 225.82746 227.91645 230.01845 232.12944 234.26343 236.44042 238.70141 241.07640
 243.70239 245.95838 247.96537 249.73536 251.15735 252.28534 253.11233 253.43332
 253.47531 253.25430 252.61929 251.57228 250.18327 248.34926 246.26325 244.10124
 241.89724 239.70623 237.53122 235.37521 233.24020 231.11219 229.14318 227.30517
 225.59316 224.07015 222.70514 221.48213 220.36912 219.33411 218.44310 217.58909
 216.83608 216.02107 215.12406 214.49305 213.94804 214.89973 217.19249 219.56798
 221.61809 223.38417 224.77104 225.62369 226.05562 226.20183 225.88338 225.88104
 225.72685 227.63562 231.56735 236.17119 240.89119 245.39656 249.53885 253.29543
 256.68866 259.76901 262.54007 264.94574 267.12369 269.12100 270.87781 272.42981
 273.90662 275.31061 276.84546 278.23898 279.49783 280.70676 281.85611 282.89731
 283.83377 284.66769 285.39621 286.32458
 366.78100 356.34024 345.77747 334.64871 323.05695 311.25619 299.13142 286.93966
 274.65690 262.55913 250.57337 239.87961 230.00684 221.11608 213.30332 206.31056
 200.14979 195.09303 191.68027 189.72750 188.76974 188.83898 189.67921 190.99245
 192.72269 194.82293 197.09116 199.45540 201.90564 204.39087 206.48411 208.33135
 209.96258 211.11282 211.34706 211.58030 211.52253 211.23277 210.87101 210.50624
 210.12848 209.84372 209.65695 209.52619 209.45943 209.79567 210.18690 210.58114
 211.37938 212.56261 213.81785 215.60609 217.53933 219.58756 221.68780 223.77604
 225.84127 227.93051 230.03275 232.14398 234.27822 236.45546 238.71670 241.09193
 243.71817 245.97441 247.98164 249.75188 251.17412 252.30235 253.12959 253.45083
 253.49307 253.27230 252.63754 251.59078 250.20201 248.36825 246.28249 244.12072
 241.91696 239.72620 237.55144 235.39567 233.26091 231.13315 229.16438 227.32662
 225.61486 224.09209 222.72733 221.50457 220.39181 219.35704 218.46628 217.61252
 216.85975 216.04499 215.14823 214.51747 213.97270 214.91768 217.19717 219.59834
 221.54927 223.37465 224.79866 225.57140 225.85533 225.91624 225.89685 225.68010
 225.71614 227.83246 231.65794 236.22324 240.93593 245.45110 249.60880 253.38013
 256.78091 259.84222 262.58310 264.95920 267.10828 269.11865 270.89999 272.45279
 273.91849 275.32678 276.88730 278.28223 279.53891 280.71735 281.81442 282.80832
 283.70224 284.49826 285.19363 286.07983
 366.78100 356.34160 345.78019 334.65279 323.06239 311.26299 299.13958 286.94918
 274.66778 262.57137 250.58697 239.89457 230.02316 221.13376 213.32236 206.33096
 200.17155 195.11615 191.70475 189.75334 188.79694 188.86754 189.70913 191.02373
 192.75533 194.85693 197.12652 199.49212 201.94372 204.43031 206.52491 208.37351
 210.00611 211.15770 211.39330 211.62790 211.57149 211.28309 210.92269 210.55928
 210.18288 209.89948 209.71408 209.58467 209.51927 209.85687 210.24946 210.64506
 211.44466 212.62925 213.88585 215.67545 217.61005 219.65964 221.76124 223.85084
 225.91743 228.00803 230.11163 232.22423 234.35982 236.53842 238.80102 241.17761
 243.80521 246.06281 248.07140 249.84300 251.26660 252.39620 253.22479 253.54739
 253.59099 253.37158 252.73818 251.69278 250.30537 248.47297 246.38857 244.22817
 242.02576 239.83636 237.66296 235.50855 233.37515 231.24875 229.28135 227.44494
 225.73454 224.21314 222.84973 221.62833 220.51693 219.48352 218.59412 217.74172
 216.99032 216.17691 215.28151 214.65211 214.10870 214.98788 217.11140 219.68697
 221.50813 223.20547 224.71541 225.50034 225.72980 225.66658 225.77023 225.45439
 225.71875 227.91290 231.78433 236.29832 240.99966 245.52084 249.68831 253.47807
 256.88736 259.92709 262.61133 264.94958 267.06509 269.07547 270.87393 272.45370
 273.91846 275.36865 276.86597 278.25116 279.48468 280.61346 281.67789 282.64978
 283.52390 284.30231 284.98233 285.84891
 366.78100 356.34193 345.78086 334.65379 323.06372 311.26465 299.14158 286.95150
 274.67043 262.57436 250.59029 239.89822 230.02715 221.13808 213.32701 206.33594
 200.17687 195.12180 191.71073 189.75966 188.80358 188.87451 189.71644 191.03137
 192.76330 194.86523 197.13516 199.50109 201.95302 204.43995 206.53488 208.38381
 210.01674 211.16866 211.40459 211.63952 211.58345 211.29538 210.93531 210.57224
 210.19617 209.91310 209.72803 209.59896 209.53389 209.87181 210.26474 210.66067
 211.46060 212.64553 213.90246 215.69239 217.62732 219.67725 221.77918 223.86911
 225.93604 228.02697 230.13089 232.24382 234.37975 236.55868 238.82161 241.19854
 243.82647 246.08440 248.09333 249.86526 251.28919 252.41912 253.24805 253.57097
 253.61490 253.39583 252.76276 251.71769 250.33062 248.49855 246.41448 244.25441
 242.05234 239.86327 237.69020 235.53613 233.40305 231.27698 229.30991 227.47384
 225.76377 224.24270 222.87963 221.65856 220.54749 219.51442 218.62535 217.77328
 217.02221 216.20913 215.31406 214.68499 214.14192 215.01059 217.09471 219.68202
 221.58432 223.22363 224.61836 225.34335 225.60411 225.50606 225.50124 225.34373
 225.85910 227.97565 231.90062 236.40842 241.10173 245.61533 249.77411 253.57474
 256.99341 260.02130 262.66125 264.95563 267.04715 269.03531 270.83176 272.42593
 273.90967 275.32361 276.81311 278.18719 279.40869 280.51553 281.52496 282.48032
 283.33954 284.10471 284.77313 285.62494
 366.78100 356.34094 345.77888 334.65082 323.05976 311.25970 299.13564 286.94458
 274.66252 262.56546 250.58040 239.88734 230.01529 221.12523 213.31317 206.32111
 200.16105 195.10499 191.69293 189.74087 188.78381 188.85375 189.69469 191.00863
 192.73957 194.84051 197.10945 199.47439 201.92533 204.41127 206.50521 208.35315
 209.98509 211.13603 211.37098 211.60492 211.54786 211.25880 210.89774 210.53368
 210.15662 209.87256 209.68650 209.55644 209.49038 209.82732 210.21926 210.61420
 211.41314 212.59708 213.85302 215.64196 217.57590 219.62484 221.72578 223.81472
 225.88067 227.97061 230.07355 232.18549 234.32043 236.49837 238.76031 241.13625
 243.76319 246.02013 248.02807 249.79901 251.22195 252.35089 253.17883 253.50077
 253.54371 253.32365 252.68959 251.64353 250.25547 248.42241 246.33736 244.17630
 241.97324 239.78318 237.60912 235.45406 233.32000 231.19294 229.22488 227.38782
 225.67676 224.15470 222.79064 221.56858 220.45652 219.42246 218.53240 217.67934
 216.92728 216.11322 215.21716 214.58710 214.04305 214.96890 217.17662 219.58218
 221.65613 223.29404 224.44550 225.21683 225.51790 225.32692 225.22385 225.21858
 225.96600 228.12228 232.00720 236.53180 241.22856 245.73080 249.86983 253.66759
 257.08765 260.10156 262.72144 264.99429 267.05862 269.02185 270.79807 272.39987
 273.90012 275.29816 276.73682 278.10818 279.32169 280.41956 281.41727 282.36343
 283.21948 283.98178 284.64771 285.49634
 366.78100 356.34088 345.77876 334.65065 323.05953 311.25941 299.13529 286.94418
 274.66206 262.56494 250.57982 239.88671 230.01459 221.12447 213.31235 206.32024
 200.16012 195.10400 191.69188 189.73977 188.78265 188.85253 189.69341 191.00730
 192.73818 194.83906 197.10794 199.47283 201.92371 204.40959 206.50347 208.35136
 209.98324 211.13412 211.36900 211.60289 211.54577 211.25665 210.89553 210.53142
 210.15430 209.87018 209.68406 209.55395 209.48783 209.82471 210.21659 210.61148
 211.41036 212.59424 213.85012 215.63901 217.57289 219.62177 221.72265 223.81154
 225.87742 227.96730 230.07018 232.18207 234.31695 236.49483 238.75671 241.13260
 243.75948 246.01636 248.02424 249.79513 251.21801 252.34689 253.17477 253.49666
 253.53954 253.31942 252.68530 251.63919 250.25107 248.41795 246.33283 244.17171
 241.96860 239.77848 237.60436 235.44924 233.31513 231.18801 229.21989 227.38277
 225.67166 224.14954 222.78542 221.56330 220.45119 219.41707 218.52695 217.67383
 216.92172 216.10760 215.21148 214.58136 214.03725 214.97469 217.21904 219.55620
 221.61333 223.16801 224.36374 225.20840 225.39642 225.11469 224.95300 225.00693
 226.03371 228.27672 232.15511 236.67784 241.36273 245.84680 249.97496 253.76170
 257.16968 260.16452 262.77505 265.04263 267.10175 269.04636 270.79230 272.37646
 273.87354 275.28781 276.72089 278.09656 279.32233 280.44272 281.49768 282.45990
 283.32532 284.09598 284.76923 285.62717
 366.78100 356.34122 345.77944 334.65167 323.06089 311.26111 299.13733 286.94656
 274.66478 262.56800 250.58322 239.89045 230.01867 221.12889 213.31711 206.32533
 200.16556 195.10978 191.69800 189.74622 188.78945 188.85967 189.70089 191.01511
 192.74633 194.84756 197.11678 199.48200 201.93322 204.41945 206.51367 208.36189
 209.99411 211.14534 211.38056 211.61478 211.55800 211.26922 210.90845 210.54467
 210.16789 209.88411 209.69834 209.56856 209.50278 209.84000 210.23222 210.62745
 211.42667 212.61089 213.86711 215.65634 217.59056 219.63978 221.74100 223.83023
 225.89645 227.98667 230.08989 232.20211 234.33734 236.51556 238.77778 241.15400
 243.78123 246.03845 248.04667 249.81789 251.24112 252.37034 253.19856 253.52078
 253.56400 253.34423 252.71045 251.66467 250.27689 248.44412 246.35934 244.19856
 241.99578 239.80600 237.63223 235.47745 233.34367 231.21689 229.24912 227.41234
 225.70156 224.17978 222.81601 221.59423 220.48245 219.44867 218.55889 217.70612
 216.95434 216.14056 215.24478 214.61501 214.07123 214.99893 217.23019 219.56525
 221.57559 223.20399 224.44435 225.10303 225.16367 224.92134 224.70483 224.87149
 226.09357 228.46019 232.31906 236.83641 241.50494 245.97063 250.09242 253.87100
 257.26053 260.22836 262.81564 265.07755 267.16440 269.11960 270.85526 272.40662
 273.89178 275.26550 276.74799 278.12973 279.37283 280.53290 281.62784 282.61975
 283.51190 284.30634 285.00034 285.88480
 366.78100 356.34171 345.78041 334.65312 323.06282 311.26353 299.14024 286.94994
 274.66865 262.57236 250.58806 239.89577 230.02447 221.13518 213.32389 206.33259
 200.17330 195.11800 191.70671 189.75542 188.79912 188.86983 189.71154 191.02624
 192.75795 194.85965 197.12936 199.49507 201.94677 204.43348 206.52818 208.37689
 210.00960 211.16130 211.39701 211.63171 211.57542 211.28713 210.92683 210.56354
 210.18725 209.90395 209.71866 209.58936 209.52407 209.86178 210.25448 210.65019
 211.44989 212.63460 213.89131 215.68101 217.61572 219.66543 221.76713 223.85684
 225.92354 228.01425 230.11796 232.23066 234.36637 236.54507 238.80778 241.18449
 243.81219 246.06990 248.07861 249.85031 251.27402 252.40372 253.23243 253.55514
 253.59884 253.37955 252.74625 251.70096 250.31367 248.48137 246.39708 244.23678
 242.03449 239.84520 237.67190 235.51761 233.38432 231.25802 229.29073 227.45443
 225.74414 224.22285 222.85955 221.63826 220.52696 219.49367 218.60438 217.75208
 217.00079 216.18750 215.29220 214.66291 214.11961 215.02751 217.21707 219.59521
 221.52325 223.18660 224.44542 224.95416 224.97702 224.71040 224.44211 224.72350
 226.07216 228.59866 232.49138 237.01175 241.66269 246.10109 250.20256 253.97427
 257.34964 260.29691 262.86243 265.11591 267.21527 269.19406 270.93237 272.46472
 273.92557 275.28098 276.76556 278.14682 279.39035 280.55444 281.65198 282.64624
 283.54050 284.33682 285.03247 285.91901
 366.78100 356.34290 345.78280 334.65671 323.06761 311.26951 299.14741 286.95832
 274.67822 262.58312 250.60002 239.90893 230.03883 221.15073 213.34063 206.35053
 200.19244 195.13834 191.72824 189.77814 188.82305 188.89495 189.73785 191.05375
 192.78665 194.88956 197.16046 199.52736 201.98026 204.46817 206.56407 208.41397
 210.04787 211.20078 211.43768 211.67358 211.61848 211.33138 210.97229 210.61019
 210.23509 209.95299 209.76890 209.64080 209.57670 209.91560 210.30950 210.70641
 211.50731 212.69321 213.95111 215.74202 217.67792 219.72882 221.83172 223.92263
 225.99053 228.08243 230.18733 232.30123 234.43814 236.61804 238.88194 241.25984
 243.88875 246.14765 248.15755 249.93045 251.35535 252.48626 253.31616 253.64006
 253.68496 253.46687 252.83477 251.79067 250.40457 248.57348 246.49038 244.33128
 242.13018 239.94208 237.76999 235.61689 233.48479 231.35969 229.39360 227.55850
 225.84940 224.32930 222.96720 221.74711 220.63701 219.60491 218.71681 217.86572
 217.11562 216.30352 215.40942 214.78133 214.23923 215.08986 217.15279 219.67293
 221.47261 223.11353 224.36450 224.78860 224.92535 224.45244 224.16843 224.51413
 226.05043 228.70461 232.66470 237.20448 241.84114 246.24925 250.31612 254.07190
 257.43652 260.37115 262.92453 265.17276 267.25629 269.23047 270.96863 272.50262
 273.94455 275.31396 276.80283 278.18820 279.42505 280.57050 281.66470 282.65601
 283.54755 284.34149 285.03506 285.91891
 366.78100 356.34368 345.78436 334.65904 323.07072 311.27340 299.15209 286.96377
 274.68445 262.59013 250.60781 239.91749 230.04817 221.16085 213.35153 206.36221
 200.20489 195.15158 191.74226 189.79294 188.83862 188.91130 189.75498 191.07166
 192.80534 194.90902 197.18070 199.54839 202.00207 204.49075 206.58743 208.43811
 210.07279 211.22647 211.46415 211.70083 211.64651 211.36019 211.00188 210.64056
 210.26624 209.98492 209.80160 209.67428 209.61096 209.95064 210.34532 210.74300
 211.54468 212.73137 213.99005 215.78173 217.71841 219.77009 221.87377 223.96545
 226.03413 228.12681 230.23249 232.34717 234.48486 236.66554 238.93022 241.30890
 243.93858 246.19826 248.20894 249.98262 251.40830 252.53998 253.37067 253.69535
 253.74103 253.52371 252.89239 251.84907 250.46375 248.63343 246.55111 244.39279
 242.19247 240.00516 237.83384 235.68152 233.55020 231.42588 229.46056 227.62624
 225.91792 224.39860 223.03728 221.81796 220.70865 219.67733 218.79001 217.93969
 217.19037 216.37905 215.48573 214.85841 214.31709 215.13205 217.10551 219.71066
 221.51607 222.93655 224.17218 224.76147 224.82225 224.16371 223.92851 224.11066
 226.08359 228.81487 232.85098 237.42200 242.03888 246.42310 250.45076 254.17442
 257.51791 260.42859 262.99014 265.28864 267.36502 269.26065 270.93472 272.44946
 273.88199 275.30576 276.78775 278.16748 279.39148 280.51166 281.57239 282.54138
 283.41287 284.18896 284.86691 285.73090
 366.78100 356.34338 345.78376 334.65815 323.06953 311.27191 299.15029 286.96167
 274.68205 262.58744 250.60482 239.91420 230.04458 221.15696 213.34734 206.35773
 200.20011 195.14649 191.73687 189.78725 188.83263 188.90502 189.74840 191.06478
 192.79816 194.90154 197.17292 199.54031 201.99369 204.48207 206.57845 208.42883
 210.06321 211.21660 211.45398 211.69036 211.63574 211.34912 210.99050 210.62889
 210.25427 209.97265 209.78903 209.66141 209.59779 209.93718 210.33156 210.72894
 211.53032 212.71670 213.97509 215.76647 217.70285 219.75423 221.85761 223.94899
 226.01738 228.10976 230.21514 232.32952 234.46690 236.64728 238.91167 241.29005
 243.91943 246.17881 248.18919 249.96257 251.38796 252.51934 253.34972 253.67410
 253.71948 253.50186 252.87025 251.82663 250.44101 248.61039 246.52777 244.36915
 242.16854 239.98092 237.80930 235.65668 233.52506 231.40044 229.43483 227.60021
 225.89159 224.37197 223.01035 221.79074 220.68112 219.64950 218.76188 217.91126
 217.16164 216.35003 215.45641 214.82879 214.28717 215.13060 217.18648 219.61220
 221.62680 222.96336 224.19104 224.74605 224.51888 223.88907 223.73943 224.19327
 225.96680 228.99861 233.10976 237.65054 242.23056 246.58165 250.57224 254.28220
 257.60388 260.48752 263.04633 265.41864 267.55734 269.40170 270.94556 272.34048
 273.71664 275.20544 276.76529 278.17175 279.44800 280.66608 281.78790 282.80420
 283.71826 284.53223 285.24329 286.14948
 366.78100 356.34250 345.78201 334.65551 323.06601 311.26752 299.14502 286.95552
 274.67503 262.57953 250.59603 239.90454 230.03404 221.14554 213.33505 206.34455
 200.18605 195.13156 191.72106 189.77056 188.81507 188.88657 189.72907 191.04458
 192.77708 194.87959 197.15009 199.51659 201.96910 204.45660 206.55210 208.40161
 210.03511 211.18761 211.42412 211.65962 211.60412 211.31663 210.95713 210.59463
 210.21914 209.93664 209.75214 209.62365 209.55915 209.89765 210.29116 210.68766
 211.48816 212.67367 213.93117 215.72167 217.65718 219.70768 221.81018 223.90069
 225.96819 228.05969 230.16420 232.27770 234.41420 236.59371 238.85721 241.23471
 243.86322 246.12172 248.13122 249.90373 251.32823 252.45874 253.28824 253.61174
 253.65625 253.43775 252.80525 251.76076 250.37426 248.54276 246.45927 244.29977
 242.09827 239.90978 237.73728 235.58378 233.45129 231.32579 229.35929 227.52380
 225.81430 224.29380 222.93131 221.71081 220.60031 219.56782 218.67932 217.82782
 217.07733 216.26483 215.37033 214.74184 214.19934 215.10693 217.31339 219.51349
 221.65611 223.17023 224.30412 224.55923 224.21266 223.66350 223.49284 224.22105
 225.90808 229.15259 233.36057 237.90045 242.45512 246.76271 250.69185 254.38234
 257.67191 260.53076 263.10129 265.53546 267.78351 269.67471 271.14352 272.38861
 273.71533 275.35358 276.97928 278.60623 280.09378 281.40988 282.61060 283.69839
 284.67676 285.54797 286.30905 287.27896
 366.78100 356.34290 345.78279 334.65669 323.06758 311.26948 299.14738 286.95827
 274.67817 262.58306 250.59996 239.90885 230.03875 221.15065 213.34054 206.35044
 200.19233 195.13823 191.72813 189.77802 188.82292 188.89481 189.73771 191.05360
 192.78650 194.88940 197.16029 199.52719 201.98008 204.46798 206.56388 208.41377
 210.04767 211.20056 211.43746 211.67336 211.61825 211.33115 210.97204 210.60994
 210.23483 209.95273 209.76863 209.64052 209.57642 209.91531 210.30921 210.70611
 211.50700 212.69290 213.95079 215.74169 217.67758 219.72848 221.83138 223.92227
 225.99017 228.08206 230.18696 232.30086 234.43775 236.61765 238.88154 241.25944
 243.88834 246.14723 248.15713 249.93002 251.35492 252.48581 253.31571 253.63961
 253.68450 253.46640 252.83429 251.79019 250.40409 248.57298 246.48988 244.33077
 242.12967 239.94157 237.76946 235.61636 233.48425 231.35915 229.39304 227.55794
 225.84884 224.32873 222.96663 221.74652 220.63642 219.60432 218.71621 217.86511
 217.11500 216.30290 215.40879 214.78069 214.23859 215.13655 217.33263 219.51723
 221.59700 223.27998 224.26811 224.37170 224.04431 223.43092 223.29860 224.03615
 225.78804 229.20628 233.54279 238.11911 242.67136 246.93018 250.84119 254.49658
 257.76358 260.60645 263.15976 265.62241 267.96429 270.03644 271.56009 272.71729
 273.88672 275.64908 277.41165 279.15207 280.65826 281.99088 283.20667 284.30807
 285.29871 286.18085 286.95148 287.93353
 366.78100 356.34400 345.78500 334.66000 323.07200 311.27500 299.15399 286.96599
 274.68699 262.59299 250.61099 239.92099 230.05199 221.16499 213.35599 206.36699
 200.20999 195.15698 191.74798 189.79898 188.84498 188.91798 189.76198 191.07898
 192.81298 194.91698 197.18898 199.55698 202.01097 204.49997 206.59697 208.44797
 210.08297 211.23697 211.47497 211.71197 211.65797 211.37197 211.01396 210.65296
 210.27896 209.99796 209.81496 209.68796 209.62496 209.96496 210.35996 210.75796
 211.55996 212.74695 214.00595 215.79795 217.73495 219.78695 221.89095 223.98295
 226.05195 228.14495 230.25095 232.36595 234.50394 236.68494 238.94994 241.32894
 243.95894 246.21894 248.22994 250.00394 251.42994 252.56194 253.39294 253.71793
 253.76393 253.54693 252.91593 251.87293 250.48793 248.65793 246.57593 244.41793
 242.21793 240.03093 237.85992 235.70792 233.57692 231.45292 229.48792 227.65392
 225.94592 224.42692 223.06592 221.84692 220.73791 219.70691 218.81991 217.96991
 217.22091 216.40991 215.51691 214.88991 214.34891 215.19093 217.28218 219.57260
 221.49323 223.27397 224.19673 224.16429 223.86234 223.28989 223.01015 223.84970
 225.71243 229.28345 233.71968 238.32193 242.85982 247.10660 250.98468 254.62491
 257.87772 260.71030 263.27231 265.71738 268.03976 270.15549 271.87009 273.11215
 274.07507 275.88223 277.55020 279.19763 280.63800 281.91235 283.07501 284.12830
 285.07562 285.91919 286.65613 287.59528
 366.78100 356.34416 345.78533 334.66049 323.07266 311.27582 299.15499 286.96715
 274.68832 262.59448 250.61265 239.92281 230.05398 221.16714 213.35831 206.36947
 200.21264 195.15980 191.75097 189.80213 188.84830 188.92146 189.76563 191.08279
 192.81696 194.92112 197.19329 199.56145 202.01562 204.50478 206.60195 208.45311
 210.08828 211.24244 211.48061 211.71777 211.66394 211.37810 211.02027 210.65943
 210.28560 210.00476 209.82193 209.69509 209.63226 209.97242 210.36759 210.76575
 211.56792 212.75508 214.01425 215.80641 217.74358 219.79574 221.89991 223.99207
 226.06124 228.15440 230.26057 232.37573 234.51390 236.69506 238.96023 241.33939
 243.96956 246.22972 248.24089 250.01505 251.44122 252.57338 253.40455 253.72971
 253.77588 253.55904 252.92821 251.88537 250.50054 248.67070 246.58887 244.43103
 242.23120 240.04436 237.87352 235.72169 233.59085 231.46702 229.50218 227.66835
 225.96051 224.44168 223.08084 221.86201 220.75317 219.72234 218.83550 217.98567
 217.23683 216.42600 215.53316 214.90633 214.36549 215.19568 217.23842 219.62563
 221.39139 223.10269 224.10162 223.97502 223.61880 223.06879 222.71582 223.67203
 225.65121 229.38409 233.90611 238.52081 243.02112 247.24156 251.12422 254.76727
 258.02347 260.83960 263.42657 265.89185 268.20566 270.21436 271.79938 273.13245
 274.37778 275.86108 277.43561 278.87210 280.22125 281.44897 282.56906 283.58380
 284.49643 285.30914 286.01910 286.92386
 366.78100 356.34404 345.78509 334.66013 323.07218 311.27522 299.15427 286.96631
 274.68736 262.59340 250.61145 239.92149 230.05254 221.16558 213.35663 206.36767
 200.21072 195.15776 191.74880 189.79985 188.84589 188.91894 189.76298 191.08003
 192.81407 194.91812 197.19016 199.55821 202.01225 204.50130 206.59834 208.44939
 210.08443 211.23848 211.47652 211.71356 211.65961 211.37365 211.01570 210.65474
 210.28079 209.99983 209.81688 209.68992 209.62697 209.96701 210.36206 210.76010
 211.56215 212.74919 214.00823 215.80028 217.73732 219.78937 221.89341 223.98546
 226.05450 228.14755 230.25359 232.36864 234.50668 236.68773 238.95277 241.33182
 243.96186 246.22191 248.23295 250.00699 251.43304 252.56508 253.39613 253.72117
 253.76722 253.55026 252.91931 251.87635 250.49140 248.66144 246.57949 244.42153
 242.22158 240.03462 237.86367 235.71171 233.58075 231.45680 229.49184 227.65789
 225.94993 224.43098 223.07002 221.85107 220.74211 219.71116 218.82420 217.97425
 217.22529 216.41434 215.52138 214.89443 214.35347 215.18723 217.20164 219.67529
 221.37593 222.74805 223.95871 223.91135 223.38947 222.64934 222.38512 223.45673
 225.54199 229.49844 234.12987 238.72495 243.20244 247.40541 251.26640 254.87212
 258.10199 260.94110 263.54584 266.04211 268.39526 270.43939 271.99881 273.17712
 274.26978 275.59088 277.06122 278.43311 279.64850 280.76566 281.82339 282.78589
 283.65155 284.42242 285.09583 285.95404
 366.78100 356.34384 345.78469 334.65953 323.07137 311.27422 299.15306 286.96490
 274.68575 262.59159 250.60943 239.91927 230.05012 221.16296 213.35380 206.36465
 200.20749 195.15433 191.74518 189.79602 188.84186 188.91471 189.75855 191.07539
 192.80924 194.91308 197.18492 199.55276 202.00661 204.49545 206.59229 208.44314
 210.07798 211.23182 211.46967 211.70651 211.65235 211.36620 211.00804 210.64688
 210.27273 209.99157 209.80841 209.68125 209.61810 209.95794 210.35278 210.75063
 211.55247 212.73931 213.99816 215.79000 217.72684 219.77869 221.88253 223.97437
 226.04322 228.13606 230.24190 232.35674 234.49459 236.67543 238.94027 241.31912
 243.94896 246.20880 248.21965 249.99349 251.41933 252.55118 253.38202 253.70686
 253.75271 253.53555 252.90439 251.86123 250.47608 248.64592 246.56376 244.40561
 242.20545 240.01829 237.84714 235.69498 233.56382 231.43967 229.47451 227.64035
 225.93220 224.41304 223.05188 221.83272 220.72357 219.69241 218.80525 217.95510
 217.20594 216.39478 215.50163 214.87447 214.33331 215.17963 217.19588 219.66872
 221.50604 222.73410 223.83051 223.79407 223.13440 222.32027 222.11446 223.36771
 225.56570 229.62230 234.35089 238.92589 243.39293 247.58281 251.40897 254.99936
 258.22739 261.06393 263.68979 266.19748 268.54544 270.60239 272.21637 273.42673
 274.50430 275.60025 276.72760 277.87012 279.04480 280.11200 281.10092 282.02322
 282.86868 283.62158 284.27933 285.11749
 366.78100 356.34323 345.78347 334.65770 323.06894 311.27117 299.14941 286.96064
 274.68088 262.58611 250.60335 239.91258 230.04282 221.15505 213.34528 206.35552
 200.19775 195.14399 191.73422 189.78446 188.82969 188.90193 189.74516 191.06140
 192.79463 194.89787 197.16910 199.53633 201.98957 204.47780 206.57404 208.42427
 210.05851 211.21174 211.44898 211.68521 211.63045 211.34368 210.98492 210.62315
 210.24838 209.96662 209.78285 209.65509 209.59132 209.93056 210.32479 210.72203
 211.52326 212.70950 213.96773 215.75897 217.69520 219.74643 221.84967 223.94090
 226.00914 228.10137 230.20661 232.32084 234.45808 236.63831 238.90255 241.28078
 243.91002 246.16925 248.17948 249.95272 251.37795 252.50919 253.33942 253.66366
 253.70889 253.49113 252.85936 251.81560 250.42983 248.59906 246.51630 244.35753
 242.15677 239.96900 237.79724 235.64447 233.51271 231.38794 229.42218 227.58741
 225.87865 224.35888 222.99711 221.77735 220.66758 219.63582 218.74805 217.89729
 217.14752 216.33576 215.44199 214.81423 214.27246 215.15215 217.23051 219.61249
 221.59477 222.83072 223.72679 223.60353 222.86801 222.05258 221.91010 223.25735
 225.68784 229.78401 234.53952 239.13510 243.56813 247.74928 251.55237 255.15538
 258.38037 261.21329 263.84671 266.35690 268.69571 270.72229 272.33350 273.56790
 274.63852 275.71808 276.76627 277.79858 278.79340 279.70401 280.47226 281.29688
 282.11465 282.89230 283.57169 284.43744
 366.78100 356.34291 345.78281 334.65672 323.06763 311.26954 299.14744 286.95835
 274.67826 262.58317 250.60007 239.90898 230.03889 221.15080 213.34070 206.35061
 200.19252 195.13843 191.72833 189.77824 188.82315 188.89506 189.73796 191.05387
 192.78678 194.88969 197.16059 199.52750 201.98041 204.46832 206.56422 208.41413
 210.04804 211.20095 211.43785 211.67376 211.61867 211.33158 210.97248 210.61039
 210.23530 209.95321 209.76911 209.64102 209.57693 209.91584 210.30974 210.70665
 211.50756 212.69347 213.95137 215.74228 217.67819 219.72910 221.83200 223.92291
 225.99082 228.08273 230.18763 232.30154 234.43845 236.61836 238.88226 241.26017
 243.88908 246.14798 248.15789 249.93080 251.35571 252.48661 253.31652 253.64043
 253.68534 253.46724 252.83515 251.79106 250.40497 248.57387 246.49078 244.33169
 242.13060 239.94250 237.77041 235.61732 233.48523 231.36013 229.39404 227.55895
 225.84986 224.32976 222.96767 221.74758 220.63749 219.60539 218.71730 217.86621
 217.11612 216.30402 215.40993 214.78184 214.23975 215.13881 217.26292 219.57701
 221.64363 222.90990 223.64046 223.41289 222.62569 221.77309 221.70079 223.13747
 225.74390 229.91739 234.69745 239.35374 243.75214 247.87022 251.67976 255.28867
 258.51172 261.36029 264.00000 266.52307 268.86597 270.90292 272.48990 273.68912
 274.74265 275.77884 276.80725 277.85983 278.82324 279.64294 280.35651 280.92258
 281.47025 282.13800 282.80255 283.65494
 366.78100 356.34287 345.78273 334.65660 323.06746 311.26933 299.14719 286.95806
 274.67792 262.58279 250.59965 239.90852 230.03838 221.15025 213.34011 206.34998
 200.19185 195.13771 191.72758 189.77744 188.82231 188.89417 189.73704 191.05290
 192.78577 194.88863 197.15950 199.52636 201.97923 204.46710 206.56296 208.41283
 210.04669 211.19956 211.43642 211.67229 211.61715 211.33002 210.97088 210.60875
 210.23361 209.95148 209.76734 209.63921 209.57508 209.91394 210.30781 210.70467
 211.50554 212.69140 213.94927 215.74013 217.67600 219.72686 221.82973 223.92059
 225.98846 228.08032 230.18519 232.29906 234.43592 236.61579 238.87965 241.25752
 243.88638 246.14525 248.15511 249.92798 251.35284 252.48371 253.31357 253.63744
 253.68230 253.46417 252.83204 251.78790 250.40177 248.57063 246.48750 244.32836
 242.12723 239.93909 237.76696 235.61382 233.48169 231.35655 229.39042 227.55529
 225.84615 224.32602 222.96388 221.74375 220.63361 219.60148 218.71334 217.86221
 217.11207 216.29994 215.40580 214.77767 214.23553 215.14116 217.28079 219.55415
 221.64909 222.94115 223.56723 223.25784 222.40685 221.45998 221.43373 223.02350
 225.77313 230.03943 234.84912 239.57190 243.96959 248.00850 251.80417 255.40720
 258.63364 261.50574 264.15744 266.68588 269.01044 271.02557 272.61145 273.80505
 274.85489 275.88553 276.87766 277.92914 278.87469 279.67429 280.34195 280.87509
 281.30154 281.86288 282.48209 283.31909
 366.78100 356.34313 345.78326 334.65739 323.06853 311.27066 299.14879 286.95992
 274.68005 262.58518 250.60232 239.91145 230.04158 221.15371 213.34384 206.35397
 200.19611 195.14224 191.73237 189.78250 188.82763 188.89976 189.74290 191.05903
 192.79216 194.89529 197.16642 199.53355 201.98669 204.47482 206.57095 208.42108
 210.05521 211.20834 211.44547 211.68161 211.62674 211.33987 210.98100 210.61913
 210.24426 209.96240 209.77853 209.65066 209.58679 209.92592 210.32005 210.71719
 211.51832 212.70445 213.96258 215.75371 217.68984 219.74098 221.84411 223.93524
 226.00337 228.09550 230.20063 232.31477 234.45190 236.63203 238.89616 241.27429
 243.90342 246.16255 248.17269 249.94582 251.37095 252.50208 253.33221 253.65634
 253.70148 253.48361 252.85174 251.80787 250.42200 248.59113 246.50827 244.34940
 242.14853 239.96066 237.78879 235.63592 233.50406 231.37919 229.41332 227.57845
 225.86958 224.34971 222.98785 221.76798 220.65811 219.62624 218.73837 217.88750
 217.13763 216.32577 215.43190 214.80403 214.26216 215.15973 217.28033 219.55157
 221.61110 222.93384 223.51765 223.13396 222.17885 221.13994 221.12898 222.89935
 225.81110 230.16071 235.00919 239.76477 244.20810 248.15550 251.91756 255.52832
 258.76202 261.64914 264.30899 266.83899 269.14685 271.14175 272.72739 273.94626
 274.99805 276.00882 277.01782 278.05179 278.96924 279.74518 280.39148 280.88559
 281.26022 281.89993 282.51163 283.33704
 366.78100 356.34381 345.78463 334.65944 323.07126 311.27407 299.15289 286.96470
 274.68552 262.59133 250.60915 239.91896 230.04978 221.16259 213.35341 206.36422
 200.20704 195.15385 191.74467 189.79548 188.84129 188.91411 189.75792 191.07474
 192.80855 194.91237 197.18418 199.55200 202.00581 204.49463 206.59144 208.44226
 210.07707 211.23089 211.46870 211.70552 211.65133 211.36515 211.00696 210.64578
 210.27159 209.99040 209.80722 209.68003 209.61685 209.95666 210.35148 210.74929
 211.55111 212.73792 213.99674 215.78855 217.72537 219.77718 221.88100 223.97281
 226.04163 228.13444 230.24026 232.35507 234.49288 236.67370 238.93851 241.31733
 243.94714 246.20696 248.21777 249.99159 251.41740 252.54922 253.38003 253.70485
 253.75066 253.53348 252.90229 251.85911 250.47392 248.64374 246.56155 244.40337
 242.20318 240.01599 237.84481 235.69262 233.56144 231.43725 229.47207 227.63788
 225.92970 224.41051 223.04933 221.83014 220.72096 219.68977 218.80259 217.95240
 217.20322 216.39203 215.49885 214.87166 214.33047 215.20004 217.25449 219.57611
 221.55835 222.89070 223.50717 223.03226 221.94321 220.80568 220.80618 222.78563
 225.86934 230.28900 235.17630 239.94591 244.40915 248.35663 252.01846 255.64235
 258.88861 261.78531 264.44891 266.97668 269.27383 271.24796 272.84659 274.09769
 275.16623 276.15921 277.17712 278.19138 279.09549 279.88373 280.57907 281.07361
 281.38724 282.03748 282.64865 283.46332
 366.78100 356.34434 345.78568 334.66102 323.07336 311.27669 299.15603 286.96837
 274.68971 262.59605 250.61439 239.92473 230.05607 221.16941 213.36074 206.37208
 200.21542 195.16276 191.75410 189.80544 188.85178 188.92512 189.76946 191.08679
 192.82113 194.92547 197.19781 199.56615 202.02049 204.50983 206.60717 208.45851
 210.09384 211.24818 211.48652 211.72386 211.67020 211.38454 211.02688 210.66622
 210.29256 210.01189 209.82923 209.70257 209.63991 209.98025 210.37559 210.77393
 211.57627 212.76361 214.02294 215.81528 217.75262 219.80496 221.90930 224.00164
 226.07098 228.16432 230.27066 232.38599 234.52433 236.70567 238.97101 241.35035
 243.98069 246.24103 248.25237 250.02671 251.45304 252.58538 253.41672 253.74206
 253.78840 253.57174 252.94108 251.89842 250.51376 248.68409 246.60243 244.44477
 242.24511 240.05845 237.88779 235.73613 233.60547 231.48181 229.51714 227.68348
 225.97582 224.45716 223.09650 221.87784 220.76918 219.73852 218.85186 218.00219
 217.25353 216.44287 215.55021 214.92355 214.38289 215.23320 217.24216 219.57768
 221.53754 222.82285 223.46053 223.00636 221.75827 220.44518 220.43484 222.71669
 225.95358 230.41060 235.34251 240.12949 244.58102 248.57211 252.16472 255.72984
 258.98520 261.91068 264.57846 267.10275 269.38531 271.34366 272.95319 274.22733
 275.32358 276.32578 277.34622 278.36307 279.24496 280.02914 280.78476 281.42047
 281.88416 282.37704 282.97781 283.76910
 366.78100 356.34440 345.78580 334.66119 323.07359 311.27699 299.15639 286.96879
 274.69018 262.59658 250.61498 239.92538 230.05678 221.17018 213.36157 206.37297
 200.21637 195.16377 191.75517 189.80656 188.85296 188.92636 189.77076 191.08816
 192.82255 194.92695 197.19935 199.56775 202.02215 204.51154 206.60894 208.46034
 210.09574 211.25014 211.48854 211.72593 211.67233 211.38673 211.02913 210.66853
 210.29492 210.01432 209.83172 209.70512 209.64252 209.98291 210.37831 210.77671
 211.57911 212.76651 214.02590 215.81830 217.75570 219.80810 221.91250 224.00490
 226.07429 228.16769 230.27409 232.38949 234.52789 236.70928 238.97468 241.35408
 243.98448 246.24488 248.25627 250.03067 251.45707 252.58947 253.42087 253.74626
 253.79266 253.57606 252.94546 251.90286 250.51825 248.68865 246.60705 244.44945
 242.24985 240.06325 237.89264 235.74104 233.61044 231.48684 229.52224 227.68863
 225.98103 224.46243 223.10183 221.88323 220.77462 219.74402 218.85742 218.00782
 217.25922 216.44861 215.55601 214.92941 214.38881 215.24196 217.25760 219.55159
 221.52934 222.79131 223.32758 222.95642 221.70955 220.00201 220.09624 222.68134
 226.00937 230.53175 235.51295 240.31160 244.75009 248.76439 252.34827 255.79103
 259.09033 262.00754 264.68744 267.18808 269.48123 271.45920 273.06561 274.38821
 275.51727 276.48938 277.52966 278.54559 279.42853 280.19250 280.91046 281.64136
 282.25232 282.66638 283.18921 283.96991
 366.78100 356.34455 345.78609 334.66164 323.07418 311.27773 299.15728 286.96982
 274.69137 262.59791 250.61646 239.92701 230.05855 221.17210 213.36364 206.37519
 200.21874 195.16628 191.75783 189.80937 188.85592 188.92946 189.77401 191.09156
 192.82610 194.93065 197.20319 199.57174 202.02629 204.51583 206.61338 208.46492
 210.10047 211.25502 211.49356 211.73111 211.67765 211.39220 211.03475 210.67429
 210.30084 210.02038 209.83793 209.71148 209.64902 209.98957 210.38511 210.78366
 211.58621 212.77375 214.03330 215.82584 217.76339 219.81594 221.92048 224.01303
 226.08257 228.17612 230.28267 232.39821 234.53676 236.71830 238.98385 241.36339
 243.99394 246.25449 248.26603 250.04058 251.46712 252.59967 253.43122 253.75676
 253.80331 253.58685 252.95640 251.91395 250.52949 248.70004 246.61858 244.46113
 242.26168 240.07522 237.90477 235.75331 233.62286 231.49941 229.53495 227.70150
 225.99404 224.47559 223.11514 221.89668 220.78823 219.75777 218.87132 218.02187
 217.27341 216.46296 215.57050 214.94405 214.40359 215.25388 217.26274 219.54022
 221.50040 222.78392 223.21175 222.78368 221.61095 219.74649 219.79305 222.52725
 226.04811 230.67572 235.67387 240.47726 244.89600 248.91090 252.54657 255.91223
 259.14508 262.10245 264.78351 267.29523 269.59183 271.58237 273.16608 274.54443
 275.69125 276.57990 277.63480 278.66605 279.57352 280.31180 280.99316 281.77682
 282.49524 283.16986 283.77734 284.58484
 366.78100 356.34484 345.78669 334.66253 323.07537 311.27922 299.15906 286.97191
 274.69375 262.60059 250.61944 239.93028 230.06212 221.17597 213.36781 206.37965
 200.22350 195.17134 191.76319 189.81503 188.86187 188.93572 189.78056 191.09840
 192.83325 194.93809 197.21093 199.57978 202.03462 204.52447 206.62231 208.47415
 210.11000 211.26484 211.50368 211.74153 211.68837 211.40322 211.04606 210.68590
 210.31275 210.03259 209.85043 209.72428 209.66212 210.00296 210.39881 210.79765
 211.60050 212.78834 214.04818 215.84103 217.77887 219.83171 221.93656 224.02940
 226.09924 228.19309 230.29993 232.41578 234.55462 236.73646 239.00231 241.38215
 244.01299 246.27384 248.28568 250.06052 251.48737 252.62021 253.45206 253.77790
 253.82474 253.60859 252.97843 251.93627 250.55212 248.72296 246.64180 244.48465
 242.28549 240.09934 237.92918 235.77802 233.64787 231.52471 229.56055 227.72740
 226.02024 224.50208 223.14193 221.92377 220.81562 219.78546 218.89930 218.05015
 217.30199 216.49183 215.59968 214.97352 214.43336 215.27191 217.25310 219.53668
 221.46815 222.76071 223.13808 222.59624 221.44388 219.54289 219.50955 222.36151
 226.08258 230.81229 235.82188 240.62987 245.04080 249.08684 252.76903 256.11548
 259.22525 262.14450 264.83740 267.36694 269.66852 271.65216 273.27606 274.66843
 275.76840 276.77728 277.84296 278.83334 279.74216 280.47913 281.07974 281.81638
 282.53958 283.19952 283.69455 284.27133
 366.78100 356.34504 345.78708 334.66311 323.07615 311.28019 299.16023 286.97327
 274.69531 262.60234 250.62138 239.93242 230.06446 221.17850 213.37053 206.38257
 200.22661 195.17465 191.76669 189.81873 188.86576 188.93980 189.78484 191.10288
 192.83792 194.94295 197.21599 199.58503 202.04007 204.53011 206.62815 208.48018
 210.11622 211.27126 211.51030 211.74834 211.69538 211.41041 211.05345 210.69349
 210.32053 210.04057 209.85860 209.73264 209.67068 210.01172 210.40776 210.80680
 211.60983 212.79787 214.05791 215.85095 217.78899 219.84202 221.94706 224.04010
 226.11014 228.20418 230.31122 232.42725 234.56629 236.74833 239.01437 241.39441
 244.02544 246.28648 248.29852 250.07356 251.50060 252.63364 253.46567 253.79171
 253.83875 253.62279 252.99283 251.95086 250.56690 248.73794 246.65698 244.50002
 242.30106 240.11509 237.94513 235.79417 233.66421 231.54125 229.57729 227.74432
 226.03736 224.51940 223.15944 221.94148 220.83351 219.80355 218.91759 218.06863
 217.32067 216.51071 215.61874 214.99278 214.45282 215.28574 217.25359 219.51935
 221.44164 222.74596 223.05974 222.41273 221.24188 219.33897 219.23592 222.20200
 226.12389 230.94516 235.95441 240.75983 245.16948 249.25157 253.01135 256.38043
 259.36215 262.22070 264.90897 267.43710 269.70859 271.65244 273.30969 274.70251
 275.80515 276.95508 278.04285 279.03043 279.83472 280.61261 281.27136 282.02600
 282.73773 283.40201 283.95587 284.60828
 366.78100 356.34512 345.78724 334.66336 323.07647 311.28059 299.16071 286.97383
 274.69595 262.60307 250.62219 239.93330 230.06542 221.17954 213.37166 206.38378
 200.22790 195.17602 191.76814 189.82025 188.86737 188.94149 189.78661 191.10473
 192.83985 194.94497 197.21808 199.58720 202.04232 204.53244 206.63056 208.48268
 210.11880 211.27391 211.51303 211.75115 211.69827 211.41339 211.05651 210.69663
 210.32374 210.04386 209.86198 209.73610 209.67422 210.01534 210.41146 210.81057
 211.61369 212.80181 214.06193 215.85505 217.79317 219.84629 221.95141 224.04452
 226.11464 228.20876 230.31588 232.43200 234.57112 236.75324 239.01935 241.39947
 244.03059 246.29171 248.30383 250.07895 251.50607 252.63918 253.47130 253.79742
 253.84454 253.62866 252.99878 251.95690 250.57301 248.74413 246.66325 244.50637
 242.30749 240.12161 237.95173 235.80084 233.67096 231.54808 229.58420 227.75132
 226.04444 224.52656 223.16668 221.94879 220.84091 219.81103 218.92515 218.07627
 217.32839 216.51851 215.62662 215.00074 214.46086 215.29176 217.25488 219.51077
 221.40176 222.73230 222.99760 222.23004 220.97916 219.08595 218.97604 222.08282
 226.18663 231.08076 236.08939 240.89886 245.31734 249.42940 253.24547 256.66364
 259.61185 262.35526 264.98935 267.52255 269.76221 271.64114 273.28226 274.65686
 275.74557 277.11813 278.23340 279.17038 279.98282 280.57779 281.27762 282.02914
 282.73032 283.37204 283.91873 284.52963
 366.78100 356.34525 345.78751 334.66376 323.07702 311.28127 299.16153 286.97478
 274.69704 262.60429 250.62355 239.93480 230.06705 221.18131 213.37356 206.38582
 200.23007 195.17833 191.77058 189.82284 188.87009 188.94435 189.78960 191.10786
 192.84311 194.94836 197.22162 199.59087 202.04613 204.53638 206.63464 208.48689
 210.12315 211.27840 211.51766 211.75591 211.70316 211.41842 211.06167 210.70193
 210.32918 210.04944 209.86769 209.74195 209.68020 210.02146 210.41771 210.81696
 211.62022 212.80847 214.06873 215.86198 217.80024 219.85349 221.95875 224.05200
 226.12226 228.21651 230.32376 232.44002 234.57927 236.76153 239.02778 241.40804
 244.03929 246.30055 248.31280 250.08806 251.51531 252.64857 253.48082 253.80707
 253.85433 253.63858 253.00884 251.96709 250.58335 248.75460 246.67386 244.51711
 242.31837 240.13262 237.96287 235.81213 233.68238 231.55964 229.59589 227.76315
 226.05640 224.53866 223.17891 221.96117 220.85342 219.82367 218.93793 218.08918
 217.34144 216.53169 215.63995 215.01420 214.47446 215.29893 217.24686 219.51311
 221.36174 222.69321 222.95859 222.05959 220.66583 218.77832 218.74782 222.00697
 226.27773 231.25012 236.26437 241.07611 245.49075 249.62285 253.45071 256.88159
 259.81772 262.47708 265.08942 267.49026 269.65146 271.53748 273.23779 274.69833
 275.86853 277.07135 278.22870 279.20615 279.96851 280.55460 281.23013 281.87558
 282.45428 282.98108 283.43356 283.98322
 354.97500 345.04800 334.58700 324.11500 313.32600 302.53700 291.65000 280.76700
 269.93100 259.19300 248.62200 238.61700 229.08700 220.35500 212.54000 205.53500
 199.46400 194.49300 191.14300 189.19000 188.08900 188.01400 188.72400 189.90600
 191.46900 193.38200 195.40300 197.55600 199.80700 202.06000 204.28800 206.47900
 208.55200 210.37800 212.02500 213.65900 214.99800 216.11800 217.17200 218.25900
 219.49400 220.64500 221.67900 222.61400 223.54500 224.98200 226.57100 228.19000
 229.79700 231.81100 233.86500 235.97200 238.24200 240.55300 242.89900 245.25300
 247.48800 249.53500 251.36600 252.84800 254.09800 255.16700 256.02700 256.25300
 256.09500 255.54300 253.93500 252.56600 251.38400 250.24500 249.05200 247.70100
 246.01600 243.99600 241.78400 239.39300 236.81300 234.22300 231.65800 229.14400
 226.74000 224.47300 222.33500 220.32500 218.44000 216.67700 214.96200 213.47200
 212.20000 211.10800 210.26000 209.63900 209.24400 209.03100 209.05800 209.33300
 209.78400 210.62600 211.33100 212.39100 213.62500 214.84668 217.72949 219.47640
 220.32566 220.86828 220.88710 220.27371 219.43733 218.84250 219.04934 220.86203
 222.60583 225.72206 229.03064 232.61777 236.12270 239.51333 242.70767 245.68587
 248.41061 250.90679 253.19353 254.91714 256.48655 257.94920 259.39966 260.69384
 261.81714 262.77997 263.71679 264.54570 265.26305 265.89772 266.47676 267.00133
 267.47312 267.89325 268.26027 268.72800
