|-------------------------------------------------------------------------|
|   File Name : in_temp.dat
|   Subject   : temperature profiles used for initial guess atmosphere
|   File Type : input of gmtr
|   Data Type : atmospherical data
|   Author/s  : WRF-Chem
|   Date      : Fri Jul 26 15:39:24 2024
|-------------------------------------------------------------------------|

 WRF-Chem temperature
#
 values of T (K)    (8f10.5)
#
 354.97500 345.04800 334.58700 324.11500 313.32600 302.53700 291.65000 280.76700
 269.93100 259.19300 248.62200 238.61700 229.08700 220.35500 212.54000 205.53500
 199.46400 194.49300 191.14300 189.19000 188.08900 188.01400 188.72400 189.90600
 191.46900 193.38200 195.40300 197.55600 199.80700 202.06000 204.28800 206.47900
 208.55200 210.37800 212.02500 213.65900 214.99800 216.11800 217.17200 218.25900
 219.49400 220.64500 221.67900 222.61400 223.54500 224.98200 226.57100 228.19000
 229.79700 231.81100 233.86500 235.97200 238.24200 240.55300 242.89900 245.25300
 247.48800 249.53500 251.36600 252.84800 254.09800 255.16700 256.02700 256.25300
 256.09500 255.54300 253.93500 252.56600 251.38400 250.24500 249.05200 247.70100
 246.01600 243.99600 241.78400 239.39300 236.81300 234.22300 231.65800 229.14400
 226.74000 224.47300 222.33500 220.32500 218.44000 216.67700 214.96200 213.47200
 212.20000 211.10800 210.26000 209.63900 209.24400 209.03100 209.05800 209.33300
 209.78400 210.62600 211.33100 212.39100 213.62500 214.84668 217.72949 219.47640
 220.32566 220.86828 220.88710 220.27371 219.43733 218.84250 219.04934 220.86203
 222.60583 225.72206 229.03064 232.61777 236.12270 239.51333 242.70767 245.68587
 248.41061 250.90679 253.19353 254.91714 256.48655 257.94920 259.39966 260.69384
 261.81714 262.77997 263.71679 264.54570 265.26305 265.89772 266.47676 267.00133
 267.47312 267.89325 268.26027 268.72800
 366.78100 356.33500 345.76700 334.63300 323.03600 311.23000 299.10000 286.90300
 274.61500 262.51200 250.52100 239.82200 229.94400 221.04800 213.23000 206.23200
 200.06600 195.00400 191.58600 189.62800 188.66500 188.72900 189.56400 190.87200
 192.59700 194.69200 196.95500 199.31400 201.75900 204.23900 206.32700 208.16900
 209.79500 210.94000 211.16900 211.39700 211.33400 211.03900 210.67200 210.30200
 209.91900 209.62900 209.43700 209.30100 209.22900 209.56000 209.94600 210.33500
 211.12800 212.30600 213.55600 215.33900 217.26700 219.31000 221.40500 223.48800
 225.54800 227.63200 229.72900 231.83500 233.96400 236.13600 238.39200 240.76200
 243.38300 245.63400 247.63600 249.40100 250.81800 251.94100 252.76300 253.07900
 253.11600 252.89000 252.25000 251.19800 249.80400 247.96500 245.87400 243.70700
 241.49800 239.30200 237.12200 234.96100 232.82100 230.68800 228.71400 226.87100
 225.15400 223.62600 222.25600 221.02800 219.91000 218.87000 217.97400 217.11500
 216.35700 215.53700 214.63500 213.99900 213.44900 212.85855 212.01316 212.61654
 214.26826 216.08686 218.14273 220.53346 223.40855 226.78828 231.49734 235.90155
 239.42278 243.28576 247.23140 251.11907 254.80144 258.23331 261.38913 264.27520
 266.89312 269.26852 271.44504 273.08845 274.58484 275.98591 277.39845 278.65879
 279.75272 280.69038 281.56708 282.34086 283.01050 283.60295 284.14348 284.63317
 285.07358 285.46577 285.80838 286.24500
 381.81900 372.39900 361.20600 349.77600 337.62200 324.85300 311.81000 298.35300
 284.86000 271.32400 258.56100 246.30400 236.08700 226.79600 218.44800 211.29000
 205.52200 200.89400 197.38100 194.84800 193.01500 192.31500 192.25000 192.43100
 192.91200 193.53700 194.13600 194.71200 195.26200 195.83100 196.39300 196.97600
 197.60400 198.14900 198.58400 199.05700 199.69500 200.37800 201.05400 201.70800
 202.31300 202.85700 203.35500 203.86200 204.56900 205.29700 206.02600 206.98700
 208.19300 209.44100 210.96900 212.57600 214.46200 216.51300 218.63000 220.85300
 223.34100 225.96200 228.73900 231.69700 234.70600 237.70600 240.69200 243.65700
 246.73700 249.69900 252.52100 255.06300 257.29000 259.23300 260.63300 261.68000
 262.46100 262.79800 262.69100 262.22400 261.06900 259.52500 257.70700 255.50700
 253.00100 250.30200 247.39800 244.45200 241.65400 239.05400 236.73300 234.59000
 232.59500 230.72500 228.83400 226.82600 224.66600 222.38700 220.10400 217.71500
 215.45900 213.06600 210.54600 208.09300 205.35400 202.08130 196.05959 200.71215
 209.01611 216.90438 223.84126 229.78593 235.00632 240.20838 245.98943 250.68668
 254.32982 257.93487 261.55666 264.96801 268.15192 271.06452 273.76717 276.25691
 278.57680 280.74479 282.77456 284.60533 286.27232 287.81705 289.31715 290.65561
 291.81734 292.81312 293.70701 294.49387 295.17482 295.77730 296.32696 296.82492
 297.27278 297.67160 298.02000 298.46400
 399.33000 389.90700 379.81300 368.66800 357.52200 345.30100 333.07400 320.22700
 307.21600 293.84800 280.37600 267.29600 254.61000 242.98700 232.15100 221.97700
 212.67200 204.28600 197.66900 192.82100 189.48600 187.45200 186.81400 187.08900
 187.78100 189.05400 190.64800 192.54200 194.63000 196.75200 198.67100 200.15800
 201.53500 202.48700 202.97500 203.34000 203.53900 203.49700 203.38500 203.24700
 203.00500 202.78600 202.60300 202.43700 202.42600 202.88800 203.42000 203.95100
 204.89500 205.99200 207.30100 208.95800 210.73800 213.10000 215.56400 218.18000
 220.96600 223.91800 226.96100 230.09200 233.29300 236.55700 239.95500 243.53700
 246.84500 249.39000 251.54200 253.47400 255.19500 256.48400 257.43100 258.05900
 258.21200 258.04000 257.58200 256.64300 255.23900 253.50700 251.40800 249.05600
 246.57600 243.99400 241.38900 238.83000 236.34400 233.98600 231.96900 230.11800
 228.42300 226.89900 225.54800 224.29700 223.10500 221.96500 220.95800 220.11300
 219.49000 218.92000 218.32500 217.88100 217.42300 216.96366 216.35568 216.80261
 217.73415 218.28582 218.64258 219.10077 220.44626 222.53987 226.38451 230.35736
 233.59734 237.39164 241.29814 245.22796 248.98002 252.51130 255.78595 258.80109
 261.54781 264.05210 266.34239 268.04198 269.58951 271.01303 272.35754 273.55718
 274.59842 275.49092 276.28989 276.99307 277.60161 278.14001 278.63122 279.07623
 279.47646 279.83287 280.14422 280.54100
 399.73800 389.78500 379.66200 368.15100 356.64100 344.35000 331.79200 318.88800
 305.72600 292.49300 279.20900 266.73800 254.69600 244.21100 234.45700 225.43300
 217.56900 210.45100 204.30000 199.30600 195.45800 192.57600 191.02700 190.38600
 190.23900 190.53400 191.16600 191.92500 192.79500 193.76600 194.73200 195.31200
 195.80000 196.05200 196.11500 196.11500 196.03900 195.72300 195.34000 194.98900
 194.75100 194.79200 195.13300 195.59800 196.50600 198.13600 199.85800 201.56600
 204.17900 206.82300 209.89300 213.28400 216.82800 220.60500 224.38700 228.20900
 232.03200 235.82500 239.56000 243.25800 246.84500 250.20100 253.70900 257.46800
 261.53000 264.22100 266.60100 268.68100 270.32900 271.74100 272.83600 273.47400
 273.89800 274.00200 273.75700 273.28800 272.37100 271.10000 269.58900 267.77900
 265.81600 263.72100 261.39300 258.91600 256.29800 253.42300 250.33100 247.11400
 243.83700 240.52900 237.24900 233.99900 230.72800 227.51500 224.25400 220.95200
 217.62700 213.65600 210.12100 206.78900 204.01000 201.99491 199.07309 198.76551
 199.40006 200.48994 201.46112 202.31912 203.45100 204.96110 207.47502 210.85391
 213.70530 217.29629 220.99574 224.72316 228.28753 231.64854 234.68024 237.40893
 239.70644 241.60899 243.46854 245.67368 247.68154 249.52395 251.24767 252.78566
 254.12057 255.26479 256.23740 257.09036 257.82852 258.48160 259.07744 259.61723
 260.10271 260.53504 260.91270 261.39400
 399.73800 389.78500 379.66200 368.15100 356.64100 344.35000 331.79200 318.88800
 305.72600 292.49300 279.20900 266.73800 254.69600 244.21100 234.45700 225.43300
 217.56900 210.45100 204.30000 199.30600 195.45800 192.57600 191.02700 190.38600
 190.23900 190.53400 191.16600 191.92500 192.79500 193.76600 194.73200 195.31200
 195.80000 196.05200 196.11500 196.11500 196.03900 195.72300 195.34000 194.98900
 194.75100 194.79200 195.13300 195.59800 196.50600 198.13600 199.85800 201.56600
 204.17900 206.82300 209.89300 213.28400 216.82800 220.60500 224.38700 228.20900
 232.03200 235.82500 239.56000 243.25800 246.84500 250.20100 253.70900 257.46800
 261.53000 264.22100 266.60100 268.68100 270.32900 271.74100 272.83600 273.47400
 273.89800 274.00200 273.75700 273.28800 272.37100 271.10000 269.58900 267.77900
 265.81600 263.72100 261.39300 258.91600 256.29800 253.42300 250.33100 247.11400
 243.83700 240.52900 237.24900 233.99900 230.72800 227.51500 224.25400 220.95200
 217.62700 213.65600 210.12100 206.78900 204.01000 201.99491 199.07309 198.76551
 199.40006 200.48994 201.46112 202.31912 203.45100 204.96110 207.47502 210.85391
 213.70530 217.29629 220.99574 224.72316 228.28753 231.64854 234.68024 237.40893
 239.70644 241.60899 243.46854 245.67368 247.68154 249.52395 251.24767 252.78566
 254.12057 255.26479 256.23740 257.09036 257.82852 258.48160 259.07744 259.61723
 260.10271 260.53504 260.91270 261.39400
 399.33000 389.90700 379.81300 368.66800 357.52200 345.30100 333.07400 320.22700
 307.21600 293.84800 280.37600 267.29600 254.61000 242.98700 232.15100 221.97700
 212.67200 204.28600 197.66900 192.82100 189.48600 187.45200 186.81400 187.08900
 187.78100 189.05400 190.64800 192.54200 194.63000 196.75200 198.67100 200.15800
 201.53500 202.48700 202.97500 203.34000 203.53900 203.49700 203.38500 203.24700
 203.00500 202.78600 202.60300 202.43700 202.42600 202.88800 203.42000 203.95100
 204.89500 205.99200 207.30100 208.95800 210.73800 213.10000 215.56400 218.18000
 220.96600 223.91800 226.96100 230.09200 233.29300 236.55700 239.95500 243.53700
 246.84500 249.39000 251.54200 253.47400 255.19500 256.48400 257.43100 258.05900
 258.21200 258.04000 257.58200 256.64300 255.23900 253.50700 251.40800 249.05600
 246.57600 243.99400 241.38900 238.83000 236.34400 233.98600 231.96900 230.11800
 228.42300 226.89900 225.54800 224.29700 223.10500 221.96500 220.95800 220.11300
 219.49000 218.92000 218.32500 217.88100 217.42300 216.96366 216.35568 216.80261
 217.73415 218.28582 218.64258 219.10077 220.44626 222.53987 226.38451 230.35736
 233.59734 237.39164 241.29814 245.22796 248.98002 252.51130 255.78595 258.80109
 261.54781 264.05210 266.34239 268.04198 269.58951 271.01303 272.35754 273.55718
 274.59842 275.49092 276.28989 276.99307 277.60161 278.14001 278.63122 279.07623
 279.47646 279.83287 280.14422 280.54100
 381.81900 372.39900 361.20600 349.77600 337.62200 324.85300 311.81000 298.35300
 284.86000 271.32400 258.56100 246.30400 236.08700 226.79600 218.44800 211.29000
 205.52200 200.89400 197.38100 194.84800 193.01500 192.31500 192.25000 192.43100
 192.91200 193.53700 194.13600 194.71200 195.26200 195.83100 196.39300 196.97600
 197.60400 198.14900 198.58400 199.05700 199.69500 200.37800 201.05400 201.70800
 202.31300 202.85700 203.35500 203.86200 204.56900 205.29700 206.02600 206.98700
 208.19300 209.44100 210.96900 212.57600 214.46200 216.51300 218.63000 220.85300
 223.34100 225.96200 228.73900 231.69700 234.70600 237.70600 240.69200 243.65700
 246.73700 249.69900 252.52100 255.06300 257.29000 259.23300 260.63300 261.68000
 262.46100 262.79800 262.69100 262.22400 261.06900 259.52500 257.70700 255.50700
 253.00100 250.30200 247.39800 244.45200 241.65400 239.05400 236.73300 234.59000
 232.59500 230.72500 228.83400 226.82600 224.66600 222.38700 220.10400 217.71500
 215.45900 213.06600 210.54600 208.09300 205.35400 202.08130 196.05959 200.71215
 209.01611 216.90438 223.84126 229.78593 235.00632 240.20838 245.98943 250.68668
 254.32982 257.93487 261.55666 264.96801 268.15192 271.06452 273.76717 276.25691
 278.57680 280.74479 282.77456 284.60533 286.27232 287.81705 289.31715 290.65561
 291.81734 292.81312 293.70701 294.49387 295.17482 295.77730 296.32696 296.82492
 297.27278 297.67160 298.02000 298.46400
 366.78100 356.32583 345.74866 334.60549 322.99932 311.18415 299.04498 286.83881
 274.54164 262.42947 250.42930 239.72113 229.83396 220.92879 213.10162 206.09445
 199.91928 194.84811 191.42094 189.45377 188.48160 188.53643 189.36226 190.66109
 192.37692 194.46275 196.71658 199.06641 201.50224 203.97306 206.05189 207.88472
 209.50155 210.63738 210.85721 211.07604 211.00387 210.69970 210.32353 209.94436
 209.55219 209.25302 209.05185 208.90668 208.82551 209.14734 209.52417 209.90400
 210.68783 211.85666 213.09749 214.87132 216.79015 218.82398 220.90981 222.98364
 225.03447 227.10930 229.19713 231.29396 233.41379 235.57662 237.82345 240.18428
 242.79611 245.03794 247.03077 248.78660 250.19443 251.30826 252.12109 252.42792
 252.45575 252.22058 251.57141 250.51024 249.10707 247.25890 245.15873 242.98256
 240.76439 238.55922 236.37005 234.19988 232.05071 229.90854 227.92536 226.07319
 224.34702 222.80985 221.43068 220.19351 219.06634 218.01717 217.11200 216.24383
 215.47666 214.64749 213.73632 213.09115 212.53198 212.45648 212.28986 213.53999
 215.23148 217.21274 218.28069 218.34322 219.57047 223.03554 228.32710 232.99419
 236.76953 240.55385 244.23787 247.77441 251.12025 253.88402 256.26193 258.80753
 261.98511 264.74332 266.81918 268.62964 270.50858 272.48553 274.25003 275.81958
 277.26483 278.74060 280.25873 281.62531 282.81091 283.86371 284.82953 285.71054
 286.51028 287.22787 287.86160 288.70236
 366.78100 356.32569 345.74838 334.60507 322.99877 311.18346 299.04415 286.83784
 274.54053 262.42822 250.42791 239.71960 229.83230 220.92699 213.09968 206.09237
 199.91706 194.84575 191.41844 189.45113 188.47883 188.53352 189.35921 190.65790
 192.37359 194.45928 196.71297 199.06266 201.49836 203.96905 206.04774 207.88043
 209.49712 210.63281 210.85250 211.07119 210.99889 210.69458 210.31827 209.93896
 209.54665 209.24734 209.04603 208.90072 208.81942 209.14111 209.51780 209.89749
 210.68118 211.84987 213.09056 214.86425 216.78295 218.81664 220.90233 222.97602
 225.02671 227.10140 229.18909 231.28579 233.40548 235.56817 237.81486 240.17555
 242.78724 245.02893 247.02162 248.77732 250.18501 251.29870 252.11139 252.41808
 252.44577 252.21046 251.56115 250.49985 249.09654 247.24823 245.14792 242.97161
 240.75330 238.54799 236.35868 234.18838 232.03907 229.89676 227.91345 226.06114
 224.33483 222.79752 221.41821 220.18091 219.05360 218.00429 217.09898 216.23067
 215.46336 214.63405 213.72274 213.07744 212.51813 212.47778 212.39268 213.66852
 215.32953 217.25194 218.38797 218.52089 219.70656 223.06616 228.26956 232.86795
 236.61578 240.40240 244.10309 247.63914 250.93404 253.65015 256.05411 258.67978
 261.83411 264.55746 266.63824 268.47650 270.36960 272.34500 274.10132 275.67645
 277.14761 278.65991 280.18408 281.55185 282.73755 283.79086 284.75833 285.63919
 286.43842 287.15631 287.78882 288.63531
 366.78100 356.32562 345.74824 334.60486 322.99848 311.18310 299.04372 286.83734
 274.53996 262.42758 250.42720 239.71882 229.83144 220.92606 213.09868 206.09130
 199.91592 194.84454 191.41716 189.44978 188.47740 188.53202 189.35764 190.65626
 192.37188 194.45750 196.71112 199.06074 201.49636 203.96698 206.04560 207.87822
 209.49484 210.63046 210.85008 211.06870 210.99632 210.69193 210.31555 209.93617
 209.54379 209.24441 209.04303 208.89765 208.81627 209.13789 209.51451 209.89413
 210.67775 211.84637 213.08699 214.86061 216.77923 218.81285 220.89847 222.97209
 225.02271 227.09733 229.18495 231.28157 233.40119 235.56381 237.81043 240.17105
 242.78267 245.02429 247.01691 248.77253 250.18015 251.29377 252.10639 252.41301
 252.44063 252.20525 251.55587 250.49449 249.09111 247.24273 245.14235 242.96597
 240.74759 238.54221 236.35283 234.18245 232.03307 229.89069 227.90731 226.05493
 224.32855 222.79117 221.41179 220.17441 219.04703 217.99765 217.09227 216.22389
 215.45651 214.62713 213.71575 213.07037 212.51099 212.50374 212.49583 213.81007
 215.40646 217.28459 218.50000 218.70465 219.85741 223.11122 228.21501 232.74521
 236.45421 240.24036 243.95984 247.49013 250.73465 253.41006 255.84444 258.54855
 261.67871 264.36832 266.45428 268.32272 270.23569 272.21280 273.96280 275.54236
 277.03952 278.58221 280.11078 281.47946 282.66605 283.71902 284.68799 285.56885
 286.36801 287.08728 287.72116 288.56430
 366.78100 356.32556 345.74812 334.60468 322.99824 311.18279 299.04335 286.83691
 274.53947 262.42703 250.42659 239.71815 229.83071 220.92527 213.09783 206.09038
 199.91494 194.84350 191.41606 189.44862 188.47618 188.53074 189.35630 190.65486
 192.37042 194.45597 196.70953 199.05909 201.49465 203.96521 206.04377 207.87633
 209.49289 210.62845 210.84801 211.06656 210.99412 210.68968 210.31324 209.93380
 209.54136 209.24192 209.04048 208.89504 208.81360 209.13515 209.51171 209.89127
 210.67483 211.84339 213.08395 214.85751 216.77607 218.80963 220.89518 222.96874
 225.01930 227.09386 229.18142 231.27798 233.39754 235.56010 237.80666 240.16722
 242.77877 245.02033 247.01289 248.76845 250.17601 251.28957 252.10213 252.40869
 252.43625 252.20081 251.55136 250.48992 249.08648 247.23804 245.13760 242.96116
 240.74272 238.53728 236.34784 234.17740 232.02795 229.88551 227.90207 226.04963
 224.32319 222.78575 221.40631 220.16887 219.04143 217.99199 217.08654 216.21810
 215.45066 214.62122 213.70978 213.06434 212.50490 212.53203 212.60445 213.95288
 215.46976 217.32071 218.60556 218.90063 220.02998 223.16405 228.16040 232.62120
 236.29245 240.07799 243.80759 247.32164 250.51813 253.16483 255.63484 258.41461
 261.52109 264.17688 266.26703 268.16797 270.10495 272.08725 273.83307 275.41797
 276.94135 278.50684 280.04111 281.40994 282.59634 283.65103 284.61880 285.50043
 286.30026 287.01904 287.65411 288.49857
 366.78100 356.32553 345.74805 334.60458 322.99811 311.18263 299.04316 286.83669
 274.53921 262.42674 250.42626 239.71779 229.83032 220.92484 213.09737 206.08990
 199.91442 194.84295 191.41548 189.44800 188.47553 188.53006 189.35558 190.65411
 192.36964 194.45516 196.70869 199.05821 201.49374 203.96427 206.04279 207.87532
 209.49185 210.62737 210.84690 211.06543 210.99295 210.68848 210.31201 209.93253
 209.54006 209.24059 209.03911 208.89364 208.81217 209.13369 209.51022 209.88974
 210.67327 211.84180 213.08232 214.85585 216.77438 218.80790 220.89343 222.96696
 225.01748 227.09201 229.17954 231.27606 233.39559 235.55812 237.80464 240.16517
 242.77669 245.01822 247.01075 248.76627 250.17380 251.28733 252.09985 252.40638
 252.43391 252.19843 251.54896 250.48749 249.08401 247.23554 245.13507 242.95859
 240.74012 238.53464 236.34517 234.17470 232.02522 229.88275 227.89928 226.04680
 224.32033 222.78286 221.40338 220.16591 219.03844 217.98896 217.08349 216.21502
 215.44754 214.61807 213.70659 213.06112 212.50165 212.56337 212.71567 214.09119
 215.53023 217.35481 218.71021 219.10538 220.22327 223.22787 228.11243 232.49384
 236.13573 239.92087 243.64603 247.13405 250.28452 252.91431 255.42679 258.27850
 261.35852 263.98090 266.07404 268.00848 269.97549 271.96857 273.71353 275.30475
 276.84692 278.43704 279.97223 281.34030 282.52805 283.58279 284.55069 285.43237
 286.23230 286.95123 287.58624 288.42987
 366.78100 356.32555 345.74809 334.60464 322.99818 311.18273 299.04327 286.83682
 274.53937 262.42691 250.42646 239.71800 229.83055 220.92509 213.09764 206.09019
 199.91473 194.84328 191.41582 189.44837 188.47591 188.53046 189.35601 190.65455
 192.37010 194.45564 196.70919 199.05873 201.49428 203.96483 206.04337 207.87592
 209.49246 210.62801 210.84755 211.06610 210.99365 210.68919 210.31274 209.93328
 209.54083 209.24137 209.03992 208.89447 208.81301 209.13456 209.51110 209.89065
 210.67419 211.84274 213.08329 214.85683 216.77538 218.80892 220.89447 222.96801
 225.01856 227.09311 229.18065 231.27720 233.39674 235.55929 237.80583 240.16638
 242.77793 245.01947 247.01202 248.76756 250.17511 251.28865 252.10120 252.40775
 252.43529 252.19984 251.55038 250.48893 249.08547 247.23702 245.13657 242.96011
 240.74166 238.53620 236.34675 234.17629 232.02684 229.88438 227.90093 226.04848
 224.32202 222.78457 221.40511 220.16766 219.04020 217.99075 217.08530 216.21684
 215.44939 214.61993 213.70848 213.06302 212.50357 212.59894 212.82910 214.22441
 215.58562 217.38763 218.82228 219.30644 220.42455 223.30199 228.07256 232.37350
 235.98656 239.76743 243.47615 246.92932 250.03543 252.65541 255.21333 258.13208
 261.18860 263.78082 265.87671 267.84534 269.84714 271.85571 273.60544 275.20480
 276.75681 278.36838 279.90359 281.27069 282.45840 283.51361 284.47971 285.36340
 286.16217 286.87982 287.51492 288.36060
 366.78100 356.32565 345.74829 334.60494 322.99858 311.18323 299.04387 286.83752
 274.54017 262.42781 250.42746 239.71910 229.83175 220.92639 213.09904 206.09168
 199.91633 194.84498 191.41762 189.45027 188.47791 188.53256 189.35820 190.65685
 192.37250 194.45814 196.71179 199.06143 201.49708 203.96772 206.04637 207.87902
 209.49566 210.63131 210.85095 211.06960 210.99724 210.69289 210.31653 209.93718
 209.54483 209.24547 209.04412 208.89876 208.81741 209.13905 209.51570 209.89535
 210.67899 211.84764 213.08828 214.86193 216.78057 218.81422 220.89987 222.97351
 225.02416 227.09880 229.18645 231.28309 233.40274 235.56538 237.81203 240.17268
 242.78432 245.02597 247.01861 248.77426 250.18190 251.29555 252.10820 252.41484
 252.44249 252.20713 251.55778 250.49642 249.09307 247.24472 245.14436 242.96801
 240.74965 238.54430 236.35494 234.18459 232.03523 229.89288 227.90953 226.05717
 224.33082 222.79346 221.41411 220.17675 219.04940 218.00005 217.09469 216.22634
 215.45898 214.62963 213.71827 213.07292 212.51357 212.63991 212.94196 214.35164
 215.63857 217.42168 218.93892 219.49995 220.62904 223.38449 228.04041 232.27100
 235.84819 239.61884 243.30225 246.71019 249.77194 252.38696 254.99133 257.97113
 261.00858 263.57651 265.68094 267.68594 269.72464 271.75137 273.51004 275.11719
 276.64502 278.31647 279.84592 281.20651 282.39120 283.44409 284.40945 285.29312
 286.09183 286.80945 287.44464 288.28961
 366.78100 356.32586 345.74871 334.60557 322.99942 311.18428 299.04513 286.83899
 274.54184 262.42970 250.42955 239.72141 229.83426 220.92912 213.10197 206.09483
 199.91968 194.84854 191.42139 189.45425 188.48210 188.53696 189.36281 190.66167
 192.37752 194.46338 196.71723 199.06709 201.50294 203.97380 206.05265 207.88551
 209.50236 210.63822 210.85807 211.07693 211.00478 210.70064 210.32449 209.94535
 209.55320 209.25406 209.05291 208.90777 208.82662 209.14848 209.52533 209.90519
 210.68904 211.85790 213.09875 214.87261 216.79146 218.82532 220.91117 222.98503
 225.03588 227.11074 229.19859 231.29545 233.41530 235.57816 237.82501 240.18587
 242.79772 245.03958 247.03243 248.78829 250.19614 251.31000 252.12285 252.42971
 252.45756 252.22242 251.57327 250.51213 249.10898 247.26084 245.16069 242.98455
 240.76640 238.56126 236.37211 234.20197 232.05282 229.91068 227.92753 226.07539
 224.34924 222.81210 221.43295 220.19581 219.06866 218.01952 217.11437 216.24623
 215.47908 214.64994 213.73879 213.09365 212.53450 212.68712 213.05003 214.47012
 215.69498 217.46143 219.05424 219.68880 220.83418 223.47156 228.01312 232.18498
 235.72372 239.47798 243.12512 246.47487 249.49138 252.11104 254.76588 257.79904
 260.81924 263.36859 265.48999 267.53497 269.60974 271.65564 273.42438 275.04135
 276.56879 278.24683 279.77817 281.13745 282.32095 283.37289 284.33969 285.22104
 286.02084 286.73920 287.37213 288.22433
 366.78100 356.32621 345.74941 334.60662 323.00082 311.18603 299.04724 286.84144
 274.54465 262.43285 250.43306 239.72527 229.83847 220.93368 213.10688 206.10009
 199.92530 194.85450 191.42771 189.46091 188.48912 188.54433 189.37053 190.66974
 192.38594 194.47215 196.72635 199.07656 201.51277 203.98397 206.06318 207.89638
 209.51359 210.64980 210.87000 211.08921 211.01741 210.71362 210.33783 209.95903
 209.56724 209.26844 209.06765 208.92286 208.84206 209.16427 209.54147 209.92168
 210.70589 211.87509 213.11630 214.89050 216.80971 218.84392 220.93012 223.00433
 225.05553 227.13074 229.21895 231.31615 233.43636 235.59956 237.84677 240.20798
 242.82018 245.06239 247.05559 248.81180 250.22000 251.33421 252.14742 252.45462
 252.48283 252.24803 251.59924 250.53845 249.13565 247.28786 245.18806 243.01227
 240.79448 238.58968 236.40089 234.23109 232.08230 229.94051 227.95771 226.10592
 224.38012 222.84333 221.46454 220.22774 219.10095 218.05215 217.14736 216.27957
 215.51277 214.68398 213.77318 213.12839 212.56960 212.74248 213.15216 214.57977
 215.75668 217.51108 219.17361 219.87454 221.03580 223.56090 227.98759 232.10513
 235.61142 239.34499 242.94661 246.22629 249.19810 251.83047 254.53839 257.61884
 260.62469 263.16171 265.30328 267.38867 269.50113 271.56549 273.34662 274.97403
 276.49545 278.17816 279.71057 281.07089 282.25516 283.30841 284.27335 285.15366
 285.95306 286.67151 287.30624 288.15323
 366.78100 356.32661 345.75022 334.60784 323.00245 311.18806 299.04967 286.84428
 274.54790 262.43651 250.43712 239.72973 229.84334 220.93896 213.11257 206.10618
 199.93179 194.86140 191.43502 189.46863 188.49724 188.55285 189.37946 190.67908
 192.39569 194.48230 196.73691 199.08752 201.52414 203.99575 206.07536 207.90897
 209.52658 210.66320 210.88381 211.10342 211.03203 210.72864 210.35326 209.97487
 209.58348 209.28509 209.08470 208.94032 208.85993 209.18254 209.56015 209.94076
 210.72538 211.89499 213.13660 214.91121 216.83082 218.86544 220.95205 223.02666
 225.07827 227.15388 229.24250 231.34011 233.46072 235.62433 237.87194 240.23356
 242.84617 245.08878 247.08239 248.83900 250.24762 251.36223 252.17584 252.48345
 252.51206 252.27768 251.62929 250.56890 249.16651 247.31912 245.21974 243.04435
 240.82696 238.62257 236.43418 234.26480 232.11641 229.97502 227.99263 226.14124
 224.41586 222.87947 221.50108 220.26469 219.13830 218.08992 217.18553 216.31814
 215.55175 214.72336 213.81297 213.16859 212.61020 212.80083 213.25140 214.67857
 215.82329 217.57120 219.29909 220.05740 221.23102 223.64917 227.96242 232.02731
 235.51146 239.22342 242.76833 245.96597 248.89221 251.54579 254.31140 257.43622
 260.42734 262.95197 265.11682 267.24689 269.39935 271.48499 273.28149 274.91815
 276.43277 278.11511 279.64496 281.00565 282.18970 283.24185 284.20731 285.08755
 285.88690 286.60495 287.24091 288.08923
 366.78100 356.32716 345.75132 334.60948 323.00464 311.19080 299.05296 286.84812
 274.55228 262.44144 250.44259 239.73575 229.84991 220.94607 213.12023 206.11439
 199.94055 194.87071 191.44487 189.47903 188.50819 188.56435 189.39151 190.69167
 192.40883 194.49599 196.75115 199.10231 201.53947 204.01162 206.09178 207.92594
 209.54410 210.68126 210.90242 211.12258 211.05174 210.74890 210.37406 209.99622
 209.60538 209.30754 209.10770 208.96386 208.88402 209.20718 209.58534 209.96650
 210.75165 211.92181 213.16397 214.93913 216.85929 218.89445 220.98161 223.05677
 225.10893 227.18509 229.27425 231.37241 233.49357 235.65773 237.90589 240.26805
 242.88121 245.12437 247.11853 248.87568 250.28484 251.40000 252.21416 252.52232
 252.55148 252.31764 251.66980 250.60996 249.20812 247.36128 245.26244 243.08760
 240.87076 238.66692 236.47908 234.31024 232.16240 230.02156 228.03971 226.18887
 224.46403 222.92819 221.55035 220.31451 219.18867 218.14083 217.23699 216.37015
 215.60431 214.77647 213.86663 213.22279 212.66495 212.86568 213.33995 214.78011
 215.88496 217.63782 219.43655 220.23798 221.41469 223.72913 227.93338 231.95035
 235.41895 239.11134 242.59370 245.70464 248.58707 251.26312 254.08472 257.24780
 260.22192 262.73480 264.93228 267.11362 269.30804 271.41449 273.22617 274.87537
 276.42307 278.04218 279.56564 280.92899 282.11624 283.17151 284.13895 285.02237
 285.82297 286.54175 287.17929 288.02859
 366.78100 356.32752 345.75205 334.61057 323.00610 311.19262 299.05515 286.85067
 274.55520 262.44472 250.44624 239.73977 229.85429 220.95082 213.12534 206.11987
 199.94639 194.87692 191.45144 189.48596 188.51549 188.57201 189.39954 190.70006
 192.41759 194.50511 196.76064 199.11216 201.54969 204.02221 206.10273 207.93726
 209.55578 210.69331 210.91483 211.13536 211.06488 210.76241 210.38793 210.01045
 209.61998 209.32250 209.12303 208.97955 208.90008 209.22360 209.60213 209.98365
 210.76917 211.93970 213.18222 214.95775 216.87827 218.91380 221.00132 223.07685
 225.12937 227.20589 229.29542 231.39394 233.51547 235.67999 237.92852 240.29104
 242.90457 245.14809 247.14261 248.90014 250.30966 251.42519 252.23971 252.54824
 252.57776 252.34429 251.69681 250.63733 249.23586 247.38938 245.29091 243.11643
 240.89996 238.69648 236.50901 234.34053 232.19306 230.05258 228.07110 226.22063
 224.49615 222.96068 221.58320 220.34773 219.22225 218.17478 217.27130 216.40482
 215.63935 214.81187 213.90240 213.25892 212.70145 212.92052 213.43813 214.87544
 215.94986 217.69514 219.56665 220.40361 221.60425 223.80977 227.92989 231.89865
 235.34009 239.01056 242.42616 245.44533 248.27303 250.96402 253.84052 257.04181
 260.00507 262.52066 264.76242 266.99615 269.23056 271.35553 273.18304 274.83847
 276.37109 277.98120 279.50671 280.87045 282.05682 283.11270 284.07901 284.96219
 285.76187 286.48212 287.12082 287.96970
 366.78100 356.32790 345.75280 334.61170 323.00760 311.19450 299.05740 286.85330
 274.55820 262.44811 250.45001 239.74391 229.85881 220.95571 213.13061 206.12551
 199.95241 194.88331 191.45821 189.49311 188.52301 188.57991 189.40781 190.70871
 192.42661 194.51451 196.77042 199.12232 201.56022 204.03312 206.11402 207.94892
 209.56782 210.70572 210.92762 211.14852 211.07842 210.77632 210.40222 210.02512
 209.63502 209.33792 209.13882 208.99573 208.91663 209.24053 209.61943 210.00133
 210.78723 211.95813 213.20103 214.97693 216.89783 218.93373 221.02163 223.09753
 225.15043 227.22733 229.31723 231.41614 233.53804 235.70294 237.95184 240.31474
 242.92864 245.17254 247.16744 248.92534 250.33524 251.45114 252.26604 252.57494
 252.60484 252.37174 251.72464 250.66554 249.26445 247.41835 245.32025 243.14615
 240.93005 238.72695 236.53985 234.37175 232.22465 230.08455 228.10345 226.25335
 224.52925 222.99415 221.61705 220.38195 219.25685 218.20976 217.30666 216.44056
 215.67546 214.84836 213.93926 213.29616 212.73906 212.97430 213.53009 214.97072
 216.04147 217.71049 219.65340 220.68924 221.78848 223.94708 227.89456 231.80835
 235.25267 238.90770 242.25095 245.16693 247.93327 250.64624 253.58844 256.83441
 259.79608 262.32150 264.60849 266.89273 269.16461 271.30646 273.14740 274.81113
 276.37277 277.90469 279.43051 280.80026 281.99158 283.04877 284.01971 284.90240
 285.70438 286.42569 287.06381 287.91675
 366.78100 356.32824 345.75348 334.61272 323.00896 311.19620 299.05944 286.85568
 274.56092 262.45116 250.45339 239.74763 229.86287 220.96011 213.13535 206.13059
 199.95783 194.88907 191.46431 189.49955 188.52979 188.58703 189.41527 190.71651
 192.43475 194.52299 196.77923 199.13147 201.56971 204.04295 206.12418 207.95942
 209.57866 210.71690 210.93914 211.16038 211.09062 210.78886 210.41510 210.03834
 209.64858 209.35182 209.15306 209.01030 208.93154 209.25578 209.63502 210.01726
 210.80350 211.97474 213.21797 214.99421 216.91545 218.95169 221.03993 223.11617
 225.16941 227.24665 229.33689 231.43613 233.55837 235.72361 237.97285 240.33609
 242.95033 245.19457 247.18981 248.94805 250.35829 251.47452 252.28976 252.59900
 252.62924 252.39648 251.74972 250.69096 249.29020 247.44444 245.34668 243.17292
 240.95716 238.75440 236.56764 234.39988 232.25312 230.11336 228.13260 226.28284
 224.55908 223.02431 221.64755 220.41279 219.28803 218.24127 217.33851 216.47275
 215.70799 214.88123 213.97247 213.32971 212.77295 213.02483 213.61993 215.06024
 216.12964 217.77542 219.76225 220.92439 221.94691 224.04001 227.86992 231.75188
 235.18588 238.81177 242.06670 244.86473 247.57562 250.32607 253.34450 256.63730
 259.59976 262.13416 264.46628 266.80173 269.10898 271.26669 273.11987 274.78711
 276.32974 277.85165 279.37604 280.74615 281.93658 282.99670 283.96429 284.84894
 285.65225 286.37363 287.01190 287.86676
 366.78100 356.32874 345.75448 334.61422 323.01096 311.19870 299.06244 286.85918
 274.56492 262.45566 250.45840 239.75314 229.86888 220.96662 213.14236 206.13810
 199.96583 194.89757 191.47331 189.50905 188.53979 188.59753 189.42627 190.72801
 192.44675 194.53549 196.79223 199.14497 201.58371 204.05745 206.13919 207.97493
 209.59467 210.73341 210.95615 211.17789 211.10863 210.80737 210.43411 210.05785
 209.66859 209.37233 209.17407 209.03181 208.95355 209.27829 209.65803 210.04076
 210.82750 211.99924 213.24298 215.01972 216.94146 218.97820 221.06694 223.14368
 225.19742 227.27516 229.36590 231.46564 233.58838 235.75412 238.00386 240.36760
 242.98234 245.22708 247.22282 248.98156 250.39230 251.50904 252.32478 252.63452
 252.66526 252.43300 251.78674 250.72848 249.32822 247.48295 245.38569 243.21243
 240.99717 238.79491 236.60865 234.44139 232.29513 230.15587 228.17561 226.32635
 224.60309 223.06883 221.69257 220.45831 219.33405 218.28779 217.38553 216.52027
 215.75601 214.92975 214.02149 213.37923 212.82297 213.08218 213.69460 215.14534
 216.22357 217.88934 219.87105 221.11806 222.09055 224.11232 227.87479 231.72531
 235.12491 238.69804 241.85179 244.54132 247.21666 250.01447 253.10986 256.44748
 259.41217 261.95944 264.33701 266.72098 269.06168 271.23306 273.09662 274.76541
 276.29059 277.80118 279.32391 280.69391 281.88565 282.94440 283.91391 284.79727
 285.59949 286.32394 286.96332 287.82065
 366.78100 356.32926 345.75551 334.61577 323.01302 311.20128 299.06553 286.86279
 274.56904 262.46030 250.46355 239.75881 229.87506 220.97332 213.14957 206.14583
 199.97408 194.90634 191.48259 189.51885 188.55011 188.60836 189.43762 190.73987
 192.45913 194.54838 196.80564 199.15889 201.59815 204.07240 206.15466 207.99091
 209.61117 210.75042 210.97368 211.19593 211.12719 210.82644 210.45370 210.07796
 209.68921 209.39347 209.19572 209.05398 208.97623 209.30149 209.68174 210.06500
 210.85225 212.02451 213.26876 215.04602 216.96827 219.00553 221.09478 223.17204
 225.22630 227.30455 229.39581 231.49606 233.61932 235.78557 238.03583 240.40008
 243.01534 245.26059 247.25685 249.01610 250.42736 251.54461 252.36087 252.67112
 252.70238 252.47063 251.82489 250.76715 249.36740 247.52266 245.42591 243.25317
 241.03842 238.83668 236.65093 234.48419 232.33844 230.19970 228.21995 226.37121
 224.64846 223.11472 221.73897 220.50523 219.38148 218.33574 217.43400 216.56925
 215.80551 214.97976 214.07202 213.43027 212.87453 213.13876 213.76305 215.22450
 216.32079 218.02960 219.98943 221.28513 222.23398 224.18983 227.89577 231.68973
 235.04642 238.55470 241.60866 244.21306 246.86436 249.71017 252.88269 256.26349
 259.23407 261.79916 264.22128 266.65158 269.02072 271.20190 273.07401 274.74869
 276.26303 277.75424 279.27295 280.64371 281.83600 282.89432 283.86530 284.74802
 285.55154 286.27670 286.91437 287.77823
 366.78100 356.32966 345.75631 334.61697 323.01462 311.20328 299.06793 286.86559
 274.57225 262.46390 250.46756 239.76321 229.87987 220.97853 213.15518 206.15184
 199.98049 194.91315 191.48980 189.52646 188.55812 188.61677 189.44643 190.74908
 192.46874 194.55840 196.81605 199.16971 201.60936 204.08402 206.16667 208.00333
 209.62399 210.76364 210.98730 211.20995 211.14161 210.84127 210.46892 210.09358
 209.70523 209.40989 209.21254 209.07120 208.99386 209.31951 209.70017 210.08382
 210.87148 212.04413 213.28879 215.06645 216.98910 219.02676 221.11641 223.19407
 225.24873 227.32738 229.41904 231.51969 233.64335 235.81000 238.06066 240.42532
 243.04097 245.28663 247.28328 249.04294 250.45460 251.57225 252.38891 252.69956
 252.73122 252.49987 251.85453 250.79719 249.39784 247.55350 245.45715 243.28481
 241.07047 238.86912 236.68378 234.51743 232.37209 230.23374 228.25440 226.40606
 224.68371 223.15037 221.77502 220.54168 219.41833 218.37299 217.47165 216.60730
 215.84396 215.01861 214.11127 213.46993 212.91458 213.18764 213.83275 215.29907
 216.43062 218.17813 220.12039 221.42862 222.38991 224.27246 227.91365 231.63812
 234.94965 238.39178 241.35376 243.88492 246.51149 249.40910 252.66330 256.08792
 259.06891 261.65265 264.11932 266.59357 268.98761 271.17493 273.05057 274.72476
 276.22821 277.71262 279.23154 280.60114 281.79239 282.85239 283.82257 284.70621
 285.50955 286.23267 286.87411 287.73328
 366.78100 356.32993 345.75685 334.61778 323.01571 311.20464 299.06956 286.86749
 274.57442 262.46635 250.47027 239.76620 229.88313 220.98206 213.15898 206.15591
 199.98484 194.91777 191.49469 189.53162 188.56355 188.62248 189.45240 190.75533
 192.47526 194.56519 196.82311 199.17704 201.61697 204.09190 206.17482 208.01175
 209.63268 210.77260 210.99653 211.21946 211.15139 210.85131 210.47924 210.10417
 209.71610 209.42102 209.22395 209.08288 209.00581 209.33173 209.71266 210.09659
 210.88452 212.05744 213.30237 215.08030 217.00323 219.04115 221.13108 223.20901
 225.26394 227.34286 229.43479 231.53572 233.65965 235.82657 238.07750 240.44243
 243.05835 245.30428 247.30121 249.06114 250.47306 251.59099 252.40792 252.71885
 252.75077 252.51970 251.87463 250.81756 249.41848 247.57441 245.47834 243.30627
 241.09219 238.89112 236.70605 234.53998 232.39490 230.25683 228.27776 226.42969
 224.70761 223.17454 221.79947 220.56640 219.44332 218.39825 217.49718 216.63310
 215.87003 215.04496 214.13789 213.49681 212.94174 213.22765 213.90315 215.37010
 216.55843 218.32993 220.24492 221.56328 222.56516 224.35912 227.91635 231.58241
 234.84155 238.21014 241.08478 243.54939 246.15874 249.11588 252.45427 255.92386
 258.91934 261.52087 264.02927 266.54425 268.96091 271.15356 273.02930 274.69510
 276.18207 277.67484 279.19397 280.56363 281.75604 282.81577 283.78513 284.66910
 285.47104 286.19559 286.83722 287.69696
 366.78100 356.33002 345.75704 334.61806 323.01608 311.20510 299.07012 286.86814
 274.57516 262.46718 250.47120 239.76722 229.88423 220.98325 213.16027 206.15729
 199.98631 194.91933 191.49635 189.53337 188.56539 188.62441 189.45443 190.75745
 192.47747 194.56749 196.82551 199.17953 201.61955 204.09457 206.17759 208.01461
 209.63563 210.77565 210.99967 211.22269 211.15470 210.85472 210.48274 210.10776
 209.71978 209.42480 209.22782 209.08684 209.00986 209.33588 209.71690 210.10092
 210.88894 212.06196 213.30698 215.08500 217.00802 219.04604 221.13606 223.21408
 225.26910 227.34812 229.44014 231.54116 233.66517 235.83219 238.08321 240.44823
 243.06425 245.31027 247.30729 249.06731 250.47933 251.59735 252.41437 252.72539
 252.75741 252.52643 251.88145 250.82447 249.42549 247.58151 245.48553 243.31355
 241.09957 238.89859 236.71361 234.54763 232.40264 230.26466 228.28568 226.43770
 224.71572 223.18274 221.80776 220.57478 219.45180 218.40682 217.50584 216.64186
 215.87888 215.05390 214.14692 213.50594 212.95096 213.25656 213.97858 215.43677
 216.69069 218.49094 220.36435 221.69229 222.75334 224.46228 227.90793 231.52658
 234.72681 238.00389 240.78412 243.19595 245.81180 248.83591 252.25650 255.77141
 258.78381 261.40631 263.95236 266.50259 268.93826 271.13293 273.00580 274.66983
 276.15826 277.63797 279.15543 280.52539 281.71802 282.77655 283.74640 284.62967
 285.43289 286.15533 286.79938 287.65894
 366.78100 356.33001 345.75703 334.61804 323.01605 311.20506 299.07008 286.86809
 274.57510 262.46711 250.47113 239.76714 229.88415 220.98316 213.16018 206.15719
 199.98620 194.91921 191.49623 189.53324 188.56525 188.62426 189.45428 190.75729
 192.47730 194.56731 196.82533 199.17934 201.61935 204.09436 206.17738 208.01439
 209.63540 210.77541 210.99943 211.22244 211.15445 210.85446 210.48248 210.10749
 209.71950 209.42452 209.22753 209.08654 209.00955 209.33557 209.71658 210.10059
 210.88860 212.06162 213.30663 215.08464 217.00765 219.04567 221.13568 223.21369
 225.26870 227.34772 229.43973 231.54074 233.66475 235.83177 238.08278 240.44779
 243.06380 245.30982 247.30683 249.06684 250.47885 251.59687 252.41388 252.72489
 252.75690 252.52592 251.88093 250.82394 249.42495 247.58097 245.48498 243.31299
 241.09901 238.89802 236.71303 234.54704 232.40206 230.26407 228.28508 226.43709
 224.71511 223.18212 221.80713 220.57414 219.45116 218.40617 217.50518 216.64119
 215.87821 215.05322 214.14623 213.50524 212.95026 213.27878 214.05496 215.50694
 216.82205 218.65210 220.48930 221.81262 222.93889 224.59569 227.90866 231.47176
 234.60216 237.76720 240.44341 242.82289 245.47179 248.57123 252.07092 255.63199
 258.66043 261.30621 263.88385 266.46561 268.91718 271.11533 272.98636 274.64975
 276.13312 277.60675 279.12143 280.49161 281.68311 282.74203 283.71085 284.59515
 285.39801 286.12192 286.76541 287.62637
 366.78100 356.32991 345.75682 334.61773 323.01564 311.20455 299.06946 286.86737
 274.57429 262.46620 250.47011 239.76602 229.88293 220.98184 213.15875 206.15566
 199.98457 194.91748 191.49439 189.53130 188.56321 188.62212 189.45203 190.75494
 192.47486 194.56477 196.82268 199.17659 201.61650 204.09141 206.17432 208.01123
 209.63214 210.77205 210.99596 211.21887 211.15078 210.85069 210.47860 210.10351
 209.71543 209.42034 209.22325 209.08216 209.00507 209.33098 209.71189 210.09580
 210.88371 212.05662 213.30153 215.07944 217.00235 219.04026 221.13017 223.20808
 225.26300 227.34191 229.43382 231.53473 233.65864 235.82555 238.07646 240.44137
 243.05728 245.30319 247.30010 249.06001 250.47192 251.58983 252.40674 252.71766
 252.74957 252.51848 251.87339 250.81630 249.41721 247.57312 245.47703 243.30494
 241.09085 238.88976 236.70467 234.53858 232.39349 230.25540 228.27631 226.42823
 224.70614 223.17305 221.79796 220.56487 219.44178 218.39669 217.49560 216.63151
 215.86842 215.04333 214.13624 213.49515 212.94006 213.29402 214.13033 215.58565
 216.95193 218.80338 220.61818 221.92891 223.10916 224.75615 227.93660 231.41417
 234.46147 237.49902 240.06580 242.43404 245.13890 248.32257 251.89880 255.50493
 258.55389 261.21808 263.82141 266.42392 268.88510 271.08237 272.95282 274.62250
 276.10907 277.59457 279.11349 280.48416 281.67798 282.73965 283.71271 284.60382
 285.41699 286.15054 286.79794 287.66068
 366.78100 356.32969 345.75638 334.61708 323.01477 311.20346 299.06815 286.86584
 274.57254 262.46423 250.46792 239.76361 229.88030 220.97900 213.15569 206.15238
 199.98107 194.91376 191.49046 189.52715 188.55884 188.61753 189.44722 190.74992
 192.46961 194.55930 196.81699 199.17068 201.61038 204.08507 206.16776 208.00445
 209.62514 210.76484 210.98853 211.21122 211.14291 210.84260 210.47030 210.09499
 209.70668 209.41137 209.21406 209.07275 208.99545 209.32114 209.70183 210.08552
 210.87321 212.04591 213.29060 215.06829 216.99098 219.02867 221.11837 223.19606
 225.25075 227.32944 229.42113 231.52183 233.64552 235.81221 238.06290 240.42759
 243.04329 245.28898 247.28567 249.04536 250.45705 251.57475 252.39144 252.70213
 252.73382 252.50251 251.85721 250.79990 249.40059 247.55628 245.45997 243.28767
 241.07336 238.87205 236.68674 234.52043 232.37513 230.23682 228.25751 226.40920
 224.68689 223.15359 221.77828 220.54497 219.42166 218.37635 217.47505 216.61074
 215.84743 215.02212 214.11481 213.47351 212.91820 213.30063 214.20413 215.67418
 217.07922 218.94582 220.74269 222.04054 223.27061 224.93321 227.99298 231.36363
 234.30334 237.18741 239.65364 242.03880 244.81561 248.08775 251.73982 255.38960
 258.46246 261.14661 263.76834 266.38593 268.85315 271.04721 272.91235 274.56967
 275.99759 277.59940 279.13437 280.50275 281.69577 282.75372 283.72549 284.61722
 285.43008 286.16299 286.80823 287.67563
 366.78100 356.32932 345.75564 334.61596 323.01328 311.20160 299.06592 286.86324
 274.56956 262.46088 250.46420 239.75952 229.87585 220.97417 213.15049 206.14681
 199.97513 194.90745 191.48377 189.52009 188.55141 188.60973 189.43905 190.74137
 192.46069 194.55001 196.80733 199.16065 201.59997 204.07429 206.15661 207.99293
 209.61325 210.75257 210.97589 211.19821 211.12954 210.82886 210.45618 210.08050
 209.69182 209.39614 209.19846 209.05678 208.97910 209.30442 209.68474 210.06806
 210.85538 212.02770 213.27202 215.04934 216.97166 219.00898 221.09830 223.17562
 225.22994 227.30826 229.39958 231.49991 233.62323 235.78955 238.03987 240.40419
 243.01951 245.26483 247.26115 249.02047 250.43179 251.54911 252.36543 252.67575
 252.70707 252.47539 251.82971 250.77203 249.37235 247.52767 245.43099 243.25831
 241.04363 238.84195 236.65627 234.48960 232.34392 230.20524 228.22556 226.37688
 224.65420 223.12052 221.74484 220.51116 219.38748 218.34180 217.44012 216.57544
 215.81176 214.98608 214.07840 213.43672 212.88104 213.29683 214.27916 215.77196
 217.20517 219.07848 220.85623 222.14841 223.42862 225.12347 228.07127 231.31981
 234.13060 236.84540 239.21231 241.63452 244.50241 247.87138 251.59694 255.28470
 258.38123 261.08325 263.71982 266.35242 268.82391 271.01254 272.86533 274.50720
 275.94998 277.58893 279.12836 280.49716 281.68878 282.74866 283.72137 284.61133
 285.42587 286.15875 286.80881 287.67023
 366.78100 356.32892 345.75483 334.61475 323.01167 311.19958 299.06350 286.86042
 274.56633 262.45725 250.46017 239.75508 229.87100 220.96891 213.14483 206.14075
 199.96866 194.90058 191.47650 189.51241 188.54333 188.60125 189.43016 190.73208
 192.45100 194.53991 196.79683 199.14975 201.58866 204.06258 206.14450 207.98041
 209.60033 210.73925 210.96216 211.18408 211.11499 210.81391 210.44083 210.06474
 209.67566 209.37958 209.18149 209.03941 208.96133 209.28624 209.66616 210.04908
 210.83599 212.00791 213.25183 215.02874 216.95066 218.98758 221.07649 223.15341
 225.20733 227.28524 229.37616 231.47607 233.59899 235.76491 238.01482 240.37874
 242.99366 245.23857 247.23449 248.99341 250.40432 251.52124 252.33716 252.64707
 252.67799 252.44591 251.79982 250.74174 249.34166 247.49657 245.39949 243.22641
 241.01132 238.80924 236.62316 234.45607 232.30999 230.17090 228.19082 226.34174
 224.61865 223.08457 221.70849 220.47440 219.35032 218.30424 217.40215 216.53707
 215.77299 214.94690 214.03882 213.39674 212.84065 213.28893 214.34805 215.88818
 217.33096 219.19458 220.96399 222.24977 223.58443 225.31813 228.16743 231.28735
 233.95717 236.47688 238.73859 241.21922 244.20529 247.67856 251.46797 255.18747
 258.30914 261.02841 263.67789 266.32086 268.79327 270.97318 272.81400 274.45651
 275.95044 277.56812 279.10510 280.47433 281.66568 282.72784 283.69998 284.59076
 285.40485 286.14108 286.78839 287.65173
 366.78100 356.32816 345.75332 334.61248 323.00865 311.19581 299.05897 286.85513
 274.56029 262.45045 250.45261 239.74678 229.86194 220.95910 213.13426 206.12942
 199.95658 194.88774 191.46290 189.49807 188.52823 188.58539 189.41355 190.71471
 192.43287 194.52103 196.77720 199.12936 201.56752 204.04068 206.12184 207.95700
 209.57616 210.71433 210.93649 211.15765 211.08781 210.78597 210.41213 210.03529
 209.64545 209.34862 209.14978 209.00694 208.92810 209.25226 209.63142 210.01358
 210.79975 211.97091 213.21407 214.99023 216.91139 218.94755 221.03571 223.11188
 225.16504 227.24220 229.33236 231.43152 233.55368 235.71884 237.96800 240.33117
 242.94533 245.18949 247.18465 248.94281 250.35297 251.46913 252.28430 252.59346
 252.62362 252.39078 251.74394 250.68510 249.28426 247.43843 245.34059 243.16675
 240.95091 238.74807 236.56123 234.39339 232.24655 230.10672 228.12588 226.27604
 224.55220 223.01736 221.64052 220.40568 219.28085 218.23401 217.33117 216.46533
 215.70049 214.87365 213.96481 213.32198 212.76514 213.26137 214.43379 215.99815
 217.46126 219.31483 221.04176 222.33447 223.75430 225.53140 228.25943 231.26245
 233.78316 236.09535 238.25276 240.81354 243.92133 247.49657 251.34776 255.09700
 258.24631 260.98318 263.64056 266.28986 268.76096 270.93204 272.76437 274.39975
 275.88794 277.56870 279.10736 280.47330 281.66235 282.72070 283.69211 284.58234
 285.39664 286.13327 286.77969 287.64145
 366.78100 356.32734 345.75169 334.61003 323.00538 311.19172 299.05407 286.84941
 274.55376 262.44310 250.44445 239.73779 229.85214 220.94848 213.12283 206.11717
 199.94352 194.87386 191.44821 189.48255 188.51190 188.56824 189.39559 190.69593
 192.41328 194.50062 196.75597 199.10731 201.54466 204.01700 206.09735 207.93169
 209.55004 210.68738 210.90873 211.12907 211.05842 210.75576 210.38111 210.00345
 209.61279 209.31514 209.11548 208.97183 208.89217 209.21552 209.59386 209.97521
 210.76055 211.93090 213.17324 214.94859 216.86893 218.90428 220.99162 223.06697
 225.11931 227.19566 229.28500 231.38335 233.50469 235.66904 237.91738 240.27973
 242.89307 245.13642 247.13076 248.88811 250.29745 251.41280 252.22714 252.53549
 252.56483 252.33118 251.68352 250.62387 249.22221 247.37555 245.27690 243.10224
 240.88559 238.68193 236.49428 234.32562 232.17797 230.03731 228.05566 226.20500
 224.48035 222.94469 221.56704 220.33138 219.20573 218.15807 217.25442 216.38776
 215.62211 214.79445 213.88480 213.24114 212.68349 213.22972 214.52025 216.10214
 217.60361 219.43288 221.12917 222.40845 223.86964 225.71089 228.39398 231.27139
 233.60994 235.69693 237.75729 240.39824 243.64510 247.32970 251.23940 255.01376
 258.18692 260.94247 263.60825 266.26151 268.73135 270.89499 272.72064 274.35852
 275.89102 277.54095 279.07788 280.44476 281.63416 282.69110 283.66058 284.54852
 285.36163 286.09335 286.72617 287.57700
 366.78100 356.32690 345.75079 334.60869 323.00359 311.18949 299.05138 286.84628
 274.55018 262.43908 250.43997 239.73287 229.84677 220.94267 213.11656 206.11046
 199.93636 194.86626 191.44015 189.47405 188.50295 188.55885 189.38574 190.68564
 192.40254 194.48944 196.74433 199.09523 201.53213 204.00403 206.08392 207.91782
 209.53572 210.67262 210.89351 211.11341 211.04231 210.73921 210.36410 209.98600
 209.59490 209.29680 209.09669 208.95259 208.87249 209.19539 209.57328 209.95418
 210.73908 211.90898 213.15087 214.92577 216.84567 218.88057 220.96746 223.04236
 225.09426 227.17016 229.25905 231.35695 233.47785 235.64175 237.88964 240.25154
 242.86444 245.10734 247.10123 248.85813 250.26703 251.38193 252.19582 252.50372
 252.53262 252.29852 251.65041 250.59031 249.18821 247.34111 245.24200 243.06690
 240.84980 238.64570 236.45759 234.28849 232.14039 229.99929 228.01718 226.16608
 224.44098 222.90488 221.52677 220.29067 219.16457 218.11647 217.21236 216.34526
 215.57916 214.75106 213.84095 213.19685 212.63875 213.21738 214.58444 216.19991
 217.75313 219.57738 221.24213 222.48270 223.97395 225.93672 228.46004 231.16560
 233.39275 235.31419 237.26566 239.99367 243.40143 247.19942 251.16568 254.96927
 258.17188 260.93365 263.57834 266.21704 268.66534 270.80289 272.61496 274.27060
 275.80319 277.53653 279.07733 280.44315 281.63031 282.68799 283.65552 284.54288
 285.35788 286.08679 286.72177 287.57162
 366.78100 356.32615 345.74931 334.60646 323.00061 311.18577 299.04692 286.84107
 274.54423 262.43238 250.43253 239.72469 229.83784 220.93299 213.10615 206.09930
 199.92445 194.85361 191.42676 189.45991 188.48807 188.54322 189.36937 190.66853
 192.38468 194.47083 196.72499 199.07514 201.51129 203.98245 206.06160 207.89475
 209.51191 210.64806 210.86821 211.08737 211.01552 210.71167 210.33583 209.95698
 209.56513 209.26629 209.06544 208.92059 208.83975 209.16190 209.53905 209.91921
 210.70336 211.87251 213.11367 214.88782 216.80697 218.84113 220.92728 223.00143
 225.05259 227.12774 229.21589 231.31305 233.43320 235.59635 237.84351 240.20466
 242.81681 245.05897 247.05212 248.80827 250.21643 251.33058 252.14373 252.45089
 252.47904 252.24419 251.59534 250.53450 249.13165 247.28380 245.18396 243.00811
 240.79026 238.58542 236.39657 234.22672 232.07788 229.93603 227.95318 226.10134
 224.37549 222.83864 221.45980 220.22295 219.09610 218.04726 217.14241 216.27456
 215.50772 214.67887 213.76802 213.12318 212.56433 213.19131 214.67589 216.29030
 217.84950 219.68565 221.32693 222.55202 224.11006 226.12016 228.44821 231.12408
 233.21840 234.93831 236.73283 239.57002 243.10463 247.07791 251.13907 255.01259
 258.21286 260.94879 263.56787 266.18982 268.62140 270.72980 272.51901 274.18719
 275.82184 277.43973 278.92700 280.27676 281.45599 282.50311 283.46457 284.34308
 285.14911 285.87430 286.52548 287.35532
 366.78100 356.32537 345.74775 334.60412 322.99749 311.18187 299.04224 286.83561
 274.53799 262.42536 250.42473 239.71611 229.82848 220.92285 213.09523 206.08760
 199.91197 194.84035 191.41272 189.44509 188.47247 188.52684 189.35221 190.65059
 192.36596 194.45133 196.70471 199.05408 201.48945 203.95983 206.03820 207.87057
 209.48694 210.62232 210.84169 211.06006 210.98744 210.68281 210.30618 209.92656
 209.53393 209.23430 209.03268 208.88705 208.80542 209.12680 209.50317 209.88254
 210.66592 211.83429 213.07466 214.84804 216.76641 218.79978 220.88516 222.95853
 225.00890 227.08328 229.17065 231.26702 233.38640 235.54877 237.79514 240.15552
 242.76689 245.00826 247.00064 248.75601 250.16338 251.27676 252.08913 252.39550
 252.42288 252.18725 251.53762 250.47600 249.07237 247.22374 245.12312 242.94649
 240.72786 238.52224 236.33261 234.16198 232.01236 229.86973 227.88610 226.03348
 224.30685 222.76922 221.38960 220.15197 219.02434 217.97472 217.06909 216.20046
 215.43283 214.60321 213.69158 213.04595 212.48633 213.16037 214.76480 216.42625
 217.95724 219.74480 221.36266 222.62120 224.18793 226.20300 228.41556 231.16660
 233.07768 234.56213 236.17886 239.15668 242.85765 246.95688 251.10844 254.98135
 258.24991 261.01587 263.63104 266.20901 268.60614 270.67145 272.44409 274.14359
 275.79089 277.35590 278.82370 280.16995 281.34589 282.39148 283.35458 284.23624
 285.06244 285.82141 286.48447 287.32941
 366.78100 356.32528 345.74757 334.60385 322.99713 311.18141 299.04170 286.83498
 274.53726 262.42454 250.42383 239.71511 229.82739 220.92167 213.09396 206.08624
 199.91052 194.83880 191.41109 189.44337 188.47065 188.52494 189.35022 190.64850
 192.36378 194.44907 196.70235 199.05163 201.48691 203.95720 206.03548 207.86776
 209.48404 210.61933 210.83861 211.05689 210.98418 210.67946 210.30274 209.92302
 209.53031 209.23059 209.02887 208.88315 208.80144 209.12272 209.49900 209.87828
 210.66157 211.82985 213.07013 214.84341 216.76170 218.79498 220.88026 222.95355
 225.00383 227.07811 229.16539 231.26168 233.38096 235.54324 237.78952 240.14981
 242.76109 245.00237 246.99465 248.74994 250.15722 251.27050 252.08279 252.38907
 252.41635 252.18063 251.53092 250.46920 249.06548 247.21676 245.11605 242.93933
 240.72061 238.51489 236.32518 234.15446 232.00474 229.86202 227.87831 226.02559
 224.29887 222.76116 221.38144 220.14372 219.01600 217.96629 217.06057 216.19185
 215.42413 214.59442 213.68270 213.03698 212.47726 213.16145 214.80276 216.55760
 218.08688 219.82486 221.43285 222.72549 224.24310 226.21928 228.38322 231.19240
 232.86607 234.10997 235.66776 238.80156 242.69490 246.93513 251.11209 254.98070
 258.28067 261.08566 263.69092 266.22598 268.58582 270.63351 272.30981 274.06708
 275.72870 277.29581 278.72827 280.05099 281.22867 282.28506 283.27194 284.21390
 285.08487 285.86044 286.53799 287.40146
 366.78100 356.32492 345.74684 334.60276 322.99568 311.17960 299.03952 286.83244
 274.53436 262.42128 250.42020 239.71112 229.82304 220.91696 213.08888 206.08080
 199.90472 194.83264 191.40456 189.43648 188.46340 188.51732 189.34224 190.64016
 192.35508 194.44000 196.69292 199.04184 201.47676 203.94668 206.02460 207.85652
 209.47244 210.60736 210.82628 211.04420 210.97112 210.66604 210.28896 209.90888
 209.51580 209.21572 209.01364 208.86756 208.78548 209.10640 209.48232 209.86124
 210.64416 211.81208 213.05200 214.82492 216.74284 218.77577 220.86069 222.93361
 224.98353 227.05745 229.14437 231.24029 233.35921 235.52113 237.76705 240.12697
 242.73789 244.97881 246.97073 248.72565 250.13257 251.24549 252.05741 252.36333
 252.39025 252.15417 251.50409 250.44201 249.03793 247.18885 245.08777 242.91069
 240.69161 238.48553 236.29545 234.12437 231.97429 229.83121 227.84713 225.99405
 224.26697 222.72889 221.34881 220.11073 218.98265 217.93257 217.02649 216.15741
 215.38933 214.55925 213.64717 213.00109 212.44101 213.15286 214.86469 216.62253
 218.16982 219.92781 221.54253 222.84172 224.36072 226.28064 228.46382 231.18182
 232.63080 233.73413 235.32980 238.50720 242.54950 246.85501 251.05321 254.91837
 258.25662 261.09311 263.70642 266.23474 268.59644 270.68719 272.22348 274.03378
 275.74289 277.29990 278.74683 280.08621 281.27319 282.34140 283.36542 284.34253
 285.22134 286.00391 286.68756 287.55878
 366.78100 356.32426 345.74551 334.60077 322.99302 311.17628 299.03553 286.82779
 274.52904 262.41530 250.41355 239.70381 229.81506 220.90832 213.07957 206.07083
 199.89408 194.82134 191.39259 189.42385 188.45011 188.50336 189.32762 190.62487
 192.33913 194.42338 196.67564 199.02389 201.45815 203.92740 206.00466 207.83591
 209.45117 210.58542 210.80368 211.02093 210.94719 210.64144 210.26370 209.88296
 209.48921 209.18847 208.98572 208.83898 208.75623 209.07649 209.45174 209.83000
 210.61225 211.77951 213.01876 214.79102 216.70827 218.74053 220.82478 222.89704
 224.94630 227.01955 229.10581 231.20106 233.31932 235.48057 237.72583 240.08508
 242.69534 244.93559 246.92685 248.68110 250.08736 251.19961 252.01087 252.31612
 252.34238 252.10563 251.45489 250.39215 248.98740 247.13766 245.03591 242.85817
 240.63842 238.43168 236.24093 234.06919 231.91844 229.77470 227.78995 225.93621
 224.20846 222.66972 221.28897 220.05023 218.92148 217.87074 216.96400 216.09425
 215.32551 214.49476 213.58202 212.93527 212.37453 213.13281 214.94765 216.70491
 218.27615 220.05528 221.65025 222.94421 224.49142 226.35660 228.53481 231.21048
 232.43895 233.33865 234.93144 238.22798 242.41087 246.78978 250.99626 254.84927
 258.20950 261.07718 263.71732 266.24734 268.60989 270.66498 272.18900 274.01880
 275.73593 277.31046 278.70212 280.03613 281.21555 282.27655 283.26797 284.20316
 285.04425 285.79324 286.44754 287.28140
 366.78100 356.32323 345.74346 334.59770 322.98893 311.17116 299.02939 286.82063
 274.52086 262.40609 250.40332 239.69255 229.80279 220.89502 213.06525 206.05548
 199.87771 194.80395 191.37418 189.40441 188.42964 188.48188 189.30511 190.60134
 192.31457 194.39780 196.64904 198.99627 201.42950 203.89773 205.97397 207.80420
 209.41843 210.55166 210.76889 210.98513 210.91036 210.60359 210.22482 209.84305
 209.44829 209.14652 208.94275 208.79498 208.71122 209.03045 209.40468 209.78191
 210.56314 211.72938 212.96761 214.73884 216.65507 218.68630 220.76954 222.84077
 224.88900 226.96123 229.04647 231.14070 233.25793 235.41816 237.66239 240.02063
 242.62986 244.86909 246.85932 248.61256 250.01779 251.12902 251.93925 252.24348
 252.26872 252.03095 251.37918 250.31541 248.90964 247.05888 244.95611 242.77734
 240.55657 238.34881 236.15704 233.98427 231.83250 229.68773 227.70197 225.84720
 224.11843 222.57866 221.19690 219.95713 218.82736 217.77559 216.86782 215.99706
 215.22729 214.39552 213.48175 212.83398 212.27222 213.08627 215.03036 216.85078
 218.34030 220.10799 221.73105 223.06877 224.63486 226.40160 228.62901 231.23810
 232.24281 232.97388 234.54015 237.92317 242.27924 246.74954 250.90349 254.74849
 258.13617 261.05228 263.73227 266.27039 268.62469 270.67560 272.32474 274.09015
 275.74683 277.31009 278.68600 279.97711 281.14465 282.20068 283.18661 284.10684
 284.93591 285.67419 286.31912 287.14102
 366.78100 356.32227 345.74153 334.59480 322.98507 311.16633 299.02360 286.81387
 274.51314 262.39740 250.39367 239.68194 229.79120 220.88247 213.05174 206.04100
 199.86227 194.78754 191.35680 189.38607 188.41034 188.46160 189.28387 190.57914
 192.29141 194.37367 196.62394 198.97021 201.40247 203.86974 205.94501 207.77427
 209.38754 210.51981 210.73607 210.95134 210.87561 210.56788 210.18814 209.80541
 209.40968 209.10694 208.90221 208.75348 208.66874 208.98701 209.36028 209.73654
 210.51681 211.68208 212.91934 214.68961 216.60488 218.63515 220.71741 222.78768
 224.83495 226.90621 228.99048 231.08375 233.20001 235.35928 237.60255 239.95981
 242.56808 244.80635 246.79562 248.54788 249.95215 251.06242 251.87168 252.17495
 252.19922 251.96048 251.30775 250.24302 248.83628 246.98455 244.88082 242.70108
 240.47935 238.27062 236.07789 233.90415 231.75142 229.60569 227.61895 225.76322
 224.03349 222.49275 221.11002 219.86929 218.73855 217.68582 216.77709 215.90536
 215.13462 214.30189 213.38716 212.73842 212.17569 213.03886 215.09526 217.03484
 218.44940 220.18393 221.82491 223.19759 224.76103 226.44595 228.74606 231.14641
 231.97820 232.55051 234.11127 237.74380 242.17546 246.58670 250.74867 254.64966
 258.07941 261.05655 263.77313 266.32758 268.68597 270.75589 272.50497 274.11005
 275.77533 277.36865 278.80087 280.08173 281.23541 282.27850 283.24484 284.14746
 284.98178 285.72476 286.37378 287.20090
 366.78100 356.32143 345.73986 334.59229 322.98173 311.16216 299.01859 286.80802
 274.50645 262.38988 250.38531 239.67275 229.78118 220.87161 213.04004 206.02847
 199.84890 194.77334 191.34177 189.37020 188.39363 188.44406 189.26549 190.55992
 192.27136 194.35279 196.60222 198.94765 201.37908 203.84551 205.91994 207.74838
 209.36081 210.49224 210.70767 210.92210 210.84553 210.53696 210.15640 209.77283
 209.37626 209.07269 208.86712 208.71755 208.63199 208.94942 209.32185 209.69728
 210.47671 211.64114 212.87757 214.64701 216.56144 218.59087 220.67230 222.74173
 224.78816 226.85859 228.94203 231.03446 233.14989 235.30832 237.55075 239.90718
 242.51461 244.75205 246.74048 248.49191 249.89534 251.00477 251.81320 252.11563
 252.13907 251.89950 251.24593 250.18036 248.77279 246.92022 244.81566 242.63509
 240.41252 238.20295 236.00938 233.83481 231.68124 229.53468 227.54711 225.69054
 223.95997 222.41840 221.03483 219.79326 218.66170 217.60813 216.69856 215.82599
 215.05442 214.22085 213.30528 212.65572 212.09215 212.99777 215.14049 217.23233
 218.68526 220.36227 221.91389 223.31683 224.85115 226.49222 228.85695 230.86331
 231.68523 232.26299 234.02751 237.66463 242.04543 246.44382 250.60869 254.52246
 257.98105 260.99283 263.72025 266.29056 268.65741 270.73782 272.49649 274.13458
 275.83246 277.46774 278.96667 280.31311 281.49094 282.54279 283.50952 284.40851
 285.24274 286.01575 286.70834 287.59094
 366.78100 356.32025 345.73749 334.58874 322.97698 311.15623 299.01147 286.79972
 274.49696 262.37921 250.37346 239.65970 229.76695 220.85619 213.02344 206.01068
 199.82993 194.75317 191.32042 189.34767 188.36991 188.41916 189.23940 190.53265
 192.24289 194.32314 196.57138 198.91563 201.34588 203.81112 205.88437 207.71161
 209.32286 210.45310 210.66735 210.88059 210.80284 210.49309 210.11133 209.72658
 209.32882 209.02407 208.81731 208.66656 208.57980 208.89605 209.26730 209.64154
 210.41979 211.58303 212.81828 214.58652 216.49977 218.52801 220.60826 222.67651
 224.72175 226.79100 228.87324 230.96449 233.07873 235.23598 237.47723 239.83247
 242.43872 244.67496 246.66221 248.41245 249.81470 250.92294 251.73019 252.03144
 252.05368 251.81293 251.15817 250.09142 248.68266 246.82891 244.72315 242.54140
 240.31765 238.10689 235.91214 233.73638 231.58163 229.43387 227.44512 225.58736
 223.85561 222.31286 220.92810 219.68535 218.55259 217.49784 216.58708 215.71333
 214.94057 214.10582 213.18907 212.53831 211.97356 212.94029 215.22432 217.42351
 218.84430 220.46541 221.98988 223.42099 224.93071 226.52878 228.89948 230.67195
 231.43036 231.98607 233.82634 237.50659 241.94534 246.36530 250.53021 254.42731
 257.88168 260.91275 263.65439 266.23401 268.61096 270.70694 272.45517 274.06485
 275.79324 277.49588 279.02585 280.38547 281.56876 282.62122 283.58691 284.47504
 285.29004 286.02310 286.65036 287.51822
 366.78100 356.31901 345.73503 334.58504 322.97205 311.15006 299.00408 286.79109
 274.48710 262.36812 250.36113 239.64614 229.75215 220.84017 213.00618 205.99219
 199.81020 194.73222 191.29823 189.32424 188.34526 188.39327 189.21228 190.50429
 192.21331 194.29232 196.53933 198.88235 201.31136 203.77537 205.84738 207.67340
 209.28341 210.41242 210.62544 210.83745 210.75846 210.44747 210.06449 209.67850
 209.27951 208.97353 208.76554 208.61355 208.52556 208.84058 209.21059 209.58360
 210.36061 211.52263 212.75664 214.52365 216.43567 218.46268 220.54169 222.60870
 224.65272 226.72073 228.80174 230.89176 233.00477 235.16078 237.40079 239.75481
 242.35982 244.59483 246.58085 248.32986 249.73087 250.83788 251.64390 251.94391
 251.96492 251.72293 251.06695 249.99896 248.58897 246.73399 244.62700 242.44401
 240.21902 238.00704 235.81105 233.63406 231.47808 229.32909 227.33910 225.48011
 223.74713 222.20314 220.81715 219.57317 218.43918 217.38319 216.47120 215.59622
 214.82223 213.98624 213.06826 212.41627 211.85028 212.88261 215.32161 217.62112
 218.89568 220.45766 222.03455 223.50938 225.04703 226.58893 228.92926 230.57367
 231.19919 231.68782 233.57930 237.34610 241.84599 246.29152 250.45894 254.35358
 257.82278 260.87839 263.64307 266.23395 268.62598 270.74466 272.48785 274.08777
 275.77985 277.50555 279.03998 280.40033 281.58289 282.63416 283.59988 284.48810
 285.30197 286.03464 286.66165 287.52817
 366.78100 356.31767 345.73233 334.58100 322.96666 311.14333 298.99600 286.78166
 274.47633 262.35599 250.34766 239.63133 229.73599 220.82266 212.98732 205.97199
 199.78866 194.70932 191.27399 189.29866 188.31832 188.36499 189.18265 190.47332
 192.18099 194.25865 196.50432 198.84598 201.27365 203.73632 205.80698 207.63165
 209.24031 210.36798 210.57965 210.79031 210.70998 210.39764 210.01331 209.62598
 209.22564 208.91831 208.70897 208.55564 208.46631 208.77997 209.14864 209.52031
 210.29597 211.45664 212.68930 214.45497 216.36564 218.39130 220.46897 222.53463
 224.57730 226.64397 228.72363 230.81230 232.92396 235.07863 237.31730 239.66996
 242.27363 244.50729 246.49196 248.23963 249.63929 250.74496 251.54962 251.84829
 251.86796 251.62462 250.96729 249.89796 248.48662 246.63029 244.52195 242.33762
 240.11129 237.89795 235.70062 233.52228 231.36495 229.21462 227.22328 225.36295
 223.62861 222.08328 220.69595 219.45061 218.31528 217.25794 216.34461 215.46828
 214.69294 213.85561 212.93627 212.28294 211.71561 212.82207 215.43620 217.77928
 218.95856 220.44920 222.07094 223.61720 225.15053 226.66548 228.95979 230.45467
 230.94620 231.38905 233.35667 237.21205 241.75633 246.19995 250.36797 254.26166
 257.75723 260.85864 263.66528 266.27014 268.67117 270.80368 272.54135 274.12430
 275.78616 277.51199 279.05023 280.41202 281.59445 282.64606 283.61292 284.49930
 285.31314 286.04803 286.67825 287.54767
 366.78100 356.31677 345.73054 334.57831 322.96308 311.13885 298.99061 286.77538
 274.46915 262.34792 250.33869 239.62146 229.72523 220.81100 212.97477 205.95854
 199.77431 194.69408 191.25784 189.28161 188.30038 188.34615 189.16292 190.45269
 192.15946 194.23623 196.48100 198.82177 201.24854 203.71031 205.78007 207.60384
 209.21161 210.33838 210.54915 210.75892 210.67769 210.36446 209.97923 209.59100
 209.18977 208.88154 208.67130 208.51707 208.42684 208.73961 209.10738 209.47815
 210.25292 211.41269 212.64446 214.40923 216.31900 218.34377 220.42053 222.48530
 224.52707 226.59284 228.67161 230.75938 232.87015 235.02392 237.26169 239.61346
 242.21623 244.44900 246.43276 248.17953 249.57830 250.68307 251.48684 251.78461
 251.80338 251.55915 250.90092 249.83069 248.41846 246.56122 244.45199 242.26676
 240.03953 237.82530 235.62707 233.44784 231.28961 229.13838 227.14615 225.28492
 223.54969 222.00345 220.61522 219.36899 218.23276 217.17453 216.26030 215.38307
 214.60684 213.76861 212.84838 212.19415 211.62592 212.78804 215.53369 217.90744
 219.04012 220.51660 222.07903 223.63374 225.27940 226.79179 229.01370 230.35257
 230.67244 231.03096 233.07825 237.07988 241.68697 246.13284 250.29671 254.19028
 257.70148 260.84128 263.68750 266.30295 268.70792 270.85269 272.58249 274.14435
 275.79160 277.52139 279.06415 280.42575 281.60965 282.66312 283.62854 284.51556
 285.32858 286.06461 286.69693 287.57101
 366.78100 356.31643 345.72987 334.57730 322.96174 311.13717 298.98861 286.77304
 274.46648 262.34491 250.33535 239.61778 229.72122 220.80665 212.97009 205.95352
 199.76895 194.68839 191.25182 189.27526 188.29369 188.33913 189.15556 190.44500
 192.15143 194.22787 196.47230 198.81274 201.23917 203.70061 205.77004 207.59348
 209.20091 210.32734 210.53778 210.74721 210.66565 210.35208 209.96652 209.57795
 209.17639 208.86782 208.65726 208.50269 208.41213 208.72456 209.09200 209.46243
 210.23686 211.39630 212.62773 214.39217 216.30160 218.32604 220.40247 222.46691
 224.50834 226.57378 228.65221 230.73965 232.85008 235.00352 237.24095 239.59239
 242.19482 244.42725 246.41069 248.15712 249.55556 250.65999 251.46343 251.76086
 251.77930 251.53473 250.87617 249.80560 248.39304 246.53547 244.42591 242.24034
 240.01277 237.79821 235.59964 233.42008 231.26151 229.10995 227.11738 225.25582
 223.52025 221.97369 220.58512 219.33856 218.20199 217.14343 216.22886 215.35129
 214.57473 213.73616 212.81560 212.16103 211.59247 212.78516 215.60303 218.03169
 219.12366 220.58955 222.16284 223.76204 225.30917 226.79176 229.05539 230.38080
 230.40103 230.49843 232.83604 237.02199 241.64764 246.10184 250.24731 254.12384
 257.65005 260.82788 263.71060 266.33408 268.74240 270.89966 272.62155 274.16330
 275.79938 277.53073 279.07721 280.44058 281.62500 282.67877 283.64413 284.53299
 285.34741 286.08160 286.72116 287.59769
 366.78100 356.31633 345.72966 334.57700 322.96133 311.13666 298.98799 286.77232
 274.46565 262.34399 250.33432 239.61665 229.71998 220.80531 212.96864 205.95198
 199.76731 194.68664 191.24997 189.27330 188.29163 188.33697 189.15330 190.44263
 192.14896 194.22529 196.46962 198.80996 201.23629 203.69762 205.76695 207.59028
 209.19761 210.32395 210.53428 210.74361 210.66194 210.34827 209.96260 209.57394
 209.17227 208.86360 208.65293 208.49826 208.40759 208.71993 209.08726 209.45759
 210.23192 211.39125 212.62258 214.38692 216.29625 218.32058 220.39691 222.46124
 224.50257 226.56791 228.64624 230.73357 232.84390 234.99723 237.23456 239.58590
 242.18823 244.42056 246.40389 248.15022 249.54855 250.65289 251.45622 251.75355
 251.77188 251.52721 250.86854 249.79788 248.38521 246.52754 244.41787 242.23220
 240.00453 237.78987 235.59120 233.41153 231.25286 229.10119 227.10852 225.24686
 223.51119 221.96452 220.57585 219.32918 218.19252 217.13385 216.21918 215.34151
 214.56484 213.72617 212.80551 212.15084 211.58217 212.79578 215.66307 218.14214
 219.22150 220.64731 222.28865 223.93954 225.35783 226.77733 228.99005 230.24582
 230.10161 230.11295 232.67116 236.98073 241.61208 246.06227 250.19679 254.06017
 257.60193 260.81830 263.73499 266.36508 268.77664 270.94067 272.65063 274.17606
 275.80649 277.54102 279.08997 280.45676 281.64328 282.69791 283.66754 284.55545
 285.37268 286.10904 286.75555 287.63763
 366.78100 356.31628 345.72956 334.57683 322.96111 311.13639 298.98767 286.77194
 274.46522 262.34350 250.33378 239.61605 229.71933 220.80461 212.96789 205.95117
 199.76644 194.68572 191.24900 189.27228 188.29055 188.33583 189.15211 190.44139
 192.14766 194.22394 196.46822 198.80850 201.23477 203.69605 205.76533 207.58861
 209.19589 210.32216 210.53244 210.74172 210.66000 210.34627 209.96055 209.57183
 209.17011 208.86138 208.65066 208.49594 208.40522 208.71750 209.08477 209.45505
 210.22933 211.38861 212.61988 214.38416 216.29344 218.31772 220.39399 222.45827
 224.49955 226.56483 228.64310 230.73038 232.84066 234.99394 237.23122 239.58249
 242.18477 244.41705 246.40033 248.14660 249.54488 250.64916 251.45244 251.74971
 251.76799 251.52327 250.86455 249.79383 248.38110 246.52338 244.41366 242.22794
 240.00021 237.78549 235.58677 233.40705 231.24832 229.09660 227.10388 225.24216
 223.50643 221.95971 220.57099 219.32427 218.18755 217.12882 216.21410 215.33638
 214.55966 213.72093 212.80021 212.14549 211.57677 212.81070 215.72601 218.23500
 219.33029 220.71986 222.37698 224.09610 225.48393 226.82071 228.85503 229.96828
 229.79037 229.85321 232.53355 236.93015 241.57468 246.02371 250.14246 253.99806
 257.55978 260.81281 263.76126 266.39679 268.80939 270.97699 272.67542 274.18616
 275.80875 277.54504 279.09744 280.46597 281.65329 282.70929 283.68069 284.57172
 285.39008 286.13156 286.78391 287.68964
 366.78100 356.31639 345.72979 334.57718 322.96157 311.13696 298.98836 286.77275
 274.46614 262.34454 250.33493 239.61732 229.72071 220.80611 212.96950 205.95289
 199.76829 194.68768 191.25107 189.27446 188.29286 188.33825 189.15464 190.44404
 192.15043 194.22682 196.47121 198.81161 201.23800 203.69939 205.76879 207.59218
 209.19957 210.32596 210.53636 210.74575 210.66414 210.35054 209.96493 209.57632
 209.17471 208.86611 208.65550 208.50089 208.41029 208.72268 209.09007 209.46047
 210.23486 211.39425 212.62564 214.39004 216.29943 218.32382 220.40022 222.46461
 224.50600 226.57139 228.64979 230.73718 232.84757 235.00097 237.23836 239.58975
 242.19214 244.42454 246.40793 248.15432 249.55272 250.65711 251.46050 251.75789
 251.77629 251.53168 250.87307 249.80247 248.38986 246.53225 244.42264 242.23704
 240.00943 237.79482 235.59622 233.41661 231.25800 229.10639 227.11379 225.25218
 223.51657 221.96997 220.58136 219.33475 218.19814 217.13954 216.22493 215.34732
 214.57072 213.73211 212.81150 212.15689 211.58829 212.83540 215.78186 218.32463
 219.43509 220.82341 222.44238 224.18164 225.63206 226.89999 228.71263 229.67920
 229.49223 229.62787 232.39514 236.86627 241.54559 245.99025 250.09232 253.94029
 257.51965 260.80862 263.78790 266.42892 268.84009 271.00940 272.69760 274.19510
 275.80862 277.54581 279.10040 280.46970 281.65808 282.71533 283.68689 284.57797
 285.39566 286.13681 286.79178 287.70361
 366.78100 356.31656 345.73011 334.57767 322.96222 311.13778 298.98934 286.77389
 274.46745 262.34600 250.33656 239.61911 229.72267 220.80823 212.97178 205.95534
 199.77089 194.69045 191.25401 189.27756 188.29612 188.34167 189.15823 190.44778
 192.15434 194.23090 196.47545 198.81601 201.24256 203.70412 205.77368 207.59723
 209.20479 210.33134 210.54190 210.75145 210.67001 210.35657 209.97112 209.58268
 209.18123 208.87279 208.66235 208.50790 208.41746 208.73001 209.09757 209.46812
 210.24268 211.40224 212.63379 214.39835 216.30790 218.33246 220.40902 222.47357
 224.51513 226.58068 228.65924 230.74679 232.85735 235.01091 237.24846 239.60002
 242.20257 244.43513 246.41869 248.16524 249.56380 250.66835 251.47191 251.76946
 251.78802 251.54358 250.88513 249.81469 248.40224 246.54480 244.43536 242.24991
 240.02247 237.80802 235.60958 233.43013 231.27169 229.12025 227.12780 225.26636
 223.53091 221.98447 220.59603 219.34958 218.21314 217.15469 216.24025 215.36280
 214.58636 213.74792 212.82747 212.17303 211.60458 212.86369 215.83850 218.40652
 219.53102 220.94501 222.53757 224.22755 225.73087 226.96915 228.59203 229.42555
 229.19398 229.40871 232.27032 236.80539 241.52180 245.96109 250.04869 253.88618
 257.47803 260.79974 263.81149 266.45889 268.86966 271.03659 272.71667 274.20230
 275.80844 277.54602 279.10236 280.47235 281.66116 282.71909 283.69095 284.58212
 285.39838 286.13989 286.79492 287.71167
 366.78100 356.31670 345.73040 334.57810 322.96281 311.13851 298.99021 286.77491
 274.46861 262.34731 250.33801 239.62072 229.72442 220.81012 212.97382 205.95752
 199.77322 194.69292 191.25663 189.28033 188.29903 188.34473 189.16143 190.45113
 192.15783 194.23454 196.47924 198.81994 201.24664 203.70834 205.77804 207.60174
 209.20944 210.33615 210.54685 210.75655 210.67525 210.36195 209.97665 209.58835
 209.18706 208.87876 208.66846 208.51416 208.42386 208.73656 209.10426 209.47497
 210.24967 211.40937 212.64107 214.40577 216.31547 218.34017 220.41688 222.48158
 224.52328 226.58898 228.66768 230.75538 232.86608 235.01979 237.25749 239.60919
 242.21189 244.44459 246.42829 248.17499 249.57370 250.67840 251.48210 251.77980
 251.79850 251.55420 250.89590 249.82561 248.41331 246.55601 244.44671 242.26141
 240.03411 237.81981 235.62152 233.44222 231.28392 229.13262 227.14032 225.27902
 223.54372 221.99743 220.60913 219.36283 218.22653 217.16823 216.25393 215.37663
 214.60034 213.76204 212.84174 212.18744 211.61914 212.89198 215.89919 218.47498
 219.63014 221.06548 222.64471 224.27930 225.79947 227.00572 228.49254 229.18692
 228.89459 229.20331 232.16336 236.74976 241.49461 245.93123 250.01070 253.83879
 257.43835 260.78784 263.82986 266.48624 268.89667 271.05957 272.73242 274.20715
 275.80640 277.54449 279.10178 280.47281 281.66162 282.72015 283.69217 284.58313
 285.39981 286.14020 286.79453 287.71710
 366.78100 356.31689 345.73077 334.57866 322.96355 311.13943 298.99132 286.77621
 274.47009 262.34898 250.33987 239.62275 229.72664 220.81253 212.97641 205.96030
 199.77619 194.69607 191.25996 189.28385 188.30273 188.34862 189.16551 190.45539
 192.16228 194.23917 196.48405 198.82494 201.25183 203.71371 205.78360 207.60749
 209.21537 210.34226 210.55315 210.76303 210.68192 210.36881 209.98369 209.59558
 209.19447 208.88635 208.67624 208.52213 208.43201 208.74490 209.11279 209.48367
 210.25856 211.41845 212.65033 214.41522 216.32511 218.34999 220.42688 222.49177
 224.53365 226.59954 228.67843 230.76631 232.87720 235.03109 237.26897 239.62086
 242.22375 244.45663 246.44052 248.18741 249.58629 250.69118 251.49507 251.79295
 251.81184 251.56773 250.90961 249.83950 248.42739 246.57027 244.46116 242.27605
 240.04893 237.83482 235.63671 233.45759 231.29948 229.14837 227.15625 225.29514
 223.56003 222.01391 220.62580 219.37968 218.24357 217.18546 216.27134 215.39423
 214.61812 213.78000 212.85989 212.20578 211.63766 212.92299 215.95969 218.53467
 219.73596 221.17786 222.74811 224.35403 225.85484 227.01118 228.41559 228.94934
 228.60120 229.02020 232.06506 236.69566 241.45761 245.89677 249.97617 253.79967
 257.40442 260.77460 263.84158 266.50845 268.91953 271.07755 272.74295 274.20761
 275.80310 277.54099 279.09930 280.46976 281.66068 282.71790 283.68961 284.58023
 285.39462 286.13632 286.78876 287.71323
 366.78100 356.31714 345.73129 334.57943 322.96457 311.14071 298.99286 286.77800
 274.47214 262.35129 250.34243 239.62557 229.72971 220.81586 212.98000 205.96414
 199.78029 194.70043 191.26457 189.28871 188.30786 188.35400 189.17114 190.46129
 192.16843 194.24557 196.49071 198.83186 201.25900 203.72114 205.79129 207.61543
 209.22357 210.35071 210.56186 210.77200 210.69114 210.37829 209.99343 209.60557
 209.20471 208.89686 208.68700 208.53314 208.44329 208.75643 209.12457 209.49571
 210.27086 211.43100 212.66314 214.42828 216.33843 218.36357 220.44071 222.50586
 224.54800 226.61414 228.69328 230.78143 232.89257 235.04671 237.28486 239.63700
 242.24014 244.47328 246.45743 248.20457 249.60371 250.70886 251.51300 251.81114
 251.83028 251.58643 250.92857 249.85871 248.44686 246.59000 244.48114 242.29628
 240.06943 237.85557 235.65771 233.47886 231.32100 229.17014 227.17828 225.31743
 223.58257 222.03671 220.64886 219.40300 218.26714 217.20928 216.29543 215.41857
 214.64271 213.80486 212.88500 212.23114 211.66328 212.95792 216.01660 218.59052
 219.83781 221.28619 222.85503 224.44504 225.89037 226.99876 228.35292 228.71391
 228.32054 228.86284 231.97522 236.63681 241.41196 245.85696 249.94148 253.76472
 257.37378 260.75943 263.84769 266.52570 268.93677 271.08737 272.74719 274.20551
 275.79675 277.53452 279.09348 280.46469 281.65469 282.71280 283.68500 284.57553
 285.38913 286.13049 286.78427 287.71066
 366.78100 356.31744 345.73189 334.58033 322.96577 311.14222 298.99466 286.78010
 274.47455 262.35399 250.34543 239.62887 229.73332 220.81976 212.98420 205.96865
 199.78509 194.70553 191.26998 189.29442 188.31386 188.36031 189.17775 190.46819
 192.17564 194.25308 196.49852 198.83996 201.26741 203.72985 205.80029 207.62474
 209.23318 210.36062 210.57207 210.78251 210.70195 210.38940 210.00484 209.61728
 209.21673 208.90917 208.69961 208.54605 208.45650 208.76994 209.13838 209.50983
 210.28527 211.44571 212.67816 214.44360 216.35404 218.37949 220.45693 222.52237
 224.56482 226.63126 228.71070 230.79915 232.91059 235.06503 237.30347 239.65592
 242.25936 244.49280 246.47725 248.22469 249.62413 250.72958 251.53402 251.83246
 251.85191 251.60835 250.95079 249.88124 248.46968 246.61312 244.50456 242.32001
 240.09345 237.87989 235.68234 233.50378 231.34622 229.19567 227.20411 225.34355
 223.60900 222.06344 220.67588 219.43033 218.29477 217.23721 216.32365 215.44710
 214.67154 213.83398 212.91443 212.26087 211.69331 212.99512 216.07079 218.64265
 219.93129 221.39500 222.97041 224.54178 225.90839 226.98138 228.29216 228.48351
 228.05637 228.73181 231.89977 236.57628 241.36119 245.81433 249.90721 253.73166
 257.34302 260.74008 263.84641 266.53723 268.94852 271.08957 272.74564 274.20197
 275.79111 277.52957 279.08865 280.46069 281.65213 282.71045 283.68292 284.57379
 285.38956 286.12958 286.78394 287.71481
 366.78100 356.31776 345.73252 334.58127 322.96703 311.14379 298.99655 286.78231
 274.47706 262.35682 250.34858 239.63234 229.73710 220.82385 212.98861 205.97337
 199.79013 194.71088 191.27564 189.30040 188.32016 188.36692 189.18467 190.47543
 192.18319 194.26095 196.50671 198.84846 201.27622 203.73898 205.80974 207.63450
 209.24325 210.37101 210.58277 210.79353 210.71329 210.40104 210.01680 209.62956
 209.22932 208.92207 208.71283 208.55959 208.47035 208.78411 209.15286 209.52462
 210.30038 211.46114 212.69390 214.45965 216.37041 218.39617 220.47393 222.53969
 224.58244 226.64920 228.72896 230.81772 232.92948 235.08423 237.32299 239.67575
 242.27951 244.51327 246.49802 248.24578 249.64554 250.75130 251.55605 251.85481
 251.87457 251.63133 250.97409 249.90484 248.49360 246.63736 244.52912 242.34488
 240.11863 237.90539 235.70815 233.52991 231.37267 229.22242 227.23118 225.37094
 223.63670 222.09146 220.70421 219.45897 218.32373 217.26649 216.35324 215.47700
 214.70176 213.86452 212.94528 212.29203 211.72479 213.03294 216.12361 218.68945
 220.01747 221.50986 223.08803 224.63309 225.92136 226.96667 228.22447 228.26358
 227.81287 228.62061 231.83649 236.51657 241.30846 245.77095 249.87401 253.70105
 257.31137 260.71527 263.83664 266.54297 268.95413 271.08258 272.73734 274.19565
 275.78726 277.52737 279.08710 280.45920 281.65125 282.71201 283.68408 284.57504
 285.39175 286.13113 286.78729 287.71924
 366.78100 356.31810 345.73319 334.58229 322.96838 311.14548 298.99858 286.78467
 274.47977 262.35987 250.35196 239.63606 229.74115 220.82825 212.99335 205.97844
 199.79554 194.71664 191.28173 189.30683 188.32692 188.37402 189.19212 190.48321
 192.19131 194.26941 196.51550 198.85760 201.28569 203.74879 205.81989 207.64498
 209.25408 210.38218 210.59427 210.80537 210.72546 210.41356 210.02966 209.64275
 209.24285 208.93594 208.72704 208.57414 208.48523 208.79933 209.16843 209.54052
 210.31662 211.47771 212.71081 214.47691 216.38800 218.41410 220.49220 222.55829
 224.60139 226.66848 228.74858 230.83768 232.94977 235.10487 237.34397 239.69706
 242.30116 244.53525 246.52035 248.26845 249.66854 250.77464 251.57973 251.87883
 251.89893 251.65602 250.99912 249.93022 248.51931 246.66341 244.55550 242.37160
 240.14570 237.93279 235.73589 233.55799 231.40108 229.25118 227.26027 225.40037
 223.66647 222.12156 220.73466 219.48976 218.35485 217.29795 216.38504 215.50914
 214.73424 213.89733 212.97843 212.32553 211.75862 213.07169 216.17395 218.73253
 220.09808 221.62672 223.20685 224.71298 225.93259 226.96397 228.15387 228.04916
 227.58571 228.52692 231.78435 236.45695 241.25151 245.72629 249.84404 253.67546
 257.28104 260.68661 263.81900 266.54239 268.95172 271.06497 272.72037 274.18573
 275.78513 277.52701 279.08755 280.46146 281.65292 282.71344 283.68716 284.57733
 285.39542 286.13474 286.79269 287.72525
 366.78100 356.31844 345.73388 334.58332 322.96976 311.14720 299.00064 286.78708
 274.48252 262.36296 250.35540 239.63984 229.74529 220.83273 212.99817 205.98361
 199.80105 194.72249 191.28793 189.31337 188.33381 188.38125 189.19969 190.49113
 192.19957 194.27801 196.52445 198.86689 201.29533 203.75877 205.83021 207.65565
 209.26509 210.39353 210.60598 210.81742 210.73786 210.42630 210.04274 209.65618
 209.25662 208.95006 208.74150 208.58894 208.50038 208.81482 209.18426 209.55670
 210.33314 211.49458 212.72802 214.49446 216.40590 218.43234 220.51078 222.57722
 224.62067 226.68811 228.76855 230.85799 232.97043 235.12587 237.36531 239.71875
 242.32319 244.55763 246.54307 248.29151 249.69195 250.79839 251.60383 251.90327
 251.92371 251.68115 251.02459 249.95603 248.54547 246.68991 244.58236 242.39880
 240.17324 237.96068 235.76412 233.58656 231.43000 229.28044 227.28988 225.43032
 223.69676 222.15220 220.76564 219.52108 218.38652 217.32996 216.41740 215.54184
 214.76728 213.93072 213.01216 212.35960 211.79305 213.11057 216.22337 218.77385
 220.17885 221.73451 223.32231 224.79787 225.95535 226.95845 228.07925 227.85063
 227.37576 228.44267 231.73454 236.39519 241.19525 245.68393 249.81688 253.65315
 257.25165 260.65454 263.79498 266.53479 268.94260 271.03976 272.69724 274.16788
 275.78427 277.52939 279.09122 280.46423 281.65692 282.71939 283.69296 284.58420
 285.40002 286.14026 286.79788 287.73325
 366.78100 356.31878 345.73455 334.58433 322.97111 311.14888 299.00266 286.78944
 274.48521 262.36599 250.35877 239.64354 229.74932 220.83710 213.00287 205.98865
 199.80643 194.72820 191.29398 189.31976 188.34053 188.38831 189.20709 190.49886
 192.20764 194.28642 196.53319 198.87597 201.30474 203.76852 205.84030 207.66607
 209.27585 210.40463 210.61740 210.82918 210.74996 210.43873 210.05551 209.66929
 209.27006 208.96384 208.75562 208.60339 208.51517 208.82995 209.19972 209.57250
 210.34928 211.51105 212.74483 214.51161 216.42338 218.45016 220.52894 222.59571
 224.63949 226.70727 228.78804 230.87782 232.99060 235.14637 237.38615 239.73993
 242.34470 244.57948 246.56526 248.31403 249.71481 250.82159 251.62736 251.92714
 251.94792 251.70569 251.04947 249.98125 248.57102 246.71580 244.60857 242.42535
 240.20013 237.98790 235.79168 233.61446 231.45823 229.30901 227.31879 225.45956
 223.72634 222.18212 220.79589 219.55167 218.41745 217.36122 216.44900 215.57378
 214.79955 213.96333 213.04511 212.39288 211.82666 213.14825 216.27069 218.81984
 220.24585 221.84407 223.43214 224.87282 225.98875 226.98149 227.99739 227.65266
 227.18279 228.36592 231.69417 236.33707 241.13403 245.63602 249.78989 253.63460
 257.22562 260.62122 263.76553 266.52136 268.92679 271.00665 272.66766 274.16025
 275.78177 277.52841 279.09039 280.46536 281.66040 282.72153 283.69547 284.58749
 285.40222 286.14450 286.79910 287.73993
 366.78100 356.31947 345.73594 334.58640 322.97387 311.15234 299.00681 286.79427
 274.49074 262.37221 250.36568 239.65114 229.75761 220.84608 213.01255 205.99901
 199.81748 194.73995 191.30642 189.33288 188.35435 188.40282 189.22229 190.51475
 192.22422 194.30369 196.55116 198.89462 201.32409 203.78856 205.86103 207.68749
 209.29796 210.42743 210.64090 210.85336 210.77483 210.46430 210.08177 209.69623
 209.29770 208.99217 208.78464 208.63310 208.54557 208.86104 209.23151 209.60497
 210.38244 211.54491 212.77938 214.54684 216.45931 218.48678 220.56625 222.63371
 224.67818 226.74665 228.82812 230.91858 233.03205 235.18852 237.42899 239.78345
 242.38892 244.62439 246.61086 248.36032 249.76179 250.86926 251.67573 251.97619
 251.99766 251.75613 251.10060 250.03306 248.62353 246.76900 244.66247 242.47993
 240.25540 238.04387 235.84834 233.67180 231.51627 229.36774 227.37821 225.51967
 223.78714 222.24361 220.85808 219.61454 218.48101 217.42548 216.51395 215.63941
 214.86588 214.03035 213.11282 212.46128 211.89575 213.20390 216.29456 218.87560
 220.32079 221.95358 223.52574 224.91748 226.02425 227.01576 227.95164 227.47600
 226.98442 228.28508 231.63742 236.26559 241.06813 245.59470 249.77460 253.62566
 257.20395 260.58698 263.73245 266.50281 268.90582 270.96851 272.63235 274.10620
 275.78775 277.54285 279.10278 280.47604 281.66922 282.73077 283.70407 284.59665
 285.41223 286.15262 286.80936 287.74802
 366.78100 356.32010 345.73720 334.58830 322.97640 311.15550 299.01060 286.79870
 274.49580 262.37791 250.37201 239.65811 229.76521 220.85431 213.02141 206.00851
 199.82761 194.75071 191.31781 189.34491 188.36701 188.41611 189.23621 190.52931
 192.23941 194.31952 196.56762 198.91172 201.34182 203.80692 205.88002 207.70712
 209.31822 210.44832 210.66242 210.87552 210.79762 210.48772 210.10582 209.72092
 209.32302 209.01812 208.81123 208.66033 208.57343 208.88953 209.26063 209.63473
 210.41283 211.57593 212.81103 214.57913 216.49223 218.52033 220.60043 222.66853
 224.71363 226.78273 228.86484 230.95594 233.07004 235.22714 237.46824 239.82334
 242.42944 244.66554 246.65264 248.40274 249.80484 250.91294 251.72004 252.02114
 252.04324 251.80234 251.14744 250.08055 248.67165 246.81775 244.71185 242.52995
 240.30605 238.09515 235.90025 233.72435 231.56945 229.42155 227.43265 225.57475
 223.84285 222.29995 220.91505 219.67216 218.53926 217.48436 216.57346 215.69956
 214.92666 214.09176 213.17486 212.52396 211.95906 213.25661 216.32222 218.91949
 220.38828 222.05891 223.71953 225.02933 225.95320 226.93364 227.89330 227.42009
 226.85939 228.13869 231.57118 236.21001 241.01857 245.57042 249.76547 253.61720
 257.18076 260.54877 263.69208 266.47495 268.87207 270.91489 272.58490 274.14120
 275.76736 277.51923 279.08597 280.46451 281.66132 282.72586 283.70236 284.59436
 285.41071 286.15106 286.80444 287.74905
 366.78100 356.32060 345.73820 334.58980 322.97840 311.15800 299.01360 286.80219
 274.49979 262.38239 250.37699 239.66359 229.77119 220.86079 213.02839 206.01599
 199.83559 194.75919 191.32679 189.35439 188.37699 188.42658 189.24718 190.54078
 192.25138 194.33198 196.58058 198.92518 201.35578 203.82138 205.89498 207.72258
 209.33418 210.46478 210.67937 210.89297 210.81557 210.50617 210.12477 209.74037
 209.34297 209.03857 208.83217 208.68177 208.59537 208.91197 209.28357 209.65817
 210.43676 211.60036 212.83596 214.60456 216.51816 218.54676 220.62736 222.69596
 224.74156 226.81116 228.89376 230.98536 233.09996 235.25756 237.49915 239.85475
 242.46135 244.69795 246.68555 248.43615 249.83875 250.94735 251.75495 252.05655
 252.07915 251.83875 251.18435 250.11794 248.70954 246.85614 244.75074 242.56934
 240.34594 238.13554 235.94114 233.76574 231.61134 229.46394 227.47554 225.61814
 223.88674 222.34433 220.95993 219.71753 218.58513 217.53073 216.62033 215.74693
 214.97453 214.14013 213.22373 212.57333 212.00893 213.30225 216.35785 218.94928
 220.47372 222.13567 223.84343 225.16849 226.00150 226.88115 227.73915 227.36893
 226.81609 228.01790 231.51677 236.16856 240.97485 245.54202 249.74887 253.60527
 257.15710 260.51031 263.64905 266.44403 268.83524 270.85931 272.53278 273.98035
 275.82010 277.57236 279.11404 280.48193 281.67325 282.73303 283.70621 284.59711
 285.41318 286.15033 286.80661 287.74759
 366.78100 356.32116 345.73931 334.59147 322.98063 311.16079 299.01694 286.80610
 274.50426 262.38742 250.38257 239.66973 229.77789 220.86804 213.03620 206.02436
 199.84452 194.76867 191.33683 189.36499 188.38815 188.43830 189.25946 190.55362
 192.26477 194.34593 196.59509 198.94025 201.37140 203.83756 205.91172 207.73988
 209.35203 210.48319 210.69835 210.91250 210.83566 210.52682 210.14598 209.76213
 209.36529 209.06145 208.85561 208.70576 208.61992 208.93708 209.30923 209.68439
 210.46355 211.62771 212.86386 214.63302 216.54718 218.57634 220.65749 222.72665
 224.77281 226.84296 228.92612 231.01828 233.13344 235.29159 237.53375 239.88991
 242.49707 244.73422 246.72238 248.47354 249.87669 250.98585 251.79401 252.09617
 252.11932 251.87948 251.22564 250.15980 248.75195 246.89911 244.79427 242.61342
 240.39058 238.18074 235.98690 233.81205 231.65821 229.51137 227.52353 225.66668
 223.93584 222.39400 221.01016 219.76831 218.63647 217.58263 216.67278 215.79994
 215.02810 214.19426 213.27841 212.62857 212.06473 213.35023 216.38734 218.98112
 220.56778 222.21266 223.89638 225.27934 226.12906 226.89738 227.55382 227.27853
 226.78754 227.92439 231.46983 236.13103 240.92789 245.50777 249.73242 253.59662
 257.13666 260.47458 263.60779 266.41190 268.79599 270.80182 272.47583 273.87778
 275.82077 277.58926 279.13226 280.49713 281.68597 282.74304 283.71381 284.60168
 285.41675 286.15387 286.80615 287.74680
 366.78100 356.32182 345.74065 334.59347 322.98330 311.16412 299.02094 286.81077
 274.50959 262.39341 250.38924 239.67706 229.78589 220.87671 213.04553 206.03436
 199.85518 194.78000 191.34883 189.37765 188.40148 188.45230 189.27412 190.56895
 192.28077 194.36259 196.61242 198.95824 201.39007 203.85689 205.93171 207.76054
 209.37336 210.50518 210.72101 210.93583 210.85966 210.55148 210.17130 209.78813
 209.39195 209.08878 208.88360 208.73442 208.64925 208.96707 209.33989 209.71572
 210.49554 211.66037 212.89719 214.66701 216.58184 218.61166 220.69348 222.76331
 224.81013 226.88096 228.96478 231.05760 233.17343 235.33225 237.57507 239.93190
 242.53972 244.77755 246.76637 248.51819 249.92202 251.03184 251.84066 252.14349
 252.16731 251.92814 251.27496 250.20978 248.80261 246.95043 244.84625 242.66608
 240.44390 238.23473 236.04155 233.86737 231.71420 229.56802 227.58085 225.72467
 223.99449 222.45332 221.07014 219.82896 218.69779 217.64461 216.73544 215.86326
 215.09208 214.25891 213.34373 212.69455 212.13138 213.40308 216.40764 219.02217
 220.65018 222.29752 223.93788 225.35342 226.25706 226.94458 227.40419 227.16924
 226.73007 227.83775 231.42744 236.09282 240.88106 245.47696 249.72112 253.59140
 257.11826 260.43887 263.56448 266.37469 268.75046 270.73676 272.41202 273.83148
 275.78897 277.57513 279.12723 280.49548 281.68506 282.74173 283.71417 284.60269
 285.41464 286.15222 286.80643 287.74918
 366.78100 356.32253 345.74205 334.59558 322.98610 311.16763 299.02515 286.81568
 274.51520 262.39973 250.39625 239.68478 229.79430 220.88583 213.05535 206.04488
 199.86640 194.79193 191.36145 189.39098 188.41550 188.46703 189.28956 190.58508
 192.29761 194.38013 196.63066 198.97718 201.40971 203.87723 205.95276 207.78228
 209.39581 210.52833 210.74486 210.96038 210.88491 210.57743 210.19796 209.81548
 209.42001 209.11753 208.91306 208.76458 208.68011 208.99864 209.37216 209.74869
 210.52921 211.69474 212.93226 214.70279 216.61831 218.64884 220.73136 222.80189
 224.84941 226.92094 229.00546 231.09899 233.21551 235.37504 237.61856 239.97609
 242.58461 244.82314 246.81267 248.56519 249.96972 251.08024 251.88977 252.19329
 252.21782 251.97934 251.32687 250.26239 248.85592 247.00444 244.90097 242.72149
 240.50002 238.29154 236.09907 233.92559 231.77312 229.62764 227.64117 225.78569
 224.05622 222.51575 221.13327 219.89280 218.76232 217.70985 216.80137 215.92990
 215.15942 214.32695 213.41247 212.76400 212.20152 213.45741 216.42462 219.06462
 220.72697 222.38211 223.98984 225.40860 226.37097 226.99925 227.29893 227.04532
 226.63043 227.75124 231.39038 236.05615 240.83842 245.45088 249.71254 253.58835
 257.10217 260.40442 263.52145 266.33615 268.70071 270.66614 272.34149 273.79803
 275.76166 277.55298 279.10818 280.47726 281.66870 282.72821 283.70007 284.58875
 285.40204 286.14078 286.79550 287.73370
 366.78100 356.32321 345.74343 334.59764 322.98885 311.17106 299.02928 286.82049
 274.52070 262.40591 250.40313 239.69234 229.80255 220.89476 213.06498 206.05519
 199.87740 194.80361 191.37383 189.40404 188.42925 188.48147 189.30468 190.60089
 192.31410 194.39732 196.64853 198.99574 201.42895 203.89717 205.97338 207.80359
 209.41780 210.55102 210.76823 210.98444 210.90965 210.60287 210.22408 209.84229
 209.44751 209.14572 208.94193 208.79414 208.71036 209.02957 209.40378 209.78099
 210.56221 211.72842 212.96663 214.73784 216.65406 218.68527 220.76848 222.83970
 224.88791 226.96012 229.04533 231.13955 233.25676 235.41697 237.66118 240.01940
 242.62861 244.86782 246.85803 248.61125 250.01646 251.12767 251.93788 252.24210
 252.26731 252.02952 251.37774 250.31395 248.90816 247.05737 244.95459 242.77580
 240.55501 238.34722 236.15544 233.98265 231.83086 229.68607 227.70029 225.84550
 224.11671 222.57692 221.19514 219.95535 218.82556 217.77378 216.86599 215.99520
 215.22541 214.39363 213.47984 212.83205 212.27026 213.51102 216.44246 219.10040
 220.80302 222.46178 224.04620 225.45953 226.47552 227.05829 227.22690 226.89908
 226.48946 227.66835 231.36014 236.02426 240.80211 245.42793 249.70439 253.58459
 257.08661 260.37198 263.47940 266.29663 268.65176 270.59879 272.27866 273.76349
 275.73157 277.52591 279.08420 280.45508 281.64795 282.70880 283.68161 284.57239
 285.38300 286.12402 286.77560 287.71573
 366.78100 356.32388 345.74477 334.59965 322.99153 311.17441 299.03330 286.82518
 274.52606 262.41195 250.40983 239.69971 229.81059 220.90348 213.07436 206.06524
 199.88812 194.81501 191.38589 189.41677 188.44266 188.49554 189.31942 190.61630
 192.33019 194.41407 196.66595 199.01384 201.44772 203.91660 205.99348 207.82437
 209.43925 210.57313 210.79102 211.00790 210.93378 210.62766 210.24955 209.86843
 209.47431 209.17319 208.97008 208.82296 208.73984 209.05973 209.43461 209.81249
 210.59437 211.76126 213.00014 214.77202 216.68891 218.72079 220.80467 222.87655
 224.92544 226.99832 229.08420 231.17909 233.29697 235.45785 237.70273 240.06162
 242.67150 244.91138 246.90226 248.65615 250.06203 251.17391 251.98480 252.28968
 252.31556 252.07844 251.42733 250.36421 248.95909 247.10898 245.00686 242.82874
 240.60862 238.40151 236.21039 234.03827 231.88716 229.74304 227.75792 225.90380
 224.17569 222.63657 221.25545 220.01634 218.88722 217.83610 216.92898 216.05887
 215.28975 214.45863 213.54551 212.89840 212.33728 213.56400 216.46225 219.13210
 220.87411 222.53534 224.10066 225.51012 226.57249 227.12657 227.18092 226.73599
 226.31989 227.59276 231.33601 235.99637 240.76999 245.40468 249.69221 253.57506
 257.06702 260.33731 263.43558 266.25204 268.59583 270.52713 272.20941 273.77118
 275.70044 277.49023 279.05060 280.42432 281.61810 282.68005 283.65384 284.54437
 285.35709 286.09558 286.74734 287.69022
 366.78100 356.32454 345.74608 334.60163 322.99417 311.17771 299.03725 286.82979
 274.53133 262.41788 250.41642 239.70696 229.81850 220.91204 213.08358 206.07513
 199.89867 194.82621 191.39775 189.42929 188.45583 188.50938 189.33392 190.63146
 192.34600 194.43054 196.68308 199.03163 201.46617 203.93571 206.01325 207.84479
 209.46033 210.59488 210.81342 211.03096 210.95750 210.65204 210.27458 209.89413
 209.50067 209.20021 208.99775 208.85129 208.76883 209.08938 209.46492 209.84346
 210.62600 211.79354 213.03308 214.80563 216.72317 218.75571 220.84025 222.91279
 224.96233 227.03588 229.12242 231.21796 233.33650 235.49804 237.74358 240.10313
 242.71367 244.95421 246.94575 248.70029 250.10683 251.21938 252.03092 252.33646
 252.36300 252.12654 251.47608 250.41363 249.00917 247.15971 245.05825 242.88079
 240.66133 238.45488 236.26442 234.09296 231.94250 229.79904 227.81458 225.96113
 224.23367 222.69521 221.31475 220.07629 218.94783 217.89738 216.99092 216.12146
 215.35300 214.52254 213.61008 212.96363 212.40317 213.61650 216.48312 219.16411
 220.94083 222.60088 224.15112 225.55991 226.65863 227.20500 227.15677 226.56522
 226.13455 227.52518 231.31770 235.97362 240.74284 245.38112 249.67641 253.56174
 257.04358 260.30072 263.38843 266.20251 268.53430 270.44806 272.12851 273.77542
 275.66254 277.44702 279.00903 280.38477 281.58002 282.64352 283.61697 284.50845
 285.32016 286.05682 286.70963 287.65063
 366.78100 356.32518 345.74736 334.60354 322.99672 311.18090 299.04108 286.83426
 274.53644 262.42362 250.42280 239.71398 229.82616 220.92034 213.09252 206.08470
 199.90888 194.83706 191.40924 189.44142 188.46860 188.52278 189.34796 190.64614
 192.36132 194.44650 196.69968 199.04886 201.48404 203.95422 206.03240 207.86458
 209.48076 210.61594 210.83512 211.05330 210.98048 210.67566 210.29884 209.91902
 209.52620 209.22638 209.02456 208.87874 208.79692 209.11810 209.49428 209.87346
 210.65665 211.82483 213.06501 214.83819 216.75637 218.78955 220.87473 222.94791
 224.99809 227.07227 229.15945 231.25563 233.37481 235.53699 237.78317 240.14335
 242.75453 244.99571 246.98789 248.74307 250.15025 251.26343 252.07561 252.38179
 252.40897 252.17315 251.52333 250.46151 249.05769 247.20887 245.10805 242.93123
 240.71241 238.50659 236.31677 234.14595 231.99613 229.85331 227.86949 226.01667
 224.28985 222.75203 221.37221 220.13439 219.00657 217.95675 217.05093 216.18211
 215.41429 214.58447 213.67265 213.02683 212.46701 213.66714 216.50258 219.19347
 221.00893 222.66057 224.19444 225.60274 226.73183 227.28802 227.14691 226.39958
 225.94978 227.46611 231.30585 235.95738 240.72002 245.35777 249.65662 253.54242
 257.01505 260.25867 263.33728 266.14810 268.47165 270.37546 272.07111 273.77487
 275.60904 277.38779 278.95261 280.33075 281.52695 282.59073 283.56552 284.45621
 285.26981 286.00696 286.66101 287.60013
 366.78100 356.32587 345.74874 334.60561 322.99949 311.18436 299.04523 286.83910
 274.54197 262.42984 250.42972 239.72159 229.83446 220.92933 213.10220 206.09507
 199.91995 194.84882 191.42169 189.45456 188.48243 188.53730 189.36318 190.66205
 192.37792 194.46379 196.71766 199.06753 201.50341 203.97428 206.05315 207.88602
 209.50289 210.63876 210.85864 211.07751 211.00538 210.70125 210.32512 209.94599
 209.55387 209.25474 209.05361 208.90848 208.82735 209.14922 209.52610 209.90597
 210.68984 211.85871 213.09958 214.87345 216.79232 218.82620 220.91207 222.98594
 225.03681 227.11168 229.19955 231.29643 233.41630 235.57917 237.82604 240.18691
 242.79878 245.04066 247.03353 248.78940 250.19727 251.31114 252.12401 252.43089
 252.45876 252.22363 251.57450 250.51337 249.11024 247.26212 245.16199 242.98586
 240.76773 238.56260 236.37347 234.20335 232.05422 229.91209 227.92896 226.07683
 224.35070 222.81358 221.43445 220.19732 219.07019 218.02106 217.11593 216.24781
 215.48068 214.65155 213.74042 213.09529 212.53616 213.71985 216.51640 219.22252
 221.07828 222.71867 224.23447 225.63777 226.79265 227.37814 227.14560 226.23587
 225.76872 227.41158 231.29749 235.94913 240.70480 245.33702 249.63928 253.52708
 256.99335 260.22495 263.29364 266.10416 268.42191 270.31210 271.91754 273.60132
 275.56049 277.34613 278.90363 280.27734 281.47192 282.53531 283.51154 284.40222
 285.21555 285.95593 286.60757 287.54764
 366.78100 356.32659 345.75018 334.60777 323.00236 311.18795 299.04954 286.84413
 274.54772 262.43631 250.43690 239.72949 229.84308 220.93867 213.11226 206.10585
 199.93145 194.86104 191.43463 189.46822 188.49681 188.55240 189.37899 190.67858
 192.39517 194.48176 196.73635 199.08694 201.52353 203.99512 206.07471 207.90830
 209.52589 210.66248 210.88307 211.10266 211.03125 210.72784 210.35243 209.97402
 209.58261 209.28420 209.08379 208.93938 208.85897 209.18156 209.55915 209.93975
 210.72434 211.89393 213.13552 214.91011 216.82970 218.86429 220.95088 223.02547
 225.07706 227.15265 229.24124 231.33883 233.45942 235.62301 237.87060 240.23219
 242.84478 245.08737 247.08096 248.83755 250.24614 251.36073 252.17432 252.48191
 252.51050 252.27609 251.62768 250.56727 249.16486 247.31745 245.21805 243.04264
 240.82523 238.62082 236.43241 234.26300 232.11459 229.97318 227.99077 226.13936
 224.41395 222.87754 221.49913 220.26272 219.13631 218.08790 217.18349 216.31608
 215.54967 214.72126 213.81085 213.16644 212.60803 213.77361 216.52744 219.24591
 221.15608 222.76826 224.26778 225.67586 226.85153 227.46718 227.15248 226.07880
 225.58594 227.35492 231.29114 235.94377 240.68938 245.31123 249.61362 253.50284
 256.96246 260.18237 263.23975 266.04727 268.35721 270.23889 271.91693 273.60175
 275.49707 277.27487 278.83252 280.20663 281.39990 282.46347 283.43896 284.33286
 285.14600 285.88974 286.54358 287.48352
 366.78100 356.32735 345.75169 334.61004 323.00538 311.19173 299.05408 286.84942
 274.55377 262.44312 250.44446 239.73781 229.85215 220.94850 213.12285 206.11719
 199.94354 194.87389 191.44823 189.48258 188.51192 188.56827 189.39562 190.69596
 192.41331 194.50066 196.75600 199.10735 201.54469 204.01704 206.09739 207.93173
 209.55008 210.68743 210.90877 211.12912 211.05846 210.75581 210.38116 210.00350
 209.61285 209.31520 209.11554 208.97189 208.89223 209.21558 209.59393 209.97527
 210.76062 211.93097 213.17331 214.94866 216.86900 218.90435 220.99170 223.06704
 225.11939 227.19574 229.28508 231.38343 233.50477 235.66912 237.91747 240.27981
 242.89316 245.13651 247.13085 248.88820 250.29754 251.41289 252.22724 252.53558
 252.56493 252.33128 251.68362 250.62397 249.22231 247.37566 245.27701 243.10235
 240.88570 238.68205 236.49439 234.32574 232.17808 230.03743 228.05578 226.20512
 224.48047 222.94482 221.56716 220.33151 219.20585 218.15820 217.25455 216.38789
 215.62224 214.79459 213.88493 213.24128 212.68362 213.82890 216.53476 219.26973
 221.23087 222.82471 224.28046 225.69052 226.91995 227.57562 227.15991 225.93568
 225.42505 227.29800 231.27853 235.93929 240.67590 245.28522 249.58569 253.47427
 256.92941 260.13913 263.18884 265.99918 268.31085 270.18881 271.89642 273.54404
 275.43762 277.20563 278.75928 280.12894 281.32117 282.38196 283.35776 284.24994
 285.06543 285.80789 286.46429 287.40607
 366.78100 356.32822 345.75344 334.61267 323.00889 311.19611 299.05933 286.85556
 274.56078 262.45100 250.45322 239.74745 229.86267 220.95989 213.13511 206.13034
 199.95756 194.88878 191.46400 189.49923 188.52945 188.58667 189.41489 190.71612
 192.43434 194.52256 196.77878 199.13100 201.56923 204.04245 206.12367 207.95889
 209.57812 210.71634 210.93856 211.15978 211.09001 210.78823 210.41445 210.03767
 209.64790 209.35112 209.15234 209.00956 208.93079 209.25501 209.63423 210.01645
 210.80268 211.97390 213.21712 214.99334 216.91456 218.95079 221.03901 223.11523
 225.16845 227.24568 229.33590 231.43512 233.55734 235.72257 237.97179 240.33501
 242.94923 245.19346 247.18868 248.94690 250.35712 251.47335 252.28857 252.59779
 252.62801 252.39524 251.74846 250.68968 249.28890 247.44312 245.34535 243.17157
 240.95579 238.75301 236.56624 234.39846 232.25168 230.11190 228.13113 226.28135
 224.55757 223.02279 221.64602 220.41124 219.28646 218.23968 217.33691 216.47113
 215.70635 214.87957 213.97080 213.32802 212.77124 213.88971 216.53223 219.29802
 221.30873 222.86136 224.30801 225.70068 226.95573 227.69089 227.20444 225.78682
 225.24048 227.24240 231.27254 235.94241 240.66882 245.25951 249.55353 253.44170
 256.89532 260.09796 263.14078 265.95636 268.27283 270.14496 271.85590 273.44894
 275.38177 277.11343 278.65820 280.02927 281.22058 282.28391 283.25974 284.15366
 284.96924 285.71414 286.37262 287.31042
 366.78100 356.32887 345.75475 334.61462 323.01150 311.19937 299.06325 286.86012
 274.56600 262.45687 250.45974 239.75462 229.87049 220.96837 213.14424 206.14012
 199.96799 194.89986 191.47574 189.51161 188.54249 188.60036 189.42924 190.73111
 192.44999 194.53886 196.79573 199.14861 201.58748 204.06136 206.14323 207.97911
 209.59898 210.73786 210.96073 211.18260 211.11348 210.81235 210.43923 210.06310
 209.67398 209.37785 209.17973 209.03760 208.95947 209.28435 209.66422 210.04710
 210.83397 212.00585 213.24972 215.02659 216.94847 218.98534 221.07422 223.15109
 225.20497 227.28284 229.37372 231.47359 233.59646 235.76234 238.01221 240.37609
 242.99096 245.23584 247.23171 248.99059 250.40146 251.51833 252.33421 252.64408
 252.67496 252.44283 251.79671 250.73858 249.33846 247.49333 245.39620 243.22308
 241.00795 238.80583 236.61970 234.45258 232.30645 230.16732 228.18720 226.33807
 224.61495 223.08082 221.70470 220.47057 219.34645 218.30032 217.39819 216.53307
 215.76894 214.94282 214.03469 213.39257 212.83644 213.93916 216.54448 219.30127
 221.41017 222.91214 224.25999 225.71687 227.06281 227.80258 227.22792 225.66200
 225.08250 227.19429 231.26883 235.94724 240.65967 245.22714 249.51382 253.40318
 256.85861 260.05585 263.09097 265.90933 268.22781 270.09393 271.80988 273.48227
 275.25644 277.00418 278.55789 279.92902 281.12244 282.18478 283.16208 284.05722
 284.87482 285.62125 286.27954 287.22049
 366.78100 356.32952 345.75604 334.61656 323.01408 311.20261 299.06713 286.86465
 274.57117 262.46269 250.46621 239.76173 229.87825 220.97678 213.15330 206.14982
 199.97834 194.91086 191.48738 189.52390 188.55542 188.61395 189.44347 190.74599
 192.46551 194.55503 196.81255 199.16607 201.60559 204.08012 206.16264 207.99916
 209.61968 210.75920 210.98272 211.20524 211.13676 210.83629 210.46381 210.08833
 209.69985 209.40437 209.20689 209.06541 208.98793 209.31346 209.69398 210.07750
 210.86502 212.03754 213.28206 215.05958 216.98210 219.01963 221.10915 223.18667
 225.24119 227.31971 229.41123 231.51175 233.63527 235.80180 238.05232 240.41684
 243.03236 245.27788 247.27440 249.03392 250.44544 251.56296 252.37949 252.69001
 252.72153 252.49005 251.84457 250.78709 249.38761 247.54313 245.44666 243.27418
 241.05970 238.85822 236.67274 234.50626 232.36078 230.22230 228.24283 226.39435
 224.67187 223.13839 221.76291 220.52943 219.40595 218.36047 217.45900 216.59452
 215.83104 215.00556 214.09808 213.45660 212.90112 213.98772 216.55490 219.30896
 221.48279 222.98738 224.26859 225.74084 227.13261 227.84651 227.21187 225.60635
 225.01376 227.15128 231.24919 235.94266 240.64264 245.18854 249.47044 253.36430
 256.82278 260.01428 263.04120 265.86273 268.18512 270.05066 271.76764 273.44873
 275.16830 276.90955 278.46344 279.83478 281.02783 282.09088 283.06638 283.96234
 284.78015 285.52710 286.18744 287.12634
 366.78100 356.33030 345.75760 334.61890 323.01719 311.20649 299.07179 286.87009
 274.57739 262.46969 250.47399 239.77029 229.88758 220.98688 213.16418 206.16148
 199.99078 194.92408 191.50138 189.53867 188.57097 188.63027 189.46057 190.76387
 192.48417 194.57447 196.83277 199.18706 201.62736 204.10266 206.18596 208.02326
 209.64456 210.78486 211.00915 211.23245 211.16475 210.86505 210.49335 210.11865
 209.73095 209.43625 209.23954 209.09884 209.02214 209.34844 209.72974 210.11404
 210.90234 212.07563 213.32093 215.09923 217.02253 219.06083 221.15113 223.22943
 225.28473 227.36402 229.45632 231.55762 233.68192 235.84922 238.10052 240.46582
 243.08211 245.32841 247.32571 249.08601 250.49831 251.61661 252.43391 252.74521
 252.77750 252.54680 251.90210 250.84540 249.44670 247.60300 245.50730 243.33559
 241.12189 238.92119 236.73649 234.57079 232.42609 230.28839 228.30969 226.46198
 224.74028 223.20758 221.83288 220.60018 219.47748 218.43278 217.53207 216.66837
 215.90567 215.08097 214.17427 213.53357 212.97887 214.04178 216.55301 219.33127
 221.54382 223.04588 224.30713 225.76724 227.16574 227.86438 227.19603 225.60512
 225.00446 227.10555 231.21375 235.93109 240.62276 245.15114 249.42990 253.32845
 256.78784 259.97287 262.99210 265.81784 268.14688 270.01306 271.72754 273.39542
 275.08890 276.81842 278.36926 279.73941 280.93158 281.99408 282.97076 283.86520
 284.68384 285.43182 286.09024 287.03217
 366.78100 356.33105 345.75910 334.62115 323.02020 311.21026 299.07631 286.87536
 274.58341 262.47646 250.48151 239.77856 229.89661 220.99666 213.17472 206.17277
 200.00282 194.93687 191.51492 189.55297 188.58602 188.64607 189.47712 190.78117
 192.50223 194.59328 196.85233 199.20738 201.64843 204.12448 206.20853 208.04658
 209.66863 210.80969 211.03474 211.25879 211.19184 210.89289 210.52194 210.14799
 209.76104 209.46709 209.27115 209.13120 209.05525 209.38230 209.76435 210.14940
 210.93845 212.11250 213.35855 215.13760 217.06166 219.10071 221.19176 223.27081
 225.32686 227.40691 229.49996 231.60201 233.72706 235.89512 238.14717 240.51322
 243.13027 245.37732 247.37537 249.13642 250.54947 251.66852 252.48658 252.79863
 252.83168 252.60173 251.95778 250.90183 249.50388 247.66093 245.56598 243.39504
 241.18209 238.98214 236.79819 234.63324 232.48929 230.35234 228.37439 226.52744
 224.80649 223.27455 221.90060 220.66865 219.54670 218.50275 217.60280 216.73985
 215.97790 215.15395 214.24801 213.60806 213.05411 214.09364 216.54968 219.35213
 221.60948 223.09714 224.33965 225.77998 227.17850 227.88559 227.19675 225.61711
 225.00410 227.06015 231.17654 235.92119 240.60660 245.11859 249.39299 253.29280
 256.75272 259.93182 262.94403 265.77371 268.10941 269.97653 271.68744 273.34686
 275.00873 276.72385 278.27197 279.64127 280.83206 281.89432 282.87057 283.76581
 284.58319 285.33060 285.99203 286.92551
 366.78100 356.33172 345.76044 334.62316 323.02288 311.21359 299.08031 286.88003
 274.58875 262.48247 250.48819 239.78591 229.90463 221.00535 213.18407 206.18278
 200.01350 194.94822 191.52694 189.56566 188.59938 188.66010 189.49182 190.79654
 192.51825 194.60997 196.86969 199.22541 201.66713 204.14385 206.22857 208.06729
 209.69001 210.83173 211.05744 211.28216 211.21588 210.91760 210.54732 210.17404
 209.78776 209.49448 209.29920 209.15992 209.08463 209.41235 209.79507 210.18079
 210.97051 212.14523 213.39195 215.17167 217.09639 219.13610 221.22782 223.30754
 225.36426 227.44498 229.53870 231.64142 233.76714 235.93586 238.18858 240.55529
 243.17301 245.42073 247.41945 249.18117 250.59489 251.71461 252.53333 252.84605
 252.87976 252.65048 252.00720 250.95192 249.55464 247.71236 245.61808 243.44780
 241.23552 239.03624 236.85295 234.68867 232.54539 230.40911 228.43183 226.58555
 224.86527 223.33399 221.96071 220.72942 219.60814 218.56486 217.66558 216.80330
 216.04202 215.21874 214.31346 213.67418 213.12090 214.14032 216.54884 219.36739
 221.67432 223.15146 224.36423 225.77873 227.17776 227.90833 227.21028 225.62968
 225.00107 227.02243 231.14706 235.91660 240.59619 245.08986 249.35727 253.25735
 256.71796 259.89111 262.89603 265.72968 268.07166 269.94116 271.64822 273.29889
 274.93082 276.62924 278.17300 279.54202 280.73181 281.79404 282.76886 283.66275
 284.48114 285.22693 285.88928 286.81921
 366.78100 356.33233 345.76167 334.62500 323.02534 311.21667 299.08401 286.88434
 274.59368 262.48801 250.49435 239.79268 229.91202 221.01335 213.19269 206.19202
 200.02336 194.95869 191.53803 189.57736 188.61170 188.67303 189.50537 190.81070
 192.53304 194.62537 196.88571 199.24204 201.68438 204.16171 206.24705 208.08638
 209.70972 210.85205 211.07839 211.30372 211.23806 210.94039 210.57073 210.19806
 209.81240 209.51973 209.32507 209.18640 209.11174 209.44007 209.82341 210.20974
 211.00008 212.17541 213.42275 215.20308 217.12842 219.16875 221.26109 223.34142
 225.39876 227.48009 229.57443 231.67776 233.80410 235.97343 238.22677 240.59410
 243.21244 245.46077 247.46011 249.22244 250.63678 251.75711 252.57645 252.88978
 252.92412 252.69545 252.05279 250.99812 249.60146 247.75979 245.66613 243.49646
 241.28480 239.08613 236.90347 234.73980 232.59714 230.46147 228.48481 226.63914
 224.91948 223.38881 222.01615 220.78548 219.66482 218.62215 217.72349 216.86182
 216.10116 215.27849 214.37383 213.73516 213.18250 214.18399 216.55014 219.37897
 221.73558 223.20905 224.38681 225.77022 227.16478 227.92175 227.22679 225.64688
 225.00429 226.99557 231.12595 235.91718 240.58929 245.06361 249.32314 253.22318
 256.68436 259.85226 262.85004 265.68582 268.03387 269.90524 271.60852 273.24896
 274.85510 276.53677 278.07758 279.44534 280.63501 281.69479 282.67053 283.56314
 284.38217 285.12662 285.78601 286.71625
 366.78100 356.33291 345.76282 334.62672 323.02763 311.21954 299.08745 286.88836
 274.59826 262.49317 250.50008 239.79899 229.91890 221.02080 213.20071 206.20062
 200.03253 194.96844 191.54835 189.58825 188.62316 188.68507 189.51798 190.82389
 192.54679 194.63970 196.90061 199.25752 201.70043 204.17833 206.26424 208.10415
 209.72806 210.87097 211.09787 211.32378 211.25869 210.96160 210.59251 210.22041
 209.83532 209.54323 209.34914 209.21105 209.13696 209.46586 209.84977 210.23668
 211.02759 212.20350 213.45140 215.23231 217.15822 219.19913 221.29204 223.37294
 225.43085 227.51276 229.60767 231.71158 233.83848 236.00839 238.26230 240.63021
 243.24912 245.49802 247.49793 249.26084 250.67575 251.79666 252.61656 252.93047
 252.96538 252.73729 252.09520 251.04111 249.64501 247.80392 245.71083 243.54174
 241.33065 239.13255 236.95046 234.78737 232.64528 230.51019 228.53409 226.68900
 224.96991 223.43982 222.06773 220.83763 219.71754 218.67545 217.77736 216.91627
 216.15617 215.33408 214.42999 213.79190 213.23981 214.22574 216.55510 219.38699
 221.79358 223.26828 224.41026 225.75949 227.14166 227.91907 227.23720 225.67223
 225.02136 226.97893 231.11203 235.92122 240.58481 245.04160 249.29359 253.19212
 256.65280 259.81458 262.80417 265.63980 267.99393 269.86816 271.56714 273.19989
 274.78598 276.44809 277.98346 279.34930 280.53851 281.59717 282.57037 283.46414
 284.27942 285.02130 285.68454 286.59952
 366.78100 356.33344 345.76388 334.62833 323.02977 311.22221 299.09065 286.89209
 274.60253 262.49798 250.50542 239.80486 229.92530 221.02774 213.20818 206.20863
 200.04107 194.97751 191.55795 189.59839 188.63383 188.69628 189.52972 190.83616
 192.55960 194.65304 196.91448 199.27193 201.71537 204.19381 206.28025 208.12069
 209.74513 210.88858 211.11602 211.34246 211.27790 210.98134 210.61278 210.24123
 209.85667 209.56511 209.37155 209.23399 209.16043 209.48988 209.87432 210.26176
 211.05320 212.22964 213.47808 215.25953 217.18597 219.22741 221.32085 223.40229
 225.46073 227.54318 229.63862 231.74306 233.87050 236.04094 238.29538 240.66383
 243.28327 245.53271 247.53315 249.29659 250.71203 251.83348 252.65392 252.96836
 253.00380 252.77624 252.13468 251.08113 249.68557 247.84501 245.75245 243.58389
 241.37333 239.17578 236.99422 234.83166 232.69010 230.55554 228.57998 226.73543
 225.01687 223.48731 222.11575 220.88619 219.76663 218.72508 217.82752 216.96696
 216.20740 215.38584 214.48228 213.84473 213.29317 214.26593 216.56421 219.39075
 221.84624 223.33002 224.43694 225.74834 227.11090 227.89699 227.23523 225.70642
 225.05475 226.97237 231.10489 235.92816 240.58446 245.02605 249.26987 253.16539
 256.62320 259.77747 262.75870 265.59195 267.94907 269.82556 271.52094 273.14841
 274.72586 276.36441 277.89359 279.25931 280.44653 281.50668 282.47845 283.37112
 284.18716 284.93317 285.59500 286.50562
 366.78100 356.33393 345.76486 334.62979 323.03172 311.22465 299.09358 286.89551
 274.60644 262.50237 250.51030 239.81023 229.93116 221.03409 213.21502 206.21595
 200.04888 194.98581 191.56674 189.60767 188.64360 188.70653 189.54046 190.84739
 192.57132 194.66525 196.92718 199.28511 201.72904 204.20797 206.29490 208.13583
 209.76076 210.90469 211.13262 211.35955 211.29548 210.99941 210.63134 210.26027
 209.87620 209.58513 209.39206 209.25499 209.18192 209.51185 209.89678 210.28471
 211.07664 212.25357 213.50250 215.28443 217.21136 219.25329 221.34722 223.42915
 225.48808 227.57101 229.66694 231.77187 233.89980 236.07073 238.32566 240.69459
 243.31452 245.56445 247.56538 249.32931 250.74524 251.86717 252.68810 253.00303
 253.03896 252.81189 252.17082 251.11775 249.72268 247.88261 245.79054 243.62247
 241.41240 239.21533 237.03426 234.87219 232.73112 230.59705 228.62198 226.77791
 225.05984 223.53077 222.15970 220.93063 219.81156 218.77049 217.87342 217.01335
 216.25428 215.43321 214.53014 213.89307 213.34200 214.30421 216.57758 219.39212
 221.89117 223.39436 224.46747 225.73727 227.07402 227.85501 227.21893 225.74586
 225.10274 226.97758 231.10439 235.93913 240.59010 245.01953 249.25464 253.14458
 256.59628 259.74142 262.71246 265.54108 267.89874 269.77682 271.46881 273.09293
 274.66937 276.28506 277.80743 279.17209 280.35968 281.41800 282.38858 283.28027
 284.09802 284.84793 285.51401 286.40897
 366.78100 356.33436 345.76572 334.63108 323.03344 311.22680 299.09616 286.89852
 274.60988 262.50624 250.51460 239.81496 229.93632 221.03968 213.22104 206.22240
 200.05576 194.99312 191.57448 189.61584 188.65220 188.71556 189.54992 190.85728
 192.58164 194.67599 196.93835 199.29671 201.74107 204.22043 206.30779 208.14915
 209.77451 210.91887 211.14723 211.37459 211.31095 211.01531 210.64767 210.27703
 209.89339 209.60275 209.41011 209.27347 209.20083 209.53119 209.91655 210.30491
 211.09727 212.27463 213.52399 215.30635 217.23371 219.27607 221.37043 223.45279
 225.51215 227.59551 229.69187 231.79723 233.92559 236.09695 238.35231 240.72167
 243.34203 245.59239 247.59375 249.35811 250.77447 251.89683 252.71819 253.03355
 253.06991 252.84326 252.20262 251.14998 249.75534 247.91570 245.82406 243.65642
 241.44678 239.25014 237.06950 234.90786 232.76722 230.63358 228.65894 226.81530
 225.09766 223.56902 222.19838 220.96974 219.85110 218.81046 217.91382 217.05418
 216.29554 215.47490 214.57226 213.93562 213.38498 214.33904 216.59306 219.39307
 221.92670 223.45941 224.50401 225.72859 227.03017 227.79218 227.18832 225.78583
 225.15790 226.99294 231.11189 235.95528 240.60564 245.02368 249.24619 253.12746
 256.57129 259.70670 262.66791 265.49026 267.84851 269.72681 271.41135 273.02673
 274.60123 276.20779 277.72763 279.09164 280.27875 281.33572 282.30505 283.19583
 284.01547 284.77121 285.43280 286.31674
 366.78100 356.33475 345.76650 334.63225 323.03501 311.22876 299.09851 286.90126
 274.61301 262.50976 250.51851 239.81927 229.94102 221.04477 213.22652 206.22827
 200.06202 194.99978 191.58153 189.62328 188.66003 188.72378 189.55853 190.86628
 192.59104 194.68579 196.94854 199.30729 201.75204 204.23179 206.31954 208.16130
 209.78705 210.93180 211.16055 211.38830 211.32505 211.02980 210.66256 210.29231
 209.90906 209.61881 209.42656 209.29031 209.21807 209.54882 209.93457 210.32332
 211.11607 212.29382 213.54357 215.32633 217.25408 219.29683 221.39158 223.47433
 225.53408 227.61783 229.71459 231.82034 233.94909 236.12084 238.37659 240.74634
 243.36710 245.61785 247.61960 249.38435 250.80110 251.92385 252.74560 253.06136
 253.09811 252.87186 252.23161 251.17936 249.78511 247.94586 245.85462 243.68737
 241.47812 239.28187 237.10162 234.94037 232.80012 230.66688 228.69263 226.84938
 225.13213 223.60388 222.23363 221.00539 219.88714 218.84689 217.95064 217.09139
 216.33314 215.51289 214.61065 213.97440 213.42415 214.37189 216.61104 219.39383
 221.95245 223.52504 224.54654 225.72189 226.97816 227.71136 227.14671 225.81992
 225.21175 227.01558 231.12547 235.97612 240.62968 245.03967 249.24866 253.11815
 256.55194 259.67633 262.62622 265.43771 267.79413 269.67334 271.35223 272.96268
 274.54266 276.12863 277.63806 279.00015 280.18594 281.23953 282.20239 283.09155
 283.91733 284.68771 285.33386 286.20697
 366.78100 356.33506 345.76712 334.63318 323.03624 311.23031 299.10037 286.90343
 274.61549 262.51255 250.52161 239.82267 229.94473 221.04880 213.23086 206.23292
 200.06698 195.00504 191.58710 189.62916 188.66622 188.73029 189.56535 190.87341
 192.59847 194.69353 196.95659 199.31565 201.76071 204.24078 206.32884 208.17090
 209.79696 210.94202 211.17108 211.39914 211.33620 211.04127 210.67433 210.30439
 209.92145 209.63151 209.43957 209.30363 209.23169 209.56276 209.94882 210.33788
 211.13094 212.30900 213.55906 215.34212 217.27018 219.31325 221.40831 223.49137
 225.55143 227.63549 229.73255 231.83861 233.96767 236.13974 238.39580 240.76586
 243.38692 245.63798 247.64004 249.40510 250.82216 251.94523 252.76729 253.08335
 253.12041 252.89447 252.25453 251.20259 249.80865 247.96972 245.87878 243.71184
 241.50290 239.30696 237.12702 234.96608 232.82614 230.69321 228.71927 226.87633
 225.15939 223.63145 222.26151 221.03357 219.91563 218.87570 217.97976 217.12082
 216.36288 215.54294 214.64100 214.00506 213.45512 214.40045 216.63390 219.39130
 221.97112 223.58932 224.59898 225.72849 226.92430 227.61266 227.08574 225.83609
 225.26180 227.04652 231.14366 236.00369 240.66618 245.06772 249.25865 253.11237
 256.53278 259.64365 262.58286 265.38583 267.74277 269.62692 271.30087 272.90463
 274.47742 276.04202 277.54770 278.90948 280.09717 281.15735 282.14093 283.04800
 283.86966 284.60736 285.23560 286.09647
 366.78100 356.33511 345.76722 334.63333 323.03643 311.23054 299.10065 286.90376
 274.61587 262.51298 250.52209 239.82320 229.94530 221.04941 213.23152 206.23363
 200.06774 195.00585 191.58796 189.63007 188.66717 188.73128 189.56639 190.87450
 192.59961 194.69472 196.95783 199.31693 201.76204 204.24215 206.33026 208.17237
 209.79848 210.94359 211.17270 211.40080 211.33791 211.04302 210.67613 210.30624
 209.92335 209.63346 209.44157 209.30567 209.23378 209.56489 209.95100 210.34011
 211.13322 212.31133 213.56143 215.34454 217.27265 219.31576 221.41087 223.49398
 225.55409 227.63820 229.73530 231.84141 233.97052 236.14263 238.39874 240.76885
 243.38996 245.64107 247.64317 249.40828 250.82539 251.94850 252.77061 253.08672
 253.12383 252.89793 252.25804 251.20615 249.81226 247.97337 245.88248 243.71559
 241.50670 239.31080 237.13091 234.97002 232.83013 230.69724 228.72335 226.88046
 225.16357 223.63567 222.26578 221.03789 219.92000 218.88011 217.98422 217.12533
 216.36743 215.54754 214.64565 214.00976 213.45987 214.41658 216.67691 219.38332
 221.96835 223.65128 224.65761 225.74771 226.88120 227.51764 227.00764 225.80695
 225.27220 227.08199 231.17413 236.03134 240.71164 245.11455 249.28996 253.13054
 256.53482 259.63455 262.55286 265.33994 267.68597 269.55594 271.19449 272.76382
 274.38034 276.00491 277.52884 278.89322 280.08185 281.14536 282.13580 283.04855
 283.86398 284.57422 285.20322 286.06113
 366.78100 356.33546 345.76793 334.63439 323.03786 311.23232 299.10279 286.90625
 274.61872 262.51618 250.52564 239.82711 229.94957 221.05404 213.23650 206.23897
 200.07343 195.01189 191.59436 189.63682 188.67429 188.73875 189.57422 190.88268
 192.60815 194.70361 196.96707 199.32654 201.77200 204.25247 206.34093 208.18340
 209.80986 210.95532 211.18479 211.41325 211.35072 211.05618 210.68965 210.32011
 209.93758 209.64804 209.45650 209.32097 209.24943 209.58090 209.96736 210.35683
 211.15029 212.32875 213.57922 215.36268 217.29115 219.33461 221.43008 223.51354
 225.57401 227.65847 229.75593 231.86240 233.99186 236.16433 238.42079 240.79126
 243.41272 245.66418 247.66665 249.43211 250.84958 251.97304 252.79551 253.11197
 253.14944 252.92390 252.28436 251.23283 249.83929 248.00076 245.91022 243.74369
 241.53515 239.33961 237.16008 234.99954 232.86001 230.72747 228.75394 226.91140
 225.19487 223.66733 222.29779 221.07026 219.95272 218.91319 218.01765 217.15912
 216.40158 215.58204 214.68051 214.04497 213.49544 214.44635 216.69301 219.39313
 221.95175 223.67535 224.71274 225.77403 226.84454 227.44498 226.95578 225.79169
 225.26141 227.08017 231.17932 236.07167 240.77379 245.17583 249.32927 253.14517
 256.54318 259.61655 262.52325 265.30099 267.64291 269.50400 271.14200 272.71899
 274.30563 275.89728 277.38708 278.72791 279.88931 280.94434 281.93225 282.84113
 283.63855 284.32504 284.90634 285.62924
 366.78100 356.33639 345.76979 334.63718 323.04158 311.23697 299.10836 286.91276
 274.62615 262.52455 250.53494 239.83733 229.96073 221.06612 213.24952 206.25291
 200.08830 195.02770 191.61109 189.65448 188.69288 188.75827 189.59467 190.90406
 192.63045 194.72685 196.99124 199.35164 201.79803 204.27942 206.36882 208.21221
 209.83961 210.98600 211.21639 211.44579 211.38418 211.09058 210.72497 210.35636
 209.97476 209.68615 209.49555 209.36094 209.29033 209.62273 210.01012 210.40052
 211.19491 212.37430 213.62570 215.41009 217.33948 219.38388 221.48027 223.56467
 225.62606 227.71145 229.80985 231.91724 234.04764 236.22103 238.47842 240.84982
 243.47221 245.72461 247.72800 249.49439 250.91279 252.03718 252.86058 253.17797
 253.21636 252.99176 252.35315 251.30255 249.90994 248.07233 245.98273 243.81712
 241.60952 239.41491 237.23630 235.07670 232.93809 230.80649 228.83388 226.99227
 225.27667 223.75006 222.38145 221.15485 220.03824 218.99964 218.10503 217.24742
 216.49082 215.67221 214.77161 214.13700 213.58839 214.50780 216.67999 219.37943
 221.99857 223.71671 224.72142 225.77736 226.78786 227.35767 226.93329 225.79678
 225.26326 227.06956 231.18674 236.10144 240.81509 245.22044 249.37704 253.18250
 256.56482 259.64081 262.53064 265.28329 267.60370 269.44257 271.03671 272.58624
 274.16452 275.79401 277.25348 278.57361 279.71841 280.76532 281.73566 282.59879
 283.28476 283.91257 284.52176 285.30405
 366.78100 356.33725 345.77150 334.63975 323.04500 311.24125 299.11350 286.91875
 274.63299 262.53224 250.54349 239.84674 229.97099 221.07724 213.26149 206.26574
 200.10199 195.04224 191.62649 189.67074 188.70999 188.77624 189.61349 190.92374
 192.65098 194.74823 197.01348 199.37473 201.82198 204.30423 206.39448 208.23873
 209.86698 211.01423 211.24548 211.47573 211.41498 211.12223 210.75748 210.38972
 210.00897 209.72122 209.53147 209.39772 209.32797 209.66122 210.04947 210.44072
 211.23597 212.41622 213.66847 215.45372 217.38397 219.42922 221.52646 223.61171
 225.67396 227.76021 229.85946 231.96771 234.09896 236.27321 238.53146 240.90371
 243.52696 245.78021 247.78446 249.55171 250.97096 252.09621 252.92045 253.23870
 253.27795 253.05420 252.41645 251.36670 249.97495 248.13820 246.04945 243.88470
 241.67795 239.48420 237.30645 235.14770 233.00995 230.87919 228.90744 227.06669
 225.35194 223.82619 222.45844 221.23269 220.11694 219.07919 218.18544 217.32869
 216.57294 215.75519 214.85544 214.22169 213.67393 214.57228 216.69766 219.32184
 222.00006 223.71384 224.68350 225.74237 226.71584 227.28487 226.91228 225.95868
 225.26154 227.01683 231.15604 236.11511 240.85980 245.27448 249.40530 253.19611
 256.57193 259.65439 262.56195 265.29590 267.60922 269.42725 270.97357 272.55084
 274.14642 275.63132 277.05536 278.08426 279.14938 280.16956 281.13254 281.98782
 282.73294 283.43192 284.04254 284.82071
 366.78100 356.33711 345.77122 334.63932 323.04443 311.24054 299.11265 286.91775
 274.63186 262.53097 250.54208 239.84519 229.96929 221.07540 213.25951 206.26362
 200.09972 195.03983 191.62394 189.66805 188.70715 188.77326 189.61037 190.92048
 192.64759 194.74469 197.00980 199.37091 201.81802 204.30012 206.39023 208.23434
 209.86245 211.00956 211.24066 211.47077 211.40988 211.11699 210.75209 210.38420
 210.00331 209.71542 209.52553 209.39163 209.32174 209.65485 210.04296 210.43406
 211.22917 212.40928 213.66139 215.44650 217.37660 219.42171 221.51882 223.60393
 225.66603 227.75214 229.85125 231.95936 234.09046 236.26457 238.52268 240.89479
 243.51790 245.77100 247.77511 249.54222 250.96133 252.08643 252.91054 253.22865
 253.26776 253.04387 252.40597 251.35608 249.96419 248.12730 246.03840 243.87351
 241.66662 239.47273 237.29484 235.13594 232.99805 230.86716 228.89527 227.05437
 225.33948 223.81359 222.44570 221.21981 220.10391 219.06602 218.17213 217.31524
 216.55934 215.74145 214.84156 214.20767 213.65977 214.58492 216.81581 219.31987
 221.77252 223.52855 224.70576 225.77106 226.72649 227.31509 226.86899 226.23207
 225.05067 226.96953 231.14565 236.07028 240.84319 245.27113 249.38864 253.14131
 256.52679 259.62997 262.57010 265.31256 267.62338 269.49069 270.96661 272.48639
 274.07272 275.55670 276.79935 277.88376 278.99826 280.07916 281.14569 282.12146
 282.99905 283.78058 284.46329 285.33331
 366.78100 356.33672 345.77044 334.63816 323.04288 311.23860 299.11032 286.91503
 274.62875 262.52747 250.53819 239.84091 229.96463 221.07035 213.25407 206.25779
 200.09351 195.03323 191.61695 189.66067 188.69939 188.76510 189.60182 190.91154
 192.63826 194.73498 196.99970 199.36042 201.80714 204.28886 206.37858 208.22230
 209.85002 210.99674 211.22745 211.45717 211.39589 211.10261 210.73733 210.36905
 209.98777 209.69949 209.50921 209.37493 209.30465 209.63737 210.02509 210.41581
 211.21052 212.39024 213.64196 215.42668 217.35640 219.40112 221.49784 223.58256
 225.64428 227.73000 229.82872 231.93644 234.06716 236.24087 238.49859 240.87031
 243.49303 245.74575 247.74947 249.51619 250.93491 252.05963 252.88335 253.20107
 253.23979 253.01551 252.37723 251.32694 249.93466 248.09738 246.00810 243.84282
 241.63554 239.44126 237.26298 235.10370 232.96542 230.83414 228.86186 227.02058
 225.30529 223.77901 222.41073 221.18445 220.06817 219.02989 218.13561 217.27833
 216.52205 215.70377 214.80349 214.16921 213.62093 214.57547 216.87614 219.35910
 221.68707 223.49245 224.88193 225.85806 226.66995 227.13968 226.87930 226.20247
 225.11021 227.00517 231.18843 236.10960 240.88698 245.28732 249.38768 253.12341
 256.47778 259.56369 262.52029 265.32449 267.72861 269.66171 271.15521 272.61829
 274.17581 275.65298 276.86877 278.06085 279.26627 280.39038 281.53293 282.56802
 283.49896 284.32794 285.05215 285.97507
 366.78100 356.33684 345.77069 334.63853 323.04338 311.23922 299.11107 286.91591
 274.62976 262.52860 250.53944 239.84229 229.96613 221.07198 213.25582 206.25967
 200.09551 195.03535 191.61920 189.66304 188.70189 188.76773 189.60458 190.91442
 192.64127 194.73811 197.00295 199.36380 201.81064 204.29249 206.38233 208.22618
 209.85402 211.00086 211.23171 211.46155 211.40040 211.10724 210.74209 210.37393
 209.99278 209.70462 209.51446 209.38031 209.31015 209.64300 210.03084 210.42169
 211.21653 212.39637 213.64822 215.43306 217.36291 219.40775 221.50460 223.58944
 225.65129 227.73713 229.83597 231.94382 234.07466 236.24851 238.50635 240.87820
 243.50104 245.75388 247.75773 249.52457 250.94342 252.06826 252.89211 253.20995
 253.24880 253.02464 252.38648 251.33633 249.94417 248.10702 246.01786 243.85271
 241.64555 239.45139 237.27324 235.11408 232.97593 230.84477 228.87262 227.03146
 225.31631 223.79015 222.42199 221.19584 220.07968 219.04153 218.14737 217.29022
 216.53406 215.71590 214.81575 214.18159 213.63344 214.58575 216.84082 219.35249
 221.87222 223.67311 224.90746 225.86963 226.56575 226.89847 226.83089 225.82533
 225.32393 227.20467 231.27556 236.16617 240.93867 245.35553 249.46475 253.15361
 256.47028 259.48843 262.41080 265.14838 267.54245 269.54193 271.23892 272.75098
 274.27304 275.73193 277.05771 278.25735 279.39615 280.45328 281.40854 282.26627
 283.07809 283.82996 284.48679 285.32382
 366.78100 356.33742 345.77185 334.64027 323.04570 311.24212 299.11455 286.91997
 274.63439 262.53382 250.54524 239.84867 229.97309 221.07952 213.26394 206.26837
 200.10479 195.04521 191.62964 189.67406 188.71349 188.77991 189.61734 190.92776
 192.65518 194.75261 197.01803 199.37946 201.82688 204.30931 206.39973 208.24416
 209.87258 211.02000 211.25143 211.48185 211.42128 211.12870 210.76413 210.39655
 210.01597 209.72840 209.53882 209.40525 209.33567 209.66910 210.05752 210.44895
 211.24437 212.42479 213.67722 215.46264 217.39307 219.43849 221.53592 223.62134
 225.68376 227.77019 229.86961 231.97804 234.10946 236.28389 238.54231 240.91474
 243.53816 245.79158 247.79601 249.56343 250.98286 252.10828 252.93271 253.25113
 253.29055 253.06698 252.42940 251.37983 249.98825 248.15168 246.06310 243.89853
 241.69195 239.49837 237.32080 235.16222 233.02465 230.89407 228.92250 227.08192
 225.36734 223.84177 222.47419 221.24862 220.13304 219.09547 218.20189 217.34531
 216.58974 215.77216 214.87259 214.23901 213.69144 214.62703 216.83748 219.35133
 221.95494 223.81622 224.88232 225.80382 226.50311 226.84938 226.77757 225.76465
 225.30513 227.24983 231.33521 236.20404 240.97127 245.40335 249.51260 253.20795
 256.50275 259.51852 262.40176 265.12384 267.49768 269.42258 271.02524 272.53140
 274.09354 275.60190 276.95148 278.19189 279.36835 280.40280 281.23077 282.06528
 282.84665 283.56146 284.21896 285.05685
 366.78100 356.33756 345.77211 334.64067 323.04623 311.24278 299.11534 286.92090
 274.63545 262.53501 250.54657 239.85012 229.97468 221.08124 213.26579 206.27035
 200.10691 195.04746 191.63202 189.67658 188.71613 188.78269 189.62025 190.93080
 192.65836 194.75592 197.02147 199.38303 201.83059 204.31314 206.40370 208.24826
 209.87681 211.02437 211.25593 211.48648 211.42604 211.13360 210.76915 210.40171
 210.02127 209.73382 209.54438 209.41094 209.34149 209.67505 210.06361 210.45516
 211.25072 212.43128 213.68383 215.46939 217.39995 219.44550 221.54306 223.62862
 225.69117 227.77773 229.87729 231.98584 234.11740 236.29196 238.55051 240.92307
 243.54663 245.80018 247.80474 249.57230 250.99185 252.11741 252.94197 253.26052
 253.30008 253.07664 252.43919 251.38975 249.99831 248.16186 246.07342 243.90898
 241.70253 239.50909 237.33165 235.17320 233.03576 230.90532 228.93387 227.09343
 225.37899 223.85354 222.48610 221.26066 220.14521 219.10777 218.21433 217.35788
 216.60244 215.78500 214.88555 214.25211 213.70467 214.64622 216.87465 219.34094
 221.89748 223.73128 224.81673 225.77371 226.51762 226.88499 226.73041 225.76019
 225.26541 227.25829 231.32925 236.20551 241.00870 245.40215 249.50783 253.21365
 256.52859 259.54013 262.42130 265.12796 267.49643 269.44479 271.06732 272.57104
 274.09042 275.55634 276.88629 278.12411 279.29028 280.25931 281.12094 281.98581
 282.81516 283.58990 284.26669 285.12921
 366.78100 356.33785 345.77271 334.64156 323.04742 311.24427 299.11713 286.92298
 274.63783 262.53769 250.54954 239.85340 229.97825 221.08510 213.26996 206.27481
 200.11167 195.05252 191.63738 189.68223 188.72208 188.78894 189.62679 190.93765
 192.66550 194.76336 197.02921 199.39106 201.83892 204.32177 206.41263 208.25748
 209.88633 211.03419 211.26604 211.49690 211.43675 211.14461 210.78046 210.41331
 210.03317 209.74602 209.55688 209.42373 209.35459 209.68844 210.07729 210.46915
 211.26500 212.44586 213.69871 215.48456 217.41542 219.46127 221.55913 223.64498
 225.70784 227.79469 229.89454 232.00340 234.13525 236.31011 238.56896 240.94182
 243.56567 245.81952 247.82438 249.59223 251.01209 252.13794 252.96279 253.28165
 253.32150 253.09836 252.46121 251.41207 250.02092 248.18477 246.09663 243.93248
 241.72634 239.53319 237.35605 235.19790 233.06075 230.93061 228.95946 227.11932
 225.40517 223.88002 222.51288 221.28773 220.17259 219.13544 218.24230 217.38615
 216.63100 215.81386 214.91471 214.28157 213.73442 214.67139 216.89558 219.36430
 221.89557 223.59447 224.77634 225.81744 226.55965 226.85088 226.64561 225.71626
 225.27756 227.31638 231.34377 236.20691 241.01883 245.42451 249.49432 253.16278
 256.46628 259.49573 262.38120 265.08884 267.48505 269.50012 271.18677 272.68622
 274.19501 275.66354 276.97214 278.21930 279.40814 280.45877 281.40866 282.30902
 283.22958 284.05972 284.78488 285.70905
 366.78100 356.33846 345.77391 334.64337 323.04982 311.24728 299.12073 286.92719
 274.64264 262.54310 250.55556 239.86001 229.98547 221.09292 213.27838 206.28383
 200.12129 195.06274 191.64820 189.69366 188.73411 188.80157 189.64002 190.95148
 192.67993 194.77839 197.04484 199.40730 201.85576 204.33921 206.43067 208.27612
 209.90558 211.05403 211.28649 211.51794 211.45840 211.16686 210.80331 210.43677
 210.05722 209.77068 209.58213 209.44959 209.38104 209.71550 210.10496 210.49741
 211.29387 212.47532 213.72878 215.51523 217.44669 219.49314 221.59160 223.67806
 225.74151 227.82897 229.92942 232.03888 234.17133 236.34679 238.60624 240.97970
 243.60416 245.85861 247.86407 249.63252 251.05298 252.17943 253.00489 253.32434
 253.36480 253.14226 252.50571 251.45717 250.06662 248.23108 246.14353 243.97999
 241.77444 239.58190 237.40536 235.24781 233.11127 230.98172 229.01118 227.17163
 225.45809 223.93354 222.56700 221.34246 220.22791 219.19137 218.29882 217.44328
 216.68873 215.87219 214.97364 214.34110 213.79456 214.70854 216.87238 219.39154
 221.91299 223.60611 224.78404 225.82430 226.53227 226.78104 226.56845 225.61455
 225.34222 227.41714 231.40169 236.22104 241.00362 245.43480 249.50040 253.16084
 256.44168 259.45697 262.33261 265.02420 267.40674 269.41449 271.10696 272.66470
 274.24939 275.73175 277.05219 278.32397 279.52197 280.57776 281.53149 282.41489
 283.27274 284.07196 284.77011 285.65985
 366.78100 356.33939 345.77578 334.64617 323.05356 311.25195 299.12634 286.93373
 274.65012 262.55151 250.56490 239.87029 229.99668 221.10507 213.29146 206.29785
 200.13624 195.07863 191.66502 189.71141 188.75280 188.82119 189.66058 190.97297
 192.70236 194.80175 197.06914 199.43253 201.88192 204.36631 206.45870 208.30509
 209.93549 211.08488 211.31827 211.55066 211.49205 211.20144 210.83883 210.47322
 210.09461 209.80900 209.62139 209.48978 209.42217 209.75756 210.14795 210.54134
 211.33873 212.52112 213.77551 215.56290 217.49529 219.54268 221.64207 223.72946
 225.79385 227.88224 229.98363 232.09402 234.22741 236.40380 238.66419 241.03858
 243.66397 245.91936 247.92575 249.69514 251.11653 252.24392 253.07031 253.39070
 253.43209 253.21048 252.57487 251.52726 250.13765 248.30304 246.21643 244.05382
 241.84921 239.65760 237.48199 235.32538 233.18977 231.06116 229.09155 227.25294
 225.54033 224.01672 222.65111 221.42750 220.31389 219.27828 218.38667 217.53206
 216.77846 215.96285 215.06524 214.43363 213.88802 214.76672 216.86896 219.44421
 221.82474 223.45773 224.73375 225.80989 226.56857 226.80101 226.48056 225.61110
 225.24951 227.38022 231.38354 236.21387 240.99359 245.42859 249.49751 253.16565
 256.44714 259.44730 262.32623 265.00610 267.36664 269.34442 270.99133 272.49960
 274.11142 275.63492 277.02197 278.34644 279.54282 280.59576 281.56616 282.52005
 283.40750 284.19778 284.88815 285.76794
 366.78100 356.33946 345.77591 334.64637 323.05382 311.25228 299.12673 286.93419
 274.65064 262.55210 250.56555 239.87101 229.99746 221.10592 213.29237 206.29883
 200.13728 195.07974 191.66619 189.71265 188.75410 188.82256 189.66201 190.97447
 192.70392 194.80338 197.07083 199.43429 201.88374 204.36820 206.46065 208.30711
 209.93756 211.08702 211.32047 211.55293 211.49438 211.20384 210.84129 210.47575
 210.09720 209.81166 209.62411 209.49257 209.42502 209.76048 210.15093 210.54439
 211.34184 212.52430 213.77875 215.56621 217.49866 219.54612 221.64557 223.73303
 225.79748 227.88594 229.98739 232.09785 234.23130 236.40776 238.66821 241.04267
 243.66812 245.92358 247.93003 249.69949 251.12094 252.24840 253.07485 253.39531
 253.43676 253.21522 252.57967 251.53213 250.14258 248.30804 246.22149 244.05895
 241.85440 239.66286 237.48731 235.33077 233.19522 231.06668 229.09713 227.25859
 225.54604 224.02250 222.65695 221.43341 220.31986 219.28432 218.39277 217.53823
 216.78468 215.96914 215.07159 214.44005 213.89450 214.78479 216.95459 219.43762
 221.76466 223.36136 224.80116 225.94426 226.67216 226.75566 226.29431 225.74428
 225.39322 227.49008 231.45139 236.20889 240.97658 245.43092 249.50478 253.19009
 256.44653 259.46625 262.32407 264.99554 267.33160 269.29987 270.96576 272.52631
 274.10309 275.66006 277.14374 278.52640 279.77307 281.02994 282.18777 283.23666
 284.18002 285.02011 285.75397 286.68921
 366.78100 356.33843 345.77385 334.64328 323.04971 311.24714 299.12056 286.92699
 274.64242 262.54284 250.55527 239.85970 229.98512 221.09255 213.27798 206.28341
 200.12083 195.06226 191.64769 189.69311 188.73354 188.80097 189.63939 190.95082
 192.67925 194.77768 197.04410 199.40653 201.85496 204.33838 206.42981 208.27524
 209.90466 211.05309 211.28552 211.51695 211.45737 211.16580 210.80223 210.43565
 210.05608 209.76951 209.58093 209.44836 209.37979 209.71422 210.10364 210.49607
 211.29250 212.47392 213.72735 215.51378 217.44521 219.49163 221.59006 223.67649
 225.73991 227.82734 229.92777 232.03719 234.16962 236.34505 238.60448 240.97790
 243.60233 245.85676 247.86218 249.63061 251.05104 252.17746 253.00289 253.32232
 253.36275 253.14017 252.50360 251.45503 250.06445 248.22888 246.14131 243.97773
 241.77216 239.57959 237.40302 235.24544 233.10887 230.97930 229.00872 227.16915
 225.45558 223.93101 222.56443 221.33986 220.22529 219.18871 218.29614 217.44057
 216.68599 215.86942 214.97085 214.33828 213.79170 214.74359 217.06013 219.42188
 221.69252 223.47142 224.99374 226.02695 226.54968 226.56735 226.25487 225.74915
 225.53728 227.55559 231.48355 236.22574 240.99242 245.44267 249.52281 253.22197
 256.48853 259.51224 262.34470 264.98587 267.35342 269.34424 270.99652 272.52408
 274.09927 275.86780 277.45261 278.93539 280.44138 281.77377 282.98938 284.09064
 285.08112 285.96313 286.73364 287.71555
 366.78100 356.33817 345.77335 334.64252 323.04869 311.24586 299.11904 286.92521
 274.64038 262.54056 250.55273 239.85690 229.98207 221.08925 213.27442 206.27959
 200.11676 195.05794 191.64311 189.68828 188.72846 188.79563 189.63380 190.94497
 192.67315 194.77132 197.03749 199.39967 201.84784 204.33101 206.42218 208.26736
 209.89653 211.04470 211.27688 211.50805 211.44822 211.15639 210.79257 210.42574
 210.04591 209.75909 209.57026 209.43743 209.36860 209.70278 210.09195 210.48412
 211.28029 212.46147 213.71464 215.50081 217.43199 219.47816 221.57633 223.66250
 225.72568 227.81285 229.91302 232.02220 234.15437 236.32954 238.58871 240.96189
 243.58606 245.84023 247.84541 249.61358 251.03375 252.15992 252.98510 253.30427
 253.34444 253.12162 252.48479 251.43596 250.04513 248.20931 246.12148 243.95765
 241.75182 239.55900 237.38217 235.22434 233.08752 230.95769 228.98686 227.14703
 225.43321 223.90838 222.54155 221.31673 220.20190 219.16507 218.27224 217.41642
 216.66159 215.84476 214.94594 214.31311 213.76628 214.73590 217.09070 219.45650
 221.56499 223.50662 225.05547 225.88826 226.35643 226.48061 226.29903 225.66173
 225.57953 227.58804 231.50629 236.23413 240.99252 245.43803 249.51419 253.20859
 256.50626 259.53018 262.36148 264.99762 267.38705 269.43207 271.08243 272.52185
 274.25299 276.04105 277.62845 279.07227 280.52090 281.84372 283.05057 284.14389
 285.12723 286.00287 286.76782 287.74268
 366.78100 356.33849 345.77399 334.64348 323.04998 311.24747 299.12097 286.92746
 274.64296 262.54345 250.55595 239.86044 229.98594 221.09343 213.27893 206.28442
 200.12192 195.06341 191.64891 189.69440 188.73490 188.80239 189.64089 190.95238
 192.68088 194.77937 197.04587 199.40836 201.85686 204.34035 206.43185 208.27734
 209.90684 211.05533 211.28783 211.51932 211.45982 211.16831 210.80481 210.43830
 210.05880 209.77229 209.58379 209.45128 209.38278 209.71727 210.10677 210.49926
 211.29576 212.47725 213.73075 215.51724 217.44874 219.49523 221.59373 223.68022
 225.74372 227.83121 229.93171 232.04120 234.17370 236.34919 238.60869 240.98218
 243.60668 245.86117 247.86667 249.63516 251.05565 252.18215 253.00764 253.32714
 253.36763 253.14513 252.50862 251.46012 250.06961 248.23411 246.14660 243.98310
 241.77759 239.58509 237.40858 235.25108 233.11457 230.98507 229.01456 227.17506
 225.46155 223.93705 222.57054 221.34604 220.23153 219.19503 218.30252 217.44702
 216.69251 215.87601 214.97750 214.34500 213.79849 214.75601 217.06425 219.46967
 221.60097 223.26706 224.85284 225.83871 226.32845 226.43854 226.33479 225.43214
 225.58333 227.56738 231.49718 236.21480 240.98082 245.43851 249.53568 253.24951
 256.56723 259.56491 262.34354 264.91348 267.26324 269.36423 271.17859 272.71295
 274.33524 276.05368 277.61444 278.99728 280.22104 281.40945 282.56137 283.60492
 284.54349 285.37927 286.10941 287.03986
 366.78100 356.33953 345.77605 334.64658 323.05411 311.25264 299.12716 286.93469
 274.65122 262.55274 250.56627 239.87180 229.99832 221.10685 213.29338 206.29991
 200.13843 195.08096 191.66749 189.71401 188.75554 188.82407 189.66359 190.97612
 192.70565 194.80518 197.07270 199.43623 201.88576 204.37028 206.46281 208.30934
 209.93986 211.08939 211.32292 211.55545 211.49697 211.20650 210.84403 210.47855
 210.10008 209.81461 209.62714 209.49566 209.42819 209.76372 210.15424 210.54777
 211.34530 212.52782 213.78235 215.56988 217.50241 219.54993 221.64946 223.73699
 225.80151 227.89004 229.99157 232.10209 234.23562 236.41215 238.67268 241.04720
 243.67273 245.92826 247.93478 249.70431 251.12584 252.25336 253.07989 253.40042
 253.44195 253.22047 252.58500 251.53753 250.14805 248.31358 246.22711 244.06464
 241.86016 239.66869 237.49322 235.33674 233.20127 231.07280 229.10332 227.26485
 225.55238 224.02891 222.66343 221.43996 220.32649 219.29101 218.39954 217.54507
 216.79159 215.97612 215.07865 214.44718 213.90170 214.81888 217.03857 219.45741
 221.70364 223.16592 224.72012 225.92734 226.34628 226.32607 226.17587 225.44594
 225.70979 227.63594 231.49976 236.20526 240.97108 245.43974 249.55688 253.30791
 256.66949 259.67325 262.40881 264.92126 267.17847 269.20569 271.05222 272.71991
 274.39514 276.06601 277.61032 278.98431 280.21191 281.41779 282.56497 283.60425
 284.53894 285.37128 286.09842 287.02505
 366.78100 356.34029 345.77759 334.64888 323.05717 311.25647 299.13176 286.94005
 274.65735 262.55964 250.57393 239.88023 230.00752 221.11681 213.30411 206.31140
 200.15069 195.09399 191.68128 189.72857 188.77087 188.84016 189.68045 190.99375
 192.72404 194.82433 197.09263 199.45692 201.90721 204.39251 206.48580 208.33309
 209.96439 211.11468 211.34897 211.58227 211.52456 211.23485 210.87315 210.50844
 210.13073 209.84603 209.65932 209.52861 209.46191 209.79820 210.18949 210.58379
 211.38208 212.56537 213.82067 215.60896 217.54225 219.59055 221.69084 223.77913
 225.84443 227.93372 230.03601 232.14731 234.28160 236.45889 238.72019 241.09548
 243.72177 245.97807 247.98536 249.75565 251.17795 252.30624 253.13353 253.45483
 253.49712 253.27641 252.64171 251.59500 250.20629 248.37259 246.28688 244.12517
 241.92147 239.73076 237.55605 235.40035 233.26564 231.13793 229.16923 227.33152
 225.61981 224.09711 222.73240 221.50969 220.39699 219.36228 218.47157 217.61787
 216.86516 216.05045 215.15375 214.52304 213.97833 214.87003 217.05095 219.46921
 221.63170 223.31863 224.85547 225.85397 226.14911 226.17888 226.04424 225.50778
 225.87129 227.78038 231.54858 236.23636 240.98694 245.45253 249.56226 253.32384
 256.70612 259.73416 262.47763 264.99536 267.23880 269.23843 271.07944 272.80783
 274.51544 276.19107 277.75385 279.15894 280.50674 281.76758 282.91788 283.95999
 284.89725 285.73187 286.46100 287.39017
 366.78100 356.34052 345.77804 334.64956 323.05808 311.25760 299.13312 286.94164
 274.65916 262.56168 250.57620 239.88272 230.01024 221.11976 213.30728 206.31480
 200.15432 195.09784 191.68536 189.73288 188.77540 188.84492 189.68543 190.99895
 192.72947 194.82999 197.09851 199.46303 201.91355 204.39907 206.49259 208.34011
 209.97163 211.12215 211.35667 211.59019 211.53271 211.24323 210.88175 210.51727
 210.13979 209.85531 209.66883 209.53835 209.47187 209.80839 210.19991 210.59443
 211.39295 212.57647 213.83199 215.62051 217.55403 219.60255 221.70307 223.79159
 225.85711 227.94663 230.04915 232.16067 234.29519 236.47271 238.73423 241.10975
 243.73627 245.99278 248.00030 249.77082 251.19334 252.32186 253.14938 253.47090
 253.51342 253.29294 252.65846 251.61198 250.22350 248.39002 246.30454 244.14306
 241.93958 239.74910 237.57462 235.41914 233.28466 231.15718 229.18870 227.35122
 225.63974 224.11726 222.75278 221.53030 220.41782 219.38334 218.49286 217.63938
 216.88690 216.07242 215.17594 214.54546 214.00098 214.88507 217.03874 219.51717
 221.50191 223.29585 224.82556 225.69084 225.96536 226.07304 226.06319 225.26840
 225.91870 227.84383 231.58693 236.26727 241.02638 245.49974 249.61673 253.36029
 256.69977 259.68665 262.42526 264.98169 267.28400 269.32809 271.21805 273.00894
 274.71191 276.28320 277.79330 279.15836 280.38495 281.57550 282.68372 283.68768
 284.59061 285.39468 286.09714 286.99228
 366.78100 356.34111 345.77923 334.65134 323.06045 311.26057 299.13668 286.94579
 274.66391 262.56702 250.58213 239.88925 230.01736 221.12748 213.31559 206.32370
 200.16382 195.10793 191.69604 189.74416 188.78727 188.85738 189.69850 191.01261
 192.74372 194.84484 197.11395 199.47906 201.93018 204.41629 206.51040 208.35852
 209.99063 211.14175 211.37686 211.61097 211.55409 211.26520 210.90431 210.54043
 210.16354 209.87965 209.69377 209.56388 209.49799 209.83511 210.22722 210.62233
 211.42145 212.60556 213.86167 215.65079 217.58490 219.63401 221.73513 223.82424
 225.89036 227.98047 230.08358 232.19570 234.33081 236.50892 238.77104 241.14715
 243.77426 246.03138 248.03949 249.81060 251.23372 252.36283 253.19094 253.51306
 253.55617 253.33628 252.70240 251.65651 250.26862 248.43574 246.35085 244.18997
 241.98708 239.79719 237.62331 235.46842 233.33453 231.20765 229.23976 227.40287
 225.69199 224.17010 222.80621 221.58433 220.47244 219.43855 218.54867 217.69578
 216.94389 216.13001 215.23412 214.60424 214.06035 214.91895 216.99872 219.55664
 221.49741 223.11600 224.70023 225.60452 225.86035 225.94046 225.98456 225.06104
 225.94875 227.88503 231.62010 236.29234 241.06252 245.54939 249.69412 253.47096
 256.82437 259.74060 262.38000 264.86917 267.16479 269.23911 271.19455 273.06308
 274.81479 276.39136 277.76016 279.03021 280.21042 281.29498 282.35849 283.32877
 284.20139 284.97849 285.65732 286.52243
 366.78100 356.34160 345.78020 334.65280 323.06240 311.26300 299.13960 286.94920
 274.66780 262.57140 250.58700 239.89460 230.02320 221.13380 213.32240 206.33100
 200.17160 195.11620 191.70480 189.75340 188.79700 188.86760 189.70920 191.02380
 192.75540 194.85700 197.12660 199.49220 201.94380 204.43040 206.52500 208.37360
 210.00620 211.15780 211.39340 211.62800 211.57160 211.28320 210.92280 210.55940
 210.18300 209.89960 209.71420 209.58480 209.51940 209.85700 210.24960 210.64520
 211.44480 212.62940 213.88600 215.67560 217.61020 219.65980 221.76140 223.85100
 225.91760 228.00820 230.11180 232.22440 234.36000 236.53860 238.80120 241.17780
 243.80540 246.06300 248.07160 249.84320 251.26680 252.39640 253.22500 253.54760
 253.59120 253.37180 252.73840 251.69300 250.30560 248.47320 246.38879 244.22839
 242.02599 239.83659 237.66319 235.50879 233.37539 231.24899 229.28159 227.44519
 225.73479 224.21339 222.84999 221.62859 220.51719 219.48379 218.59439 217.74199
 216.99059 216.17719 215.28179 214.65239 214.10899 214.95244 216.98962 219.53313
 221.57593 222.98062 224.56354 225.57916 225.79736 225.75877 225.76245 225.09352
 226.01724 227.99956 231.68781 236.32118 241.08731 245.58084 249.74779 253.56442
 256.96567 259.88910 262.44571 264.83994 267.07593 269.13867 271.13052 273.05896
 274.88007 276.47031 277.78275 278.90720 280.06442 281.12851 282.18045 283.16321
 284.04709 284.83417 285.52179 286.39804
 366.78100 356.34174 345.78047 334.65321 323.06294 311.26368 299.14041 286.95015
 274.66888 262.57262 250.58835 239.89609 230.02483 221.13556 213.32430 206.33303
 200.17377 195.11850 191.70724 189.75597 188.79971 188.87044 189.71218 191.02691
 192.75865 194.86039 197.13012 199.49586 201.94759 204.43433 206.52906 208.37780
 210.01053 211.16227 211.39800 211.63274 211.57648 211.28821 210.92795 210.56468
 210.18842 209.90515 209.71989 209.59062 209.52536 209.86309 210.25583 210.65157
 211.45130 212.63604 213.89277 215.68251 217.61724 219.66698 221.76871 223.85845
 225.92518 228.01592 230.11966 232.23239 234.36813 236.54686 238.80960 241.18633
 243.81407 246.07180 248.08054 249.85227 251.27601 252.40574 253.23448 253.55722
 253.60095 253.38169 252.74842 251.70316 250.31589 248.48363 246.39936 244.23910
 242.03683 239.84757 237.67431 235.52004 233.38678 231.26051 229.29325 227.45698
 225.74672 224.22545 222.86219 221.64092 220.52966 219.49640 218.60713 217.75487
 217.00360 216.19034 215.29507 214.66581 214.12254 214.97137 217.02425 219.47882
 221.62410 222.98518 224.47163 225.57715 225.73814 225.54506 225.57877 225.08650
 226.09557 228.14977 231.78883 236.38519 241.14189 245.63087 249.79726 253.62839
 257.05865 260.01248 262.54489 264.88385 267.06851 269.10962 271.10214 273.03943
 274.87204 276.47299 277.76706 278.85428 280.00705 281.08774 282.18079 283.17258
 284.06458 284.85892 285.55283 286.43713
 366.78100 356.34174 345.78048 334.65322 323.06296 311.26369 299.14043 286.95017
 274.66891 262.57265 250.58839 239.89613 230.02487 221.13561 213.32435 206.33308
 200.17382 195.11856 191.70730 189.75604 188.79978 188.87052 189.71226 191.02700
 192.75873 194.86047 197.13021 199.49595 201.94769 204.43443 206.52917 208.37791
 210.01065 211.16239 211.39812 211.63286 211.57660 211.28834 210.92808 210.56482
 210.18856 209.90530 209.72004 209.59077 209.52551 209.86325 210.25599 210.65173
 211.45147 212.63621 213.89295 215.68269 217.61743 219.66716 221.76890 223.85864
 225.92538 228.01612 230.11986 232.23260 234.36834 236.54708 238.80981 241.18655
 243.81429 246.07203 248.08077 249.85251 251.27625 252.40599 253.23473 253.55746
 253.60120 253.38194 252.74868 251.70342 250.31616 248.48390 246.39964 244.23938
 242.03712 239.84785 237.67459 235.52033 233.38707 231.26081 229.29355 227.45729
 225.74703 224.22577 222.86250 221.64124 220.52998 219.49672 218.60746 217.75520
 217.00394 216.19068 215.29542 214.66616 214.12289 214.98759 217.09343 219.42702
 221.62141 223.14467 224.56691 225.47423 225.53760 225.37500 225.37343 225.17662
 226.16985 228.31094 231.93709 236.50073 241.23505 245.71466 249.86668 253.69429
 257.13336 260.12048 262.64322 264.96179 267.10703 269.12509 271.11066 273.05661
 274.86758 276.42603 277.67191 279.01392 280.29248 281.50302 282.60745 283.60797
 284.50784 285.30920 286.00922 286.90134
 366.78100 356.34163 345.78026 334.65289 323.06252 311.26316 299.13979 286.94942
 274.66805 262.57168 250.58731 239.89494 230.02357 221.13420 213.32283 206.33147
 200.17210 195.11673 191.70536 189.75399 188.79762 188.86825 189.70988 191.02451
 192.75615 194.85778 197.12741 199.49304 201.94467 204.43130 206.52593 208.37456
 210.00719 211.15883 211.39446 211.62909 211.57272 211.28435 210.92398 210.56061
 210.18424 209.90087 209.71550 209.58614 209.52077 209.85840 210.25103 210.64666
 211.44629 212.63092 213.88755 215.67718 217.61182 219.66145 221.76308 223.85271
 225.91934 228.00997 230.11360 232.22623 234.36186 236.54049 238.80313 241.17976
 243.80739 246.06502 248.07365 249.84528 251.26891 252.39854 253.22717 253.54981
 253.59344 253.37407 252.74070 251.69533 250.30796 248.47559 246.39122 244.23085
 242.02849 239.83912 237.66575 235.51138 233.37801 231.25164 229.28427 227.44790
 225.73753 224.21616 222.85280 221.63143 220.52006 219.48669 218.59732 217.74495
 216.99358 216.18021 215.28484 214.65548 214.11211 214.99312 217.13609 219.40071
 221.58127 223.21204 224.62041 225.31502 225.29222 225.19943 225.24968 225.10783
 226.16879 228.40752 232.07384 236.62231 241.34741 245.82518 249.97050 253.78468
 257.19052 260.14594 262.69693 265.02805 267.17676 269.19247 271.19012 273.11749
 274.90561 276.39993 277.80576 279.21039 280.54550 281.75269 282.85406 283.85187
 284.74924 285.54837 286.24646 287.13611
 366.78100 356.34192 345.78084 334.65376 323.06368 311.26460 299.14152 286.95145
 274.67037 262.57429 250.59021 239.89813 230.02705 221.13797 213.32689 206.33581
 200.17673 195.12165 191.71057 189.75950 188.80342 188.87434 189.71626 191.03118
 192.76310 194.86502 197.13494 199.50086 201.95278 204.43970 206.53462 208.38355
 210.01647 211.16839 211.40431 211.63923 211.58315 211.29507 210.93499 210.57191
 210.19583 209.91275 209.72767 209.59860 209.53352 209.87144 210.26436 210.66028
 211.46020 212.64512 213.90204 215.69196 217.62688 219.67680 221.77872 223.86865
 225.93557 228.02649 230.13041 232.24333 234.37925 236.55817 238.82109 241.19801
 243.82593 246.08385 248.09277 249.86470 251.28862 252.41854 253.24746 253.57038
 253.61430 253.39522 252.76214 251.71706 250.32998 248.49790 246.41382 244.25375
 242.05167 239.86259 237.68951 235.53543 233.40235 231.27627 229.30919 227.47311
 225.76303 224.24195 222.87887 221.65780 220.54672 219.51364 218.62456 217.77248
 217.02140 216.20832 215.31324 214.68416 214.14108 215.01303 217.12936 219.40895
 221.53705 223.13390 224.56081 225.22920 225.08788 224.95634 225.12698 224.95792
 226.15771 228.48824 232.21228 236.74460 241.46289 245.94031 250.08835 253.89267
 257.26511 260.18445 262.71884 265.04388 267.21378 269.25961 271.26498 273.20529
 274.95731 276.43448 277.75812 279.13956 280.41205 281.62027 282.72260 283.72122
 284.61938 285.41922 286.11792 287.00833
 366.78100 356.34228 345.78156 334.65485 323.06513 311.26641 299.14369 286.95398
 274.67326 262.57754 250.59382 239.90211 230.03139 221.14267 213.33195 206.34123
 200.18252 195.12780 191.71708 189.76636 188.81065 188.88193 189.72421 191.03949
 192.77178 194.87406 197.14434 199.51062 201.96290 204.45019 206.54547 208.39475
 210.02803 211.18032 211.41660 211.65188 211.59616 211.30845 210.94873 210.58601
 210.21029 209.92757 209.74286 209.61414 209.54942 209.88770 210.28099 210.67727
 211.47755 212.66283 213.92012 215.71040 217.64568 219.69596 221.79824 223.88853
 225.95581 228.04709 230.15137 232.26466 234.40094 236.58022 238.84350 241.22079
 243.84907 246.10735 248.11663 249.88891 251.31320 252.44348 253.27276 253.59604
 253.64033 253.42161 252.78889 251.74417 250.35746 248.52574 246.44202 244.28230
 242.08058 239.89187 237.71915 235.56543 233.43271 231.30700 229.34028 227.50456
 225.79484 224.27413 222.91141 221.69069 220.57997 219.54725 218.65854 217.80682
 217.05610 216.24338 215.34867 214.71995 214.17723 215.03889 217.12997 219.41200
 221.51990 223.06758 224.47865 225.21008 224.94612 224.67964 224.91364 224.88574
 226.14713 228.58714 232.35397 236.89099 241.59918 246.06302 250.19601 253.99117
 257.35861 260.24203 262.76648 265.09924 267.26166 269.29343 271.30954 273.25516
 274.97650 276.41104 277.66479 279.03287 280.29013 281.51395 282.63046 283.64197
 284.55170 285.36182 286.06952 286.97141
 366.78100 356.34231 345.78163 334.65494 323.06525 311.26656 299.14388 286.95419
 274.67350 262.57782 250.59413 239.90244 230.03176 221.14307 213.33238 206.34169
 200.18301 195.12832 191.71763 189.76695 188.81126 188.88257 189.72489 191.04020
 192.77251 194.87482 197.14514 199.51145 201.96376 204.45108 206.54639 208.39570
 210.02902 211.18133 211.41764 211.65295 211.59727 211.30958 210.94989 210.58721
 210.21152 209.92883 209.74415 209.61546 209.55077 209.88908 210.28240 210.67871
 211.47902 212.66434 213.92165 215.71196 217.64727 219.69759 221.79990 223.89021
 225.95753 228.04884 230.15315 232.26647 234.40278 236.58209 238.84540 241.22272
 243.85103 246.10934 248.11866 249.89097 251.31528 252.44560 253.27491 253.59822
 253.64253 253.42385 252.79116 251.74647 250.35979 248.52810 246.44441 244.28473
 242.08304 239.89435 237.72166 235.56798 233.43529 231.30960 229.34292 227.50723
 225.79754 224.27686 222.91417 221.69348 220.58279 219.55011 218.66142 217.80973
 217.05905 216.24636 215.35167 214.72298 214.18030 215.05373 217.17876 219.38980
 221.48981 223.16443 224.50508 225.06667 224.79419 224.50323 224.63054 224.92622
 226.11427 228.71710 232.53171 237.06979 241.74899 246.19405 250.29828 254.07426
 257.42380 260.30441 262.82608 265.19400 267.37982 269.40997 271.40726 273.30173
 274.96005 276.29706 277.73041 279.15985 280.52487 281.74219 282.85281 283.85898
 284.76392 285.56973 286.27371 287.17084
 366.78100 356.34236 345.78171 334.65507 323.06543 311.26679 299.14414 286.95450
 274.67386 262.57822 250.59457 239.90293 230.03229 221.14365 213.33300 206.34236
 200.18372 195.12908 191.71843 189.76779 188.81215 188.88351 189.72586 191.04122
 192.77358 194.87593 197.14629 199.51265 201.96501 204.45236 206.54772 208.39708
 210.03044 211.18279 211.41915 211.65451 211.59887 211.31122 210.95158 210.58894
 210.21330 209.93065 209.74601 209.61737 209.55272 209.89108 210.28444 210.68080
 211.48115 212.66651 213.92387 215.71423 217.64958 219.69994 221.80230 223.89266
 225.96001 228.05137 230.15573 232.26909 234.40544 236.58480 238.84816 241.22552
 243.85387 246.11223 248.12159 249.89394 251.31830 252.44866 253.27802 253.60137
 253.64573 253.42709 252.79445 251.74980 250.36316 248.53152 246.44788 244.28823
 242.08659 239.89795 237.72531 235.57166 233.43902 231.31338 229.34673 227.51109
 225.80145 224.28081 222.91816 221.69752 220.58688 219.55424 218.66559 217.81395
 217.06331 216.25067 215.35602 214.72738 214.18474 215.06744 217.22113 219.38243
 221.42392 223.28773 224.53288 224.83650 224.59105 224.35262 224.47488 224.86501
 226.02475 228.79855 232.71385 237.25198 241.90852 246.33820 250.41289 254.13541
 257.45407 260.34485 262.88336 265.28223 267.53677 269.62851 271.62115 273.46210
 275.03552 276.40024 277.96640 279.52658 280.91711 282.14740 283.26984 284.28668
 285.20123 286.01566 286.72708 287.63376
 366.78100 356.34270 345.78241 334.65611 323.06682 311.26852 299.14623 286.95693
 274.67664 262.58134 250.59805 239.90675 230.03646 221.14816 213.33787 206.34757
 200.18927 195.13498 191.72468 189.77439 188.81909 188.89080 189.73350 191.04921
 192.78191 194.88462 197.15532 199.52203 201.97473 204.46244 206.55814 208.40784
 210.04155 211.19425 211.43096 211.66666 211.61137 211.32407 210.96478 210.60248
 210.22719 209.94489 209.76060 209.63230 209.56801 209.90671 210.30041 210.69712
 211.49782 212.68353 213.94123 215.73194 217.66764 219.71835 221.82105 223.91176
 225.97946 228.07117 230.17587 232.28958 234.42628 236.60598 238.86969 241.24739
 243.87610 246.13480 248.14451 249.91721 251.34192 252.47262 253.30233 253.62603
 253.67074 253.45244 252.82015 251.77585 250.38956 248.55826 246.47496 244.31567
 242.11437 239.92608 237.75378 235.60049 233.46819 231.34290 229.37660 227.54131
 225.83201 224.31172 222.94942 221.72913 220.61883 219.58653 218.69824 217.84694
 217.09665 216.28435 215.39006 214.76176 214.21947 215.08624 217.20204 219.41644
 221.31544 223.23241 224.45113 224.64452 224.43881 224.19753 224.12914 224.77420
 226.06168 228.93347 232.90759 237.43565 242.06567 246.47157 250.53047 254.24298
 257.52200 260.39188 262.92685 265.30750 267.59705 269.79001 271.90140 273.80447
 275.34781 276.55414 278.03317 279.46838 280.82571 282.03183 283.13220 284.12909
 285.02567 285.82407 286.52155 287.41040
 366.78100 356.34300 345.78300 334.65700 323.06800 311.27000 299.14800 286.95900
 274.67900 262.58400 250.60100 239.91000 230.04000 221.15200 213.34199 206.35199
 200.19399 195.13999 191.72999 189.77999 188.82499 188.89699 189.73999 191.05599
 192.78899 194.89199 197.16299 199.52999 201.98299 204.47099 206.56699 208.41699
 210.05099 211.20399 211.44099 211.67699 211.62199 211.33499 210.97599 210.61399
 210.23898 209.95698 209.77298 209.64498 209.58098 209.91998 210.31398 210.71098
 211.51198 212.69798 213.95598 215.74698 217.68298 219.73398 221.83698 223.92798
 225.99598 228.08798 230.19298 232.30698 234.44398 236.62398 238.88798 241.26598
 243.89498 246.15398 248.16398 249.93697 251.36197 252.49297 253.32297 253.64697
 253.69197 253.47397 252.84197 251.79797 250.41197 248.58097 246.49797 244.33897
 242.13797 239.94997 237.77797 235.62497 233.49297 231.36797 229.40197 227.56697
 225.85797 224.33797 222.97597 221.75597 220.64597 219.61397 218.72596 217.87496
 217.12496 216.31296 215.41896 214.79096 214.24896 215.09721 217.14711 219.47896
 221.24872 222.95107 224.24789 224.55284 224.33902 223.99271 223.82878 224.61975
 225.92426 228.96149 233.05421 237.59691 242.21611 246.60417 250.64029 254.32101
 257.59024 260.44962 262.99960 265.34894 267.60187 269.79929 271.95660 273.91632
 275.50034 276.74997 277.91891 279.22659 280.44791 281.58939 282.67218 283.65311
 284.53537 285.32101 286.00732 286.88199
 366.78100 356.34334 345.78367 334.65801 323.06934 311.27168 299.15001 286.96135
 274.68168 262.58702 250.60436 239.91369 230.04403 221.15636 213.34670 206.35703
 200.19937 195.14571 191.73604 189.78638 188.83171 188.90405 189.74738 191.06372
 192.79705 194.90039 197.17173 199.53906 201.99240 204.48073 206.57707 208.42740
 210.06174 211.21508 211.45241 211.68875 211.63408 211.34742 210.98875 210.62709
 210.25242 209.97076 209.78710 209.65943 209.59577 209.93510 210.32944 210.72677
 211.52811 212.71445 213.97278 215.76412 217.70045 219.75179 221.85512 223.94646
 226.01479 228.10713 230.21247 232.32680 234.46414 236.64447 238.90881 241.28714
 243.91648 246.17582 248.18615 249.95949 251.38482 252.51616 253.34649 253.67083
 253.71616 253.49850 252.86684 251.82317 250.43751 248.60684 246.52418 244.36551
 242.16485 239.97719 237.80552 235.65286 233.52119 231.39653 229.43086 227.59620
 225.88753 224.36787 223.00621 221.78654 220.67688 219.64521 218.75755 217.90688
 217.15722 216.34556 215.45189 214.82423 214.28256 215.11578 217.11658 219.50888
 221.27643 222.80998 224.06969 224.47998 224.22807 223.74040 223.56744 224.49359
 225.82542 229.01324 233.22214 237.78526 242.38844 246.75392 250.75021 254.40109
 257.66278 260.52936 263.09012 265.46631 267.70953 269.86179 271.99646 273.92908
 275.46432 276.68408 277.78186 279.03082 280.22379 281.30920 282.35651 283.34207
 284.22849 285.01782 285.70737 286.58615
 366.78100 356.34329 345.78358 334.65787 323.06916 311.27145 299.14974 286.96103
 274.68132 262.58661 250.60390 239.91319 230.04348 221.15577 213.34606 206.35635
 200.19864 195.14492 191.73521 189.78550 188.83079 188.90308 189.74637 191.06266
 192.79595 194.89924 197.17053 199.53782 201.99111 204.47940 206.57569 208.42598
 210.06027 211.21356 211.45085 211.68714 211.63243 211.34572 210.98701 210.62530
 210.25059 209.96888 209.78517 209.65746 209.59375 209.93304 210.32733 210.72462
 211.52591 212.71219 213.97048 215.76177 217.69806 219.74935 221.85264 223.94393
 226.01222 228.10451 230.20980 232.32409 234.46138 236.64167 238.90596 241.28425
 243.91354 246.17283 248.18312 249.95641 251.38170 252.51299 253.34328 253.66757
 253.71286 253.49515 252.86344 251.81973 250.43402 248.60331 246.52060 244.36189
 242.16118 239.97347 237.80175 235.64904 233.51733 231.39262 229.42691 227.59220
 225.88349 224.36378 223.00207 221.78236 220.67265 219.64094 218.75323 217.90252
 217.15281 216.34110 215.44739 214.81968 214.27797 215.12042 217.13364 219.49240
 221.31551 222.79892 223.97939 224.34288 224.02304 223.51865 223.37021 224.38142
 225.79832 229.09097 233.40125 237.98398 242.56573 246.90527 250.86714 254.48526
 257.72943 260.60745 263.18979 265.57922 267.84344 270.02255 272.15457 274.05847
 275.52078 276.64032 277.66312 278.89349 280.08203 281.16666 282.18903 283.17612
 284.06546 284.85739 285.54922 286.43088
 366.78100 356.34294 345.78288 334.65683 323.06777 311.26971 299.14765 286.95859
 274.67854 262.58348 250.60042 239.90936 230.03930 221.15125 213.34119 206.35113
 200.19307 195.13901 191.72896 189.77890 188.82384 188.89578 189.73872 191.05466
 192.78761 194.89055 197.16149 199.52843 201.98137 204.46932 206.56526 208.41520
 210.04914 211.20208 211.43903 211.67497 211.61991 211.33285 210.97379 210.61174
 210.23668 209.95462 209.77056 209.64250 209.57845 209.91739 210.31133 210.70827
 211.50921 212.69516 213.95310 215.74404 217.67998 219.73092 221.83387 223.92481
 225.99275 228.08469 230.18963 232.30357 234.44052 236.62046 238.88440 241.26234
 243.89128 246.15023 248.16017 249.93311 251.35805 252.48899 253.31894 253.64288
 253.68782 253.46976 252.83770 251.79365 250.40759 248.57653 246.49347 244.33441
 242.13336 239.94530 237.77324 235.62018 233.48812 231.36307 229.39701 227.56195
 225.85289 224.33283 222.97078 221.75072 220.64066 219.60860 218.72054 217.86948
 217.11943 216.30737 215.41331 214.78525 214.24319 215.11000 217.16360 219.45006
 221.41402 222.82195 223.89926 224.17818 223.78827 223.28529 223.23157 224.23024
 225.86047 229.23477 233.58769 238.17050 242.73846 247.05801 250.99132 254.58690
 257.81448 260.69583 263.29965 265.69183 267.95047 270.14383 272.29312 274.19629
 275.64349 276.73776 277.74774 278.82013 279.97177 281.03925 282.04642 282.98654
 283.85239 284.62341 285.29700 286.15536
 366.78100 356.34324 345.78349 334.65773 323.06897 311.27121 299.14946 286.96070
 274.68094 262.58618 250.60343 239.91267 230.04291 221.15515 213.34540 206.35564
 200.19788 195.14412 191.73437 189.78461 188.82985 188.90209 189.74534 191.06158
 192.79482 194.89806 197.16931 199.53655 201.98979 204.47803 206.57428 208.42452
 210.05876 211.21200 211.44925 211.68549 211.63073 211.34397 210.98522 210.62346
 210.24870 209.96694 209.78319 209.65543 209.59167 209.93091 210.32516 210.72240
 211.52364 212.70988 213.96813 215.75937 217.69561 219.74685 221.85010 223.94134
 226.00958 228.10183 230.20707 232.32131 234.45855 236.63880 238.90304 241.28128
 243.91052 246.16977 248.18001 249.95325 251.37849 252.50974 253.33998 253.66422
 253.70946 253.49171 252.85995 251.81619 250.43043 248.59968 246.51692 244.35816
 242.15740 239.96965 237.79789 235.64513 233.51337 231.38862 229.42286 227.58810
 225.87934 224.35959 222.99783 221.77807 220.66831 219.63656 218.74880 217.89804
 217.14828 216.33653 215.44277 214.81501 214.27325 215.13084 217.15697 219.45578
 221.46611 222.82768 223.83475 224.02667 223.57173 223.02766 223.05096 224.08926
 225.90921 229.38704 233.78569 238.35704 242.89784 247.20027 251.11806 254.70189
 257.91782 260.79962 263.41827 265.81662 268.06308 270.24051 272.36249 274.22992
 275.63092 276.73364 277.75522 278.82162 280.00211 281.06732 282.06174 282.98126
 283.82019 284.57516 285.23465 286.07510
 366.78100 356.34356 345.78412 334.65869 323.07025 311.27281 299.15137 286.96293
 274.68350 262.58906 250.60662 239.91618 230.04674 221.15931 213.34987 206.36043
 200.20299 195.14956 191.74012 189.79068 188.83624 188.90880 189.75237 191.06893
 192.80249 194.90605 197.17761 199.54518 201.99874 204.48730 206.58386 208.43442
 210.06899 211.22255 211.46011 211.69667 211.64223 211.35580 210.99736 210.63592
 210.26148 209.98004 209.79661 209.66917 209.60573 209.94529 210.33985 210.73742
 211.53898 212.72554 213.98410 215.77567 217.71223 219.76379 221.86735 223.95891
 226.02748 228.12004 230.22560 232.34016 234.47772 236.65829 238.92285 241.30141
 243.93097 246.19053 248.20110 249.97466 251.40022 252.53178 253.36234 253.68691
 253.73247 253.51503 252.88359 251.84015 250.45472 248.62428 246.54184 244.38340
 242.18297 239.99553 237.82409 235.67165 233.54021 231.41578 229.45034 227.61590
 225.90746 224.38802 223.02659 221.80715 220.69771 219.66627 218.77883 217.92840
 217.17896 216.36752 215.47408 214.84664 214.30521 215.15089 217.14890 219.46747
 221.48456 222.87206 223.76123 223.84184 223.35574 222.77652 222.85968 223.95320
 225.93628 229.53001 233.97763 238.54010 243.05054 247.32654 251.23463 254.80829
 258.02475 260.92203 263.55719 265.96017 268.19824 270.36502 272.48965 274.31494
 275.60272 276.57361 277.61963 278.82651 280.01044 281.07248 282.05865 282.96063
 283.77231 284.48520 285.13052 285.95413
 366.78100 356.34341 345.78383 334.65824 323.06965 311.27207 299.15048 286.96189
 274.68231 262.58772 250.60513 239.91455 230.04496 221.15737 213.34779 206.35820
 200.20062 195.14703 191.73744 189.78786 188.83327 188.90568 189.74910 191.06551
 192.79892 194.90234 197.17375 199.54116 201.99458 204.48299 206.57940 208.42982
 210.06423 211.21764 211.45506 211.69147 211.63688 211.35030 210.99171 210.63012
 210.25554 209.97395 209.79036 209.66278 209.59919 209.93860 210.33302 210.73043
 211.53185 212.71826 213.97667 215.76809 217.70450 219.75591 221.85933 223.95074
 226.01915 228.11157 230.21698 232.33139 234.46881 236.64922 238.91363 241.29205
 243.92146 246.18087 248.19129 249.96470 251.39011 252.52153 253.35194 253.67635
 253.72177 253.50418 252.87259 251.82901 250.44342 248.61284 246.53025 244.37166
 242.17108 239.98349 237.81190 235.65932 233.52773 231.40314 229.43756 227.60297
 225.89438 224.37480 223.01321 221.79362 220.68404 219.65245 218.76486 217.91428
 217.16469 216.35310 215.45952 214.83193 214.29034 215.14697 217.17088 219.44345
 221.49315 222.92398 223.67148 223.65286 223.13182 222.52026 222.65002 223.82678
 225.93613 229.66534 234.16479 238.71921 243.20589 247.46321 251.35849 254.91669
 258.13425 261.04953 263.70251 266.11121 268.35010 270.51331 272.63727 274.45984
 275.72314 276.65674 277.57251 278.67017 279.82709 280.88251 281.86014 282.75684
 283.55804 284.26862 284.88467 285.69055
 366.78100 356.34345 345.78390 334.65835 323.06981 311.27226 299.15071 286.96216
 274.68261 262.58806 250.60551 239.91497 230.04542 221.15787 213.34832 206.35877
 200.20122 195.14767 191.73813 189.78858 188.83403 188.90648 189.74993 191.06638
 192.79983 194.90329 197.17474 199.54219 201.99564 204.48409 206.58054 208.43099
 210.06545 211.21890 211.45635 211.69280 211.63825 211.35170 210.99315 210.63161
 210.25706 209.97551 209.79196 209.66441 209.60086 209.94031 210.33477 210.73222
 211.53367 212.72012 213.97857 215.77002 217.70647 219.75793 221.86138 223.95283
 226.02128 228.11373 230.21918 232.33363 234.47109 236.65154 238.91599 241.29444
 243.92389 246.18334 248.19379 249.96725 251.39270 252.52415 253.35460 253.67905
 253.72450 253.50695 252.87541 251.83186 250.44631 248.61576 246.53321 244.37466
 242.17411 239.98657 237.81502 235.66247 233.53092 231.40637 229.44082 227.60627
 225.89773 224.37818 223.01663 221.79708 220.68753 219.65598 218.76844 217.91789
 217.16834 216.35679 215.46324 214.83569 214.29414 215.15483 217.18828 219.42151
 221.48331 222.91748 223.58954 223.48682 222.90749 222.25772 222.40981 223.69156
 225.93437 229.78506 234.35246 238.90259 243.36838 247.60841 251.48982 255.03593
 258.25589 261.18643 263.85263 266.26248 268.49237 270.63956 272.75125 274.56641
 275.81738 276.77097 277.67426 278.66949 279.72607 280.75980 281.71872 282.59430
 283.40613 284.15070 284.77127 285.57697
 366.78100 356.34384 345.78468 334.65952 323.07136 311.27420 299.15304 286.96488
 274.68572 262.59156 250.60940 239.91924 230.05008 221.16292 213.35376 206.36460
 200.20744 195.15428 191.74512 189.79596 188.84180 188.91464 189.75848 191.07532
 192.80916 194.91300 197.18484 199.55268 202.00652 204.49536 206.59220 208.44304
 210.07788 211.23172 211.46956 211.70640 211.65224 211.36608 211.00792 210.64676
 210.27260 209.99144 209.80828 209.68112 209.61796 209.95780 210.35264 210.75048
 211.55232 212.73916 213.99800 215.78984 217.72668 219.77852 221.88236 223.97420
 226.04304 228.13588 230.24172 232.35656 234.49440 236.67524 238.94008 241.31892
 243.94876 246.20860 248.21944 249.99328 251.41911 252.55095 253.38179 253.70663
 253.75247 253.53531 252.90415 251.86099 250.47583 248.64567 246.56351 244.40535
 242.20519 240.01803 237.84687 235.69471 233.56355 231.43939 229.47423 227.64007
 225.93191 224.41275 223.05159 221.83243 220.72327 219.69211 218.80495 217.95479
 217.20563 216.39447 215.50131 214.87415 214.33299 215.18224 217.18867 219.41624
 221.46609 222.88629 223.52135 223.32741 222.67580 221.99696 222.16341 223.54730
 225.93048 229.89682 234.52406 239.09776 243.53703 247.75142 251.62187 255.16287
 258.39172 261.33813 264.01761 266.42599 268.64084 270.76331 272.85205 274.65207
 275.87387 276.81903 277.71634 278.69608 279.76471 280.80139 281.75937 282.63617
 283.44720 284.19153 284.81647 285.62234
 366.78100 356.34429 345.78558 334.66088 323.07317 311.27646 299.15575 286.96805
 274.68934 262.59563 250.61392 239.92422 230.05551 221.16880 213.36009 206.37139
 200.21468 195.16197 191.75326 189.80455 188.85085 188.92414 189.76843 191.08572
 192.82002 194.92431 197.19660 199.56489 202.01919 204.50848 206.60577 208.45706
 210.09236 211.24665 211.48494 211.72223 211.66852 211.38282 211.02511 210.66440
 210.29069 210.00999 209.82728 209.70057 209.63786 209.97816 210.37345 210.77174
 211.57403 212.76133 214.02062 215.81291 217.75020 219.80249 221.90679 223.99908
 226.06837 228.16166 230.26796 232.38325 234.52154 236.70283 238.96813 241.34742
 243.97771 246.23800 248.24930 250.02359 251.44988 252.58217 253.41346 253.73876
 253.78505 253.56834 252.93763 251.89493 250.51022 248.68051 246.59880 244.44110
 242.24139 240.05468 237.88397 235.73226 233.60156 231.47785 229.51314 227.67943
 225.97173 224.45302 223.09231 221.87360 220.76490 219.73419 218.84748 217.99777
 217.24907 216.43836 215.54565 214.91894 214.37823 215.21307 217.18549 219.40970
 221.44421 222.85730 223.46901 223.16873 222.43147 221.73019 221.90894 223.40030
 225.92984 230.00548 234.69240 239.30513 243.70967 247.88863 251.75293 255.29350
 258.53055 261.49347 264.18640 266.59286 268.79099 270.88763 272.94839 274.73444
 275.93884 276.86014 277.73309 278.72244 279.84863 280.89969 281.86115 282.74030
 283.54901 284.29251 284.92007 285.72491
 366.78100 356.34463 345.78626 334.66189 323.07452 311.27814 299.15777 286.97040
 274.69203 262.59866 250.61729 239.92792 230.05955 221.17318 213.36481 206.37643
 200.22006 195.16769 191.75932 189.81095 188.85758 188.93121 189.77584 191.09347
 192.82809 194.93272 197.20535 199.57398 202.02861 204.51824 206.61587 208.46750
 210.10313 211.25776 211.49638 211.73401 211.68064 211.39527 211.03790 210.67753
 210.30416 210.02379 209.84142 209.71505 209.65267 209.99330 210.38893 210.78756
 211.59019 212.77782 214.03745 215.83008 217.76771 219.82033 221.92496 224.01759
 226.08722 228.18085 230.28748 232.40311 234.54174 236.72337 238.98900 241.36862
 243.99925 246.25988 248.27151 250.04614 251.47277 252.60540 253.43703 253.76266
 253.80928 253.59291 252.96254 251.92017 250.53580 248.70643 246.62506 244.46769
 242.26832 240.08195 237.91157 235.76020 233.62983 231.50646 229.54209 227.70872
 226.00135 224.48298 223.12261 221.90424 220.79586 219.76549 218.87912 218.02975
 217.28138 216.47101 215.57864 214.95227 214.41190 215.23706 217.18663 219.39717
 221.41278 222.84061 223.42509 223.01250 222.17561 221.44914 221.65361 223.27570
 225.93817 230.09921 234.84038 239.50595 243.90652 248.03934 251.87872 255.42278
 258.67438 261.64966 264.35220 266.75882 268.94339 271.01138 273.03622 274.80881
 276.01254 276.93436 277.80185 278.80542 279.93784 280.99020 281.95340 282.83353
 283.64270 284.38538 285.01996 285.82437
 366.78100 356.34499 345.78698 334.66298 323.07597 311.27996 299.15995 286.97295
 274.69494 262.60193 250.62092 239.93191 230.06391 221.17790 213.36989 206.38188
 200.22588 195.17387 191.76586 189.81785 188.86485 188.93884 189.78383 191.10182
 192.83681 194.94181 197.21480 199.58379 202.03878 204.52878 206.62677 208.47876
 210.11475 211.26974 211.50874 211.74673 211.69372 211.40871 211.05171 210.69170
 210.31869 210.03868 209.85668 209.73067 209.66866 210.00965 210.40564 210.80464
 211.60763 212.79562 214.05561 215.84861 217.78660 219.83959 221.94458 224.03757
 226.10757 228.20156 230.30855 232.42454 234.56354 236.74553 239.01152 241.39151
 244.02251 246.28350 248.29549 250.07048 251.49747 252.63047 253.46246 253.78845
 253.83544 253.61944 252.98943 251.94742 250.56341 248.73440 246.65340 244.49639
 242.29738 240.11137 237.94137 235.79036 233.66035 231.53734 229.57334 227.74033
 226.03332 224.51531 223.15530 221.93730 220.82929 219.79928 218.91327 218.06427
 217.31626 216.50625 215.61424 214.98823 214.44823 215.26169 217.18359 219.39508
 221.36893 222.81052 223.40723 222.87350 221.89685 221.13570 221.39136 223.16669
 225.96756 230.19899 234.98056 239.70412 244.12981 248.18552 251.99368 255.54610
 258.82343 261.81546 264.51846 266.92145 269.09320 271.13083 273.11237 274.85883
 276.06567 277.00998 277.90585 278.93311 280.07031 281.12308 282.08728 282.96872
 283.77911 284.51865 285.16153 285.96799
 366.78100 356.34539 345.78779 334.66418 323.07758 311.28197 299.16237 286.97576
 274.69816 262.60555 250.62495 239.93634 230.06874 221.18313 213.37553 206.38792
 200.23231 195.18071 191.77310 189.82550 188.87289 188.94729 189.79268 191.11108
 192.84647 194.95187 197.22526 199.59466 202.05005 204.54044 206.63884 208.49123
 210.12763 211.28302 211.52242 211.76081 211.70821 211.42360 211.06700 210.70739
 210.33479 210.05518 209.87358 209.74797 209.68636 210.02776 210.42415 210.82355
 211.62694 212.81534 214.07573 215.86913 217.80752 219.86092 221.96631 224.05971
 226.13010 228.22449 230.33189 232.44828 234.58768 236.77007 239.03647 241.41686
 244.04826 246.30965 248.32205 250.09744 251.52484 252.65823 253.49063 253.81702
 253.86441 253.64881 253.01920 251.97760 250.59399 248.76539 246.68478 244.52818
 242.32957 240.14397 237.97436 235.82376 233.69415 231.57154 229.60794 227.77533
 226.06873 224.55112 223.19152 221.97391 220.86631 219.83670 218.95110 218.10249
 217.35489 216.54528 215.65368 215.02807 214.48846 215.28749 217.17528 219.39731
 221.33748 222.74977 223.37750 222.80258 221.66492 220.77061 221.06401 223.09384
 226.04362 230.31500 235.12683 239.87137 244.33478 248.38040 252.11938 255.67238
 258.96820 261.97705 264.68066 267.07504 269.23770 271.24805 273.17920 274.88358
 276.08777 277.05167 277.96960 279.08398 280.23953 281.29407 282.26041 283.14435
 283.95572 284.69666 285.34274 286.16156
 366.78100 356.34565 345.78830 334.66495 323.07860 311.28325 299.16391 286.97756
 274.70021 262.60786 250.62751 239.93916 230.07181 221.18646 213.37911 206.39176
 200.23642 195.18507 191.77772 189.83037 188.87802 188.95267 189.79832 191.11697
 192.85262 194.95827 197.23193 199.60158 202.05723 204.54788 206.64653 208.49918
 210.13583 211.29148 211.53113 211.76978 211.71744 211.43309 211.07674 210.71739
 210.34504 210.06569 209.88434 209.75899 209.69764 210.03929 210.43595 210.83560
 211.63925 212.82790 214.08855 215.88220 217.82085 219.87450 221.98015 224.07380
 226.14446 228.23911 230.34676 232.46341 234.60306 236.78571 239.05236 241.43301
 244.06466 246.32631 248.33897 250.11462 251.54227 252.67592 253.50857 253.83522
 253.88287 253.66752 253.03817 251.99682 250.61348 248.78513 246.70478 244.54843
 242.35008 240.16473 237.99538 235.84503 233.71568 231.59333 229.62999 227.79764
 226.09129 224.57394 223.21459 221.99724 220.88989 219.86054 218.97519 218.12684
 217.37950 216.57015 215.67880 215.05345 214.51410 215.30473 217.17270 219.38365
 221.32797 222.70186 223.28618 222.73341 221.51837 220.35065 220.74132 223.07379
 226.11334 230.41620 235.27684 240.04517 244.50339 248.58925 252.27298 255.79427
 259.11316 262.14175 264.83646 267.21347 269.36584 271.34906 273.23080 274.89127
 276.08008 277.05850 278.00690 279.22949 280.40500 281.45920 282.42593 283.31018
 284.12238 284.86099 285.51297 286.33527
 366.78100 356.34583 345.78867 334.66550 323.07934 311.28417 299.16500 286.97884
 274.70167 262.60950 250.62934 239.94117 230.07401 221.18884 213.38167 206.39451
 200.23934 195.18817 191.78101 189.83384 188.88168 188.95651 189.80234 191.12118
 192.85701 194.96284 197.23668 199.60651 202.06235 204.55318 206.65201 208.50485
 210.14168 211.29752 211.53735 211.77618 211.72402 211.43985 211.08368 210.72452
 210.35235 210.07319 209.89202 209.76685 209.70569 210.04752 210.44435 210.84419
 211.64802 212.83686 214.09769 215.89152 217.83036 219.88419 221.99002 224.08386
 226.15469 228.24953 230.35736 232.47419 234.61403 236.79686 239.06370 241.44453
 244.07636 246.33820 248.35103 250.12686 251.55470 252.68853 253.52137 253.84820
 253.89603 253.68087 253.05170 252.01053 250.62737 248.79920 246.71904 244.56287
 242.36470 240.17954 238.01037 235.86020 233.73104 231.60887 229.64571 227.81354
 226.10737 224.59021 223.23104 222.01388 220.90671 219.87754 218.99238 218.14421
 217.39704 216.58788 215.69671 215.07155 214.53238 215.31902 217.17752 219.35963
 221.31325 222.67622 223.18495 222.59883 221.34991 220.02701 220.44537 222.96463
 226.15405 230.54167 235.43683 240.22621 244.66924 248.76131 252.47990 255.92967
 259.24130 262.28909 264.96860 267.33469 269.47626 271.43387 273.27454 274.89368
 276.05695 277.02515 278.06235 279.34659 280.52817 281.57947 282.54660 283.43130
 284.24255 284.98032 285.63251 286.46738
 366.78100 356.34602 345.78904 334.66606 323.08008 311.28510 299.16613 286.98015
 274.70317 262.61119 250.63121 239.94323 230.07625 221.19127 213.38429 206.39731
 200.24233 195.19135 191.78438 189.83740 188.88542 188.96044 189.80646 191.12548
 192.86150 194.96752 197.24154 199.61156 202.06758 204.55861 206.65763 208.51065
 210.14767 211.30369 211.54371 211.78273 211.73075 211.44677 211.09079 210.73181
 210.35983 210.08086 209.89988 209.77490 209.71392 210.05594 210.45296 210.85298
 211.65700 212.84602 214.10704 215.90106 217.84008 219.89411 222.00013 224.09415
 226.16517 228.26019 230.36821 232.48523 234.62525 236.80827 239.07529 241.45631
 244.08834 246.35036 248.36338 250.13940 251.56742 252.70144 253.53446 253.86148
 253.90950 253.69452 253.06554 252.02456 250.64159 248.81361 246.73363 244.57765
 242.37967 240.19469 238.02571 235.87573 233.74675 231.62477 229.66179 227.82982
 226.12384 224.60686 223.24788 222.03090 220.92392 219.89494 219.00996 218.16198
 217.41500 216.60602 215.71504 215.09007 214.55109 215.33218 217.17763 219.34322
 221.28548 222.65523 223.10329 222.43593 221.14957 219.75429 220.15924 222.81343
 226.18614 230.68069 235.59506 240.40004 244.83408 248.93149 252.69243 256.11050
 259.35837 262.40866 265.08859 267.43295 269.55569 271.49817 273.30847 274.89554
 276.06088 276.99478 278.13089 279.42444 280.60049 281.64978 282.61597 283.49829
 284.30594 285.04584 285.69623 286.54407
 366.78100 356.34621 345.78941 334.66662 323.08083 311.28603 299.16724 286.98145
 274.70465 262.61286 250.63307 239.94527 230.07848 221.19369 213.38689 206.40010
 200.24531 195.19451 191.78772 189.84093 188.88913 188.96434 189.81055 191.12975
 192.86596 194.97217 197.24637 199.61658 202.07279 204.56399 206.66320 208.51641
 210.15361 211.30982 211.55003 211.78924 211.73744 211.45365 211.09786 210.73906
 210.36727 210.08848 209.90768 209.78289 209.72210 210.06430 210.46151 210.86172
 211.66592 212.85513 214.11634 215.91054 217.84975 219.90396 222.01016 224.10437
 226.17558 228.27078 230.37899 232.49620 234.63640 236.81961 239.08682 241.46802
 244.10023 246.36244 248.37564 250.15185 251.58006 252.71426 253.54747 253.87468
 253.92288 253.70809 253.07930 252.03850 250.65571 248.82792 246.74812 244.59233
 242.39454 240.20974 238.04095 235.89116 233.76236 231.64057 229.67778 227.84598
 226.14019 224.62340 223.26460 222.04781 220.94102 219.91222 219.02743 218.17964
 217.43284 216.62405 215.73326 215.10846 214.56967 215.34290 217.16972 219.33621
 221.25221 222.62787 223.04446 222.25967 220.93593 219.50394 219.88086 222.65007
 226.21037 230.82111 235.75754 240.57083 244.99693 249.08276 252.88017 256.32983
 259.51965 262.50079 265.18210 267.51248 269.60873 271.53812 273.31104 274.87125
 276.09195 277.11368 278.16846 279.44855 280.62125 281.66693 282.63068 283.51056
 284.32019 285.05692 285.71130 286.57278
 366.78100 356.34623 345.78946 334.66669 323.08092 311.28615 299.16738 286.98162
 274.70485 262.61308 250.63331 239.94554 230.07877 221.19400 213.38723 206.40046
 200.24569 195.19492 191.78815 189.84139 188.88962 188.96485 189.81108 191.13031
 192.86654 194.97277 197.24700 199.61723 202.07346 204.56469 206.66392 208.51716
 210.15439 211.31062 211.55085 211.79008 211.73831 211.45454 211.09877 210.74000
 210.36823 210.08946 209.90869 209.78393 209.72316 210.06539 210.46262 210.86285
 211.66708 212.85631 214.11754 215.91177 217.85100 219.90523 222.01146 224.10570
 226.17693 228.27216 230.38039 232.49762 234.63785 236.82108 239.08831 241.46954
 244.10177 246.36400 248.37723 250.15347 251.58170 252.71593 253.54916 253.87639
 253.92462 253.70985 253.08108 252.04031 250.65754 248.82977 246.75000 244.59424
 242.39647 240.21170 238.04293 235.89316 233.76439 231.64262 229.67985 227.84808
 226.14231 224.62554 223.26677 222.05001 220.94324 219.91447 219.02970 218.18193
 217.43516 216.62639 215.73562 215.11085 214.57208 215.34468 217.17000 219.32141
 221.22520 222.58284 222.98732 222.08791 220.72314 219.27158 219.62518 222.50516
 226.24046 230.95306 235.91669 240.73576 245.15459 249.23578 253.05583 256.53857
 259.70187 262.58777 265.21841 267.57175 269.67398 271.58160 273.27817 274.82642
 276.13190 277.27182 278.25082 279.48819 280.60458 281.63934 282.59692 283.47845
 284.28622 285.02548 285.68396 286.56149
 366.78100 356.34619 345.78937 334.66656 323.08075 311.28593 299.16712 286.98131
 274.70449 262.61268 250.63287 239.94505 230.07824 221.19343 213.38661 206.39980
 200.24499 195.19417 191.78736 189.84055 188.88873 188.96392 189.81011 191.12929
 192.86548 194.97167 197.24585 199.61604 202.07223 204.56342 206.66260 208.51579
 210.15298 211.30916 211.54935 211.78854 211.73672 211.45291 211.09710 210.73828
 210.36647 210.08766 209.90684 209.78203 209.72122 210.06340 210.46059 210.86078
 211.66496 212.85415 214.11534 215.90952 217.84871 219.90290 222.00908 224.10327
 226.17446 228.26964 230.37783 232.49502 234.63520 236.81839 239.08558 241.46676
 244.09895 246.36114 248.37432 250.15051 251.57870 252.71288 253.54607 253.87326
 253.92144 253.70663 253.07782 252.03700 250.65419 248.82638 246.74656 244.59075
 242.39294 240.20812 238.03931 235.88950 233.76069 231.63887 229.67606 227.84425
 226.13843 224.62162 223.26281 222.04599 220.93918 219.91037 219.02555 218.17774
 217.43093 216.62211 215.73130 215.10649 214.56767 215.34235 217.17259 219.30779
 221.19160 222.54172 222.91550 221.92976 220.45969 219.06119 219.41232 222.38322
 226.27760 231.07225 236.05298 240.87094 245.30148 249.39650 253.23912 256.76331
 259.91687 262.73059 265.26550 267.55710 269.63608 271.52631 273.28214 274.80972
 276.14224 277.36475 278.47641 279.51727 280.52783 281.54660 282.50174 283.37747
 284.18176 284.92087 285.58350 286.46130
 354.97500 345.04800 334.58700 324.11500 313.32600 302.53700 291.65000 280.76700
 269.93100 259.19300 248.62200 238.61700 229.08700 220.35500 212.54000 205.53500
 199.46400 194.49300 191.14300 189.19000 188.08900 188.01400 188.72400 189.90600
 191.46900 193.38200 195.40300 197.55600 199.80700 202.06000 204.28800 206.47900
 208.55200 210.37800 212.02500 213.65900 214.99800 216.11800 217.17200 218.25900
 219.49400 220.64500 221.67900 222.61400 223.54500 224.98200 226.57100 228.19000
 229.79700 231.81100 233.86500 235.97200 238.24200 240.55300 242.89900 245.25300
 247.48800 249.53500 251.36600 252.84800 254.09800 255.16700 256.02700 256.25300
 256.09500 255.54300 253.93500 252.56600 251.38400 250.24500 249.05200 247.70100
 246.01600 243.99600 241.78400 239.39300 236.81300 234.22300 231.65800 229.14400
 226.74000 224.47300 222.33500 220.32500 218.44000 216.67700 214.96200 213.47200
 212.20000 211.10800 210.26000 209.63900 209.24400 209.03100 209.05800 209.33300
 209.78400 210.62600 211.33100 212.39100 213.62500 214.84668 217.72949 219.47640
 220.32566 220.86828 220.88710 220.27371 219.43733 218.84250 219.04934 220.86203
 222.60583 225.72206 229.03064 232.61777 236.12270 239.51333 242.70767 245.68587
 248.41061 250.90679 253.19353 254.91714 256.48655 257.94920 259.39966 260.69384
 261.81714 262.77997 263.71679 264.54570 265.26305 265.89772 266.47676 267.00133
 267.47312 267.89325 268.26027 268.72800
