|-------------------------------------------------------------------------|
|   File Name : in_temp.dat
|   Subject   : temperature profiles used for initial guess atmosphere
|   File Type : input of gmtr
|   Data Type : atmospherical data
|   Author/s  : WRF-Chem
|   Date      : Fri Jul 26 15:39:24 2024
|-------------------------------------------------------------------------|

 WRF-Chem temperature
#
 values of T (K)    (8f10.5)
#
 354.97500 345.04800 334.58700 324.11500 313.32600 302.53700 291.65000 280.76700
 269.93100 259.19300 248.62200 238.61700 229.08700 220.35500 212.54000 205.53500
 199.46400 194.49300 191.14300 189.19000 188.08900 188.01400 188.72400 189.90600
 191.46900 193.38200 195.40300 197.55600 199.80700 202.06000 204.28800 206.47900
 208.55200 210.37800 212.02500 213.65900 214.99800 216.11800 217.17200 218.25900
 219.49400 220.64500 221.67900 222.61400 223.54500 224.98200 226.57100 228.19000
 229.79700 231.81100 233.86500 235.97200 238.24200 240.55300 242.89900 245.25300
 247.48800 249.53500 251.36600 252.84800 254.09800 255.16700 256.02700 256.25300
 256.09500 255.54300 253.93500 252.56600 251.38400 250.24500 249.05200 247.70100
 246.01600 243.99600 241.78400 239.39300 236.81300 234.22300 231.65800 229.14400
 226.74000 224.47300 222.33500 220.32500 218.44000 216.67700 214.96200 213.47200
 212.20000 211.10800 210.26000 209.63900 209.24400 209.03100 209.05800 209.33300
 209.78400 210.62600 211.33100 212.39100 213.62500 214.84668 217.72949 219.47640
 220.32566 220.86828 220.88710 220.27371 219.43733 218.84250 219.04934 220.86203
 222.60583 225.72206 229.03064 232.61777 236.12270 239.51333 242.70767 245.68587
 248.41061 250.90679 253.19353 254.91714 256.48655 257.94920 259.39966 260.69384
 261.81714 262.77997 263.71679 264.54570 265.26305 265.89772 266.47676 267.00133
 267.47312 267.89325 268.26027 268.72800
 366.78100 356.33500 345.76700 334.63300 323.03600 311.23000 299.10000 286.90300
 274.61500 262.51200 250.52100 239.82200 229.94400 221.04800 213.23000 206.23200
 200.06600 195.00400 191.58600 189.62800 188.66500 188.72900 189.56400 190.87200
 192.59700 194.69200 196.95500 199.31400 201.75900 204.23900 206.32700 208.16900
 209.79500 210.94000 211.16900 211.39700 211.33400 211.03900 210.67200 210.30200
 209.91900 209.62900 209.43700 209.30100 209.22900 209.56000 209.94600 210.33500
 211.12800 212.30600 213.55600 215.33900 217.26700 219.31000 221.40500 223.48800
 225.54800 227.63200 229.72900 231.83500 233.96400 236.13600 238.39200 240.76200
 243.38300 245.63400 247.63600 249.40100 250.81800 251.94100 252.76300 253.07900
 253.11600 252.89000 252.25000 251.19800 249.80400 247.96500 245.87400 243.70700
 241.49800 239.30200 237.12200 234.96100 232.82100 230.68800 228.71400 226.87100
 225.15400 223.62600 222.25600 221.02800 219.91000 218.87000 217.97400 217.11500
 216.35700 215.53700 214.63500 213.99900 213.44900 212.85855 212.01316 212.61654
 214.26826 216.08686 218.14273 220.53346 223.40855 226.78828 231.49734 235.90155
 239.42278 243.28576 247.23140 251.11907 254.80144 258.23331 261.38913 264.27520
 266.89312 269.26852 271.44504 273.08845 274.58484 275.98591 277.39845 278.65879
 279.75272 280.69038 281.56708 282.34086 283.01050 283.60295 284.14348 284.63317
 285.07358 285.46577 285.80838 286.24500
 381.81900 372.39900 361.20600 349.77600 337.62200 324.85300 311.81000 298.35300
 284.86000 271.32400 258.56100 246.30400 236.08700 226.79600 218.44800 211.29000
 205.52200 200.89400 197.38100 194.84800 193.01500 192.31500 192.25000 192.43100
 192.91200 193.53700 194.13600 194.71200 195.26200 195.83100 196.39300 196.97600
 197.60400 198.14900 198.58400 199.05700 199.69500 200.37800 201.05400 201.70800
 202.31300 202.85700 203.35500 203.86200 204.56900 205.29700 206.02600 206.98700
 208.19300 209.44100 210.96900 212.57600 214.46200 216.51300 218.63000 220.85300
 223.34100 225.96200 228.73900 231.69700 234.70600 237.70600 240.69200 243.65700
 246.73700 249.69900 252.52100 255.06300 257.29000 259.23300 260.63300 261.68000
 262.46100 262.79800 262.69100 262.22400 261.06900 259.52500 257.70700 255.50700
 253.00100 250.30200 247.39800 244.45200 241.65400 239.05400 236.73300 234.59000
 232.59500 230.72500 228.83400 226.82600 224.66600 222.38700 220.10400 217.71500
 215.45900 213.06600 210.54600 208.09300 205.35400 202.08130 196.05959 200.71215
 209.01611 216.90438 223.84126 229.78593 235.00632 240.20838 245.98943 250.68668
 254.32982 257.93487 261.55666 264.96801 268.15192 271.06452 273.76717 276.25691
 278.57680 280.74479 282.77456 284.60533 286.27232 287.81705 289.31715 290.65561
 291.81734 292.81312 293.70701 294.49387 295.17482 295.77730 296.32696 296.82492
 297.27278 297.67160 298.02000 298.46400
 399.33000 389.90700 379.81300 368.66800 357.52200 345.30100 333.07400 320.22700
 307.21600 293.84800 280.37600 267.29600 254.61000 242.98700 232.15100 221.97700
 212.67200 204.28600 197.66900 192.82100 189.48600 187.45200 186.81400 187.08900
 187.78100 189.05400 190.64800 192.54200 194.63000 196.75200 198.67100 200.15800
 201.53500 202.48700 202.97500 203.34000 203.53900 203.49700 203.38500 203.24700
 203.00500 202.78600 202.60300 202.43700 202.42600 202.88800 203.42000 203.95100
 204.89500 205.99200 207.30100 208.95800 210.73800 213.10000 215.56400 218.18000
 220.96600 223.91800 226.96100 230.09200 233.29300 236.55700 239.95500 243.53700
 246.84500 249.39000 251.54200 253.47400 255.19500 256.48400 257.43100 258.05900
 258.21200 258.04000 257.58200 256.64300 255.23900 253.50700 251.40800 249.05600
 246.57600 243.99400 241.38900 238.83000 236.34400 233.98600 231.96900 230.11800
 228.42300 226.89900 225.54800 224.29700 223.10500 221.96500 220.95800 220.11300
 219.49000 218.92000 218.32500 217.88100 217.42300 216.96366 216.35568 216.80261
 217.73415 218.28582 218.64258 219.10077 220.44626 222.53987 226.38451 230.35736
 233.59734 237.39164 241.29814 245.22796 248.98002 252.51130 255.78595 258.80109
 261.54781 264.05210 266.34239 268.04198 269.58951 271.01303 272.35754 273.55718
 274.59842 275.49092 276.28989 276.99307 277.60161 278.14001 278.63122 279.07623
 279.47646 279.83287 280.14422 280.54100
 399.73800 389.78500 379.66200 368.15100 356.64100 344.35000 331.79200 318.88800
 305.72600 292.49300 279.20900 266.73800 254.69600 244.21100 234.45700 225.43300
 217.56900 210.45100 204.30000 199.30600 195.45800 192.57600 191.02700 190.38600
 190.23900 190.53400 191.16600 191.92500 192.79500 193.76600 194.73200 195.31200
 195.80000 196.05200 196.11500 196.11500 196.03900 195.72300 195.34000 194.98900
 194.75100 194.79200 195.13300 195.59800 196.50600 198.13600 199.85800 201.56600
 204.17900 206.82300 209.89300 213.28400 216.82800 220.60500 224.38700 228.20900
 232.03200 235.82500 239.56000 243.25800 246.84500 250.20100 253.70900 257.46800
 261.53000 264.22100 266.60100 268.68100 270.32900 271.74100 272.83600 273.47400
 273.89800 274.00200 273.75700 273.28800 272.37100 271.10000 269.58900 267.77900
 265.81600 263.72100 261.39300 258.91600 256.29800 253.42300 250.33100 247.11400
 243.83700 240.52900 237.24900 233.99900 230.72800 227.51500 224.25400 220.95200
 217.62700 213.65600 210.12100 206.78900 204.01000 201.99491 199.07309 198.76551
 199.40006 200.48994 201.46112 202.31912 203.45100 204.96110 207.47502 210.85391
 213.70530 217.29629 220.99574 224.72316 228.28753 231.64854 234.68024 237.40893
 239.70644 241.60899 243.46854 245.67368 247.68154 249.52395 251.24767 252.78566
 254.12057 255.26479 256.23740 257.09036 257.82852 258.48160 259.07744 259.61723
 260.10271 260.53504 260.91270 261.39400
 399.73800 389.78500 379.66200 368.15100 356.64100 344.35000 331.79200 318.88800
 305.72600 292.49300 279.20900 266.73800 254.69600 244.21100 234.45700 225.43300
 217.56900 210.45100 204.30000 199.30600 195.45800 192.57600 191.02700 190.38600
 190.23900 190.53400 191.16600 191.92500 192.79500 193.76600 194.73200 195.31200
 195.80000 196.05200 196.11500 196.11500 196.03900 195.72300 195.34000 194.98900
 194.75100 194.79200 195.13300 195.59800 196.50600 198.13600 199.85800 201.56600
 204.17900 206.82300 209.89300 213.28400 216.82800 220.60500 224.38700 228.20900
 232.03200 235.82500 239.56000 243.25800 246.84500 250.20100 253.70900 257.46800
 261.53000 264.22100 266.60100 268.68100 270.32900 271.74100 272.83600 273.47400
 273.89800 274.00200 273.75700 273.28800 272.37100 271.10000 269.58900 267.77900
 265.81600 263.72100 261.39300 258.91600 256.29800 253.42300 250.33100 247.11400
 243.83700 240.52900 237.24900 233.99900 230.72800 227.51500 224.25400 220.95200
 217.62700 213.65600 210.12100 206.78900 204.01000 201.99491 199.07309 198.76551
 199.40006 200.48994 201.46112 202.31912 203.45100 204.96110 207.47502 210.85391
 213.70530 217.29629 220.99574 224.72316 228.28753 231.64854 234.68024 237.40893
 239.70644 241.60899 243.46854 245.67368 247.68154 249.52395 251.24767 252.78566
 254.12057 255.26479 256.23740 257.09036 257.82852 258.48160 259.07744 259.61723
 260.10271 260.53504 260.91270 261.39400
 399.33000 389.90700 379.81300 368.66800 357.52200 345.30100 333.07400 320.22700
 307.21600 293.84800 280.37600 267.29600 254.61000 242.98700 232.15100 221.97700
 212.67200 204.28600 197.66900 192.82100 189.48600 187.45200 186.81400 187.08900
 187.78100 189.05400 190.64800 192.54200 194.63000 196.75200 198.67100 200.15800
 201.53500 202.48700 202.97500 203.34000 203.53900 203.49700 203.38500 203.24700
 203.00500 202.78600 202.60300 202.43700 202.42600 202.88800 203.42000 203.95100
 204.89500 205.99200 207.30100 208.95800 210.73800 213.10000 215.56400 218.18000
 220.96600 223.91800 226.96100 230.09200 233.29300 236.55700 239.95500 243.53700
 246.84500 249.39000 251.54200 253.47400 255.19500 256.48400 257.43100 258.05900
 258.21200 258.04000 257.58200 256.64300 255.23900 253.50700 251.40800 249.05600
 246.57600 243.99400 241.38900 238.83000 236.34400 233.98600 231.96900 230.11800
 228.42300 226.89900 225.54800 224.29700 223.10500 221.96500 220.95800 220.11300
 219.49000 218.92000 218.32500 217.88100 217.42300 216.96366 216.35568 216.80261
 217.73415 218.28582 218.64258 219.10077 220.44626 222.53987 226.38451 230.35736
 233.59734 237.39164 241.29814 245.22796 248.98002 252.51130 255.78595 258.80109
 261.54781 264.05210 266.34239 268.04198 269.58951 271.01303 272.35754 273.55718
 274.59842 275.49092 276.28989 276.99307 277.60161 278.14001 278.63122 279.07623
 279.47646 279.83287 280.14422 280.54100
 381.81900 372.39900 361.20600 349.77600 337.62200 324.85300 311.81000 298.35300
 284.86000 271.32400 258.56100 246.30400 236.08700 226.79600 218.44800 211.29000
 205.52200 200.89400 197.38100 194.84800 193.01500 192.31500 192.25000 192.43100
 192.91200 193.53700 194.13600 194.71200 195.26200 195.83100 196.39300 196.97600
 197.60400 198.14900 198.58400 199.05700 199.69500 200.37800 201.05400 201.70800
 202.31300 202.85700 203.35500 203.86200 204.56900 205.29700 206.02600 206.98700
 208.19300 209.44100 210.96900 212.57600 214.46200 216.51300 218.63000 220.85300
 223.34100 225.96200 228.73900 231.69700 234.70600 237.70600 240.69200 243.65700
 246.73700 249.69900 252.52100 255.06300 257.29000 259.23300 260.63300 261.68000
 262.46100 262.79800 262.69100 262.22400 261.06900 259.52500 257.70700 255.50700
 253.00100 250.30200 247.39800 244.45200 241.65400 239.05400 236.73300 234.59000
 232.59500 230.72500 228.83400 226.82600 224.66600 222.38700 220.10400 217.71500
 215.45900 213.06600 210.54600 208.09300 205.35400 202.08130 196.05959 200.71215
 209.01611 216.90438 223.84126 229.78593 235.00632 240.20838 245.98943 250.68668
 254.32982 257.93487 261.55666 264.96801 268.15192 271.06452 273.76717 276.25691
 278.57680 280.74479 282.77456 284.60533 286.27232 287.81705 289.31715 290.65561
 291.81734 292.81312 293.70701 294.49387 295.17482 295.77730 296.32696 296.82492
 297.27278 297.67160 298.02000 298.46400
 366.78100 356.35972 345.81645 334.70717 323.13489 311.35361 299.24834 287.07606
 274.81278 262.73450 250.76823 240.09395 230.24067 221.36939 213.57612 206.60284
 200.46156 195.42428 192.03101 190.09773 189.15945 189.24818 190.10790 191.44062
 193.19034 195.31007 197.59779 199.98151 202.45123 204.95596 207.06868 208.93540
 210.58612 211.75585 212.00957 212.26229 212.22402 211.95374 211.61146 211.26618
 210.90791 210.64263 210.47535 210.36407 210.31680 210.67252 211.08324 211.49696
 212.31469 213.51741 214.79213 216.59985 218.55258 220.62030 222.74002 224.84775
 226.93247 229.04119 231.16291 233.29364 235.44736 237.64408 239.92480 242.31953
 244.96525 247.24097 249.26769 251.05742 252.49914 253.64686 254.49359 254.83431
 254.89603 254.69475 254.07948 253.05220 251.68292 249.86864 247.80237 245.66009
 243.47581 241.30453 239.14926 237.01298 234.89770 232.78942 230.84015 229.02187
 227.32959 225.82632 224.48104 223.27776 222.18448 221.16921 220.29793 219.46365
 218.73037 217.93510 217.05782 216.44654 215.92126 214.00891 209.51952 208.62576
 209.97964 210.60434 211.97849 215.53993 219.92279 224.73560 230.48956 235.52219
 239.38756 243.46082 247.84639 252.17892 255.79431 258.68341 261.25656 263.89639
 266.67441 269.29727 271.86664 274.42905 276.35861 277.84470 279.27106 280.95895
 282.95361 284.74286 286.28989 287.64731 288.82071 289.85770 290.80261 291.65796
 292.42624 293.10864 293.70349 294.44559
 366.78100 356.35965 345.81630 334.70695 323.13461 311.35326 299.24791 287.07556
 274.81221 262.73386 250.76751 240.09317 230.23982 221.36847 213.57512 206.60177
 200.46042 195.42307 192.02972 190.09638 189.15803 189.24668 190.10633 191.43898
 193.18863 195.30828 197.59594 199.97959 202.44924 204.95389 207.06654 208.93319
 210.58384 211.75350 212.00715 212.25980 212.22145 211.95110 211.60875 211.26340
 210.90506 210.63971 210.47236 210.36101 210.31366 210.66931 211.07996 211.49362
 212.31127 213.51392 214.78857 216.59622 218.54887 220.61652 222.73617 224.84383
 226.92848 229.03713 231.15878 233.28943 235.44308 237.63973 239.92039 242.31504
 244.96069 247.23634 249.26299 251.05264 252.49429 253.64195 254.48860 254.82925
 254.89090 254.68955 254.07420 253.04685 251.67751 249.86316 247.79681 245.65446
 243.47011 241.29876 239.14341 237.00707 234.89172 232.78337 230.83402 229.01567
 227.32332 225.81997 224.47462 223.27128 222.17793 221.16258 220.29123 219.45688
 218.72353 217.92818 217.05084 216.43949 215.91414 214.02328 209.58278 208.68610
 209.96930 210.64101 212.00853 215.49068 219.86026 224.67194 230.42430 235.44810
 239.31076 243.38547 247.77542 252.12413 255.77139 258.68979 261.26517 263.88120
 266.64499 269.26428 271.82938 274.37299 276.27518 277.74643 279.19592 280.91483
 282.94550 284.73322 286.27850 287.63498 288.80765 289.84412 290.78830 291.64334
 292.40930 293.09290 293.68610 294.42581
 366.78100 356.35959 345.81619 334.70678 323.13438 311.35297 299.24756 287.07516
 274.81175 262.73335 250.76694 240.09253 230.23913 221.36772 213.57432 206.60091
 200.45950 195.42210 192.02869 190.09529 189.15688 189.24547 190.10507 191.43766
 193.18726 195.30685 197.59444 199.97804 202.44763 204.95223 207.06482 208.93141
 210.58201 211.75160 212.00520 212.25779 212.21938 211.94898 211.60657 211.26117
 210.90276 210.63735 210.46995 210.35854 210.31114 210.66673 211.07732 211.49092
 212.30851 213.51111 214.78570 216.59329 218.54589 220.61348 222.73308 224.84067
 226.92526 229.03386 231.15545 233.28605 235.43964 237.63623 239.91683 242.31142
 244.95702 247.23261 249.25920 251.04880 252.49039 253.63799 254.48458 254.82518
 254.88677 254.68536 254.06996 253.04255 251.67315 249.85874 247.79233 245.64993
 243.46552 241.29412 239.13871 237.00230 234.88690 232.77849 230.82909 229.01068
 227.31827 225.81487 224.46946 223.26606 222.17265 221.15724 220.28584 219.45143
 218.71803 217.92262 217.04521 216.43381 215.90840 214.03712 209.64116 208.75069
 209.96796 210.67819 212.01648 215.44344 219.80977 224.60757 230.35056 235.37596
 239.24086 243.31783 247.70865 252.06929 255.74597 258.69424 261.27444 263.86856
 266.61691 269.23022 271.78949 274.31320 276.18875 277.64801 279.11954 280.87228
 282.93094 284.71765 286.26227 287.61804 288.78998 289.82584 290.76920 291.62277
 292.38937 293.06937 293.66281 294.39941
 366.78100 356.35955 345.81611 334.70666 323.13421 311.35277 299.24732 287.07487
 274.81143 262.73298 250.76653 240.09209 230.23864 221.36719 213.57375 206.60030
 200.45885 195.42141 192.02796 190.09452 189.15607 189.24462 190.10418 191.43673
 193.18628 195.30584 197.59339 199.97694 202.44650 204.95105 207.06360 208.93016
 210.58071 211.75026 212.00382 212.25637 212.21792 211.94748 211.60503 211.25958
 210.90114 210.63569 210.46824 210.35680 210.30935 210.66490 211.07546 211.48901
 212.30656 213.50912 214.78367 216.59122 218.54378 220.61133 222.73089 224.83844
 226.92299 229.03155 231.15310 233.28365 235.43721 237.63376 239.91431 242.30887
 244.95442 247.22997 249.25653 251.04608 252.48763 253.63519 254.48174 254.82229
 254.88385 254.68240 254.06695 253.03951 251.67006 249.85561 247.78917 245.64672
 243.46227 241.29083 239.13538 236.99893 234.88349 232.77504 230.82559 229.00715
 227.31470 225.81125 224.46581 223.26236 222.16892 221.15347 220.28202 219.44758
 218.71413 217.91868 217.04124 216.42979 215.90434 214.05051 209.69424 208.81847
 209.98282 210.70477 212.01512 215.40187 219.75623 224.54294 230.27461 235.30530
 239.17407 243.25392 247.64429 252.01604 255.72075 258.69879 261.28598 263.85852
 266.58960 269.19461 271.74619 274.24957 276.10083 277.55051 279.04495 280.83435
 282.90866 284.69550 286.24069 287.59470 288.76636 289.80170 290.74448 291.59506
 292.36053 293.04169 293.63242 294.36520
 366.78100 356.35944 345.81588 334.70633 323.13377 311.35221 299.24665 287.07409
 274.81054 262.73198 250.76542 240.09086 230.23730 221.36574 213.57219 206.59863
 200.45707 195.41951 192.02595 190.09240 189.15384 189.24228 190.10172 191.43416
 193.18361 195.30305 197.59049 199.97393 202.44337 204.94781 207.06026 208.92670
 210.57714 211.74658 212.00002 212.25247 212.21391 211.94335 211.60079 211.25523
 210.89668 210.63112 210.46356 210.35200 210.30444 210.65988 211.07033 211.48377
 212.30121 213.50365 214.77809 216.58554 218.53798 220.60542 222.72486 224.83230
 226.91675 229.02519 231.14663 233.27707 235.43051 237.62695 239.90740 242.30184
 244.94728 247.22272 249.24916 251.03861 252.48005 253.62749 254.47393 254.81437
 254.87582 254.67426 254.05870 253.03114 251.66158 249.84703 247.78047 245.63791
 243.45335 241.28179 239.12623 236.98968 234.87412 232.76556 230.81600 228.99744
 227.30489 225.80133 224.45577 223.25221 222.15865 221.14310 220.27154 219.43698
 218.70342 217.90786 217.03030 216.41875 215.89319 214.05956 209.74954 208.88893
 210.00595 210.72220 212.01125 215.36671 219.69783 224.47653 230.20128 235.23430
 239.10626 243.18977 247.58141 251.96393 255.69633 258.70517 261.30127 263.85248
 266.56461 269.15829 271.69946 274.18079 276.00922 277.45139 278.96982 280.79700
 282.87823 284.66556 286.21011 287.56519 288.73599 289.77060 290.71100 291.56201
 292.32468 293.00415 293.59296 294.32135
 366.78100 356.35930 345.81559 334.70589 323.13318 311.35148 299.24577 287.07307
 274.80937 262.73066 250.76396 240.08925 230.23555 221.36384 213.57014 206.59644
 200.45473 195.41703 192.02332 190.08962 189.15091 189.23921 190.09851 191.43080
 193.18010 195.29939 197.58669 199.96998 202.43928 204.94358 207.05587 208.92217
 210.57246 211.74176 211.99505 212.24735 212.20865 211.93794 211.59524 211.24953
 210.89083 210.62512 210.45742 210.34572 210.29801 210.65331 211.06360 211.47690
 212.29419 213.49649 214.77079 216.57808 218.53038 220.59767 222.71697 224.82426
 226.90856 229.01686 231.13815 233.26845 235.42174 237.61804 239.89833 242.29263
 244.93793 247.21322 249.23952 251.02881 252.47011 253.61740 254.46370 254.80400
 254.86529 254.66359 254.04788 253.02018 251.65047 249.83577 247.76907 245.62636
 243.44166 241.26995 239.11425 236.97754 234.86184 232.75313 230.80343 228.98473
 227.29202 225.78832 224.44261 223.23891 222.14520 221.12950 220.25780 219.42309
 218.68939 217.89368 217.01598 216.40427 215.87857 214.06635 209.80539 208.95830
 210.03784 210.73524 212.00343 215.33421 219.63461 224.40707 230.13055 235.16423
 239.03917 243.12737 247.52136 251.91444 255.67448 258.71475 261.32022 263.85007
 266.54041 269.12042 271.64780 274.10632 275.91412 277.35263 278.89664 280.75879
 282.84241 284.62906 286.17386 287.52908 288.69843 289.73172 290.66855 291.51636
 292.27802 292.95612 293.54425 294.26831
 366.78100 356.35892 345.81484 334.70476 323.13168 311.34960 299.24352 287.07044
 274.80636 262.72728 250.76020 240.08513 230.23105 221.35897 213.56489 206.59081
 200.44873 195.41065 192.01657 190.08249 189.14341 189.23133 190.09025 191.42217
 193.17109 195.29001 197.57693 199.95985 202.42877 204.93269 207.04461 208.91054
 210.56046 211.72938 211.98230 212.23422 212.19514 211.92406 211.58098 211.23490
 210.87582 210.60974 210.44166 210.32958 210.28150 210.63642 211.04634 211.45926
 212.27618 213.47810 214.75202 216.55895 218.51087 220.57779 222.69671 224.80363
 226.88755 228.99547 231.11639 233.24631 235.39923 237.59515 239.87507 242.26899
 244.91391 247.18883 249.21475 251.00367 252.44459 253.59151 254.43743 254.77735
 254.83828 254.63620 254.02012 252.99204 251.62196 249.80688 247.73980 245.59672
 243.41164 241.23956 239.08348 236.94640 234.83032 232.72124 230.77116 228.95208
 227.25900 225.75492 224.40884 223.20476 222.11069 221.09461 220.22253 219.38745
 218.65337 217.85729 216.97921 216.36713 215.84105 214.06010 209.87151 209.03432
 210.05801 210.73055 212.00421 215.31787 219.57362 224.33540 230.06288 235.09792
 238.97514 243.06839 247.46477 251.86671 255.65077 258.72272 261.34149 263.85239
 266.52051 269.08310 271.59323 274.02823 275.81750 277.25443 278.82275 280.71509
 282.79813 284.58325 286.12683 287.48111 288.65027 289.67990 290.61713 291.46527
 292.22424 292.90137 293.49091 294.22760
 366.78100 356.35860 345.81421 334.70381 323.13041 311.34802 299.24162 287.06822
 274.80383 262.72443 250.75704 240.08164 230.22724 221.35485 213.56045 206.58605
 200.44366 195.40526 192.01086 190.07647 189.13707 189.22467 190.08328 191.41488
 193.16349 195.28209 197.56869 199.95130 202.41990 204.92350 207.03511 208.90071
 210.55031 211.71892 211.97152 212.22312 212.18373 211.91233 211.56894 211.22254
 210.86314 210.59675 210.42835 210.31595 210.26756 210.62216 211.03176 211.44437
 212.26097 213.46257 214.73618 216.54278 218.49439 220.56099 222.67959 224.78620
 226.86980 228.97740 231.09801 233.22761 235.38021 237.57582 239.85542 242.24902
 244.89363 247.16823 249.19384 250.98244 252.42304 253.56965 254.41525 254.75485
 254.81546 254.61306 253.99666 252.96827 251.59787 249.78247 247.71508 245.57168
 243.38629 241.21389 239.05749 236.92010 234.80370 232.69430 230.74391 228.92451
 227.23111 225.72672 224.38032 223.17592 222.08153 221.06513 220.19274 219.35734
 218.62294 217.82655 216.94815 216.33575 215.80936 214.05447 209.92636 209.12875
 210.10451 210.71906 211.98892 215.28271 219.49825 224.25851 229.99507 235.03244
 238.91267 243.01167 247.41057 251.81926 255.62607 258.73166 261.36902 263.86353
 266.50793 269.04987 271.53571 273.94754 275.72305 277.16086 278.75095 280.66672
 282.74203 284.52740 286.06958 287.42282 288.59152 289.62299 290.56186 291.40964
 292.16934 292.84763 293.44028 294.18481
 366.78100 356.35790 345.81280 334.70170 323.12760 311.34449 299.23739 287.06329
 274.79819 262.71809 250.74999 240.07389 230.21879 221.34568 213.55058 206.57548
 200.43238 195.39328 191.99818 190.06308 189.12298 189.20987 190.06777 191.39867
 193.14657 195.26447 197.55037 199.93227 202.40017 204.90306 207.01396 208.87886
 210.52776 211.69566 211.94756 212.19846 212.15836 211.88625 211.54215 211.19505
 210.83495 210.56785 210.39875 210.28565 210.23655 210.59044 210.99934 211.41124
 212.22714 213.42804 214.70094 216.50684 218.45774 220.52363 222.64153 224.74743
 226.83033 228.93723 231.05713 233.18603 235.33793 237.53282 239.81172 242.20462
 244.84852 247.12242 249.14732 250.93522 252.37512 253.52101 254.36591 254.70481
 254.76471 254.56161 253.94451 252.91541 251.54431 249.72820 247.66010 245.51600
 243.32990 241.15680 238.99970 236.86160 234.74450 232.63439 230.68329 228.86319
 227.16909 225.66399 224.31689 223.11179 222.01669 220.99958 220.12648 219.29038
 218.55528 217.75818 216.87908 216.26598 215.73888 214.02760 210.00111 209.22147
 210.16640 210.70963 211.94182 215.24400 219.41704 224.16977 229.92247 234.96483
 238.85202 242.96031 247.36371 251.78056 255.61179 258.75418 261.41135 263.88724
 266.50015 269.01321 271.47089 273.85696 275.62485 277.07425 278.68329 280.61090
 282.67838 284.46118 285.99982 287.35364 288.52054 289.55234 290.48965 291.33551
 292.09488 292.77405 293.36508 294.10175
 366.78100 356.35788 345.81276 334.70164 323.12752 311.34439 299.23727 287.06315
 274.79803 262.71791 250.74979 240.07367 230.21855 221.34542 213.55030 206.57518
 200.43206 195.39294 191.99782 190.06270 189.12258 189.20945 190.06733 191.39821
 193.14609 195.26397 197.54985 199.93173 202.39961 204.90248 207.01336 208.87824
 210.52712 211.69500 211.94688 212.19776 212.15764 211.88551 211.54139 211.19427
 210.83415 210.56703 210.39791 210.28479 210.23567 210.58954 210.99842 211.41030
 212.22618 213.42706 214.69994 216.50582 218.45670 220.52258 222.64045 224.74633
 226.82921 228.93609 231.05597 233.18485 235.33673 237.53161 239.81048 242.20336
 244.84724 247.12112 249.14600 250.93388 252.37376 253.51964 254.36451 254.70339
 254.76327 254.56015 253.94303 252.91391 251.54279 249.72667 247.65854 245.51442
 243.32830 241.15518 238.99806 236.85994 234.74282 232.63270 230.68157 228.86145
 227.16733 225.66221 224.31509 223.10997 222.01485 220.99773 220.12460 219.28848
 218.55336 217.75624 216.87712 216.26400 215.73688 214.03320 210.02489 209.36475
 210.27621 210.65414 211.87898 215.16861 219.30350 224.07898 229.85681 234.90817
 238.80388 242.92439 247.32883 251.74783 255.60059 258.77914 261.45895 263.92068
 266.50089 268.98383 271.40628 273.76495 275.52530 276.98688 278.61929 280.55893
 282.60742 284.38489 285.91907 287.26932 288.43802 289.46729 290.40479 291.25061
 292.00937 292.68735 293.27704 294.00012
 366.78100 356.35789 345.81277 334.70166 323.12754 311.34443 299.23731 287.06320
 274.79808 262.71797 250.74985 240.07374 230.21862 221.34551 213.55039 206.57528
 200.43217 195.39305 191.99794 190.06282 189.12271 189.20959 190.06748 191.39836
 193.14625 195.26413 197.55002 199.93190 202.39979 204.90267 207.01356 208.87845
 210.52733 211.69522 211.94710 212.19799 212.15787 211.88576 211.54164 211.19453
 210.83441 210.56730 210.39818 210.28507 210.23595 210.58984 210.99873 211.41061
 212.22650 213.42738 214.70027 216.50615 218.45704 220.52292 222.64081 224.74669
 226.82958 228.93646 231.05635 233.18523 235.33712 237.53201 239.81089 242.20378
 244.84766 247.12155 249.14643 250.93432 252.37420 253.52009 254.36497 254.70386
 254.76374 254.56063 253.94351 252.91440 251.54329 249.72717 247.65906 245.51494
 243.32883 241.15571 238.99860 236.86048 234.74337 232.63325 230.68214 228.86202
 227.16791 225.66279 224.31568 223.11057 222.01545 220.99834 220.12522 219.28911
 218.55399 217.75688 216.87776 216.26465 215.73753 214.04054 210.04736 209.49515
 210.42902 210.62900 211.75302 215.09486 219.20911 223.99373 229.79419 234.84850
 238.74942 242.87505 247.27878 251.69807 255.55772 258.77371 261.49249 263.95358
 266.51492 268.97192 271.36353 273.70578 275.47714 276.94464 278.57123 280.50131
 282.53323 284.30557 285.83316 287.18295 288.34848 289.37259 290.30560 291.14792
 291.90387 292.57605 293.15405 293.84241
 366.78100 356.35711 345.81122 334.69934 323.12445 311.34056 299.23267 287.05779
 274.79190 262.71101 250.74212 240.06524 230.20935 221.33546 213.53957 206.56368
 200.41980 195.37991 191.98402 190.04813 189.10725 189.19336 190.05047 191.38058
 193.12770 195.24481 197.52992 199.91103 202.37815 204.88026 206.99037 208.85448
 210.50259 211.66971 211.92082 212.17093 212.13004 211.85716 211.51227 211.16438
 210.80349 210.53561 210.36572 210.25183 210.20194 210.55505 210.96317 211.37428
 212.18939 213.38950 214.66162 216.46673 218.41684 220.48195 222.59907 224.70418
 226.78629 228.89240 231.01151 233.13963 235.29074 237.48485 239.76296 242.15508
 244.79819 247.07130 249.09541 250.88253 252.32164 253.46675 254.31086 254.64898
 254.70809 254.50420 253.88631 252.85642 251.48454 249.66765 247.59876 245.45387
 243.26699 241.09310 238.93521 236.79632 234.67844 232.56755 230.61566 228.79477
 227.09988 225.59400 224.24611 223.04022 221.94433 220.92645 220.05256 219.21567
 218.47978 217.68190 216.80201 216.18812 215.66023 214.01367 210.13736 209.50487
 210.63220 210.70137 211.57164 215.03398 219.14386 223.90739 229.73929 234.77888
 238.67969 242.81787 247.21695 251.61795 255.47276 258.72000 261.48309 263.97183
 266.52637 268.97186 271.33502 273.65942 275.46317 276.94919 278.55267 280.45029
 282.46024 284.22699 285.75238 287.09265 288.25641 289.26804 290.19086 291.03680
 291.79337 292.46475 292.95447 293.58649
 366.78100 356.35574 345.80849 334.69523 323.11898 311.33372 299.22447 287.04821
 274.78096 262.69870 250.72844 240.05019 230.19293 221.31768 213.52042 206.54317
 200.39791 195.35665 191.95940 190.02214 189.07989 189.16463 190.02038 191.34912
 193.09486 195.21061 197.49435 199.87410 202.33984 204.84059 206.94933 208.81208
 210.45882 211.62456 211.87431 212.12305 212.08080 211.80654 211.46029 211.11103
 210.74877 210.47952 210.30826 210.19301 210.14175 210.49350 210.90024 211.30999
 212.12373 213.32247 214.59322 216.39696 218.34571 220.40945 222.52520 224.62894
 226.70969 228.81443 230.93217 233.05892 235.20866 237.40141 239.67815 242.06890
 244.71064 246.98238 249.00513 250.79087 252.22862 253.37236 254.21511 254.55185
 254.60960 254.40434 253.78508 252.75383 251.38057 249.56232 247.49206 245.34581
 243.15755 240.98229 238.82304 236.68278 234.56353 232.45127 230.49802 228.67576
 226.97950 225.47225 224.12299 222.91574 221.81848 220.79923 219.92397 219.08572
 218.34846 217.54920 216.66795 216.05269 215.52344 213.95949 210.27551 209.50005
 210.63037 210.80562 211.62018 214.94913 219.07031 223.86967 229.68933 234.70905
 238.61526 242.76768 247.16130 251.54376 255.39754 258.67105 261.46301 263.96564
 266.49582 268.93796 271.29947 273.57983 275.42465 276.95773 278.55777 280.41940
 282.38785 284.14642 285.67145 287.00836 288.17169 289.17926 290.08527 290.92529
 291.68942 292.35706 292.81317 293.36554
 366.78100 356.35504 345.80708 334.69311 323.11615 311.33019 299.22023 287.04327
 274.77530 262.69234 250.72138 240.04242 230.18446 221.30849 213.51053 206.53257
 200.38661 195.34465 191.94668 190.00872 189.06576 189.14980 190.00484 191.33288
 193.07791 195.19295 197.47599 199.85503 202.32007 204.82010 206.92814 208.79018
 210.43622 211.60126 211.85029 212.09833 212.05537 211.78041 211.43345 211.08348
 210.72052 210.45056 210.27860 210.16264 210.11067 210.46171 210.86775 211.27679
 212.08983 213.28786 214.55790 216.36094 218.30898 220.37202 222.48705 224.59009
 226.67013 228.77417 230.89121 233.01724 235.16628 237.35832 239.63436 242.02440
 244.66543 246.93647 248.95851 250.74355 252.18059 253.32363 254.16566 254.50170
 254.55874 254.35278 253.73282 252.70085 251.32689 249.50793 247.43697 245.29001
 243.10104 240.92508 238.76512 236.62416 234.50420 232.39123 230.43727 228.61431
 226.91735 225.40939 224.05942 222.85146 221.75350 220.73354 219.85758 219.01861
 218.28065 217.48069 216.59873 215.98277 215.45280 213.93861 210.37054 209.54774
 210.55626 210.84573 211.76433 214.90329 218.99304 223.82957 229.63568 234.64659
 238.56380 242.73114 247.12294 251.49319 255.35722 258.65753 261.47058 263.96713
 266.45776 268.87482 271.21927 273.47263 275.34534 276.91678 278.53064 280.36896
 282.30945 284.06613 285.59003 286.92398 288.08279 289.08871 289.98871 290.83575
 291.60831 292.25684 292.68671 293.10892
 366.78100 356.35514 345.80729 334.69343 323.11657 311.33072 299.22086 287.04400
 274.77615 262.69329 250.72243 240.04358 230.18572 221.30986 213.51201 206.53415
 200.38829 195.34644 191.94858 190.01072 189.06787 189.15201 190.00715 191.33530
 193.08044 195.19558 197.47873 199.85787 202.32301 204.82316 206.93130 208.79344
 210.43959 211.60473 211.85387 212.10202 212.05916 211.78430 211.43745 211.08759
 210.72473 210.45488 210.28302 210.16716 210.11531 210.46645 210.87259 211.28174
 212.09488 213.29302 214.56317 216.36631 218.31445 220.37760 222.49274 224.59588
 226.67603 228.78017 230.89731 233.02346 235.17260 237.36474 239.64089 242.03103
 244.67217 246.94332 248.96546 250.75060 252.18775 253.33089 254.17303 254.50918
 254.56632 254.36046 253.74061 252.70875 251.33489 249.51604 247.44518 245.29832
 243.10947 240.93361 238.77375 236.63290 234.51304 232.40018 230.44633 228.62347
 226.92661 225.41876 224.06890 222.86104 221.76319 220.74333 219.86747 219.02862
 218.29076 217.49090 216.60905 215.99319 215.46333 213.96092 210.41972 209.59055
 210.52800 210.87532 211.88579 214.90630 218.91745 223.76642 229.58412 234.59258
 238.51358 242.69212 247.08186 251.43953 255.31209 258.64163 261.48547 263.99274
 266.45721 268.83041 271.12564 273.38770 275.26373 276.85953 278.49136 280.31818
 282.23535 283.97928 285.49426 286.82132 287.97403 288.97717 289.87888 290.73450
 291.51782 292.16241 292.59354 292.96674
 366.78100 356.35484 345.80667 334.69251 323.11534 311.32918 299.21901 287.04185
 274.77368 262.69052 250.71935 240.04019 230.18202 221.30586 213.50769 206.52953
 200.38336 195.34120 191.94303 190.00487 189.06170 189.14554 190.00037 191.32821
 193.07304 195.18788 197.47071 199.84955 202.31438 204.81422 206.92205 208.78389
 210.42972 211.59456 211.84339 212.09123 212.04806 211.77290 211.42573 211.07557
 210.71240 210.44224 210.27007 210.15391 210.10174 210.45258 210.85841 211.26725
 212.08008 213.27792 214.54776 216.35059 218.29843 220.36126 222.47610 224.57893
 226.65877 228.76260 230.87944 233.00527 235.15411 237.34594 239.62178 242.01161
 244.65245 246.92328 248.94512 250.72995 252.16679 253.30962 254.15146 254.48729
 254.54413 254.33796 253.71780 252.68563 251.31147 249.49230 247.42114 245.27397
 243.08481 240.90864 238.74848 236.60731 234.48715 232.37398 230.41982 228.59665
 226.89949 225.39132 224.04116 222.83299 221.73483 220.71466 219.83850 218.99933
 218.26117 217.46101 216.57884 215.96268 215.43251 213.95773 210.48076 209.62321
 210.56110 210.92831 211.97990 214.94759 218.86240 223.68205 229.51424 234.50990
 238.43211 242.62228 247.01164 251.35356 255.23029 258.58826 261.46796 264.00385
 266.47748 268.84698 271.12466 273.38620 275.26447 276.86224 278.45966 280.23450
 282.13837 283.90033 285.41583 286.72952 287.86963 288.86487 289.77679 290.64133
 291.44046 291.98236 292.34091 292.46625
 366.78100 356.35516 345.80732 334.69348 323.11664 311.33080 299.22097 287.04413
 274.77629 262.69345 250.72261 240.04377 230.18593 221.31009 213.51225 206.53441
 200.38857 195.34673 191.94890 190.01106 189.06822 189.15238 190.00754 191.33570
 193.08086 195.19602 197.47918 199.85834 202.32350 204.82367 206.93183 208.79399
 210.44015 211.60531 211.85447 212.10263 212.05979 211.78495 211.43811 211.08827
 210.72544 210.45560 210.28376 210.16792 210.11608 210.46724 210.87340 211.28256
 212.09572 213.29388 214.56404 216.36720 218.31537 220.37853 222.49369 224.59685
 226.67701 228.78117 230.89833 233.02449 235.17365 237.36581 239.64197 242.03214
 244.67330 246.94446 248.96662 250.75178 252.18894 253.33210 254.17426 254.51042
 254.56758 254.36174 253.74191 252.71007 251.33623 249.51739 247.44655 245.29971
 243.11087 240.93503 238.77519 236.63435 234.51451 232.40167 230.44784 228.62500
 226.92816 225.42032 224.07048 222.86264 221.76480 220.74496 219.86912 219.03028
 218.29244 217.49261 216.61077 215.99493 215.46509 213.99820 210.55508 209.64874
 210.49312 210.95625 212.21947 215.07687 218.83189 223.58990 229.44133 234.41998
 238.34680 242.54984 246.93172 251.24889 255.13293 258.53040 261.45966 264.02890
 266.49548 268.85449 271.13696 273.37524 275.29694 276.93460 278.54309 280.28604
 282.10223 283.78226 285.27408 286.59451 287.72513 288.70593 289.62079 290.47214
 291.19986 291.81332 292.38126 293.11252
 366.78100 356.35373 345.80446 334.68920 323.11093 311.32366 299.21239 287.03412
 274.76485 262.68059 250.70832 240.02805 230.16878 221.29151 213.49224 206.51298
 200.36571 195.32244 191.92317 189.98390 189.03963 189.12237 189.97610 191.30283
 193.04656 195.16029 197.44203 199.81976 202.28349 204.78222 206.88895 208.74968
 210.39442 211.55815 211.80588 212.05261 212.00834 211.73207 211.38381 211.03254
 210.66827 210.39700 210.22373 210.10646 210.05320 210.40293 210.80766 211.21539
 212.02712 213.22386 214.49259 216.29432 218.24105 220.30278 222.41651 224.51825
 226.59698 228.69971 230.81544 232.94017 235.08790 237.27864 239.55337 241.94210
 244.58183 246.85156 248.87229 250.65603 252.09176 253.23349 254.07422 254.40895
 254.46469 254.25742 253.63615 252.60288 251.22761 249.40734 247.33508 245.18681
 242.99654 240.81927 238.65800 236.51573 234.39447 232.28020 230.32493 228.50066
 226.80239 225.29312 223.94186 222.73259 221.63332 220.61205 219.73478 218.89452
 218.15525 217.35398 216.47071 215.85344 215.32217 213.96210 210.78340 209.67441
 210.35928 210.94450 212.30641 215.05849 218.77478 223.51860 229.38065 234.36464
 238.29567 242.52818 246.90793 251.21388 255.13222 258.57407 261.53394 264.11099
 266.54059 268.88855 271.16269 273.32776 275.17880 276.79718 278.38614 280.14841
 282.02850 283.76633 285.20630 286.51306 287.68054 288.71469 289.66309 290.52484
 291.30655 292.01901 292.64139 293.43451
 366.78100 356.34674 345.79048 334.66822 323.08296 311.28870 299.17044 286.98518
 274.70892 262.61766 250.63840 239.95114 230.08487 221.20061 213.39435 206.40809
 200.25383 195.20357 191.79731 189.85105 188.89979 188.97553 189.82227 191.14201
 192.87875 194.98549 197.26023 199.63097 202.08771 204.57945 206.67919 208.53293
 210.17067 211.32741 211.56814 211.80788 211.75662 211.47336 211.11810 210.75984
 210.38858 210.11032 209.93006 209.80580 209.74554 210.08828 210.48602 210.88676
 211.69150 212.88124 214.14298 215.93772 217.87746 219.93220 222.03894 224.13368
 226.20541 228.30115 230.40989 232.52763 234.66837 236.85211 239.11985 241.50159
 244.13433 246.39707 248.41081 250.18755 251.61629 252.75103 253.58477 253.91251
 253.96125 253.74699 253.11873 252.07847 250.69621 248.86895 246.78969 244.63442
 242.43716 240.25290 238.08464 235.93538 233.80712 231.68586 229.72360 227.89234
 226.18708 224.67082 223.31256 222.09630 220.99004 219.96178 219.07752 218.23026
 217.48400 216.67574 215.78548 215.16122 214.62296 213.63638 211.31099 209.90295
 210.04190 210.55290 212.08832 214.94897 218.75218 223.50313 229.36644 234.39241
 238.33105 242.58911 246.97885 251.28682 255.26143 258.75601 261.69547 264.18927
 266.46854 268.69644 271.10138 273.44232 275.30627 276.86661 278.38605 280.01141
 281.77347 283.44870 284.84009 286.21161 287.41721 288.50317 289.53104 290.46222
 291.29968 292.04547 292.69699 293.52725
 366.78100 356.34075 345.77850 334.65025 323.05900 311.25875 299.13450 286.94325
 274.66100 262.56375 250.57850 239.88525 230.01299 221.12274 213.31049 206.31824
 200.15799 195.10174 191.68949 189.73724 188.77999 188.84974 189.69049 191.00424
 192.73499 194.83574 197.10449 199.46924 201.91999 204.40574 206.49949 208.34724
 209.97899 211.12974 211.36449 211.59823 211.54098 211.25173 210.89048 210.52623
 210.14898 209.86473 209.67848 209.54823 209.48198 209.81873 210.21048 210.60523
 211.40398 212.58773 213.84348 215.63223 217.56598 219.61473 221.71548 223.80423
 225.86998 227.95973 230.06247 232.17422 234.30897 236.48672 238.74847 241.12422
 243.75097 246.00772 248.01547 249.78622 251.20897 252.33772 253.16547 253.48722
 253.52997 253.30972 252.67547 251.62922 250.24097 248.40772 246.32247 244.16122
 241.95797 239.76771 237.59346 235.43821 233.30396 231.17671 229.20846 227.37121
 225.65996 224.13771 222.77346 221.55121 220.43896 219.40471 218.51446 217.66121
 216.90896 216.09471 215.19846 214.56821 214.02396 213.36627 211.69055 210.16805
 209.97243 210.46471 212.05232 214.92061 218.70387 223.46036 229.38266 234.39281
 238.37466 242.67256 247.08357 251.40979 255.43207 258.99606 262.01361 264.51425
 266.66418 268.83612 271.14285 273.34045 275.23547 276.79297 278.26526 279.90628
 281.51135 283.04388 284.81262 286.49402 287.94913 289.23654 290.41107 291.47516
 292.43216 293.28436 294.02887 294.97763
 366.78100 356.34217 345.78134 334.65451 323.06467 311.26584 299.14301 286.95318
 274.67235 262.57652 250.59268 239.90085 230.03002 221.14119 213.33036 206.33953
 200.18070 195.12586 191.71503 189.76420 188.80837 188.87954 189.72171 191.03687
 192.76904 194.87121 197.14138 199.50755 201.95972 204.44689 206.54205 208.39122
 210.02439 211.17656 211.41273 211.64790 211.59207 211.30423 210.94440 210.58157
 210.20574 209.92291 209.73808 209.60924 209.54441 209.88258 210.27575 210.67192
 211.47209 212.65726 213.91442 215.70459 217.63976 219.68993 221.79210 223.88227
 225.94943 228.04060 230.14477 232.25794 234.39411 236.57328 238.83645 241.21361
 243.84178 246.09995 248.10912 249.88129 251.30546 252.43562 253.26479 253.58796
 253.63213 253.41330 252.78047 251.73564 250.34880 248.51697 246.43314 244.27331
 242.07148 239.88265 237.70982 235.55598 233.42315 231.29732 229.33049 227.49466
 225.78483 224.26399 222.90116 221.68033 220.56950 219.53667 218.64784 217.79601
 217.04517 216.23234 215.33751 214.70868 214.16585 213.44019 211.66992 210.43184
 210.17630 210.47646 211.87556 214.75056 218.54842 223.29715 229.19437 234.26144
 238.25719 242.58310 247.02953 251.40196 255.49101 259.15463 262.28253 264.82556
 267.06332 269.28571 271.52597 273.66156 275.42126 276.87662 278.24643 279.78104
 281.72336 283.86777 285.90240 287.68896 289.23508 290.60300 291.85101 292.98163
 293.99850 294.90402 295.69507 296.70319
 366.78100 356.35037 345.79775 334.67912 323.09749 311.30687 299.19224 287.01062
 274.73799 262.65036 250.67474 239.99111 230.12848 221.24786 213.44523 206.46261
 200.31198 195.26535 191.86273 189.92010 188.97247 189.05185 189.90222 191.22560
 192.96597 195.07634 197.35472 199.72909 202.18946 204.68484 206.78821 208.64559
 210.28696 211.44733 211.69171 211.93508 211.88745 211.60783 211.25620 210.90158
 210.53395 210.25932 210.08270 209.96207 209.90544 210.25182 210.65319 211.05757
 211.86594 213.05931 214.32469 216.12306 218.06643 220.12481 222.23518 224.33356
 226.40893 228.50830 230.62068 232.74205 234.88642 237.07380 239.34517 241.73055
 244.36692 246.63329 248.65067 250.43104 251.86341 253.00179 253.83916 254.17054
 254.22291 254.01228 253.38766 252.35103 250.97240 249.14878 247.07315 244.92153
 242.72790 240.54727 238.38265 236.23702 234.11239 231.99477 230.03614 228.20852
 226.50689 224.99426 223.63964 222.42701 221.32438 220.29976 219.41913 218.57551
 217.83288 217.02825 216.14163 215.52100 214.98637 213.84190 211.29846 210.55289
 210.74451 210.93910 212.02533 214.54030 218.28967 223.10085 228.86990 233.95065
 237.91916 242.22517 246.63763 250.94846 254.96103 258.57608 261.74045 264.49734
 267.02173 269.48447 271.86316 274.08627 276.00717 277.63068 278.98965 280.21680
 282.10394 284.03876 286.04364 287.80469 289.32870 290.67709 291.90729 293.02176
 294.02408 294.91669 295.69641 296.69012
 366.78100 356.35884 345.81468 334.70452 323.13136 311.34920 299.24305 287.06989
 274.80573 262.72657 250.75941 240.08425 230.23009 221.35793 213.56377 206.58961
 200.44745 195.40929 192.01514 190.08098 189.14182 189.22966 190.08850 191.42034
 193.16918 195.28802 197.57486 199.95770 202.42654 204.93038 207.04223 208.90807
 210.55791 211.72675 211.97959 212.23143 212.19227 211.92111 211.57795 211.23179
 210.87263 210.60647 210.43832 210.32616 210.27800 210.63284 211.04268 211.45552
 212.27236 213.47420 214.74804 216.55488 218.50672 220.57356 222.69241 224.79925
 226.88309 228.99093 231.11177 233.24161 235.39445 237.59029 239.87013 242.26397
 244.90881 247.18365 249.20950 250.99834 252.43918 253.58602 254.43186 254.77170
 254.83254 254.63038 254.01422 252.98606 251.61590 249.80074 247.73359 245.59043
 243.40527 241.23311 239.07695 236.93979 234.82363 232.71447 230.76431 228.94515
 227.25199 225.74783 224.40168 223.19752 222.10336 221.08720 220.21504 219.37988
 218.64572 217.84956 216.97140 216.35924 215.83308 214.31064 210.90753 210.20193
 210.99266 211.52165 212.54213 214.82687 218.36647 223.06558 228.71068 233.78210
 237.70131 241.96683 246.32793 250.57004 254.47987 257.99298 261.10748 263.93253
 266.61472 269.21481 271.70847 274.02634 276.08859 277.88089 279.46274 280.90808
 282.38480 284.09653 285.68832 287.16425 288.55542 289.78625 290.90921 291.92651
 292.84146 293.65625 294.36801 295.27509
 366.78100 356.35819 345.81338 334.70257 323.12877 311.34596 299.23915 287.06534
 274.80053 262.72072 250.75291 240.07711 230.22230 221.34949 213.55468 206.57987
 200.43706 195.39825 192.00345 190.06864 189.12883 189.21602 190.07421 191.40540
 193.15359 195.27179 197.55798 199.94017 202.40836 204.91155 207.02274 208.88793
 210.53713 211.70532 211.95751 212.20870 212.16889 211.89708 211.55327 211.20647
 210.84666 210.57985 210.41104 210.29823 210.24942 210.60361 211.01281 211.42500
 212.24119 213.44238 214.71557 216.52176 218.47295 220.53915 222.65734 224.76353
 226.84672 228.95391 231.07410 233.20329 235.35549 237.55068 239.82987 242.22306
 244.86725 247.14144 249.16663 250.95483 252.39502 253.54121 254.38640 254.72559
 254.78578 254.58297 253.96617 252.93736 251.56655 249.75074 247.68293 245.53912
 243.35331 241.18051 239.02370 236.88589 234.76908 232.65927 230.70846 228.88865
 227.19485 225.69004 224.34323 223.13842 222.04361 221.02680 220.15399 219.31819
 218.58338 217.78657 216.90776 216.29495 215.76814 214.31062 210.94150 210.02904
 210.70340 211.41693 212.64494 215.03946 218.48848 223.07176 228.80399 233.75685
 237.74902 242.00206 246.35661 250.60155 254.53664 258.03943 261.08490 263.79138
 266.35751 268.86618 271.29004 273.56100 275.61218 277.47464 279.20697 280.90085
 282.54260 284.12198 285.62335 286.99701 288.20407 289.28909 290.29953 291.23648
 292.09357 292.85678 293.52353 294.37323
 366.78100 356.35337 345.80374 334.68811 323.10948 311.32185 299.21022 287.03158
 274.76195 262.67732 250.70469 240.02406 230.16443 221.28680 213.48717 206.50754
 200.35991 195.31628 191.91665 189.97701 189.03238 189.11475 189.96812 191.29449
 193.03786 195.15123 197.43260 199.80997 202.27334 204.77171 206.87808 208.73844
 210.38281 211.54618 211.79355 212.03992 211.99529 211.71866 211.37003 211.01840
 210.65377 210.38214 210.20851 210.09088 210.03724 210.38661 210.79098 211.19835
 212.00972 213.20609 214.47446 216.27583 218.22220 220.28357 222.39694 224.49831
 226.57667 228.67904 230.79441 232.91878 235.06615 237.25652 239.53089 241.91926
 244.55863 246.82800 248.84837 250.63174 252.06711 253.20847 254.04884 254.38321
 254.43858 254.23095 253.60932 252.57569 251.20006 249.37943 247.30680 245.15817
 242.96754 240.78990 238.62827 236.48564 234.36401 232.24938 230.29375 228.46912
 226.77049 225.26086 223.90923 222.69960 221.59997 220.57833 219.70070 218.86007
 218.12044 217.31881 216.43518 215.81755 215.28592 214.05182 211.15466 210.30664
 210.67354 211.21704 212.51692 214.94429 218.30904 222.93539 228.79408 233.69907
 237.77048 242.04025 246.43343 250.73792 254.76285 258.34262 261.39600 264.00287
 266.43378 268.82275 271.14047 273.32745 275.31406 277.11911 278.84152 280.54614
 282.23523 283.84082 285.32275 286.65775 287.81708 288.84818 289.77280 290.55008
 291.18506 291.67804 291.94693 292.28961
 366.78100 356.34998 345.79697 334.67795 323.09593 311.30491 299.18990 287.00788
 274.73486 262.64684 250.67083 239.98681 230.12379 221.24277 213.43976 206.45674
 200.30572 195.25870 191.85569 189.91267 188.96465 189.04363 189.89362 191.21660
 192.95658 195.06656 197.34455 199.71853 202.17851 204.67349 206.77648 208.63346
 210.27444 211.43442 211.67841 211.92139 211.87337 211.59335 211.24134 210.88632
 210.51830 210.24328 210.06627 209.94525 209.88823 210.23421 210.63520 211.03918
 211.84716 213.04014 214.30513 216.10311 218.04609 220.10407 222.21406 224.31204
 226.38702 228.48600 230.59799 232.71897 234.86295 237.04993 239.32092 241.70590
 244.34188 246.60786 248.62485 250.40483 251.83681 252.97479 253.81178 254.14276
 254.19474 253.98372 253.35871 252.32169 250.94267 249.11865 247.04264 244.89062
 242.69660 240.51558 238.35057 236.20455 234.07953 231.96151 230.00250 228.17448
 226.47246 224.95944 223.60443 222.39141 221.28839 220.26337 219.38236 218.53834
 217.79532 216.99030 216.10329 215.48227 214.94725 213.86852 211.32784 210.56406
 210.79068 211.18886 212.40640 214.70638 218.03444 222.73698 228.70638 233.61775
 237.69591 241.98335 246.39095 250.71960 254.79533 258.43066 261.50897 264.09106
 266.49170 268.85544 271.14297 273.31403 275.27045 277.00943 278.67371 280.34860
 282.05655 283.68649 285.17874 286.49084 287.60309 288.60397 289.55054 290.32855
 290.88800 291.29837 291.37036 291.14594
 366.78100 356.34686 345.79072 334.66857 323.08343 311.28929 299.17115 286.98601
 274.70986 262.61872 250.63958 239.95244 230.08630 221.20216 213.39601 206.40987
 200.25573 195.20559 191.79945 189.85330 188.90216 188.97802 189.82488 191.14474
 192.88159 194.98845 197.26331 199.63417 202.09103 204.58289 206.68274 208.53660
 210.17446 211.33132 211.57218 211.81203 211.76089 211.47775 211.12261 210.76447
 210.39332 210.11518 209.93504 209.81090 209.75076 210.09362 210.49147 210.89233
 211.69719 212.88705 214.14891 215.94376 217.88362 219.93848 222.04534 224.14020
 226.21205 228.30791 230.41677 232.53463 234.67549 236.85934 239.12720 241.50906
 244.14192 246.40478 248.41864 250.19549 251.62435 252.75921 253.59307 253.92093
 253.96978 253.75564 253.12750 252.08736 250.70522 248.87807 246.79893 244.64379
 242.44665 240.26251 238.09437 235.94522 233.81708 231.69594 229.73380 227.90266
 226.19751 224.68137 223.32323 222.10709 221.00095 219.97280 219.08866 218.24152
 217.49538 216.68724 215.79710 215.17295 214.63481 213.71457 211.54410 210.67174
 210.66136 211.32494 212.54021 214.61693 217.88329 222.60643 228.65843 233.55617
 237.62300 241.90056 246.30055 250.62845 254.72734 258.38733 261.47345 264.05585
 266.48218 268.87311 271.17868 273.36267 275.30002 276.99261 278.61957 280.27716
 281.99533 283.62738 285.10278 286.39597 287.48795 288.49197 289.46509 290.28760
 290.80127 291.20993 291.79340 292.57617
 366.78100 356.34393 345.78487 334.65980 323.07174 311.27467 299.15361 286.96554
 274.68647 262.59241 250.61034 239.92028 230.05121 221.16414 213.35508 206.36601
 200.20895 195.15588 191.74682 189.79775 188.84368 188.91662 189.76055 191.07749
 192.81142 194.91536 197.18729 199.55522 202.00916 204.49809 206.59503 208.44596
 210.08090 211.23483 211.47276 211.70970 211.65563 211.36957 211.01150 210.65043
 210.27637 209.99530 209.81224 209.68517 209.62211 209.96204 210.35697 210.75491
 211.55684 212.74378 214.00271 215.79465 217.73158 219.78351 221.88745 223.97938
 226.04832 228.14125 230.24719 232.36212 234.50005 236.68099 238.94592 241.32486
 243.95479 246.21472 248.22566 249.99959 251.42553 252.55746 253.38840 253.71333
 253.75926 253.54220 252.91113 251.86807 250.48300 248.65294 246.57087 244.41280
 242.21274 240.02567 237.85461 235.70254 233.57147 231.44741 229.48234 227.64828
 225.94021 224.42115 223.06008 221.84101 220.73195 219.70088 218.81382 217.96375
 217.21469 216.40362 215.51055 214.88349 214.34242 213.58568 211.80302 210.73814
 210.47945 211.32982 212.63857 214.63391 217.86829 222.56667 228.59441 233.57436
 237.55643 241.84840 246.23265 250.55508 254.66560 258.34949 261.44702 264.04266
 266.46252 268.85507 271.18475 273.37967 275.31049 276.98788 278.58099 280.22672
 281.91925 283.54813 285.02072 286.30505 287.38440 288.37082 289.31149 290.15637
 290.92816 291.66205 292.30466 293.12357
 366.78100 356.34305 345.78311 334.65716 323.06822 311.27027 299.14833 286.95938
 274.67943 262.58449 250.60154 239.91060 230.04065 221.15271 213.34276 206.35281
 200.19487 195.14092 191.73098 189.78103 188.82609 188.89814 189.74119 191.05725
 192.79030 194.89336 197.16441 199.53146 201.98452 204.47257 206.56863 208.41868
 210.05274 211.20579 211.44284 211.67890 211.62395 211.33701 210.97806 210.61612
 210.24117 209.95922 209.77528 209.64733 209.58339 209.92244 210.31650 210.71355
 211.51460 212.70066 213.95871 215.74977 217.68582 219.73688 221.83993 223.93098
 225.99904 228.09109 230.19615 232.31020 234.44726 236.62731 238.89136 241.26942
 243.89847 246.15753 248.16758 249.94063 251.36569 252.49674 253.32680 253.65085
 253.69591 253.47796 252.84601 251.80207 250.41612 248.58518 246.50223 244.34329
 242.14234 239.95439 237.78245 235.62950 233.49756 231.37261 229.40667 227.57172
 225.86277 224.34283 222.98088 221.76094 220.65099 219.61905 218.73110 217.88015
 217.13021 216.31826 215.42432 214.79637 214.25443 213.57144 211.95755 210.82289
 210.35599 211.09541 212.50336 214.59985 217.90924 222.60107 228.54655 233.57874
 237.53842 241.83273 246.21075 250.54451 254.67627 258.38416 261.48532 264.08899
 266.50574 268.86496 271.19153 273.39685 275.30392 276.95560 278.54327 280.18735
 281.88144 283.51315 284.94879 286.23593 287.42545 288.52148 289.58185 290.55673
 291.43350 292.21432 292.89639 293.76562
 366.78100 356.34831 345.79361 334.67292 323.08923 311.29653 299.17984 286.99615
 274.72145 262.63176 250.65406 239.96837 230.10368 221.22098 213.41629 206.43160
 200.27890 195.23021 191.82552 189.88082 188.93113 189.00844 189.85674 191.17805
 192.91636 195.02466 197.30097 199.67327 202.13158 204.62489 206.72619 208.58150
 210.22081 211.37911 211.62142 211.86273 211.81303 211.53134 211.17765 210.82095
 210.45126 210.17457 209.99587 209.87318 209.81449 210.15879 210.55810 210.96040
 211.76671 212.95802 214.22132 216.01763 217.95894 220.01524 222.12355 224.21986
 226.29316 228.39047 230.50078 232.62008 234.76239 236.94770 239.21700 241.60031
 244.23461 246.49892 248.51423 250.29253 251.72284 252.85915 253.69445 254.02376
 254.07407 253.86137 253.23468 252.19599 250.81529 248.98960 246.91191 244.75821
 242.56252 240.37982 238.21313 236.06544 233.93874 231.81905 229.85836 228.02866
 226.32497 224.81028 223.45358 222.23889 221.13420 220.10750 219.22481 218.37912
 217.63442 216.82773 215.93903 215.31634 214.77965 213.86588 211.75984 210.84273
 210.66423 211.27924 212.53146 214.55727 217.86137 222.56752 228.46159 233.50003
 237.45830 241.75400 246.12672 250.47295 254.64890 258.40240 261.52628 264.11606
 266.55579 268.93164 271.27649 273.52081 275.45615 277.10095 278.64008 280.25165
 281.91495 283.52414 284.99615 286.36713 287.59021 288.75439 289.84152 290.82642
 291.71219 292.50098 293.19003 294.06818
 366.78100 356.35110 345.79920 334.68129 323.10039 311.31049 299.19659 287.01569
 274.74379 262.65688 250.68198 239.99908 230.13718 221.25728 213.45538 206.47347
 200.32357 195.27767 191.87577 189.93387 188.98696 189.06706 189.91816 191.24226
 192.98336 195.09446 197.37355 199.74865 202.20975 204.70585 206.80995 208.66805
 210.31014 211.47124 211.71634 211.96044 211.91354 211.63463 211.28373 210.92983
 210.56293 210.28903 210.11313 209.99322 209.93732 210.28442 210.68652 211.09162
 211.90071 213.09481 214.36091 216.16001 218.10411 220.16321 222.27430 224.37340
 226.44950 228.54960 230.66270 232.78480 234.92989 237.11799 239.39009 241.77619
 244.41329 246.68038 248.69848 250.47958 251.91268 253.05178 253.88988 254.22197
 254.27507 254.06517 253.44127 252.40537 251.02747 249.20456 247.12966 244.97876
 242.78586 240.60596 238.44205 236.29715 234.17325 232.05635 230.09845 228.27155
 226.57064 225.05874 223.70484 222.49294 221.39104 220.36714 219.48723 218.64433
 217.90243 217.09853 216.21263 215.59272 215.05882 214.03244 211.64946 210.71999
 210.86230 211.47028 212.66827 214.58388 217.78041 222.43961 228.33545 233.33595
 237.31625 241.59668 245.96921 250.30867 254.47870 258.21539 261.33847 263.98459
 266.47247 268.91840 271.34256 273.63873 275.59799 277.25684 278.83664 280.46576
 282.11389 283.66620 285.08154 286.42783 287.61609 288.69757 289.72177 290.69455
 291.57159 292.35260 293.03488 293.90439
 366.78100 356.34713 345.79125 334.66938 323.08450 311.29063 299.17276 286.98788
 274.71201 262.62113 250.64226 239.95538 230.08951 221.20564 213.39976 206.41389
 200.26001 195.21014 191.80427 189.85839 188.90752 188.98364 189.83077 191.15090
 192.88802 194.99515 197.27027 199.64140 202.09853 204.59065 206.69078 208.54490
 210.18303 211.34015 211.58128 211.82141 211.77053 211.48766 211.13278 210.77491
 210.40404 210.12616 209.94629 209.82241 209.76254 210.10567 210.50379 210.90492
 211.71004 212.90017 214.16230 215.95742 217.89755 219.95267 222.05980 224.15492
 226.22705 228.32318 230.43230 232.55043 234.69155 236.87568 239.14381 241.52593
 244.15906 246.42218 248.43631 250.21344 251.64256 252.77769 253.61181 253.93994
 253.98907 253.77519 253.14732 252.10744 250.72557 248.89869 246.81982 244.66495
 242.46807 240.28420 238.11632 235.96745 233.83958 231.71870 229.75683 227.92595
 226.22108 224.70521 223.34733 222.13146 221.02558 219.99771 219.11384 218.26696
 217.52109 216.71321 215.82334 215.19946 214.66159 213.83218 211.87553 210.70830
 210.72948 211.64381 212.93234 214.71826 217.76077 222.36555 228.31190 233.20662
 237.23851 241.49994 245.87715 250.20053 254.37929 258.11566 261.21756 263.83682
 266.32666 268.82037 271.26328 273.56912 275.54468 277.23267 278.83829 280.48502
 282.15100 283.72043 285.14200 286.44849 287.62457 288.68243 289.66107 290.54901
 291.34564 292.06644 292.72461 293.56342
 366.78100 356.34474 345.78647 334.66221 323.07494 311.27868 299.15841 286.97115
 274.69288 262.59962 250.61835 239.92909 230.06082 221.17456 213.36629 206.37803
 200.22176 195.16950 191.76123 189.81297 188.85970 188.93344 189.77817 191.09591
 192.83064 194.93538 197.20811 199.57685 202.03158 204.52132 206.61905 208.47079
 210.10652 211.26126 211.49999 211.73773 211.68446 211.39920 211.04193 210.68167
 210.30840 210.02814 209.84587 209.71961 209.65734 209.99808 210.39381 210.79255
 211.59528 212.78302 214.04275 215.83549 217.77322 219.82596 221.93069 224.02343
 226.09316 228.18690 230.29363 232.40937 234.54810 236.72984 238.99557 241.37531
 244.00604 246.26678 248.27851 250.05325 251.47998 252.61272 253.44445 253.77019
 253.81692 253.60066 252.97039 251.92813 250.54386 248.71460 246.63333 244.47607
 242.27680 240.09054 237.92027 235.76901 233.63874 231.51548 229.55121 227.71795
 226.01068 224.49242 223.13215 221.91389 220.80562 219.77536 218.88909 218.03983
 217.29156 216.48130 215.58903 214.96277 214.42250 213.71594 212.04660 210.82721
 210.47163 211.53207 213.02168 214.82161 217.82387 222.39722 228.32555 233.18199
 237.21146 241.47256 245.83711 250.15431 254.35674 258.10837 261.18695 263.75888
 266.24973 268.75867 271.22333 273.57523 275.54364 277.19653 278.77704 280.40955
 282.10071 283.70425 285.14206 286.39490 287.50729 288.57730 289.59772 290.49780
 291.16138 291.73630 292.21960 292.71066
 366.78100 356.34723 345.79147 334.66970 323.08493 311.29116 299.17340 286.98863
 274.71286 262.62209 250.64333 239.95656 230.09079 221.20703 213.40126 206.41549
 200.26172 195.21196 191.80619 189.86042 188.90965 188.98589 189.83312 191.15335
 192.89059 194.99782 197.27305 199.64428 202.10152 204.59375 206.69398 208.54821
 210.18645 211.34368 211.58491 211.82515 211.77438 211.49161 211.13684 210.77908
 210.40831 210.13054 209.95077 209.82701 209.76724 210.11047 210.50870 210.90994
 211.71517 212.90540 214.16764 215.96287 217.90310 219.95833 222.06557 224.16080
 226.23303 228.32926 230.43850 232.55673 234.69796 236.88220 239.15043 241.53266
 244.16589 246.42913 248.44336 250.22059 251.64982 252.78506 253.61929 253.94752
 253.99676 253.78299 253.15522 252.11545 250.73369 248.90692 246.82815 244.67338
 242.47662 240.29285 238.12508 235.97632 233.84855 231.72778 229.76601 227.93525
 226.23048 224.71471 223.35694 222.14118 221.03541 220.00764 219.12388 218.27711
 217.53134 216.72357 215.83381 215.21004 214.67227 213.85809 211.93452 210.99358
 210.50278 211.37967 212.92937 214.81059 217.85550 222.43071 228.33328 233.19585
 237.21063 241.47406 245.82703 250.12898 254.32089 258.06818 261.14722 263.72348
 266.22876 268.73572 271.19324 273.53033 275.49066 277.15594 278.77304 280.43210
 282.12088 283.70166 285.12836 286.37811 287.44095 288.49496 289.52884 290.44348
 291.02600 291.48120 291.83289 292.11920
 366.78100 356.34976 345.79651 334.67727 323.09502 311.30378 299.18854 287.00629
 274.73305 262.64481 250.66856 239.98432 230.12107 221.23983 213.43659 206.45334
 200.30210 195.25486 191.85161 189.90837 188.96012 189.03888 189.88864 191.21139
 192.95115 195.06091 197.33866 199.71242 202.17217 204.66693 206.76969 208.62644
 210.26720 211.42696 211.67071 211.91347 211.86522 211.58498 211.23274 210.87749
 210.50925 210.23400 210.05676 209.93552 209.87827 210.22403 210.62479 211.02854
 211.83630 213.02905 214.29381 216.09157 218.03432 220.09208 222.20184 224.29959
 226.37435 228.47310 230.58486 232.70562 234.84937 237.03613 239.30689 241.69164
 244.32740 246.59315 248.60991 250.38967 251.82142 252.95918 253.79594 254.12669
 254.17845 253.96720 253.34196 252.30472 250.92547 249.10123 247.02498 244.87274
 242.67850 240.49725 238.33201 236.18577 234.06052 231.94228 229.98303 228.15479
 226.45255 224.93930 223.58406 222.37082 221.26757 220.24233 219.36108 218.51684
 217.77360 216.96835 216.08111 215.45987 214.92462 214.00658 211.83759 211.07422
 210.69720 211.37892 212.81166 214.68486 217.77237 222.39531 228.29985 233.14372
 237.17783 241.44975 245.80432 250.10918 254.31424 258.07620 261.16223 263.72934
 266.23450 268.72806 271.16489 273.49426 275.39642 276.96210 278.54770 280.24753
 282.03952 283.70337 285.15753 286.37970 287.37723 288.40976 289.44376 290.30124
 290.73315 291.13199 291.45947 291.79080
 366.78100 356.34731 345.79163 334.66994 323.08526 311.29157 299.17389 286.98920
 274.71352 262.62283 250.64415 239.95746 230.09177 221.20809 213.40240 206.41672
 200.26303 195.21335 191.80766 189.86198 188.91129 188.98760 189.83492 191.15523
 192.89255 194.99986 197.27518 199.64649 202.10381 204.59612 206.69644 208.55075
 210.18906 211.34638 211.58769 211.82801 211.77732 211.49464 211.13995 210.78227
 210.41158 210.13389 209.95421 209.83052 209.77084 210.11415 210.51247 210.91378
 211.71910 212.90941 214.17173 215.96704 217.90735 219.96267 222.06998 224.16530
 226.23761 228.33393 230.44324 232.56156 234.70287 236.88718 239.15550 241.53781
 244.17113 246.43444 248.44876 250.22607 251.65539 252.79070 253.62502 253.95333
 254.00264 253.78896 253.16127 252.12159 250.73990 248.91322 246.83453 244.67985
 242.48316 240.29947 238.13179 235.98310 233.85542 231.73473 229.77305 227.94236
 226.23768 224.72199 223.36431 222.14862 221.04293 220.01525 219.13156 218.28488
 217.53919 216.73151 215.84182 215.21814 214.68045 213.92415 212.14203 210.98798
 210.62921 211.26630 212.68166 214.69878 217.85381 222.39526 228.20924 233.18443
 237.13461 241.43813 245.80249 250.12749 254.29874 258.05460 261.18619 263.82516
 266.28555 268.70395 271.10358 273.36691 275.29858 276.94003 278.51526 280.15350
 281.80319 283.36047 284.75970 286.04367 287.20013 288.23248 289.21579 290.16534
 291.02737 291.79504 292.46567 293.32031
 366.78100 356.34908 345.79517 334.67525 323.09234 311.30042 299.18450 287.00159
 274.72767 262.63875 250.66184 239.97692 230.11301 221.23109 213.42717 206.44326
 200.29134 195.24342 191.83951 189.89559 188.94668 189.02476 189.87384 191.19593
 192.93501 195.04409 197.32118 199.69426 202.15335 204.64743 206.74951 208.60560
 210.24568 211.40476 211.64785 211.88993 211.84102 211.56010 211.20718 210.85127
 210.48235 210.20643 210.02852 209.90660 209.84869 210.19377 210.59385 210.99694
 211.80402 212.99610 214.26019 216.05727 217.99936 220.05644 222.16552 224.26261
 226.33669 228.43477 230.54586 232.66594 234.80903 236.99511 239.26519 241.64928
 244.28436 246.54944 248.56553 250.34461 251.77570 252.91278 253.74886 254.07895
 254.13003 253.91811 253.29220 252.25428 250.87437 249.04945 246.97253 244.81962
 242.62470 240.44278 238.27687 236.12995 234.00404 231.88512 229.92520 228.09629
 226.39337 224.87945 223.52354 222.30962 221.20571 220.17979 219.29787 218.45296
 217.70904 216.90312 216.01521 215.39329 214.85738 214.08072 212.20961 210.90494
 210.87433 211.55627 212.79224 214.70799 217.88234 222.40166 228.20093 233.11989
 237.09145 241.40399 245.77798 250.11662 254.28862 258.03482 261.19357 263.90121
 266.40903 268.85199 271.23425 273.43372 275.34705 277.03384 278.65741 280.28986
 281.87421 283.50571 285.16464 286.77692 288.17221 289.40668 290.53293 291.55325
 292.47092 293.28809 294.00198 294.91171
 366.78100 356.35582 345.80865 334.69547 323.11929 311.33412 299.22494 287.04877
 274.78159 262.69941 250.72924 240.05106 230.19388 221.31871 213.52153 206.54436
 200.39918 195.35800 191.96083 190.02365 189.08147 189.16630 190.02212 191.35095
 193.09677 195.21259 197.49642 199.87624 202.34206 204.84289 206.95171 208.81454
 210.46136 211.62718 211.87701 212.12583 212.08365 211.80948 211.46330 211.11413
 210.75195 210.48277 210.31160 210.19642 210.14524 210.49707 210.90389 211.31371
 212.12754 213.32636 214.59719 216.40101 218.34983 220.41366 222.52948 224.63330
 226.71413 228.81895 230.93678 233.06360 235.21342 237.40625 239.68307 242.07389
 244.71572 246.98754 249.01037 250.79619 252.23401 253.37784 254.22066 254.55748
 254.61531 254.41013 253.79096 252.75978 251.38660 249.56843 247.49825 245.35207
 243.16390 240.98872 238.82955 236.68937 234.57019 232.45802 230.50484 228.68266
 226.98649 225.47931 224.13013 222.92296 221.82578 220.80661 219.93143 219.09325
 218.35608 217.55690 216.67572 216.06055 215.53137 214.45070 211.94565 210.82097
 211.20580 211.76341 212.85571 214.66621 217.76208 222.32343 228.03055 232.95288
 236.90604 241.19913 245.56825 249.93315 254.11118 257.82425 260.99060 263.78726
 266.43137 268.98679 271.48477 273.85059 275.87360 277.59192 279.17352 280.70224
 282.18387 283.74307 285.31622 286.78897 288.18387 289.41800 290.54398 291.56403
 292.48145 293.29840 294.01208 294.92157
 366.78100 356.35701 345.81102 334.69903 323.12404 311.34005 299.23206 287.05707
 274.79108 262.71009 250.74110 240.06411 230.20812 221.33413 213.53814 206.56215
 200.41816 195.37817 191.98218 190.04619 189.10520 189.19122 190.04823 191.37824
 193.12525 195.24226 197.52727 199.90828 202.37529 204.87730 206.98731 208.85132
 210.49933 211.66634 211.91735 212.16736 212.12637 211.85338 211.50839 211.16040
 210.79941 210.53142 210.36143 210.24744 210.19745 210.55046 210.95847 211.36948
 212.18449 213.38450 214.65651 216.46152 218.41153 220.47654 222.59355 224.69856
 226.78057 228.88658 231.00559 233.13360 235.28461 237.47862 239.75664 242.14865
 244.79166 247.06467 249.08868 250.87569 252.31470 253.45971 254.30372 254.64173
 254.70074 254.49675 253.87876 252.84877 251.47678 249.65979 247.59080 245.44581
 243.25882 241.08483 238.92684 236.78785 234.66986 232.55887 230.60688 228.78589
 227.09090 225.58491 224.23692 223.03093 221.93494 220.91695 220.04296 219.20597
 218.46998 217.67199 216.79200 216.17801 215.65002 214.50192 211.82355 210.86203
 211.36754 211.62811 212.83183 214.80750 217.74660 222.16792 227.91794 232.78914
 236.74400 241.01578 245.37750 249.68840 253.79831 257.49921 260.70447 263.54547
 266.21890 268.80139 271.29053 273.63348 275.72131 277.57272 279.29926 280.96530
 282.54730 284.00864 285.37485 286.68942 287.87473 288.94467 289.93817 290.85818
 291.71664 292.48108 293.14890 293.99994
 366.78100 356.35516 345.80731 334.69347 323.11662 311.33078 299.22093 287.04409
 274.77624 262.69340 250.72256 240.04371 230.18587 221.31002 213.51218 206.53433
 200.38849 195.34664 191.94880 190.01096 189.06811 189.15227 190.00742 191.33558
 193.08073 195.19589 197.47904 199.85820 202.32336 204.82351 206.93167 208.79382
 210.43998 211.60513 211.85429 212.10244 212.05960 211.78475 211.43791 211.08807
 210.72522 210.45538 210.28353 210.16769 210.11584 210.46700 210.87315 211.28231
 212.09547 213.29362 214.56378 216.36693 218.31509 220.37824 222.49340 224.59655
 226.67671 228.78087 230.89802 233.02418 235.17333 237.36549 239.64164 242.03180
 244.67295 246.94411 248.96627 250.75142 252.18858 253.33173 254.17389 254.51004
 254.56720 254.36135 253.74151 252.70967 251.33582 249.51698 247.44613 245.29929
 243.11044 240.93460 238.77475 236.63391 234.51407 232.40122 230.44738 228.62453
 226.92769 225.41984 224.07000 222.86215 221.76431 220.74447 219.86862 219.02978
 218.29193 217.49209 216.61024 215.99440 215.46455 214.42538 211.98889 210.84372
 211.33704 211.68622 212.77115 214.79587 217.81744 222.14980 227.82555 232.69839
 236.66315 240.96179 245.34868 249.68417 253.83022 257.57748 260.81174 263.64536
 266.29520 268.83188 271.27197 273.60065 275.65500 277.41107 279.02084 280.60214
 282.19458 283.72809 285.19846 286.56720 287.75687 288.82309 289.81363 290.72073
 291.56445 292.31760 292.97552 293.81400
 366.78100 356.35231 345.80162 334.68493 323.10524 311.31655 299.20385 287.02416
 274.75347 262.66778 250.69409 240.01240 230.15171 221.27302 213.47233 206.49164
 200.34294 195.29825 191.89756 189.95687 189.01118 189.09249 189.94480 191.27011
 193.01242 195.12473 197.40503 199.78134 202.24365 204.74096 206.84627 208.70558
 210.34889 211.51120 211.75751 212.00282 211.95712 211.67943 211.32974 210.97705
 210.61136 210.33867 210.16398 210.04529 209.99060 210.33891 210.74221 211.14852
 211.95883 213.15414 214.42145 216.22176 218.16707 220.22738 222.33969 224.44000
 226.51730 228.61861 230.73292 232.85623 235.00254 237.19185 239.46516 241.85247
 244.49078 246.75909 248.77839 250.56070 251.99501 253.13532 253.97463 254.30794
 254.36225 254.15356 253.53087 252.49618 251.11948 249.29779 247.22410 245.07441
 242.88272 240.70403 238.54134 236.39765 234.27496 232.15927 230.20257 228.37688
 226.67719 225.16650 223.81381 222.60312 221.50243 220.47974 219.60105 218.75936
 218.01867 217.21597 216.33128 215.71259 215.17990 214.32529 212.29082 210.78131
 210.94255 211.55751 212.77306 214.83588 217.92877 222.22826 227.80750 232.70245
 236.65512 240.96767 245.36577 249.72227 253.88293 257.64929 260.90335 263.75937
 266.43631 268.95789 271.38672 273.72681 275.76144 277.48465 279.04581 280.56390
 282.09396 283.63397 285.15094 286.52618 287.73105 288.82056 289.86639 290.82867
 291.69415 292.46484 293.13812 293.99615
 366.78100 356.35081 345.79863 334.68044 323.09925 311.30907 299.19488 287.01369
 274.74151 262.65432 250.67913 239.99595 230.13376 221.25358 213.45139 206.46920
 200.31902 195.27283 191.87064 189.92846 188.98127 189.06108 189.91190 191.23571
 192.97652 195.08734 197.36615 199.74096 202.20178 204.69759 206.80140 208.65922
 210.30103 211.46185 211.70666 211.95047 211.90329 211.62410 211.27291 210.91873
 210.55154 210.27735 210.10117 209.98098 209.92479 210.27161 210.67342 211.07823
 211.88705 213.08086 214.34667 216.14549 218.08930 220.14812 222.25893 224.35774
 226.43356 228.53337 230.64618 232.76800 234.91281 237.10062 239.37244 241.75825
 244.39506 246.66188 248.67969 250.46050 251.89332 253.03213 253.86994 254.20176
 254.25457 254.04439 253.42020 252.38401 251.00583 249.18264 247.10745 244.95627
 242.76308 240.58289 238.41871 236.27352 234.14933 232.03215 230.07396 228.24677
 226.54559 225.03340 223.67921 222.46703 221.36484 220.34066 219.46047 218.61728
 217.87510 217.07091 216.18472 215.56454 215.03035 214.26703 212.43932 210.81793
 210.68449 211.58545 212.91801 214.90535 217.94537 222.23262 227.80600 232.67477
 236.62149 240.91417 245.30666 249.64983 253.78137 257.50491 260.73462 263.61493
 266.34497 268.92874 271.41278 273.81802 275.93188 277.70493 279.26639 280.73657
 282.18616 283.61703 285.11212 286.48294 287.67776 288.75571 289.76938 290.72684
 291.58801 292.35486 293.02478 293.87851
 366.78100 356.35304 345.80308 334.68711 323.10815 311.32019 299.20823 287.02927
 274.75930 262.67434 250.70138 240.02042 230.16046 221.28249 213.48253 206.50257
 200.35461 195.31064 191.91068 189.97072 189.02576 189.10780 189.96083 191.28687
 193.02991 195.14295 197.42399 199.80102 202.26406 204.76210 206.86814 208.72818
 210.37221 211.53525 211.78229 212.02833 211.98337 211.70640 211.35744 211.00548
 210.64052 210.36855 210.19459 210.07663 210.02267 210.37171 210.77574 211.18278
 211.99382 213.18986 214.45790 216.25893 218.20497 220.26601 222.37905 224.48009
 226.55812 228.66016 230.77520 232.89924 235.04628 237.23631 239.51035 241.89839
 244.53743 246.80647 248.82650 250.60954 252.04458 253.18562 254.02565 254.35969
 254.41473 254.20677 253.58481 252.55084 251.17488 249.35392 247.28096 245.13200
 242.94103 240.76307 238.60111 236.45815 234.33619 232.22122 230.26526 228.44030
 226.74134 225.23138 223.87941 222.66945 221.56949 220.54753 219.66956 218.82860
 218.08864 217.28668 216.40272 215.78475 215.25279 214.37646 212.31017 211.02686
 210.61813 211.60329 213.15106 215.00771 217.89789 222.14532 227.79138 232.59398
 236.56276 240.83575 245.22816 249.55466 253.65956 257.35049 260.55533 263.42169
 266.15338 268.77945 271.29932 273.73230 275.91385 277.76434 279.38376 280.86871
 282.28766 283.67526 285.06320 286.42661 287.61298 288.67261 289.64392 290.53049
 291.33539 292.06778 292.70758 293.52295
 366.78100 356.35541 345.80782 334.69423 323.11763 311.33204 299.22245 287.04586
 274.77827 262.69568 250.72508 240.04649 230.18890 221.31331 213.51572 206.53813
 200.39253 195.35094 191.95335 190.01576 189.07317 189.15758 190.01298 191.34139
 193.08680 195.20221 197.48562 199.86503 202.33043 204.83084 206.93925 208.80166
 210.44807 211.61348 211.86288 212.11129 212.06870 211.79411 211.44752 211.09793
 210.73534 210.46574 210.29415 210.17856 210.12697 210.47838 210.88479 211.29419
 212.10760 213.30601 214.57642 216.37983 218.32824 220.39164 222.50705 224.61046
 226.69087 228.79528 230.91269 233.03909 235.18850 237.38091 239.65732 242.04773
 244.68914 246.96054 248.98295 250.76836 252.20577 253.34918 254.19159 254.52799
 254.58540 254.37981 253.76022 252.72863 251.35504 249.53644 247.46585 245.31926
 243.13067 240.95508 238.79549 236.65490 234.53530 232.42271 230.46912 228.64653
 226.94994 225.44235 224.09275 222.88516 221.78757 220.76798 219.89239 219.05380
 218.31620 217.51661 216.63502 216.01943 215.48984 214.50587 212.18462 211.12010
 210.71207 211.60292 213.17052 214.95500 217.80003 222.06659 227.77666 232.53946
 236.52827 240.79408 245.19926 249.53658 253.65358 257.34494 260.53738 263.38480
 266.12228 268.74158 271.22498 273.66376 275.84332 277.68408 279.34201 280.87680
 282.32193 283.69940 285.03165 286.31390 287.46671 288.48196 289.41010 290.26608
 291.01071 291.50766 291.89670 292.39252
 366.78100 356.35858 345.81415 334.70373 323.13030 311.34788 299.24146 287.06803
 274.80361 262.72418 250.75676 240.08134 230.22691 221.35449 213.56007 206.58564
 200.44322 195.40479 192.01037 190.07595 189.13652 189.22410 190.08267 191.41425
 193.16283 195.28140 197.56798 199.95055 202.41913 204.92271 207.03428 208.89986
 210.54944 211.71801 211.97059 212.22216 212.18274 211.91132 211.56789 211.22147
 210.86204 210.59562 210.42720 210.31477 210.26635 210.62092 211.03050 211.44308
 212.25965 213.46123 214.73481 216.54138 218.49296 220.55953 222.67811 224.78469
 226.86826 228.97584 231.09641 233.22599 235.37857 237.57414 239.85372 242.24729
 244.89187 247.16645 249.19202 250.98060 252.42117 253.56775 254.41333 254.75290
 254.81348 254.61106 253.99463 252.96621 251.59578 249.78036 247.71294 245.56951
 243.38409 241.21166 239.05524 236.91782 234.80139 232.69197 230.74154 228.92212
 227.22870 225.72427 224.37785 223.17343 222.07900 221.06258 220.19015 219.35473
 218.62031 217.82388 216.94546 216.33303 215.80661 214.68979 212.05550 211.06790
 211.02637 211.62617 212.91920 214.84032 217.75592 222.04192 227.74593 232.50958
 236.49803 240.75926 245.16933 249.51173 253.63666 257.32980 260.52991 263.39407
 266.15881 268.77631 271.23798 273.67480 275.85208 277.67926 279.30081 280.83118
 282.30023 283.69489 285.01666 286.25580 287.36038 288.33926 289.23807 290.07516
 290.84073 291.33725 291.70850 292.18161
 366.78100 356.35978 345.81656 334.70734 323.13512 311.35390 299.24869 287.07647
 274.81325 262.73503 250.76881 240.09459 230.24137 221.37015 213.57693 206.60371
 200.46249 195.42528 192.03206 190.09884 189.16062 189.24940 190.10918 191.44196
 193.19174 195.31152 197.59930 199.98309 202.45287 204.95765 207.07043 208.93721
 210.58799 211.75777 212.01155 212.26433 212.22611 211.95589 211.61368 211.26846
 210.91024 210.64502 210.47780 210.36658 210.31936 210.67514 211.08592 211.49970
 212.31748 213.52027 214.79505 216.60283 218.55561 220.62339 222.74317 224.85095
 226.93573 229.04451 231.16629 233.29708 235.45086 237.64764 239.92842 242.32320
 244.96898 247.24476 249.27154 251.06132 252.50310 253.65088 254.49767 254.83845
 254.90023 254.69901 254.08379 253.05657 251.68735 249.87313 247.80691 245.66469
 243.48047 241.30926 239.15404 237.01782 234.90260 232.79438 230.84516 229.02694
 227.33472 225.83150 224.48628 223.28307 222.18985 221.17463 220.30341 219.46919
 218.73597 217.94075 217.06353 216.45231 215.92709 214.77357 212.05243 210.97105
 211.19872 211.63596 212.90724 214.89835 217.76779 221.98798 227.65839 232.43225
 236.40952 240.67322 245.08156 249.42258 253.53593 257.21805 260.43469 263.35278
 266.18408 268.84088 271.30692 273.74789 275.93668 277.77081 279.36020 280.84268
 282.28778 283.68076 285.00281 286.22339 287.29697 288.25385 289.13425 289.97382
 290.76758 291.23303 291.55255 291.95975
 366.78100 356.35681 345.81061 334.69842 323.12323 311.33903 299.23084 287.05565
 274.78945 262.70826 250.73907 240.06187 230.20568 221.33149 213.53529 206.55910
 200.41491 195.37471 191.97852 190.04233 189.10113 189.18694 190.04375 191.37355
 193.12036 195.23717 197.52197 199.90278 202.36959 204.87139 206.98120 208.84501
 210.49281 211.65962 211.91043 212.16023 212.11904 211.84585 211.50065 211.15246
 210.79127 210.52307 210.35288 210.23869 210.18849 210.54130 210.94911 211.35991
 212.17472 213.37453 214.64633 216.45114 218.40095 220.46575 222.58256 224.68737
 226.76917 228.87498 230.99379 233.12159 235.27240 237.46621 239.74401 242.13582
 244.77863 247.05143 249.07524 250.86205 252.30086 253.44566 254.28947 254.62728
 254.68608 254.48189 253.86370 252.83350 251.46131 249.64412 247.57492 245.42973
 243.24254 241.06834 238.91015 236.77096 234.65276 232.54157 230.58938 228.76818
 227.07299 225.56680 224.21860 223.01241 221.91622 220.89802 220.02383 219.18664
 218.45044 217.65225 216.77206 216.15786 215.62967 214.63710 212.29315 210.89906
 210.90759 211.70924 213.22427 215.08664 217.83807 221.97375 227.60379 232.36301
 236.32326 240.58385 244.97931 249.30138 253.37257 257.01996 260.24869 263.22952
 266.12860 268.84128 271.35306 273.81836 276.03763 277.89734 279.47739 280.90781
 282.30127 283.66727 284.97626 286.18765 287.25104 288.20663 289.08368 289.90283
 290.67810 291.16489 291.58252 292.11469
 366.78100 356.35587 345.80873 334.69560 323.11946 311.33433 299.22519 287.04906
 274.78192 262.69979 250.72966 240.05152 230.19439 221.31925 213.52212 206.54498
 200.39985 195.35871 191.96158 190.02445 189.08231 189.16718 190.02304 191.35191
 193.09777 195.21364 197.49750 199.87737 202.34323 204.84410 206.95297 208.81583
 210.46270 211.62856 211.87843 212.12729 212.08516 211.81102 211.46489 211.11576
 210.75362 210.48449 210.31335 210.19822 210.14708 210.49895 210.90581 211.31568
 212.12955 213.32841 214.59928 216.40314 218.35201 220.41587 222.53174 224.63560
 226.71647 228.82134 230.93920 233.06607 235.21593 237.40880 239.68566 242.07653
 244.71839 246.99026 249.01312 250.79899 252.23686 253.38072 254.22359 254.56045
 254.61832 254.41318 253.79405 252.76291 251.38978 249.57165 247.50151 245.35538
 243.16724 240.99211 238.83297 236.69284 234.57370 232.46157 230.50844 228.68630
 226.99017 225.48303 224.13390 222.92676 221.82963 220.81049 219.93536 219.09723
 218.36009 217.56096 216.67982 216.06469 215.53555 214.59834 212.38406 210.96036
 210.63705 211.69627 213.36247 215.16245 217.90295 222.02138 227.63152 232.35182
 236.31305 240.56639 244.95714 249.26288 253.28987 256.88724 260.08771 263.07053
 265.98517 268.71820 271.27286 273.79077 276.05319 277.95673 279.57065 280.99426
 282.34995 283.67599 284.95657 286.15939 287.21472 288.17038 289.06094 289.86084
 290.60083 291.11819 291.55603 292.13260
 366.78100 356.35730 345.81160 334.69990 323.12520 311.34150 299.23380 287.05910
 274.79340 262.71270 250.74400 240.06730 230.21160 221.33790 213.54220 206.56650
 200.42281 195.38311 191.98741 190.05171 189.11101 189.19731 190.05461 191.38491
 193.13221 195.24951 197.53481 199.91611 202.38341 204.88571 206.99601 208.86031
 210.50861 211.67591 211.92721 212.17751 212.13681 211.86411 211.51941 211.17171
 210.81101 210.54331 210.37361 210.25991 210.21021 210.56351 210.97181 211.38311
 212.19842 213.39872 214.67102 216.47632 218.42662 220.49192 222.60922 224.71452
 226.79682 228.90312 231.02242 233.15072 235.30202 237.49632 239.77462 242.16692
 244.81022 247.08352 249.10782 250.89512 252.33442 253.47972 254.32402 254.66232
 254.72162 254.51792 253.90022 252.87052 251.49882 249.68212 247.61342 245.46872
 243.28203 241.10833 238.95063 236.81193 234.69423 232.58353 230.63183 228.81113
 227.11643 225.61073 224.26303 223.05733 221.96163 220.94393 220.07023 219.23353
 218.49783 217.70013 216.82043 216.20673 215.67903 214.67592 212.30597 211.05222
 210.67442 211.64876 213.26126 215.07025 217.87039 222.03944 227.67552 232.35660
 236.33330 240.57802 244.98326 249.29872 253.32008 256.89331 260.05826 262.99573
 265.86438 268.55121 271.10376 273.64011 275.92056 277.85876 279.51694 280.97144
 282.34537 283.66229 284.92209 286.10071 287.13559 288.07956 288.97668 289.79379
 290.52185 291.12878 291.48801 292.08725
 366.78100 356.35749 345.81198 334.70047 323.12596 311.34245 299.23494 287.06044
 274.79493 262.71442 250.74591 240.06940 230.21389 221.34038 213.54487 206.56936
 200.42585 195.38634 191.99083 190.05532 189.11481 189.20131 190.05880 191.38929
 193.13678 195.25427 197.53976 199.92125 202.38874 204.89123 207.00172 208.86621
 210.51470 211.68219 211.93369 212.18418 212.14367 211.87116 211.52665 211.17914
 210.81863 210.55112 210.38161 210.26810 210.21859 210.57208 210.98057 211.39206
 212.20756 213.40805 214.68054 216.48603 218.43652 220.50201 222.61950 224.72499
 226.80748 228.91397 231.03346 233.16195 235.31344 237.50794 239.78643 242.17892
 244.82241 247.09590 249.12039 250.90788 252.34737 253.49286 254.33735 254.67584
 254.73533 254.53182 253.91432 252.88481 251.51330 249.69679 247.62828 245.48377
 243.29726 241.12375 238.96624 236.82773 234.71022 232.59971 230.64820 228.82769
 227.13319 225.62768 224.28017 223.07466 221.97915 220.96164 220.08813 219.25162
 218.51611 217.71860 216.83909 216.22558 215.69807 214.69925 212.33940 210.96370
 210.84033 211.77846 213.18701 214.94794 217.76109 222.00391 227.66011 232.32823
 236.28610 240.54572 244.96597 249.31017 253.35535 256.93524 260.08279 262.98703
 265.84064 268.48154 270.97229 273.50476 275.80356 277.74255 279.36987 280.80643
 282.17014 283.48557 284.75009 285.94598 287.01074 287.95865 288.84238 289.63174
 290.32971 290.95404 291.29553 291.85965
 366.78100 356.35692 345.81083 334.69875 323.12367 311.33958 299.23150 287.05642
 274.79033 262.70925 250.74017 240.06309 230.20700 221.33292 213.53684 206.56075
 200.41667 195.37659 191.98050 190.04442 189.10334 189.18925 190.04617 191.37609
 193.12300 195.23992 197.52484 199.90576 202.37267 204.87459 206.98451 208.84842
 210.49634 211.66326 211.91417 212.16409 212.12301 211.84992 211.50484 211.15676
 210.79567 210.52759 210.35751 210.24342 210.19334 210.54626 210.95418 211.36509
 212.18001 213.37993 214.65184 216.45676 218.40668 220.47159 222.58851 224.69343
 226.77534 228.88126 231.00018 233.12809 235.27901 237.47293 239.75085 242.14276
 244.78568 247.05860 249.08251 250.86943 252.30835 253.45326 254.29718 254.63510
 254.69401 254.48993 253.87185 252.84176 251.46968 249.65260 247.58352 245.43843
 243.25135 241.07727 238.91918 236.78010 234.66202 232.55093 230.59885 228.77777
 227.08268 225.57660 224.22852 223.02243 221.92635 220.90827 220.03418 219.19710
 218.46102 217.66294 216.78285 216.16877 215.64069 214.71803 212.52669 210.87160
 210.75040 211.57811 213.05663 215.03479 217.91837 222.07495 227.57155 232.36449
 236.22528 240.50052 244.91232 249.24281 253.26546 256.85339 260.04324 263.00876
 265.82990 268.44760 270.96420 273.41965 275.68500 277.64584 279.31735 280.76730
 282.06641 283.30389 284.47571 285.62027 286.77200 287.83795 288.91086 289.94202
 290.86942 291.69525 292.41672 293.33612
 366.78100 356.35990 345.81681 334.70771 323.13562 311.35452 299.24943 287.07733
 274.81424 262.73614 250.77005 240.09595 230.24286 221.37176 213.57867 206.60557
 200.46448 195.42738 192.03429 190.10119 189.16310 189.25200 190.11191 191.44481
 193.19472 195.31462 197.60253 199.98643 202.45634 204.96124 207.07415 208.94105
 210.59195 211.76186 212.01576 212.26867 212.23057 211.96048 211.61838 211.27329
 210.91519 210.65010 210.48300 210.37191 210.32481 210.68072 211.09162 211.50553
 212.32343 213.52634 214.80124 216.60915 218.56205 220.62996 222.74986 224.85777
 226.94267 229.05158 231.17348 233.30439 235.45829 237.65520 239.93610 242.33100
 244.97691 247.25281 249.27972 251.06962 252.51153 253.65943 254.50634 254.84724
 254.90915 254.70805 254.09296 253.06586 251.69677 249.88267 247.81658 245.67448
 243.49039 241.31929 239.16420 237.02810 234.91301 232.80491 230.85582 229.03772
 227.34563 225.84253 224.49744 223.29434 222.20124 221.18615 220.31505 219.48096
 218.74786 217.95277 217.07567 216.46458 215.93948 214.92526 212.49326 210.84465
 210.91753 211.85059 213.30841 215.17764 217.96844 222.08914 227.59549 232.30841
 236.17863 240.45293 244.86874 249.19759 253.21565 256.80460 260.02167 263.03281
 265.89462 268.57315 271.09531 273.54105 275.79169 277.76788 279.43042 280.82156
 282.00513 283.23587 284.87344 286.67902 288.25354 289.64658 290.91751 292.06888
 293.10443 294.02658 294.83215 295.85876
 366.78100 356.35928 345.81556 334.70585 323.13313 311.35141 299.24569 287.07298
 274.80926 262.73054 250.76382 240.08911 230.23539 221.36367 213.56995 206.59623
 200.45452 195.41680 192.02308 190.08936 189.15065 189.23893 190.09821 191.43049
 193.17977 195.29906 197.58634 199.96962 202.43890 204.94319 207.05547 208.92175
 210.57203 211.74132 211.99460 212.24688 212.20816 211.93744 211.59473 211.24901
 210.89029 210.62457 210.45686 210.34514 210.29742 210.65270 211.06298 211.47627
 212.29355 213.49583 214.77011 216.57740 218.52968 220.59696 222.71624 224.82353
 226.90781 229.01609 231.13737 233.26765 235.42094 237.61722 239.89750 242.29178
 244.93707 247.21235 249.23863 251.02791 252.46919 253.61648 254.46276 254.80304
 254.86432 254.66261 254.04689 253.01917 251.64945 249.83474 247.76802 245.62530
 243.44058 241.26886 239.11315 236.97643 234.86071 232.75199 230.80228 228.98356
 227.29084 225.78712 224.44141 223.23769 222.14397 221.12825 220.25653 219.42182
 218.68810 217.89238 217.01466 216.40295 215.87723 214.88878 212.52792 210.78259
 210.74065 211.74712 213.39072 215.33070 218.06471 222.12842 227.52924 232.28058
 236.14345 240.42294 244.85223 249.18019 253.15482 256.66827 259.82751 262.83929
 265.74393 268.47562 271.10730 273.66513 276.01175 278.06586 279.79282 281.23318
 282.49030 283.72772 285.09131 286.46896 287.79047 289.10608 290.30640 291.39380
 292.37177 293.24268 294.00348 294.97305
 366.78100 356.35678 345.81055 334.69833 323.12310 311.33888 299.23066 287.05543
 274.78921 262.70798 250.73876 240.06154 230.20531 221.33109 213.53486 206.55864
 200.41442 195.37419 191.97797 190.04174 189.10052 189.18630 190.04307 191.37285
 193.11962 195.23640 197.52118 199.90195 202.36873 204.87050 206.98028 208.84406
 210.49183 211.65861 211.90938 212.15916 212.11794 211.84471 211.49949 211.15126
 210.79004 210.52182 210.35159 210.23737 210.18714 210.53992 210.94770 211.35847
 212.17325 213.37303 214.64480 216.44958 218.39935 220.46413 222.58091 224.68568
 226.76746 228.87323 230.99201 233.11979 235.27056 237.46434 239.74211 242.13389
 244.77667 247.04944 249.07322 250.85999 252.29877 253.44355 254.28732 254.62510
 254.68387 254.47965 253.86143 252.83120 251.45898 249.64175 247.57253 245.42731
 243.24008 241.06586 238.90763 236.76841 234.65019 232.53896 230.58674 228.76551
 227.07029 225.56407 224.21584 223.00962 221.91339 220.89517 220.02095 219.18372
 218.44750 217.64927 216.76905 216.15483 215.62660 214.70511 212.52800 211.01727
 210.74377 211.39519 213.19476 215.36383 218.10374 222.06804 227.56433 232.22266
 236.12497 240.37820 244.78581 249.08977 253.04924 256.55301 259.69516 262.66074
 265.53790 268.27863 270.87646 273.37604 275.71487 277.81894 279.68634 281.30838
 282.69427 283.89169 284.98422 286.03729 287.04901 288.00125 288.89865 289.71844
 290.46097 291.10980 291.66406 292.37039
 366.78100 356.35672 345.81044 334.69817 323.12289 311.33861 299.23033 287.05505
 274.78878 262.70750 250.73822 240.06094 230.20466 221.33039 213.53411 206.55783
 200.41355 195.37327 191.97700 190.04072 189.09944 189.18516 190.04188 191.37161
 193.11833 195.23505 197.51977 199.90049 202.36722 204.86894 206.97866 208.84238
 210.49010 211.65683 211.90755 212.15727 212.11599 211.84271 211.49744 211.14916
 210.78788 210.51960 210.34932 210.23505 210.18477 210.53749 210.94521 211.35593
 212.17066 213.37038 214.64210 216.44682 218.39654 220.46127 222.57799 224.68271
 226.76443 228.87015 230.98888 233.11660 235.26732 237.46104 239.73876 242.13049
 244.77321 247.04593 249.06965 250.85637 252.29510 253.43982 254.28354 254.62126
 254.67998 254.47571 253.85743 252.82715 251.45487 249.63759 247.56832 245.42304
 243.23576 241.06148 238.90320 236.76393 234.64565 232.53437 230.58209 228.76081
 227.06554 225.55926 224.21098 223.00470 221.90842 220.89015 220.01587 219.17859
 218.44231 217.64403 216.76376 216.14948 215.62120 214.69220 212.49731 211.07141
 210.86668 211.38963 213.05232 215.29132 218.09059 222.06569 227.55553 232.17267
 236.07607 240.34717 244.77324 249.10127 253.06549 256.53445 259.63107 262.58359
 265.49225 268.23465 270.79565 273.29202 275.63431 277.72754 279.56854 281.16864
 282.54382 283.72238 284.76175 285.72949 286.67719 287.59134 288.41989 289.24408
 290.01105 290.69852 291.29712 292.02829
 366.78100 356.35621 345.80941 334.69662 323.12083 311.33603 299.22724 287.05145
 274.78465 262.70286 250.73307 240.05527 230.19848 221.32369 213.52689 206.55010
 200.40531 195.36451 191.96772 190.03093 189.08913 189.17434 190.03055 191.35975
 193.10596 195.22217 197.50637 199.88658 202.35279 204.85399 206.96320 208.82641
 210.47361 211.63982 211.89003 212.13924 212.09744 211.82365 211.47786 211.12906
 210.76727 210.49848 210.32768 210.21289 210.16210 210.51430 210.92151 211.33172
 212.14592 213.34513 214.61634 216.42054 218.36975 220.43396 222.55016 224.65437
 226.73558 228.84078 230.95899 233.08620 235.23640 237.42961 239.70682 242.09802
 244.74023 247.01244 249.03564 250.82185 252.26006 253.40426 254.24747 254.58468
 254.64288 254.43809 253.81930 252.78850 251.41571 249.59792 247.52812 245.38233
 243.19454 241.01974 238.86095 236.72116 234.60236 232.49057 230.53778 228.71598
 227.02019 225.51340 224.16460 222.95781 221.86102 220.84222 219.96743 219.12964
 218.39284 217.59405 216.71326 216.09846 215.56967 214.67398 212.55780 210.98419
 210.86534 211.42101 213.03659 215.30827 218.13657 222.11407 227.57539 232.17783
 236.06548 240.34282 244.78397 249.13469 253.10818 256.55429 259.61975 262.56485
 265.49316 268.23318 270.77698 273.28091 275.62784 277.71597 279.53345 281.10275
 282.45718 283.62244 284.61942 285.53943 286.46323 287.33298 288.20007 289.05569
 289.83780 290.53922 291.15125 291.91049
 366.78100 356.35419 345.80538 334.69057 323.11276 311.32595 299.21514 287.03733
 274.76852 262.68471 250.71290 240.03309 230.17428 221.29747 213.49866 206.51985
 200.37304 195.33023 191.93142 189.99262 189.04881 189.13200 189.98619 191.31338
 193.05757 195.17176 197.45395 199.83214 202.29633 204.79552 206.90271 208.76390
 210.40909 211.57328 211.82147 212.06866 212.02485 211.74904 211.40123 211.05042
 210.68661 210.41580 210.24299 210.12618 210.07337 210.42356 210.82875 211.23694
 212.04913 213.24632 214.51551 216.31770 218.26489 220.32708 222.44127 224.54346
 226.62265 228.72585 230.84204 232.96723 235.11542 237.30661 239.58180 241.97099
 244.61118 246.88137 248.90256 250.68675 252.12294 253.26513 254.10632 254.44151
 254.49770 254.29089 253.67008 252.63727 251.26246 249.44265 247.37084 245.22303
 243.03322 240.85641 238.69560 236.55379 234.43298 232.31917 230.36436 228.54055
 226.84274 225.33393 223.98312 222.77431 221.67550 220.65469 219.77789 218.93808
 218.19927 217.39846 216.51565 215.89884 215.36803 214.57169 212.69028 210.99316
 210.82915 211.37549 213.01450 215.31683 218.13258 222.12247 227.57684 232.15823
 236.02956 240.30309 244.75412 249.11674 253.08914 256.51337 259.55936 262.50839
 265.44882 268.17905 270.70554 273.21008 275.56674 277.66846 279.49115 281.05527
 282.39532 283.53967 284.49020 285.37122 286.28232 287.14438 288.07077 288.93378
 289.71802 290.41849 291.03064 291.80115
 366.78100 356.35372 345.80444 334.68917 323.11089 311.32361 299.21233 287.03406
 274.76478 262.68050 250.70822 240.02795 230.16867 221.29139 213.49211 206.51284
 200.36556 195.32228 191.92300 189.98373 189.03945 189.12217 189.97589 191.30262
 193.04634 195.16006 197.44178 199.81951 202.28323 204.78195 206.88867 208.74940
 210.39412 211.55784 211.80556 212.05229 212.00801 211.73173 211.38345 211.03217
 210.66790 210.39662 210.22334 210.10606 210.05279 210.40251 210.80723 211.21495
 212.02668 213.22340 214.49212 216.29384 218.24057 220.30229 222.41601 224.51773
 226.59646 228.69918 230.81490 232.93962 235.08735 237.27807 239.55279 241.94151
 244.58124 246.85096 248.87168 250.65540 252.09113 253.23285 254.07357 254.40829
 254.46402 254.25674 253.63546 252.60218 251.22690 249.40663 247.33435 245.18607
 242.99579 240.81852 238.65724 236.51496 234.39368 232.27941 230.32413 228.49985
 226.80157 225.29230 223.94102 222.73174 221.63246 220.61119 219.73391 218.89363
 218.15435 217.35308 216.46980 215.85252 215.32124 214.54224 212.70175 211.14275
 210.78740 211.29593 212.98677 215.30785 218.11601 222.13596 227.58568 232.15213
 235.99837 240.26686 244.72125 249.08461 253.04292 256.44275 259.48120 262.44852
 265.41400 268.15256 270.66751 273.15567 275.50720 277.62302 279.46484 281.03806
 282.36005 283.46890 284.36423 285.20197 286.11292 286.99905 287.93198 288.78891
 289.56070 290.25067 290.85580 291.63654
 366.78100 356.35402 345.80505 334.69007 323.11209 311.32511 299.21414 287.03616
 274.76718 262.68321 250.71123 240.03125 230.17227 221.29530 213.49632 206.51734
 200.37037 195.32739 191.92841 189.98943 189.04546 189.12848 189.98250 191.30953
 193.05355 195.16757 197.44959 199.82762 202.29164 204.79066 206.89769 208.75871
 210.40373 211.56775 211.81578 212.06280 212.01882 211.74285 211.39487 211.04389
 210.67992 210.40894 210.23596 210.11898 210.06601 210.41603 210.82105 211.22908
 212.04110 213.23812 214.50714 216.30917 218.25619 220.31821 222.43224 224.53426
 226.61328 228.71630 230.83233 232.95735 235.10537 237.29640 239.57142 241.96044
 244.60046 246.87049 248.89151 250.67553 252.11156 253.25358 254.09460 254.42962
 254.48565 254.27867 253.65769 252.62472 251.24974 249.42976 247.35778 245.20981
 243.01983 240.84285 238.68188 236.53990 234.41892 232.30494 230.34997 228.52599
 226.82801 225.31904 223.96806 222.75908 221.66010 220.63913 219.76215 218.92217
 218.18320 217.38222 216.49924 215.88226 215.35129 214.55458 212.67226 211.29198
 210.77248 211.24219 212.94928 215.25110 218.09283 222.14964 227.59761 232.14940
 235.98640 240.25378 244.71400 249.07893 253.02080 256.38580 259.40582 262.38467
 265.37048 268.12317 270.64243 273.11597 275.45129 277.56549 279.42001 280.99747
 282.29678 283.36993 284.21893 285.03278 285.95230 286.87405 287.79788 288.65088
 289.42233 290.11127 290.71460 291.49359
 366.78100 356.35276 345.80251 334.68627 323.10703 311.31878 299.20654 287.02730
 274.75705 262.67181 250.69857 240.01732 230.15708 221.27884 213.47859 206.49835
 200.35011 195.30586 191.90562 189.96538 189.02013 189.10189 189.95465 191.28040
 193.02316 195.13592 197.41667 199.79343 202.25619 204.75394 206.85970 208.71946
 210.36321 211.52597 211.77273 212.01848 211.97324 211.69600 211.34675 210.99451
 210.62927 210.35702 210.18278 210.06454 210.01029 210.35905 210.76281 211.16957
 211.98032 213.17608 214.44384 216.24459 218.19035 220.25111 222.36386 224.46462
 226.54238 228.64413 230.75889 232.88265 235.02940 237.21916 239.49292 241.88067
 244.51943 246.78819 248.80794 250.59070 252.02546 253.16621 254.00597 254.33973
 254.39448 254.18624 253.56400 252.52975 251.15351 249.33227 247.25902 245.10978
 242.91854 240.74029 238.57805 236.43481 234.31256 232.19732 230.24108 228.41583
 226.71659 225.20635 223.85410 222.64386 221.54362 220.52137 219.64313 218.80189
 218.06164 217.25940 216.37516 215.75691 215.22467 214.49008 212.75450 211.31787
 210.80182 211.24738 212.92244 215.17235 218.05658 222.13454 227.58560 232.11731
 235.97385 240.24464 244.71846 249.09384 253.02995 256.36630 259.35919 262.33136
 265.31400 268.06506 270.58691 273.05823 275.38245 277.48944 279.35104 280.92911
 282.21136 283.25500 284.06683 284.86578 285.81125 286.76453 287.68268 288.53592
 289.30652 289.99677 290.59695 291.37317
 366.78100 356.35046 345.79792 334.67938 323.09784 311.30730 299.19276 287.01122
 274.73868 262.65114 250.67560 239.99206 230.12952 221.24898 213.44644 206.46390
 200.31336 195.26682 191.86428 189.92174 188.97420 189.05366 189.90412 191.22758
 192.96804 195.07850 197.35696 199.73142 202.19188 204.68734 206.79080 208.64826
 210.28972 211.45018 211.69464 211.93810 211.89056 211.61102 211.25948 210.90494
 210.53740 210.26286 210.08632 209.96578 209.90924 210.25570 210.65716 211.06162
 211.87008 213.06354 214.32900 216.12746 218.07092 220.12938 222.23984 224.33830
 226.41376 228.51322 230.62568 232.74714 234.89160 237.07906 239.35052 241.73598
 244.37244 246.63890 248.65636 250.43682 251.86928 253.00774 253.84520 254.17666
 254.22912 254.01858 253.39404 252.35750 250.97896 249.15542 247.07988 244.92834
 242.73480 240.55426 238.38972 236.24418 234.11964 232.00210 230.04356 228.21602
 226.51448 225.00194 223.64740 222.43486 221.33232 220.30778 219.42724 218.58370
 217.84116 217.03662 216.15008 215.52954 214.99500 214.37253 212.90189 211.30128
 210.83029 211.26688 212.90935 215.11743 218.01163 222.10497 227.55879 232.07068
 235.95287 240.22342 244.71216 249.10138 253.04111 256.36337 259.33804 262.30048
 265.26788 268.00275 270.51675 272.98160 275.29764 277.39114 279.25143 280.82782
 282.10199 283.13855 283.94339 284.74911 285.70129 286.65018 287.55841 288.40988
 289.18307 289.87460 290.47678 291.26373
 366.78100 356.34897 345.79493 334.67490 323.09187 311.29983 299.18380 287.00076
 274.72673 262.63770 250.66066 239.97563 230.11160 221.22956 213.42553 206.44150
 200.28946 195.24143 191.83740 189.89336 188.94433 189.02229 189.87126 191.19323
 192.93219 195.04116 197.31813 199.69109 202.15006 204.64403 206.74599 208.60196
 210.24193 211.40089 211.64386 211.88582 211.83679 211.55576 211.20272 210.84669
 210.47766 210.20162 210.02359 209.90156 209.84352 210.18849 210.58846 210.99142
 211.79839 212.99035 214.25432 216.05129 217.99325 220.05022 222.15919 224.25615
 226.33012 228.42809 230.53905 232.65902 234.80199 236.98795 239.25792 241.64188
 244.27685 246.54182 248.55778 250.33675 251.76772 252.90468 253.74065 254.07062
 254.12158 253.90955 253.28352 252.24548 250.86545 249.04041 246.96338 244.81035
 242.61531 240.43328 238.26725 236.12021 233.99418 231.87515 229.91511 228.08608
 226.38305 224.86901 223.51298 222.29894 221.19491 220.16888 219.28684 218.44181
 217.69778 216.89174 216.00371 215.38168 214.84564 214.29350 212.98900 211.36659
 210.84029 211.24040 212.86369 215.08658 217.97803 222.08926 227.54204 232.04868
 235.93562 240.20331 244.70125 249.09915 253.04150 256.35782 259.32715 262.29132
 265.24814 267.96677 270.45917 272.90237 275.19565 277.26175 279.10013 280.65952
 281.92847 282.96167 283.78442 284.62665 285.61749 286.58368 287.50250 288.35629
 289.13116 289.82117 290.43253 291.23206
 366.78100 356.34889 345.79479 334.67468 323.09158 311.29947 299.18337 287.00026
 274.72616 262.63705 250.65995 239.97484 230.11074 221.22863 213.42453 206.44042
 200.28832 195.24021 191.83610 189.89200 188.94289 189.02079 189.86968 191.19158
 192.93047 195.03937 197.31626 199.68916 202.14805 204.64195 206.74384 208.59974
 210.23963 211.39853 211.64142 211.88331 211.83421 211.55310 211.20000 210.84389
 210.47479 210.19868 210.02058 209.89847 209.84037 210.18526 210.58516 210.98805
 211.79495 212.98684 214.25074 216.04763 217.98952 220.04642 222.15531 224.25221
 226.32610 228.42400 230.53489 232.65479 234.79768 236.98358 239.25347 241.63737
 244.27226 246.53716 248.55305 250.33195 251.76284 252.89973 253.73563 254.06552
 254.11642 253.90431 253.27821 252.24010 250.86000 249.03489 246.95779 244.80468
 242.60958 240.42747 238.26137 236.11426 233.98816 231.86905 229.90894 228.07984
 226.37673 224.86263 223.50652 222.29242 221.18831 220.16221 219.28010 218.43500
 217.69089 216.88479 215.99668 215.37458 214.83847 214.28557 212.97928 211.51376
 210.88278 211.17912 212.76711 215.03215 217.93779 222.08589 227.53804 232.05475
 235.92787 240.19475 244.69736 249.09917 253.03711 256.34430 259.31622 262.29471
 265.25299 267.96542 270.43686 272.84100 275.09100 277.10501 278.89899 280.42163
 281.66724 282.68552 283.54794 284.46976 285.48776 286.50613 287.45126 288.31464
 289.10355 289.81067 290.42572 291.22501
 366.78100 356.34896 345.79493 334.67489 323.09186 311.29982 299.18378 287.00075
 274.72671 262.63767 250.66064 239.97560 230.11157 221.22953 213.42549 206.44146
 200.28942 195.24139 191.83735 189.89331 188.94428 189.02224 189.87120 191.19317
 192.93213 195.04110 197.31806 199.69102 202.14999 204.64395 206.74591 208.60188
 210.24184 211.40081 211.64377 211.88573 211.83670 211.55566 211.20263 210.84659
 210.47755 210.20152 210.02348 209.90144 209.84341 210.18837 210.58834 210.99130
 211.79826 212.99023 214.25419 216.05116 217.99312 220.05008 222.15905 224.25601
 226.32997 228.42794 230.53890 232.65887 234.80183 236.98779 239.25776 241.64172
 244.27668 246.54165 248.55761 250.33658 251.76754 252.90450 253.74047 254.07043
 254.12140 253.90936 253.28332 252.24529 250.86525 249.04021 246.96318 244.81014
 242.61511 240.43307 238.26703 236.12000 233.99396 231.87493 229.91489 228.08585
 226.38282 224.86878 223.51274 222.29871 221.19467 220.16864 219.28660 218.44156
 217.69753 216.89149 216.00346 215.38142 214.84538 214.29201 212.98460 211.60985
 210.97137 211.17743 212.62915 214.93362 217.91267 222.08173 227.50468 232.08447
 235.90712 240.18752 244.68398 249.07594 252.99704 256.31177 259.31033 262.31125
 265.26917 267.99579 270.47391 272.83545 275.02933 276.98389 278.70850 280.17255
 281.36581 282.34363 283.24429 284.31134 285.47354 286.51968 287.48169 288.36484
 289.17352 289.91083 290.62128 291.52811
 366.78100 356.34818 345.79336 334.67255 323.08873 311.29591 299.17909 286.99527
 274.72046 262.63064 250.65282 239.96700 230.10218 221.21937 213.41455 206.42973
 200.27691 195.22809 191.82328 189.87846 188.92864 189.00582 189.85400 191.17519
 192.91337 195.02155 197.29773 199.66991 202.12810 204.62128 206.72246 208.57764
 210.21682 211.37500 211.61719 211.85837 211.80855 211.52673 211.17291 210.81610
 210.44628 210.16946 209.99064 209.86782 209.80901 210.15319 210.55237 210.95455
 211.76073 212.95192 214.21510 216.01128 217.95246 220.00864 222.11683 224.21301
 226.28619 228.38337 230.49355 232.61274 234.75492 236.94010 239.20928 241.59246
 244.22665 246.49083 248.50601 250.28419 251.71437 252.85056 253.68574 254.01492
 254.06510 253.85228 253.22547 252.18665 250.80583 248.98001 246.90219 244.74838
 242.55256 240.36974 238.20292 236.05510 233.92829 231.80847 229.84765 228.01783
 226.31401 224.79920 223.44238 222.22756 221.12274 220.09592 219.21310 218.36729
 217.62247 216.81565 215.92683 215.30401 214.76720 214.26466 213.06488 211.64622
 211.03079 211.23242 212.51595 214.80193 217.88724 222.06779 227.45056 232.10568
 235.89461 240.18806 244.67696 249.04501 252.94011 256.27356 259.31808 262.34183
 265.29260 268.02533 270.53204 272.87860 275.02869 276.93939 278.61398 280.03424
 281.19757 282.15533 283.10162 284.22336 285.38904 286.44913 287.42850 288.34366
 289.27615 290.11923 290.85574 291.79434
 366.78100 356.34748 345.79196 334.67044 323.08592 311.29240 299.17488 286.99036
 274.71484 262.62432 250.64580 239.95928 230.09376 221.21024 213.40472 206.41920
 200.26568 195.21616 191.81064 189.86512 188.91460 188.99107 189.83855 191.15903
 192.89651 195.00399 197.27947 199.65095 202.10843 204.60091 206.70139 208.55587
 210.19435 211.35183 211.59331 211.83379 211.78327 211.50075 211.14623 210.78871
 210.41819 210.14067 209.96115 209.83763 209.77811 210.12159 210.52007 210.92155
 211.72703 212.91751 214.17999 215.97547 217.91595 219.97143 222.07891 224.17439
 226.24687 228.34335 230.45283 232.57131 234.71279 236.89727 239.16574 241.54822
 244.18170 246.44518 248.45966 250.23714 251.66662 252.80210 253.63658 253.96506
 254.01454 253.80102 253.17350 252.13398 250.75246 248.92594 246.84742 244.69290
 242.49638 240.31286 238.14534 235.99682 233.86930 231.74878 229.78726 227.95674
 226.25222 224.73670 223.37918 222.16366 221.05814 220.03062 219.14710 218.30058
 217.55506 216.74754 215.85802 215.23450 214.69698 214.24065 213.12929 211.75099
 210.97543 211.11581 212.41753 214.71538 217.86806 222.05916 227.43602 232.11646
 235.90714 240.19931 244.68611 249.03566 252.90027 256.21854 259.28555 262.32977
 265.28732 268.01587 270.53195 272.88220 275.02002 276.91177 278.57834 280.00046
 281.17224 282.17963 283.17572 284.28412 285.47739 286.58414 287.70560 288.75638
 289.70148 290.54306 291.27826 292.21518
 366.78100 356.34840 345.79381 334.67321 323.08962 311.29702 299.18042 286.99683
 274.72223 262.63264 250.65504 239.96945 230.10485 221.22225 213.41766 206.43306
 200.28047 195.23187 191.82727 189.88268 188.93308 189.01049 189.85889 191.18030
 192.91870 195.02710 197.30351 199.67591 202.13432 204.62772 206.72912 208.58453
 210.22393 211.38234 211.62474 211.86614 211.81655 211.53495 211.18136 210.82476
 210.45517 210.17857 209.99997 209.87738 209.81878 210.16319 210.56259 210.96499
 211.77140 212.96280 214.22621 216.02261 217.96401 220.02042 222.12882 224.22523
 226.29863 228.39604 230.50644 232.62584 234.76825 236.95365 239.22306 241.60646
 244.24086 246.50527 248.52067 250.29908 251.72948 252.86589 253.70129 254.03069
 254.08110 253.86850 253.24191 252.20331 250.82271 248.99712 246.91952 244.76593
 242.57033 240.38773 238.22114 236.07354 233.94695 231.82735 229.86676 228.03716
 226.33356 224.81897 223.46237 222.24778 221.14318 220.11658 219.23399 218.38839
 217.64380 216.83720 215.94861 215.32601 214.78941 214.29698 213.09683 211.82895
 211.19586 211.14198 212.32822 214.67540 217.88298 222.06982 227.45114 232.12895
 235.93581 240.22400 244.71297 249.05887 252.91072 256.19952 259.25293 262.30206
 265.26428 267.97491 270.47162 272.80093 274.90851 276.77036 278.41943 279.81747
 280.95990 281.99039 283.20108 284.57819 285.83759 287.06995 288.21808 289.25821
 290.19370 291.02673 291.75449 292.68192
 366.78100 356.34765 345.79230 334.67095 323.08661 311.29326 299.17591 286.99156
 274.71621 262.62586 250.64751 239.96117 230.09582 221.21247 213.40712 206.42177
 200.26842 195.21907 191.81373 189.86838 188.91803 188.99468 189.84233 191.16298
 192.90063 195.00829 197.28394 199.65559 202.11324 204.60589 206.70654 208.56119
 210.19985 211.35750 211.59915 211.83980 211.78945 211.50710 211.15275 210.79541
 210.42506 210.14771 209.96836 209.84501 209.78566 210.12931 210.52797 210.92962
 211.73527 212.92592 214.18857 215.98422 217.92487 219.98053 222.08818 224.18383
 226.25648 228.35313 230.46278 232.58143 234.72309 236.90774 239.17639 241.55904
 244.19269 246.45634 248.47099 250.24865 251.67830 252.81395 253.64860 253.97725
 254.02690 253.81355 253.18620 252.14686 250.76551 248.93916 246.86081 244.70646
 242.51011 240.32676 238.15942 236.01107 233.88372 231.76337 229.80202 227.97167
 226.26732 224.75198 223.39463 222.17928 221.07393 220.04658 219.16323 218.31688
 217.57154 216.76419 215.87484 215.25149 214.71414 214.25302 213.13882 211.89732
 211.17949 210.96339 212.14865 214.61159 217.86555 222.06873 227.44891 232.15044
 235.96327 240.25690 244.74091 249.08382 252.93057 256.22217 259.27194 262.31470
 265.24866 267.94370 270.41479 272.69626 274.72040 276.49655 278.08444 279.48318
 280.71579 281.90045 283.16409 284.49918 285.70074 286.79700 287.88040 288.89755
 289.81238 290.62701 291.33865 292.24557
 366.78100 356.34725 345.79151 334.66976 323.08501 311.29126 299.17352 286.98877
 274.71302 262.62227 250.64353 239.95678 230.09103 221.20729 213.40154 206.41579
 200.26204 195.21230 191.80655 189.86080 188.91005 188.98631 189.83356 191.15381
 192.89106 194.99832 197.27357 199.64482 202.10208 204.59433 206.69458 208.54883
 210.18709 211.34434 211.58559 211.82584 211.77510 211.49235 211.13760 210.77986
 210.40911 210.13136 209.95161 209.82787 209.76812 210.11137 210.50962 210.91088
 211.71613 212.90638 214.16864 215.96389 217.90414 219.95939 222.06665 224.16190
 226.23415 228.33040 230.43966 232.55791 234.69916 236.88342 239.15167 241.53392
 244.16717 246.43043 248.44468 250.22193 251.65118 252.78644 253.62069 253.94894
 253.99819 253.78445 253.15670 252.11695 250.73521 248.90846 246.82971 244.67496
 242.47822 240.29447 238.12672 235.97797 233.85023 231.72948 229.76773 227.93699
 226.23224 224.71649 223.35874 222.14300 221.03725 220.00950 219.12575 218.27901
 217.53326 216.72551 215.83577 215.21202 214.67427 214.21489 213.12579 212.07625
 211.43019 211.00284 211.99516 214.45961 217.74159 221.97820 227.40176 232.08269
 235.93889 240.23560 244.71147 249.05302 252.90146 256.20908 259.26099 262.31851
 265.25903 267.96161 270.42407 272.65845 274.62494 276.35120 277.90100 279.28119
 280.50073 281.63898 282.80005 284.06778 285.24789 286.30255 287.28094 288.18582
 289.04932 289.85776 290.56400 291.46402
 366.78100 356.34578 345.78855 334.66533 323.07910 311.28388 299.16465 286.97843
 274.70121 262.60898 250.62876 239.94053 230.07331 221.18809 213.38086 206.39364
 200.23841 195.18719 191.77996 189.83274 188.88052 188.95529 189.80107 191.11984
 192.85562 194.96140 197.23517 199.60495 202.06072 204.55150 206.65027 208.50305
 210.13983 211.29560 211.53538 211.77415 211.72193 211.43770 211.08148 210.72226
 210.35003 210.07081 209.88958 209.76436 209.70314 210.04491 210.44169 210.84146
 211.64524 212.83401 214.09479 215.88857 217.82734 219.88112 221.98689 224.08067
 226.15145 228.24622 230.35400 232.47077 234.61055 236.79332 239.06010 241.44088
 244.07265 246.33443 248.34720 250.12298 251.55075 252.68453 253.51731 253.84408
 253.89186 253.67663 253.04741 252.00619 250.62296 248.79474 246.71451 244.55829
 242.36006 240.17484 238.00562 235.85539 233.72617 231.60394 229.64072 227.80850
 226.10227 224.58505 223.22582 222.00860 220.90137 219.87215 218.98693 218.13870
 217.39148 216.58225 215.69103 215.06581 214.52658 214.15337 213.24977 212.04874
 211.47633 211.05243 211.94205 214.34995 217.66333 221.92880 227.34792 232.07761
 235.91261 240.21904 244.69551 249.01912 252.84727 256.14905 259.23257 262.30762
 265.25528 267.96310 270.43430 272.66132 274.58032 276.22714 277.70984 279.06104
 280.29849 281.45023 282.61374 283.88458 285.07541 286.15308 287.16766 288.17798
 289.09940 289.91992 290.63672 291.55017
 366.78100 356.34583 345.78866 334.66549 323.07932 311.28415 299.16498 286.97881
 274.70164 262.60947 250.62930 239.94113 230.07396 221.18879 213.38162 206.39445
 200.23928 195.18811 191.78094 189.83377 188.88160 188.95643 189.80226 191.12109
 192.85692 194.96275 197.23658 199.60641 202.06224 204.55307 206.65190 208.50473
 210.14156 211.29739 211.53722 211.77605 211.72388 211.43971 211.08354 210.72437
 210.35220 210.07303 209.89186 209.76669 209.70552 210.04735 210.44418 210.84401
 211.64784 212.83667 214.09750 215.89133 217.83016 219.88399 221.98982 224.08365
 226.15448 228.24931 230.35714 232.47397 234.61380 236.79663 239.06346 241.44429
 244.07612 246.33795 248.35078 250.12661 251.55444 252.68827 253.52110 253.84793
 253.89576 253.68059 253.05142 252.01025 250.62708 248.79891 246.71874 244.56257
 242.36440 240.17923 238.01006 235.85989 233.73072 231.60855 229.64538 227.81321
 226.10704 224.58987 223.23070 222.01353 220.90636 219.87719 218.99202 218.14385
 217.39668 216.58751 215.69634 215.07117 214.53200 214.18550 213.29842 212.07385
 211.49213 211.10823 212.06097 214.42119 217.72916 221.97487 227.39182 232.09970
 235.95291 240.25134 244.73647 249.04768 252.85873 256.14520 259.26660 262.36859
 265.30084 267.99246 270.45203 272.63681 274.48212 276.06622 277.49445 278.82889
 280.08905 281.23022 282.64944 284.05823 285.44089 286.71747 287.88214 288.93726
 289.88620 290.73126 291.46948 292.41028
 366.78100 356.34756 345.79212 334.67068 323.08624 311.29280 299.17536 286.99092
 274.71548 262.62504 250.64660 239.96016 230.09472 221.21128 213.40584 206.42040
 200.26696 195.21752 191.81208 189.86664 188.91620 188.99276 189.84032 191.16088
 192.89844 195.00600 197.28156 199.65312 202.11068 204.60324 206.70380 208.55836
 210.19692 211.35448 211.59604 211.83660 211.78616 211.50372 211.14927 210.79183
 210.42139 210.14395 209.96451 209.84107 209.78163 210.12519 210.52375 210.92531
 211.73087 212.92143 214.18399 215.97955 217.92011 219.97567 222.08323 224.17879
 226.25135 228.34791 230.45747 232.57603 234.71759 236.90215 239.17071 241.55327
 244.18683 246.45039 248.46495 250.24251 251.67207 252.80763 253.64219 253.97075
 254.02031 253.80687 253.17943 252.13999 250.75855 248.93211 246.85367 244.69923
 242.50279 240.31935 238.15191 236.00347 233.87603 231.75559 229.79415 227.96371
 226.25927 224.74383 223.38639 222.17095 221.06551 220.03807 219.15463 218.30819
 217.56275 216.75531 215.86587 215.24243 214.70499 214.28743 213.24486 212.11169
 211.58025 211.15892 212.06807 214.36848 217.66840 221.93695 227.38023 232.08798
 235.95560 240.25316 244.75107 249.07846 252.87772 256.13544 259.26297 262.39935
 265.34796 268.03546 270.48724 272.66968 274.46045 275.92206 277.23041 278.39273
 279.69595 281.22702 282.78055 284.20862 285.61749 286.86398 288.00119 289.03143
 289.95804 290.78317 291.50400 292.42261
 366.78100 356.34740 345.79180 334.67020 323.08560 311.29201 299.17441 286.98981
 274.71421 262.62361 250.64501 239.95841 230.09281 221.20921 213.40361 206.41802
 200.26442 195.21482 191.80922 189.86362 188.91302 188.98942 189.83682 191.15722
 192.89462 195.00203 197.27743 199.64883 202.10623 204.59863 206.69903 208.55343
 210.19183 211.34923 211.59063 211.83104 211.78044 211.49784 211.14324 210.78564
 210.41504 210.13744 209.95784 209.83424 209.77464 210.11805 210.51645 210.91785
 211.72325 212.91365 214.17605 215.97145 217.91185 219.96725 222.07466 224.17006
 226.24246 228.33886 230.44826 232.56666 234.70806 236.89246 239.16086 241.54326
 244.17667 246.44007 248.45447 250.23187 251.66127 252.79667 253.63107 253.95947
 254.00887 253.79527 253.16768 252.12808 250.74648 248.91988 246.84128 244.68668
 242.49008 240.30648 238.13888 235.99028 233.86269 231.74209 229.78049 227.94989
 226.24529 224.72969 223.37209 222.15649 221.05089 220.02330 219.13970 218.29310
 217.54750 216.73990 215.85030 215.22670 214.68910 214.27036 213.25731 212.19606
 211.54289 211.04774 211.91309 214.21222 217.54269 221.86369 227.29434 232.05991
 235.93906 240.24582 244.71252 248.99625 252.78146 256.09036 259.24753 262.40762
 265.37738 268.06717 270.49164 272.62262 274.36307 275.77170 277.02533 278.21994
 279.62360 280.92523 282.43268 283.80280 285.01639 286.14642 287.26529 288.27887
 289.19049 290.00229 290.71146 291.61520
 366.78100 356.34541 345.78783 334.66424 323.07765 311.28207 299.16248 286.97589
 274.69831 262.60572 250.62514 239.93655 230.06896 221.18338 213.37579 206.38820
 200.23262 195.18103 191.77344 189.82586 188.87327 188.94768 189.79310 191.11151
 192.84693 194.95234 197.22575 199.59517 202.05058 204.54099 206.63941 208.49182
 210.12823 211.28365 211.52306 211.76147 211.70889 211.42430 211.06772 210.70813
 210.33554 210.05596 209.87437 209.74878 209.68720 210.02861 210.42502 210.82444
 211.62785 212.81626 214.07668 215.87009 217.80851 219.86192 221.96733 224.06075
 226.13116 228.22557 230.33299 232.44940 234.58881 236.77123 239.03764 241.41805
 244.04947 246.31088 248.32330 250.09871 251.52612 252.65954 253.49195 253.81836
 253.86578 253.65019 253.02060 251.97902 250.59543 248.76684 246.68626 244.52967
 242.33109 240.14550 237.97591 235.82533 233.69574 231.57315 229.60957 227.77698
 226.07039 224.55281 223.19322 221.97563 220.86805 219.83846 218.95288 218.10429
 217.35670 216.54712 215.65553 215.02994 214.49036 214.15092 213.34244 212.35544
 211.63786 211.05566 211.77071 214.06570 217.42336 221.77467 227.26770 231.98154
 235.90459 240.20799 244.65948 248.93529 252.71994 256.04733 259.21796 262.39499
 265.40021 268.10526 270.51749 272.60828 274.32324 275.72955 277.00656 278.26562
 279.53958 280.78979 282.09891 283.35880 284.53006 285.58939 286.57910 287.48477
 288.35345 289.14542 289.83728 290.71893
 366.78100 356.34491 345.78681 334.66272 323.07562 311.27953 299.15943 286.97234
 274.69424 262.60115 250.62005 239.93096 230.06287 221.17677 213.36868 206.38058
 200.22449 195.17239 191.76430 189.81620 188.86311 188.93701 189.78192 191.09983
 192.83473 194.93964 197.21254 199.58145 202.03635 204.52626 206.62416 208.47607
 210.11197 211.26688 211.50579 211.74369 211.69060 211.40550 211.04841 210.68831
 210.31522 210.03512 209.85303 209.72693 209.66484 210.00575 210.40165 210.80056
 211.60346 212.79137 214.05127 215.84418 217.78208 219.83499 221.93989 224.03280
 226.10271 228.19661 230.30352 232.41942 234.55833 236.74023 239.00614 241.38604
 244.01695 246.27785 248.28976 250.06466 251.49157 252.62448 253.45638 253.78229
 253.82919 253.61310 252.98300 251.94091 250.55681 248.72772 246.64662 244.48953
 242.29044 240.10434 237.93425 235.78315 233.65306 231.52996 229.56587 227.73277
 226.02568 224.50758 223.14749 221.92940 220.82130 219.79121 218.90511 218.05602
 217.30792 216.49783 215.60573 214.97964 214.43954 214.11447 213.34645 212.52501
 211.70161 211.03978 211.72118 214.00584 217.36739 221.72830 227.27290 231.91852
 235.87234 240.16792 244.62007 248.88715 252.63785 255.93404 259.10770 262.34109
 265.39612 268.13364 270.56927 272.67456 274.39389 275.77704 277.06299 278.36795
 279.69244 280.98975 282.21011 283.35294 284.42847 285.46262 286.41983 287.20615
 287.93307 288.62747 289.28006 290.11774
 366.78100 356.34617 345.78935 334.66652 323.08069 311.28587 299.16704 286.98121
 274.70439 262.61256 250.63273 239.94490 230.07808 221.19325 213.38642 206.39960
 200.24477 195.19394 191.78712 189.84029 188.88846 188.96364 189.80981 191.12898
 192.86516 194.97133 197.24550 199.61567 202.07185 204.56302 206.66219 208.51537
 210.15254 211.30871 211.54889 211.78806 211.73623 211.45241 211.09658 210.73775
 210.36593 210.08710 209.90627 209.78145 209.72062 210.06279 210.45996 210.86014
 211.66431 212.85348 214.11466 215.90883 217.84800 219.90218 222.00835 224.10252
 226.17370 228.26887 230.37704 232.49422 234.63439 236.81756 239.08474 241.46591
 244.09808 246.36025 248.37343 250.14960 251.57777 252.71195 253.54512 253.87229
 253.92047 253.70564 253.07681 252.03599 250.65316 248.82533 246.74551 244.58968
 242.39185 240.20702 238.03820 235.88837 233.75954 231.63772 229.67489 227.84306
 226.13724 224.62041 223.26158 222.04476 220.93793 219.90910 219.02428 218.17645
 217.42962 216.62080 215.72997 215.10514 214.56631 214.18517 213.28464 212.60153
 211.86885 211.11234 211.61693 213.87631 217.28482 221.68953 227.26947 231.88895
 235.86243 240.15619 244.61269 248.89023 252.61635 255.86658 259.01788 262.27396
 265.32150 268.04108 270.47601 272.58875 274.29288 275.68848 277.06171 278.47842
 279.91071 281.27405 282.52936 283.66516 284.68713 285.67822 286.63513 287.39423
 288.11292 288.80081 289.42050 290.25397
 366.78100 356.34603 345.78905 334.66608 323.08011 311.28514 299.16616 286.98019
 274.70322 262.61125 250.63127 239.94330 230.07633 221.19135 213.38438 206.39741
 200.24244 195.19146 191.78449 189.83752 188.88555 188.96057 189.80660 191.12563
 192.86165 194.96768 197.24171 199.61174 202.06776 204.55879 206.65782 208.51085
 210.14787 211.30390 211.54393 211.78295 211.73098 211.44701 211.09104 210.73206
 210.36009 210.08112 209.90015 209.77517 209.71420 210.05623 210.45325 210.85328
 211.65731 212.84634 214.10736 215.90139 217.84042 219.89445 222.00047 224.09450
 226.16553 228.26055 230.36858 232.48561 234.62564 236.80866 239.07569 241.45672
 244.08875 246.35077 248.36380 250.13983 251.56785 252.70188 253.53491 253.86194
 253.90996 253.69499 253.06602 252.02505 250.64207 248.81410 246.73413 244.57815
 242.38018 240.19521 238.02624 235.87626 233.74729 231.62532 229.66235 227.83037
 226.12440 224.60743 223.24845 222.03148 220.92451 219.89554 219.01056 218.16259
 217.41562 216.60665 215.71567 215.09070 214.55173 214.20520 213.38342 212.47708
 212.03313 211.10608 211.46886 213.83292 217.29366 221.68883 227.20755 231.94244
 235.83826 240.14804 244.58643 248.83401 252.58247 255.90434 259.10284 262.30716
 265.30038 267.97968 270.34991 272.36035 273.97842 275.40234 276.88998 278.47644
 280.04950 281.50394 282.80557 283.91864 284.98676 286.04416 287.00018 287.87277
 288.69830 289.47324 290.15018 291.01288
 366.78100 356.34238 345.78176 334.65514 323.06552 311.26690 299.14428 286.95465
 274.67403 262.57841 250.59479 239.90317 230.03255 221.14393 213.33331 206.34269
 200.18407 195.12945 191.71883 189.76820 188.81258 188.88396 189.72634 191.04172
 192.77410 194.87648 197.14686 199.51324 201.96562 204.45300 206.54838 208.39776
 210.03113 211.18351 211.41989 211.65527 211.59965 211.31203 210.95241 210.58979
 210.21417 209.93155 209.74693 209.61831 209.55368 209.89206 210.28544 210.68182
 211.48220 212.66758 213.92496 215.71534 217.65072 219.70110 221.80348 223.89386
 225.96124 228.05261 230.15699 232.27037 234.40675 236.58613 238.84951 241.22689
 243.85527 246.11365 248.12303 249.89541 251.31979 252.45016 253.27954 253.60292
 253.64730 253.42868 252.79606 251.75144 250.36482 248.53320 246.44958 244.28996
 242.08834 239.89972 237.72709 235.57347 233.44085 231.31523 229.34861 227.51299
 225.80337 224.28275 222.92013 221.69951 220.58889 219.55627 218.66764 217.81602
 217.06540 216.25278 215.35816 214.72954 214.18692 214.04266 213.65613 212.42606
 211.75502 211.01105 211.56323 213.90782 217.33749 221.70346 227.16246 231.93501
 235.81499 240.12416 244.55797 248.78537 252.53389 255.89244 259.16489 262.39954
 265.38776 268.04700 270.38937 272.34534 273.85928 275.20151 276.74933 278.47098
 280.15286 281.63901 282.98904 284.34418 285.56555 286.66550 287.69208 288.66367
 289.53748 290.31564 290.99542 291.86169
 366.78100 356.34231 345.78162 334.65493 323.06524 311.26654 299.14385 286.95416
 274.67347 262.57778 250.59409 239.90240 230.03171 221.14302 213.33232 206.34163
 200.18294 195.12825 191.71756 189.76687 188.81118 188.88249 189.72479 191.04010
 192.77241 194.87472 197.14503 199.51134 201.96365 204.45096 206.54627 208.39557
 210.02888 211.18119 211.41750 211.65281 211.59712 211.30943 210.94974 210.58705
 210.21135 209.92866 209.74397 209.61528 209.55059 209.88890 210.28221 210.67852
 211.47883 212.66413 213.92144 215.71175 217.64706 219.69737 221.79968 223.88999
 225.95730 228.04860 230.15291 232.26622 234.40253 236.58184 238.84515 241.22246
 243.85077 246.10908 248.11838 249.89069 251.31500 252.44531 253.27462 253.59793
 253.64224 253.42355 252.79086 251.74616 250.35947 248.52778 246.44409 244.28440
 242.08271 239.89402 237.72133 235.56764 233.43494 231.30925 229.34256 227.50687
 225.79718 224.27649 222.91380 221.69311 220.58241 219.54972 218.66103 217.80934
 217.05865 216.24596 215.35127 214.72258 214.17989 214.02493 213.64395 212.72528
 211.67535 210.97842 211.58490 213.88503 217.30643 221.67056 227.14732 231.89766
 235.79335 240.08792 244.49281 248.69641 252.43877 255.82045 259.10587 262.35117
 265.36386 268.03934 270.35748 272.28195 273.82779 275.24200 276.81253 278.56116
 280.30643 281.87567 283.28326 284.62494 285.81100 286.84589 287.81479 288.73776
 289.61005 290.38678 291.06534 291.93008
 366.78100 356.34284 345.78268 334.65652 323.06736 311.26920 299.14704 286.95789
 274.67773 262.58257 250.59941 239.90825 230.03809 221.14993 213.33977 206.34961
 200.19145 195.13729 191.72713 189.77697 188.82182 188.89366 189.73650 191.05234
 192.78518 194.88802 197.15886 199.52570 201.97854 204.46638 206.56222 208.41206
 210.04590 211.19875 211.43559 211.67143 211.61627 211.32911 210.96995 210.60779
 210.23263 209.95047 209.76631 209.63815 209.57399 209.91284 210.30668 210.70352
 211.50436 212.69020 213.94804 215.73888 217.67472 219.72556 221.82840 223.91924
 225.98708 228.07892 230.18377 232.29761 234.43445 236.61429 238.87813 241.25597
 243.88481 246.14365 248.15349 249.92633 251.35117 252.48201 253.31185 253.63570
 253.68054 253.46238 252.83022 251.78606 250.39990 248.56874 246.48558 244.32642
 242.12526 239.93710 237.76494 235.61178 233.47963 231.35447 229.38831 227.55315
 225.84399 224.32383 222.96167 221.74151 220.63135 219.59919 218.71103 217.85987
 217.10971 216.29756 215.40340 214.77524 214.23308 214.04677 213.60358 212.90460
 211.82185 211.06538 211.50508 213.71208 217.16644 221.59128 227.10942 231.82272
 235.75787 240.07138 244.46938 248.65794 252.37346 255.73491 259.01715 262.29413
 265.32733 267.98743 270.27853 272.18439 273.69458 275.04782 276.69333 278.64145
 280.48743 282.05121 283.41492 284.73413 285.88919 286.88419 287.82901 288.71118
 289.54138 290.30814 290.97797 291.83157
 366.78100 356.34200 345.78101 334.65401 323.06401 311.26502 299.14202 286.95202
 274.67103 262.57503 250.59103 239.89904 230.02804 221.13904 213.32805 206.33705
 200.17805 195.12305 191.71206 189.76106 188.80506 188.87607 189.71807 191.03307
 192.76508 194.86708 197.13708 199.50309 201.95509 204.44209 206.53710 208.38610
 210.01910 211.17111 211.40711 211.64211 211.58612 211.29812 210.93812 210.57513
 210.19913 209.91613 209.73114 209.60214 209.53714 209.87515 210.26815 210.66415
 211.46415 212.64916 213.90616 215.69616 217.63117 219.68117 221.78317 223.87318
 225.94018 228.03118 230.13519 232.24819 234.38419 236.56320 238.82620 241.20320
 243.83121 246.08921 248.09821 249.87022 251.29422 252.42422 253.25323 253.57623
 253.62023 253.40124 252.76824 251.72324 250.33625 248.50425 246.42025 244.26025
 242.05826 239.86926 237.69626 235.54227 233.40927 231.28327 229.31628 227.48028
 225.77028 224.24929 222.88629 221.66529 220.55430 219.52130 218.63230 217.78031
 217.02931 216.21631 215.32132 214.69232 214.14932 214.03233 213.71399 212.91687
 211.80005 210.95551 211.58113 213.82854 217.23405 221.61528 227.11365 231.89082
 235.76920 240.06462 244.46497 248.63718 252.36647 255.74709 259.03119 262.26007
 265.26913 267.93027 270.21014 272.06458 273.57181 275.01114 276.64130 278.48660
 280.44507 282.23645 283.75769 285.12000 286.32407 287.45981 288.49600 289.43472
 290.27899 291.03085 291.68762 292.52463
 366.78100 356.34256 345.78212 334.65568 323.06624 311.26780 299.14536 286.95592
 274.67548 262.58004 250.59660 239.90516 230.03472 221.14628 213.33584 206.34540
 200.18696 195.13252 191.72208 189.77164 188.81620 188.88776 189.73032 191.04588
 192.77844 194.88100 197.15156 199.51812 201.97068 204.45824 206.55380 208.40336
 210.03692 211.18948 211.42604 211.66160 211.60616 211.31872 210.95927 210.59683
 210.22139 209.93895 209.75451 209.62607 209.56163 209.90019 210.29375 210.69031
 211.49087 212.67643 213.93399 215.72455 217.66011 219.71067 221.81323 223.90379
 225.97135 228.06291 230.16747 232.28103 234.41759 236.59715 238.86071 241.23827
 243.86683 246.12539 248.13495 249.90751 251.33207 252.46263 253.29219 253.61575
 253.66031 253.44187 252.80943 251.76499 250.37855 248.54711 246.46367 244.30423
 242.10279 239.91435 237.74191 235.58847 233.45603 231.33059 229.36415 227.52871
 225.81927 224.29883 222.93639 221.71595 220.60551 219.57307 218.68463 217.83319
 217.08275 216.27031 215.37587 214.74743 214.20499 214.12299 213.76860 212.88643
 211.82632 211.07013 211.66226 214.02055 217.35191 221.59352 227.13902 231.91010
 235.79037 240.06653 244.42256 248.56693 252.31505 255.78105 259.10638 262.27835
 265.22021 267.84332 270.06195 271.88672 273.43515 274.94693 276.74280 279.15131
 281.76770 284.15869 286.22772 288.04446 289.61670 291.00772 292.27682 293.42654
 294.46057 295.38141 296.18579 297.21094
 366.78100 356.34349 345.78398 334.65847 323.06996 311.27245 299.15094 286.96242
 274.68291 262.58840 250.60589 239.91538 230.04587 221.15836 213.34885 206.35934
 200.20183 195.14832 191.73881 189.78930 188.83479 188.90727 189.75076 191.06725
 192.80074 194.90423 197.17572 199.54321 201.99670 204.48519 206.58168 208.43217
 210.06666 211.22015 211.45764 211.69412 211.63961 211.35310 210.99459 210.63308
 210.25857 209.97706 209.79355 209.66604 209.60253 209.94202 210.33651 210.73400
 211.53549 212.72197 213.98046 215.77195 217.70844 219.75993 221.86342 223.95491
 226.02340 228.11589 230.22138 232.33587 234.47336 236.65385 238.91834 241.29682
 243.92631 246.18580 248.19629 249.96978 251.39527 252.52676 253.35725 253.68174
 253.72723 253.50972 252.87821 251.83470 250.44919 248.61867 246.53616 244.37765
 242.17714 239.98963 237.81812 235.66561 233.53410 231.40959 229.44408 227.60957
 225.90106 224.38155 223.02004 221.80052 220.69101 219.65950 218.77199 217.92148
 217.17197 216.36046 215.46695 214.83944 214.29793 214.23857 213.76312 212.91486
 211.83621 210.95992 211.62413 213.87762 217.14629 221.66554 227.05135 231.86934
 235.77321 240.05324 244.38895 248.50044 252.31787 255.91029 259.33258 262.55286
 265.49347 268.05685 270.20901 271.90585 273.22549 276.25967 280.06018 283.45120
 286.39447 288.91730 291.10040 293.01733 294.67624 296.14398 297.48303 298.69617
 299.78720 300.75879 301.60757 302.68921
 366.78100 356.34244 345.78188 334.65532 323.06577 311.26721 299.14465 286.95509
 274.67453 262.57897 250.59541 239.90386 230.03330 221.14474 213.33418 206.34362
 200.18506 195.13050 191.71995 189.76939 188.81383 188.88527 189.72771 191.04315
 192.77559 194.87804 197.14848 199.51492 201.96736 204.45480 206.55024 208.39969
 210.03313 211.18557 211.42201 211.65745 211.60189 211.31433 210.95478 210.59222
 210.21666 209.93410 209.74954 209.62098 209.55642 209.89487 210.28831 210.68475
 211.48519 212.67063 213.92807 215.71851 217.65396 219.70440 221.80684 223.89728
 225.96472 228.05616 230.16060 232.27405 234.41049 236.58993 238.85337 241.23081
 243.85925 246.11769 248.12714 249.89958 251.32402 252.45446 253.28390 253.60734
 253.65178 253.43323 252.80067 251.75611 250.36955 248.53799 246.45443 244.29488
 242.09332 239.90476 237.73220 235.57864 233.44608 231.32052 229.35397 227.51841
 225.80885 224.28829 222.92573 221.70517 220.59461 219.56206 218.67350 217.82194
 217.07138 216.25882 215.36426 214.73570 214.19315 214.21512 213.79965 212.83780
 212.08525 211.16121 211.53986 213.68515 217.06049 221.51558 226.92606 231.75929
 235.69254 240.00485 244.33356 248.41209 252.20143 255.83942 259.40356 262.82626
 265.95853 268.63403 270.67099 272.09659 274.05240 277.59735 281.14587 284.31207
 287.06021 289.41574 291.45410 293.24393 294.79285 296.16327 297.41354 298.54623
 299.56494 300.47211 301.26462 302.27454
 366.78100 356.34304 345.78308 334.65712 323.06816 311.27020 299.14824 286.95929
 274.67933 262.58437 250.60141 239.91045 230.04049 221.15253 213.34257 206.35261
 200.19465 195.14069 191.73073 189.78078 188.82582 188.89786 189.74090 191.05694
 192.78998 194.89302 197.16406 199.53110 201.98414 204.47218 206.56822 208.41827
 210.05231 211.20535 211.44239 211.67843 211.62347 211.33651 210.97755 210.61559
 210.24063 209.95867 209.77471 209.64676 209.58280 209.92184 210.31588 210.71292
 211.51396 212.70000 213.95804 215.74908 217.68512 219.73616 221.83920 223.93025
 225.99829 228.09033 230.19537 232.30941 234.44645 236.62649 238.89053 241.26857
 243.89761 246.15665 248.16669 249.93974 251.36478 252.49582 253.32586 253.64990
 253.69494 253.47698 252.84502 251.80106 250.41510 248.58414 246.50118 244.34222
 242.14127 239.95331 237.78135 235.62839 233.49643 231.37147 229.40551 227.57055
 225.86159 224.34163 222.97967 221.75971 220.64976 219.61780 218.72984 217.87888
 217.12892 216.31696 215.42300 214.79504 214.25308 214.19804 213.83580 212.84953
 212.09760 211.32341 211.71364 213.95442 217.34697 221.51949 226.85291 231.66382
 235.56473 239.82408 244.11740 248.20187 251.99736 255.60083 259.07458 262.36368
 265.38034 268.05618 270.33762 272.24417 274.03378 276.02591 278.48575 281.11267
 283.64810 285.82138 287.70200 289.35330 290.78235 292.04672 293.20026 294.24527
 295.18515 296.02213 296.75327 297.68506
 366.78100 356.34419 345.78539 334.66058 323.07278 311.27597 299.15516 286.96736
 274.68855 262.59475 250.61294 239.92313 230.05433 221.16752 213.35872 206.36991
 200.21310 195.16030 191.75149 189.80268 188.84888 188.92207 189.76627 191.08346
 192.81765 194.92185 197.19404 199.56224 202.01643 204.50562 206.60282 208.45401
 210.08921 211.24340 211.48159 211.71879 211.66498 211.37918 211.02137 210.66056
 210.28676 210.00595 209.82315 209.69634 209.63353 209.97373 210.36892 210.76711
 211.56931 212.75650 214.01570 215.80789 217.74508 219.79728 221.90147 223.99367
 226.06286 228.15605 230.26225 232.37744 234.51564 236.69683 238.96202 241.34122
 243.97141 246.23161 248.24280 250.01699 251.44319 252.57538 253.40658 253.73177
 253.77796 253.56116 252.93035 251.88754 250.50274 248.67293 246.59113 244.43332
 242.23351 240.04671 237.87590 235.72410 233.59329 231.46948 229.50468 227.67087
 225.96307 224.44426 223.08345 221.86465 220.75584 219.72504 218.83823 217.98842
 217.23962 216.42881 215.53601 214.90920 214.36839 214.23140 213.82076 213.02267
 212.11778 211.38060 211.55072 213.83904 217.31972 221.54474 226.76433 231.61325
 235.48962 239.73607 244.02415 248.10767 251.89133 255.51396 259.06259 262.42587
 265.50998 268.16708 270.24307 271.82996 273.38525 275.20947 277.24844 279.26932
 281.47470 283.58521 285.41150 287.01514 288.40292 289.63077 290.75098 291.76584
 292.67859 293.49136 294.20142 295.10629
 366.78100 356.34521 345.78743 334.66364 323.07686 311.28107 299.16129 286.97450
 274.69672 262.60393 250.62315 239.93436 230.06658 221.18079 213.37301 206.38522
 200.22944 195.17765 191.76987 189.82208 188.86929 188.94351 189.78872 191.10694
 192.84215 194.94737 197.22058 199.58980 202.04501 204.53523 206.63344 208.48566
 210.12187 211.27709 211.51630 211.75452 211.70173 211.41695 211.06016 210.70037
 210.32759 210.04780 209.86602 209.74023 209.67845 210.01966 210.41588 210.81509
 211.61831 212.80652 214.06674 215.85995 217.79817 219.85138 221.95660 224.04981
 226.12003 228.21424 230.32146 232.43767 234.57688 236.75910 239.02531 241.40553
 244.03674 246.29796 248.31017 250.08539 251.51260 252.64582 253.47803 253.80425
 253.85146 253.63568 253.00589 251.96411 250.58032 248.75154 246.67075 244.51396
 242.31518 240.12939 237.95961 235.80882 233.67904 231.55625 229.59247 227.75968
 226.05290 224.53511 223.17533 221.95754 220.84976 219.81997 218.93419 218.08540
 217.33762 216.52783 215.63604 215.01026 214.47047 214.30782 213.86545 213.11552
 212.05699 211.06799 211.44012 213.91505 217.37387 221.57516 226.84673 231.63782
 235.51353 239.75104 244.03175 248.11833 251.92867 255.58141 259.12421 262.48532
 265.55743 268.16409 270.09094 271.58075 273.00613 274.72159 277.27023 280.37122
 283.13382 285.50180 287.55087 289.35013 290.90723 292.28485 293.54175 294.68039
 295.70447 296.61642 297.41309 298.42834
 366.78100 356.34554 345.78807 334.66461 323.07815 311.28268 299.16322 286.97676
 274.69929 262.60683 250.62637 239.93790 230.07044 221.18498 213.37751 206.39005
 200.23458 195.18312 191.77566 189.82819 188.87573 188.95027 189.79580 191.11434
 192.84988 194.95541 197.22895 199.59849 202.05402 204.54456 206.64310 208.49563
 210.13217 211.28771 211.52724 211.76578 211.71332 211.42885 211.07239 210.71293
 210.34046 210.06100 209.87954 209.75407 209.69261 210.03414 210.43068 210.83022
 211.63375 212.82229 214.08283 215.87636 217.81490 219.86844 221.97397 224.06751
 226.13805 228.23258 230.34012 232.45666 234.59619 236.77873 239.04527 241.42580
 244.05734 246.31888 248.33141 250.10695 251.53449 252.66802 253.50056 253.82710
 253.87463 253.65917 253.02970 251.98824 250.60478 248.77631 246.69585 244.53939
 242.34092 240.15546 237.98600 235.83553 233.70607 231.58361 229.62014 227.78768
 226.08122 224.56375 223.20429 221.98683 220.87936 219.84990 218.96444 218.11597
 217.36851 216.55905 215.66758 215.04212 214.50266 214.36670 213.92233 213.24637
 211.99521 210.84915 211.29085 213.70462 217.17477 221.64256 226.92224 231.71140
 235.59979 239.84831 244.14764 248.24869 252.09467 255.77287 259.30197 262.64771
 265.71884 268.26950 270.11459 271.29358 272.55551 276.23831 280.13614 283.61398
 286.63260 289.22000 291.45898 293.42499 295.12637 296.63168 298.00504 299.24921
 300.36819 301.36465 302.23514 303.34448
 366.78100 356.34464 345.78628 334.66191 323.07455 311.27819 299.15783 286.97046
 274.69210 262.59874 250.61738 239.92801 230.05965 221.17329 213.36493 206.37656
 200.22020 195.16784 191.75948 189.81111 188.85775 188.93139 189.77603 191.09366
 192.82830 194.93294 197.20558 199.57421 202.02885 204.51849 206.61613 208.46776
 210.10340 211.25804 211.49668 211.73431 211.68095 211.39559 211.03823 210.67786
 210.30450 210.02414 209.84178 209.71541 209.65305 209.99369 210.38933 210.78796
 211.59060 212.77824 214.03788 215.83051 217.76815 219.82079 221.92543 224.01806
 226.08770 228.18134 230.28798 232.40361 234.54225 236.72389 238.98953 241.36916
 243.99980 246.26044 248.27208 250.04671 251.47335 252.60599 253.43763 253.76326
 253.80990 253.59354 252.96318 251.92081 250.53645 248.70709 246.62573 244.46836
 242.26900 240.08264 237.91228 235.76091 233.63055 231.50719 229.54283 227.70946
 226.00210 224.48374 223.12338 221.90501 220.79665 219.76629 218.87993 218.03056
 217.28220 216.47184 215.57948 214.95311 214.41275 214.36446 213.94815 213.29950
 212.26125 210.96049 211.14453 213.56068 217.02267 221.52576 226.81497 231.62933
 235.52989 239.79311 244.11481 248.24998 252.12233 255.86006 259.45676 262.84619
 266.04446 268.85941 271.00571 272.14810 273.58856 277.98663 282.03409 285.64545
 288.77994 291.46671 293.79166 295.83310 297.59982 299.16290 300.58899 301.88092
 303.04288 304.07761 304.98151 306.13345
 366.78100 356.34489 345.78678 334.66267 323.07556 311.27945 299.15934 286.97223
 274.69413 262.60102 250.61991 239.93080 230.06269 221.17658 213.36847 206.38036
 200.22425 195.17214 191.76403 189.81592 188.86281 188.93670 189.78159 191.09948
 192.83438 194.93927 197.21216 199.58105 202.03594 204.52583 206.62372 208.47561
 210.11150 211.26639 211.50528 211.74317 211.69006 211.40495 211.04784 210.68774
 210.31463 210.03452 209.85241 209.72630 209.66419 210.00508 210.40097 210.79986
 211.60275 212.79064 214.05053 215.84342 217.78131 219.83420 221.93909 224.03199
 226.10188 228.19577 230.30266 232.41855 234.55744 236.73933 239.00522 241.38511
 244.01600 246.27689 248.28878 250.06367 251.49056 252.62345 253.45535 253.78124
 253.82813 253.61202 252.98191 251.93980 250.55569 248.72658 246.64547 244.48836
 242.28925 240.10314 237.93303 235.78192 233.65181 231.52870 229.56460 227.73149
 226.02438 224.50627 223.14616 221.92805 220.81994 219.78983 218.90372 218.05461
 217.30650 216.49639 215.60428 214.97817 214.43806 214.36931 213.96962 213.22386
 212.23421 210.93352 211.34911 213.57793 217.09680 221.33533 226.67433 231.47798
 235.36937 239.60803 243.88144 247.98181 251.85326 255.64330 259.31949 262.80881
 266.07956 268.99359 271.38495 273.14154 274.53018 277.12741 280.79898 284.10452
 286.97360 289.43286 291.56091 293.42950 295.04663 296.47736 297.78268 298.96521
 300.02878 300.97589 301.80325 302.85764
 366.78100 356.34546 345.78792 334.66439 323.07785 311.28231 299.16277 286.97623
 274.69869 262.60616 250.62562 239.93708 230.06954 221.18400 213.37646 206.38893
 200.23339 195.18185 191.77431 189.82677 188.87424 188.94870 189.79416 191.11262
 192.84808 194.95354 197.22701 199.59647 202.05193 204.54239 206.64085 208.49332
 210.12978 211.28524 211.52470 211.76316 211.71062 211.42609 211.06955 210.71001
 210.33747 210.05793 209.87639 209.75086 209.68932 210.03078 210.42724 210.82670
 211.63017 212.81863 214.07909 215.87255 217.81101 219.86447 221.96994 224.06340
 226.13386 228.22832 230.33578 232.45225 234.59171 236.77417 239.04063 241.42109
 244.05255 246.31402 248.32648 250.10194 251.52940 252.66286 253.49532 253.82179
 253.86925 253.65371 253.02417 251.98263 250.59910 248.77056 246.69002 244.53348
 242.33494 240.14940 237.97987 235.82933 233.69979 231.57725 229.61371 227.78118
 226.07464 224.55710 223.19756 221.98002 220.87248 219.84295 218.95741 218.10887
 217.36133 216.55179 215.66025 215.03472 214.49518 214.36966 213.96704 213.21748
 212.33742 211.21565 211.42424 213.75415 217.23920 221.45758 226.64294 231.43211
 235.29901 239.49773 243.72882 247.79364 251.64572 255.39984 259.04568 262.47791
 265.64996 268.46198 270.87878 272.93222 274.77475 276.63922 278.76901 281.09558
 283.39352 285.38306 287.10468 288.61636 289.92462 291.08209 292.13809 293.09476
 293.95520 294.72141 295.39075 296.24374
 366.78100 356.34553 345.78807 334.66460 323.07814 311.28267 299.16321 286.97674
 274.69928 262.60681 250.62635 239.93788 230.07042 221.18495 213.37749 206.39002
 200.23456 195.18309 191.77562 189.82816 188.87569 188.95023 189.79576 191.11430
 192.84983 194.95537 197.22890 199.59844 202.05397 204.54451 206.64304 208.49558
 210.13211 211.28765 211.52718 211.76572 211.71325 211.42878 211.07232 210.71285
 210.34039 210.06092 209.87946 209.75399 209.69253 210.03406 210.43060 210.83013
 211.63367 212.82220 214.08274 215.87627 217.81481 219.86834 221.97387 224.06741
 226.13794 228.23248 230.34001 232.45655 234.59608 236.77862 239.04515 241.42569
 244.05722 246.31876 248.33129 250.10683 251.53436 252.66790 253.50043 253.82697
 253.87450 253.65903 253.02957 251.98810 250.60464 248.77617 246.69571 244.53924
 242.34078 240.15531 237.98585 235.83538 233.70592 231.58345 229.61999 227.78752
 226.08106 224.56359 223.20412 221.98666 220.87919 219.84973 218.96426 218.11580
 217.36833 216.55887 215.66740 215.04194 214.50247 214.36119 213.98328 213.29094
 212.21004 211.34756 211.49628 213.59201 217.14282 221.53426 226.56386 231.47005
 235.30916 239.50763 243.73056 247.79588 251.65262 255.40135 259.04312 262.46732
 265.62799 268.42081 270.77689 272.76309 274.55716 276.36713 278.30847 280.14859
 281.45706 283.27084 285.01862 286.55328 287.88141 289.05646 290.12851 291.09970
 291.97321 292.75104 293.43054 294.29651
 366.78100 356.34587 345.78873 334.66560 323.07946 311.28433 299.16519 286.97906
 274.70192 262.60979 250.62965 239.94152 230.07438 221.18925 213.38212 206.39498
 200.23985 195.18871 191.78158 189.83444 188.88231 188.95717 189.80304 191.12190
 192.85777 194.96363 197.23750 199.60737 202.06323 204.55410 206.65296 208.50583
 210.14269 211.29856 211.53842 211.77729 211.72515 211.44102 211.08488 210.72575
 210.35362 210.07448 209.89335 209.76821 209.70708 210.04894 210.44581 210.84567
 211.64954 212.83840 214.09927 215.89313 217.83200 219.88586 221.99173 224.08560
 226.15646 228.25133 230.35919 232.47606 234.61592 236.79879 239.06565 241.44652
 244.07838 246.34025 248.35311 250.12898 251.55685 252.69071 253.52358 253.85044
 253.89831 253.68317 253.05404 252.01290 250.62977 248.80163 246.72150 244.56536
 242.36723 240.18210 238.01296 235.86283 233.73369 231.61156 229.64842 227.81629
 226.11015 224.59302 223.23388 222.01675 220.90961 219.88048 218.99535 218.14721
 217.40008 216.59094 215.69981 215.07467 214.53554 214.38422 214.00198 213.37773
 212.17632 211.26109 211.45645 213.56369 217.09779 221.47530 226.53680 231.45309
 235.30112 239.50655 243.74332 247.82869 251.70094 255.46721 259.11853 262.53076
 265.68723 268.47028 270.79385 272.71829 274.43320 276.16171 278.05838 279.87146
 281.27643 283.05774 284.86716 286.45596 287.83093 289.04745 290.15732 291.16278
 292.06708 292.87238 293.57587 294.47238
 366.78100 356.34497 345.78694 334.66290 323.07587 311.27984 299.15981 286.97277
 274.69474 262.60171 250.62068 239.93165 230.06361 221.17758 213.36955 206.38152
 200.22549 195.17345 191.76542 189.81739 188.86436 188.93832 189.78329 191.10126
 192.83623 194.94120 197.21416 199.58313 202.03810 204.52807 206.62604 208.47800
 210.11397 211.26894 211.50791 211.74587 211.69284 211.40781 211.05078 210.69075
 210.31771 210.03768 209.85565 209.72962 209.66759 210.00855 210.40452 210.80349
 211.60646 212.79442 214.05439 215.84736 217.78533 219.83830 221.94326 224.03623
 226.10620 228.20017 230.30714 232.42310 234.56207 236.74404 239.01001 241.38997
 244.02094 246.28191 248.29388 250.06885 251.49581 252.62878 253.46075 253.78672
 253.83369 253.61765 252.98762 251.94559 250.56156 248.73252 246.65149 244.49446
 242.29543 240.10940 237.93936 235.78833 233.65830 231.53527 229.57124 227.73820
 226.03117 224.51314 223.15311 221.93507 220.82704 219.79701 218.91098 218.06195
 217.31391 216.50388 215.61185 214.98582 214.44579 214.35544 214.07823 213.39247
 212.23845 211.17310 211.44756 213.65736 217.06738 221.39383 226.46074 231.39319
 235.24710 239.46069 243.71017 247.81277 251.70395 255.49648 259.16736 262.58020
 265.74973 268.54300 270.86664 272.77869 274.43594 276.06229 277.89816 279.68604
 281.25360 283.11264 284.91360 286.50073 287.87427 289.08951 290.19821 291.20261
 292.10596 292.91040 293.61316 294.50873
 366.78100 356.34375 345.78451 334.65926 323.07102 311.27377 299.15253 286.96428
 274.68504 262.59079 250.60854 239.91830 230.04905 221.16181 213.35256 206.36332
 200.20607 195.15283 191.74358 189.79434 188.84009 188.91284 189.75660 191.07335
 192.80711 194.91086 197.18262 199.55037 202.00413 204.49288 206.58963 208.44039
 210.07514 211.22890 211.46665 211.70341 211.64916 211.36292 211.00467 210.64342
 210.26918 209.98793 209.80469 209.67744 209.61420 209.95395 210.34871 210.74646
 211.54821 212.73497 213.99372 215.78548 217.72223 219.77399 221.87774 223.96950
 226.03825 228.13101 230.23676 232.35151 234.48927 236.67002 238.93478 241.31353
 243.94329 246.20304 248.21380 249.98755 251.41330 252.54506 253.37581 253.70057
 253.74632 253.52908 252.89783 251.85459 250.46934 248.63909 246.55685 244.39860
 242.19836 240.01111 237.83987 235.68762 233.55638 231.43213 229.46688 227.63264
 225.92439 224.40515 223.04390 221.82466 220.71541 219.68417 218.79692 217.94668
 217.19743 216.38618 215.49294 214.86569 214.32445 214.30251 214.17021 213.41521
 212.27180 211.11636 211.46027 213.72314 217.06096 221.33453 226.42195 231.32480
 235.18221 239.40030 243.64948 247.75529 251.65265 255.45972 259.15149 262.58105
 265.73993 268.55914 270.93915 272.87082 274.51361 276.08157 277.86810 279.66473
 281.27139 282.97049 284.58231 286.11081 287.43912 288.61432 289.68652 290.65787
 291.53149 292.30945 292.98907 293.85516
 366.78100 356.34368 345.78435 334.65903 323.07070 311.27338 299.15206 286.96373
 274.68441 262.59009 250.60776 239.91744 230.04811 221.16079 213.35147 206.36214
 200.20482 195.15150 191.74217 189.79285 188.83852 188.91120 189.75488 191.07155
 192.80523 194.90890 197.18058 199.54826 202.00193 204.49061 206.58729 208.43796
 210.07264 211.22631 211.46399 211.70067 211.64634 211.36002 211.00170 210.64037
 210.26605 209.98472 209.80140 209.67408 209.61075 209.95043 210.34511 210.74278
 211.54446 212.73113 213.98981 215.78149 217.71816 219.76984 221.87351 223.96519
 226.03387 228.12654 230.23222 232.34690 234.48457 236.66525 238.92992 241.30860
 243.93828 246.19795 248.20863 249.98231 251.40798 252.53966 253.37033 253.69501
 253.74069 253.52336 252.89204 251.84871 250.46339 248.63307 246.55074 244.39242
 242.19210 240.00477 237.83345 235.68112 233.54980 231.42548 229.46015 227.62583
 225.91751 224.39818 223.03686 221.81753 220.70821 219.67689 218.78956 217.93924
 217.18992 216.37859 215.48527 214.85794 214.31662 214.30093 214.21071 213.50993
 212.27695 210.99078 211.34093 213.70479 217.06326 221.30020 226.44638 231.28824
 235.15494 239.35539 243.59354 247.69199 251.58687 255.40697 259.11771 262.55295
 265.71396 268.54346 270.95010 272.93845 274.57520 276.07220 277.78668 279.56354
 281.18106 282.82510 284.40335 285.79446 287.06442 288.21780 289.27008 290.22339
 291.08078 291.84427 292.51126 293.36124
 366.78100 356.34422 345.78544 334.66067 323.07289 311.27611 299.15533 286.96755
 274.68877 262.59500 250.61322 239.92344 230.05466 221.16788 213.35911 206.37033
 200.21355 195.16077 191.75199 189.80322 188.84944 188.92266 189.76688 191.08410
 192.81832 194.92255 197.19477 199.56299 202.01721 204.50643 206.60366 208.45488
 210.09010 211.24432 211.48254 211.71976 211.66599 211.38021 211.02243 210.66165
 210.28787 210.00710 209.82432 209.69754 209.63476 209.97498 210.37021 210.76843
 211.57065 212.75787 214.01709 215.80931 217.74654 219.79876 221.90298 223.99520
 226.06442 228.15765 230.26387 232.37909 234.51731 236.69853 238.96375 241.34298
 243.97320 246.23342 248.24464 250.01886 251.44509 252.57731 253.40853 253.73375
 253.77997 253.56320 252.93242 251.88964 250.50486 248.67508 246.59330 244.43553
 242.23575 240.04897 237.87819 235.72641 233.59564 231.47186 229.50708 227.67330
 225.96552 224.44674 223.08597 221.86719 220.75841 219.72763 218.84085 217.99108
 217.24230 216.43152 215.53874 214.91196 214.37119 214.34752 214.23734 213.57443
 212.33009 210.99785 211.30458 213.67104 217.04393 221.28757 226.46584 231.25877
 235.13884 239.33838 243.57356 247.66913 251.54845 255.36639 259.07291 262.50705
 265.66074 268.48715 270.92651 272.98941 274.68671 276.21750 277.79932 279.44873
 281.00201 282.64072 284.25116 285.69980 287.01035 288.16986 289.22775 290.18610
 291.04807 291.81561 292.48615 293.34067
 366.78100 356.34560 345.78819 334.66479 323.07839 311.28299 299.16358 286.97718
 274.69978 262.60738 250.62697 239.93857 230.07117 221.18576 213.37836 206.39096
 200.23556 195.18415 191.77675 189.82935 188.87695 188.95154 189.79714 191.11574
 192.85133 194.95693 197.23053 199.60013 202.05572 204.54632 206.64492 208.49752
 210.13411 211.28971 211.52931 211.76790 211.71550 211.43110 211.07470 210.71529
 210.34289 210.06349 209.88209 209.75668 209.69528 210.03688 210.43347 210.83307
 211.63667 212.82527 214.08586 215.87946 217.81806 219.87166 221.97725 224.07085
 226.14145 228.23604 230.34364 232.46024 234.59984 236.78243 239.04903 241.42963
 244.06123 246.32282 248.33542 250.11102 251.53862 252.67221 253.50481 253.83141
 253.87900 253.66360 253.03420 251.99280 250.60939 248.78099 246.70059 244.54419
 242.34578 240.16038 237.99098 235.84057 233.71117 231.58877 229.62537 227.79296
 226.08656 224.56916 223.20976 221.99235 220.88495 219.85555 218.97014 218.12174
 217.37434 216.56494 215.67353 215.04813 214.50873 214.44954 214.24026 213.56342
 212.36868 211.08002 211.36418 213.64600 217.00316 221.26006 226.50076 231.24382
 235.11699 239.30524 243.53249 247.62575 251.53932 255.36908 259.05859 262.48669
 265.63071 268.43933 270.89087 272.99829 274.76770 276.31537 277.83530 279.37817
 281.04507 282.91464 284.71539 286.32489 287.71774 288.95004 290.07437 291.09290
 292.00897 292.82474 293.53735 294.44553
 366.78100 356.34706 345.79111 334.66917 323.08423 311.29028 299.17234 286.98740
 274.71145 262.62051 250.64157 239.95462 230.08868 221.20474 213.39879 206.41285
 200.25891 195.20897 191.80302 189.85708 188.90614 188.98219 189.82925 191.14931
 192.88636 194.99342 197.26848 199.63953 202.09659 204.58865 206.68870 208.54276
 210.18082 211.33787 211.57893 211.81899 211.76804 211.48510 211.13016 210.77221
 210.40127 210.12333 209.94338 209.81944 209.75950 210.10256 210.50061 210.90167
 211.70673 212.89678 214.15884 215.95390 217.89395 219.94901 222.05607 224.15112
 226.22318 228.31924 230.42829 232.54635 234.68741 236.87146 239.13952 241.52158
 244.15463 246.41769 248.43175 250.20880 251.63786 252.77292 253.60697 253.93503
 253.98409 253.77015 253.14220 252.10226 250.72032 248.89337 246.81443 244.65949
 242.46254 240.27860 238.11066 235.96171 233.83377 231.71283 229.75088 227.91994
 226.21500 224.69905 223.34111 222.12517 221.01922 219.99128 219.10734 218.26039
 217.51445 216.70651 215.81656 215.19262 214.65468 214.55000 214.23183 213.54128
 212.40517 211.12556 211.39153 213.61517 216.96617 221.22496 226.50963 231.22710
 235.09360 239.27504 243.50076 247.59781 251.51787 255.36218 259.06522 262.49652
 265.63153 268.44293 270.92249 273.07245 274.79102 276.20700 277.59586 279.18536
 281.31403 283.26559 285.06934 286.65317 288.02383 289.23651 290.34293 291.34525
 292.24670 293.04947 293.75076 294.64447
 366.78100 356.34721 345.79142 334.66962 323.08483 311.29104 299.17325 286.98845
 274.71266 262.62187 250.64308 239.95629 230.09049 221.20670 213.40091 206.41512
 200.26133 195.21153 191.80574 189.85995 188.90916 188.98536 189.83257 191.15278
 192.88999 194.99720 197.27240 199.64361 202.10082 204.59303 206.69324 208.54744
 210.18565 211.34286 211.58407 211.82427 211.77348 211.49069 211.13590 210.77811
 210.40731 210.12952 209.94973 209.82594 209.76615 210.10935 210.50756 210.90877
 211.71398 212.90418 214.16639 215.96160 217.90181 219.95702 222.06422 224.15943
 226.23164 228.32785 230.43706 232.55526 234.69647 236.88068 239.14889 241.53109
 244.16430 246.42751 248.44172 250.21893 251.64813 252.78334 253.61755 253.94576
 253.99496 253.78117 253.15338 252.11359 250.73180 248.90500 246.82621 244.67142
 242.47463 240.29084 238.12304 235.97425 233.84646 231.72567 229.76387 227.93308
 226.22829 224.71250 223.35471 222.13891 221.03312 220.00533 219.12154 218.27475
 217.52895 216.72116 215.83137 215.20758 214.66978 214.57919 214.28394 213.53261
 212.42928 211.17436 211.41425 213.59209 216.93633 221.21376 226.43982 231.18900
 235.05745 239.23730 243.46027 247.55820 251.47974 255.32381 259.03799 262.48190
 265.63287 268.46072 270.96252 273.14529 274.88763 276.26630 277.59167 278.96713
 280.86731 282.72089 284.45596 286.01437 287.36304 288.55627 289.64493 290.63113
 291.51816 292.30804 292.99808 293.87744
 366.78100 356.34659 345.79018 334.66776 323.08235 311.28794 299.16953 286.98411
 274.70770 262.61629 250.63688 239.94946 230.08305 221.19864 213.39223 206.40581
 200.25140 195.20099 191.79458 189.84816 188.89675 188.97234 189.81893 191.13851
 192.87510 194.98169 197.25628 199.62686 202.08345 204.57504 206.67463 208.52821
 210.16580 211.32239 211.56298 211.80257 211.75115 211.46774 211.11233 210.75392
 210.38250 210.10409 209.92368 209.79927 209.73885 210.08144 210.47903 210.87962
 211.68420 212.87379 214.13538 215.92997 217.86955 219.92414 222.03073 224.12532
 226.19690 228.29249 230.40108 232.51867 234.65925 236.84284 239.11043 241.49202
 244.12460 246.38719 248.40078 250.17737 251.60596 252.74054 253.57413 253.90172
 253.95031 253.73589 253.10748 252.06707 250.68466 248.85724 246.77783 244.62242
 242.42501 240.24059 238.07218 235.92277 233.79436 231.67294 229.71053 227.87912
 226.17371 224.65729 223.29888 222.08247 220.97606 219.94764 219.06323 218.21582
 217.46941 216.66099 215.77058 215.14617 214.60776 214.56264 214.37201 213.53911
 212.40369 211.15936 211.40359 213.56422 216.90407 221.19261 226.38841 231.15607
 235.03275 239.21719 243.43954 247.53696 251.44957 255.28859 259.01025 262.45901
 265.60474 268.44263 270.98398 273.21939 274.99710 276.40366 277.74332 279.12140
 280.52176 282.12720 283.74731 285.28574 286.64331 287.84442 288.94028 289.93301
 290.82587 291.62097 292.31558 293.20074
 366.78100 356.34577 345.78854 334.66532 323.07909 311.28386 299.16463 286.97841
 274.70118 262.60895 250.62872 239.94050 230.07327 221.18804 213.38081 206.39358
 200.23836 195.18713 191.77990 189.83267 188.88045 188.95522 189.80099 191.11976
 192.85554 194.96131 197.23508 199.60485 202.06062 204.55140 206.65017 208.50294
 210.13971 211.29549 211.53526 211.77403 211.72180 211.43758 211.08135 210.72212
 210.34989 210.07066 209.88944 209.76421 209.70298 210.04475 210.44153 210.84130
 211.64507 212.83384 214.09461 215.88839 217.82716 219.88093 221.98670 224.08048
 226.15125 228.24602 230.35379 232.47057 234.61034 236.79311 239.05988 241.44065
 244.07243 246.33420 248.34697 250.12274 251.55052 252.68429 253.51706 253.84383
 253.89161 253.67638 253.04715 252.00592 250.62269 248.79447 246.71424 244.55801
 242.35978 240.17456 238.00533 235.85510 233.72587 231.60365 229.64042 227.80819
 226.10196 224.58473 223.22551 222.00828 220.90105 219.87182 218.98660 218.13837
 217.39114 216.58191 215.69069 215.06546 214.52623 214.53165 214.47227 213.54776
 212.34586 211.03912 211.32500 213.52380 216.85648 221.13797 226.37404 231.12920
 235.01152 239.19276 243.41252 247.51508 251.43999 255.28343 259.01151 262.46405
 265.60443 268.44272 270.99014 273.24133 275.05746 276.46106 277.75940 279.13986
 280.58371 281.91397 283.16989 284.55664 285.81097 286.93005 287.95102 288.87598
 289.70786 290.44864 291.09579 291.92050
 366.78100 356.34457 345.78613 334.66170 323.07427 311.27784 299.15740 286.96997
 274.69154 262.59810 250.61667 239.92724 230.05881 221.17237 213.36394 206.37551
 200.21907 195.16664 191.75821 189.80978 188.85634 188.92991 189.77448 191.09204
 192.82661 194.93118 197.20375 199.57231 202.02688 204.51645 206.61401 208.46558
 210.10115 211.25572 211.49428 211.73185 211.67842 211.39298 211.03555 210.67512
 210.30169 210.02125 209.83882 209.71239 209.64996 209.99052 210.38609 210.78466
 211.58722 212.77479 214.03436 215.82693 217.76449 219.81706 221.92163 224.01419
 226.08376 228.17733 230.28390 232.39946 234.53803 236.71960 238.98516 241.36473
 243.99530 246.25587 248.26743 250.04200 251.46857 252.60113 253.43270 253.75827
 253.80484 253.58840 252.95797 251.91554 250.53110 248.70167 246.62024 244.46281
 242.26337 240.07694 237.90651 235.75507 233.62464 231.50121 229.53678 227.70334
 225.99591 224.47748 223.11704 221.89861 220.79018 219.75975 218.87331 218.02388
 217.27545 216.46501 215.57258 214.94615 214.40572 214.48180 214.59953 213.61493
 212.24658 210.90135 211.17769 213.45222 216.80800 221.08795 226.37048 231.09763
 235.00064 239.18307 243.40491 247.50844 251.43919 255.27901 258.99380 262.44571
 265.58810 268.43207 270.99194 273.29410 275.15350 276.56305 277.81326 279.08954
 280.50464 281.83609 282.96753 284.10571 285.27902 286.29691 287.27377 288.15875
 288.95468 289.66345 290.28262 291.07172
 366.78100 356.34615 345.78930 334.66645 323.08060 311.28575 299.16690 286.98105
 274.70420 262.61235 250.63250 239.94465 230.07780 221.19295 213.38610 206.39925
 200.24440 195.19355 191.78670 189.83985 188.88801 188.96316 189.80931 191.12846
 192.86461 194.97076 197.24491 199.61506 202.07121 204.56236 206.66151 208.51466
 210.15181 211.30796 211.54811 211.78726 211.73541 211.45156 211.09571 210.73686
 210.36501 210.08616 209.90531 209.78046 209.71961 210.06176 210.45891 210.85906
 211.66321 212.85236 214.11351 215.90766 217.84681 219.90096 222.00711 224.10126
 226.17241 228.26756 230.37572 232.49287 234.63302 236.81617 239.08332 241.46447
 244.09662 246.35877 248.37192 250.14807 251.57622 252.71037 253.54352 253.87067
 253.91882 253.70397 253.07512 252.03427 250.65142 248.82357 246.74372 244.58787
 242.39002 240.20517 238.03632 235.88647 233.75762 231.63577 229.67292 227.84107
 226.13522 224.61837 223.25952 222.04267 220.93582 219.90697 219.02212 218.17427
 217.42742 216.61858 215.72773 215.10288 214.56403 214.56895 214.55006 213.82019
 212.20100 210.70956 210.98038 213.35764 216.78612 221.08171 226.39580 231.10545
 235.01797 239.19978 243.42090 247.51904 251.43997 255.26576 258.96780 262.40875
 265.53891 268.37973 270.96686 273.33551 275.23529 276.66153 277.90710 279.16064
 280.49976 281.78802 282.80664 283.96405 285.17731 286.23190 287.20752 288.10004
 288.90277 289.61758 290.24207 291.03784
 366.78100 356.34844 345.79388 334.67332 323.08977 311.29721 299.18065 286.99709
 274.72253 262.63297 250.65542 239.96986 230.10530 221.22274 213.41818 206.43362
 200.28106 195.23251 191.82795 189.88339 188.93383 189.01127 189.85971 191.18115
 192.91960 195.02804 197.30448 199.67692 202.13536 204.62880 206.73025 208.58569
 210.22513 211.38357 211.62601 211.86745 211.81789 211.53634 211.18278 210.82622
 210.45666 210.18010 210.00154 209.87899 209.82043 210.16487 210.56431 210.96675
 211.77319 212.96463 214.22808 216.02452 217.96596 220.02240 222.13084 224.22728
 226.30073 228.39817 230.50861 232.62805 234.77049 236.95593 239.22537 241.60882
 244.24326 246.50770 248.52314 250.30158 251.73202 252.86846 253.70391 254.03335
 254.08379 253.87123 253.24467 252.20611 250.82556 249.00000 246.92244 244.76888
 242.57332 240.39076 238.22420 236.07665 233.95009 231.83053 229.86997 228.04041
 226.33685 224.82230 223.46574 222.25118 221.14662 220.12006 219.23750 218.39194
 217.64739 216.84083 215.95227 215.32971 214.79315 214.69601 214.45699 213.93349
 212.33887 210.62758 210.81778 213.26636 216.78188 221.09087 226.43121 231.11412
 235.03732 239.21545 243.43401 247.52716 251.44092 255.25186 258.94391 262.37390
 265.49139 268.32956 270.93854 273.31265 275.24393 276.71716 277.97491 279.22809
 280.51053 281.69159 282.63400 283.67010 284.83777 285.87915 286.78937 287.66089
 288.44470 289.14270 289.75244 290.52951
 366.78100 356.34854 345.79408 334.67361 323.09015 311.29769 299.18123 286.99777
 274.72330 262.63384 250.65638 239.97092 230.10646 221.22399 213.41953 206.43507
 200.28261 195.23415 191.82968 189.88522 188.93576 189.01330 189.86183 191.18337
 192.92191 195.03045 197.30699 199.67952 202.13806 204.63160 206.73314 208.58868
 210.22821 211.38675 211.62929 211.87083 211.82137 211.53990 211.18644 210.82998
 210.46052 210.18406 210.00559 209.88313 209.82467 210.16921 210.56875 210.97128
 211.77782 212.96936 214.23290 216.02944 217.97097 220.02751 222.13605 224.23259
 226.30613 228.40366 230.51420 232.63374 234.77628 236.96182 239.23135 241.61489
 244.24943 246.51397 248.52950 250.30804 251.73858 252.87512 253.71066 254.04019
 254.09073 253.87827 253.25181 252.21335 250.83288 249.00742 246.92996 244.77650
 242.58104 240.39857 238.23211 236.08465 233.95819 231.83873 229.87826 228.04880
 226.34534 224.83088 223.47442 222.25995 221.15549 220.12903 219.24657 218.40111
 217.65664 216.85018 215.96172 215.33926 214.80280 214.71542 214.50166 213.91315
 212.48853 210.60429 210.70621 213.18208 216.75417 221.07985 226.44786 231.10277
 235.03998 239.21434 243.43336 247.52615 251.43796 255.23938 258.92709 262.35291
 265.46310 268.29788 270.91168 273.27740 275.21112 276.72446 278.01895 279.25354
 280.54456 281.70175 282.60306 283.26050 283.96829 285.05869 286.04581 286.90567
 287.70807 288.42261 289.04681 289.84229
 366.78100 356.34820 345.79341 334.67261 323.08882 311.29602 299.17923 286.99543
 274.72064 262.63084 250.65304 239.96725 230.10245 221.21966 213.41486 206.43007
 200.27727 195.22847 191.82368 189.87888 188.92909 189.00629 189.85450 191.17570
 192.91391 195.02211 197.29831 199.67052 202.12872 204.62193 206.72313 208.57834
 210.21754 211.37575 211.61795 211.85915 211.80936 211.52756 211.17377 210.81697
 210.44718 210.17038 209.99158 209.86879 209.80999 210.15420 210.55340 210.95561
 211.76181 212.95302 214.21622 216.01242 217.95363 220.00983 222.11804 224.21424
 226.28745 228.38465 230.49486 232.61406 234.75626 236.94147 239.21067 241.59388
 244.22808 246.49229 248.50749 250.28569 251.71590 252.85210 253.68731 254.01651
 254.06672 253.85392 253.22713 252.18833 250.80753 248.98174 246.90394 244.75015
 242.55435 240.37156 238.20476 236.05696 233.93017 231.81037 229.84958 228.01978
 226.31599 224.80119 223.44440 222.22960 221.12480 220.09801 219.21521 218.36942
 217.62462 216.81783 215.92903 215.30624 214.76944 214.71194 214.57286 213.87312
 212.65100 210.56226 210.54048 213.10301 216.74471 221.08244 226.45894 231.08701
 235.03362 239.20427 243.42369 247.51677 251.42799 255.22574 258.91293 262.34048
 265.44812 268.27985 270.89163 273.25211 275.19794 276.72546 278.02982 279.26562
 280.50204 281.58356 282.36353 282.94601 283.74734 284.79697 285.77802 286.37747
 287.16995 287.90329 288.54391 289.36032
 366.78100 356.34848 345.79396 334.67343 323.08991 311.29739 299.18087 286.99735
 274.72283 262.63330 250.65578 239.97026 230.10574 221.22322 213.41870 206.43417
 200.28165 195.23313 191.82861 189.88409 188.93457 189.01204 189.86052 191.18200
 192.92048 195.02896 197.30544 199.67791 202.13639 204.62987 206.73135 208.58683
 210.22631 211.38478 211.62726 211.86874 211.81922 211.53770 211.18418 210.82765
 210.45813 210.18161 210.00309 209.88057 209.82204 210.16652 210.56600 210.96848
 211.77496 212.96644 214.22991 216.02639 217.96787 220.02435 222.13283 224.22931
 226.30278 228.40026 230.51074 232.63022 234.77270 236.95818 239.22765 241.61113
 244.24561 246.51009 248.52557 250.30405 251.73452 252.87100 253.70648 254.03596
 254.08644 253.87392 253.24739 252.20887 250.82835 249.00283 246.92531 244.77179
 242.57626 240.39374 238.22722 236.07970 233.95318 231.83365 229.87313 228.04361
 226.34009 224.82557 223.46905 222.25452 221.15000 220.12348 219.24096 218.39544
 217.65092 216.84439 215.95587 215.33335 214.79683 214.73828 214.59993 213.84685
 212.79675 210.56450 210.37970 213.00192 216.72482 221.07582 226.45645 231.06407
 235.02090 239.19067 243.41161 247.50537 251.41592 255.21219 258.90012 262.33188
 265.43851 268.26691 270.87170 273.22949 275.18951 276.73300 278.04208 279.26599
 280.44305 281.42380 282.07358 282.61111 283.43994 284.51550 285.52579 286.18973
 286.80515 287.54071 288.18970 289.01678
 366.78100 356.34914 345.79528 334.67542 323.09257 311.30071 299.18485 287.00199
 274.72813 262.63927 250.66242 239.97756 230.11370 221.23184 213.42798 206.44412
 200.29227 195.24441 191.84055 189.89669 188.94783 189.02597 189.87512 191.19726
 192.93640 195.04554 197.32268 199.69582 202.15496 204.64911 206.75125 208.60739
 210.24753 211.40667 211.64981 211.89196 211.84310 211.56224 211.20938 210.85352
 210.48466 210.20881 210.03095 209.90909 209.85123 210.19637 210.59651 210.99965
 211.80680 212.99894 214.26308 216.06022 218.00236 220.05950 222.16865 224.26579
 226.33993 228.43807 230.54921 232.66935 234.81250 236.99864 239.26878 241.65292
 244.28806 246.55320 248.56935 250.34849 251.77963 252.91677 253.75291 254.08305
 254.13419 253.92234 253.29648 252.25862 250.87876 249.05390 246.97704 244.82419
 242.62933 240.44747 238.28161 236.13475 234.00889 231.89004 229.93018 228.10132
 226.39846 224.88460 223.52874 222.31488 221.21103 220.18517 219.30331 218.45845
 217.71459 216.90873 216.02088 215.39902 214.86316 214.78410 214.59734 213.85916
 212.81816 210.57784 210.28905 212.93739 216.69972 221.06070 226.43925 231.04330
 235.00668 239.18105 243.40703 247.50400 251.41370 255.20622 258.89026 262.32382
 265.42618 268.24808 270.84372 273.19891 275.16772 276.73477 278.05447 279.26172
 280.38788 281.25146 281.78558 282.29990 283.21075 284.25394 285.25586 286.14847
 286.92264 287.61914 288.24121 289.03394
 366.78100 356.34982 345.79664 334.67747 323.09529 311.30411 299.18893 287.00676
 274.73358 262.64540 250.66922 239.98505 230.12187 221.24069 213.43751 206.45433
 200.30316 195.25598 191.85280 189.90962 188.96145 189.04027 189.89009 191.21291
 192.95273 195.06256 197.34038 199.71420 202.17402 204.66885 206.77167 208.62849
 210.26931 211.42914 211.67296 211.91578 211.86760 211.58742 211.23525 210.88007
 210.51189 210.23671 210.05954 209.93836 209.88118 210.22700 210.62783 211.03165
 211.83947 213.03229 214.29711 216.09494 218.03776 220.09558 222.20540 224.30323
 226.37805 228.47687 230.58869 232.70951 234.85334 237.04016 239.31098 241.69580
 244.33163 246.59745 248.61427 250.39409 251.82592 252.96374 253.80056 254.13138
 254.18320 253.97203 253.34685 252.30967 250.93049 249.10632 247.03014 244.87796
 242.68378 240.50261 238.33743 236.19125 234.06607 231.94789 229.98872 228.16054
 226.45836 224.94518 223.59001 222.37683 221.27365 220.24847 219.36729 218.52312
 217.77994 216.97476 216.08758 215.46641 214.93123 214.82886 214.58702 213.90109
 212.78369 210.57092 210.26401 212.91759 216.66574 221.02936 226.41295 231.02573
 234.99472 239.17899 243.41350 247.51527 251.42264 255.20677 258.88101 262.31299
 265.40881 268.22168 270.80692 273.15182 275.12610 276.72641 278.07196 279.27774
 280.37741 281.17377 281.65692 282.10602 282.85654 283.84094 284.82663 285.71716
 286.49387 287.18213 287.80847 288.60672
 366.78100 356.35046 345.79792 334.67938 323.09784 311.30730 299.19276 287.01122
 274.73868 262.65114 250.67560 239.99206 230.12952 221.24898 213.44644 206.46390
 200.31336 195.26682 191.86428 189.92174 188.97420 189.05366 189.90412 191.22758
 192.96804 195.07849 197.35695 199.73141 202.19187 204.68733 206.79079 208.64825
 210.28971 211.45017 211.69463 211.93809 211.89055 211.61101 211.25947 210.90493
 210.53739 210.26285 210.08631 209.96577 209.90923 210.25569 210.65715 211.06161
 211.87007 213.06353 214.32899 216.12745 218.07091 220.12937 222.23983 224.33829
 226.41375 228.51321 230.62567 232.74713 234.89159 237.07905 239.35051 241.73597
 244.37243 246.63889 248.65635 250.43681 251.86927 253.00773 253.84519 254.17665
 254.22911 254.01857 253.39403 252.35748 250.97894 249.15540 247.07986 244.92832
 242.73478 240.55424 238.38970 236.24416 234.11962 232.00208 230.04354 228.21600
 226.51446 225.00192 223.64738 222.43484 221.33230 220.30776 219.42722 218.58368
 217.84114 217.03660 216.15006 215.52952 214.99498 214.86867 214.57025 213.93936
 212.77757 210.57204 210.28929 212.88692 216.60374 220.97668 226.38712 231.00484
 234.98457 239.18065 243.42271 247.52562 251.42828 255.20221 258.86862 262.30093
 265.39090 268.19431 270.76532 273.09460 275.07318 276.70721 278.07803 279.27856
 280.36771 281.13074 281.59348 282.02246 282.67148 283.37503 284.16119 285.07095
 285.91745 286.64108 287.28198 288.10703
 366.78100 356.35090 345.79880 334.68069 323.09959 311.30949 299.19539 287.01429
 274.74218 262.65508 250.67998 239.99688 230.13477 221.25467 213.45257 206.47047
 200.32037 195.27426 191.87216 189.93006 188.98296 189.06286 189.91375 191.23765
 192.97855 195.08945 197.36834 199.74324 202.20414 204.70004 206.80394 208.66183
 210.30373 211.46463 211.70953 211.95343 211.90632 211.62722 211.27612 210.92202
 210.55492 210.28081 210.10471 209.98461 209.92851 210.27540 210.67730 211.08220
 211.89110 213.08500 214.35089 216.14979 218.09369 220.15259 222.26349 224.36238
 226.43828 228.53818 230.65108 232.77297 234.91787 237.10577 239.37767 241.76357
 244.40046 246.66736 248.68526 250.46616 251.89906 253.03795 253.87585 254.20775
 254.26065 254.05055 253.42644 252.39034 251.01224 249.18914 247.11403 244.96293
 242.76983 240.58973 238.42563 236.28052 234.15642 232.03932 230.08122 228.25412
 226.55301 225.04091 223.68681 222.47471 221.37260 220.34850 219.46840 218.62530
 217.88320 217.07909 216.19299 215.57289 215.03879 214.89920 214.56938 213.93851
 212.82343 210.59406 210.28514 212.85522 216.52989 220.91846 226.35654 230.98303
 234.97060 239.17490 243.42213 247.52545 251.42442 255.19038 258.85223 262.28830
 265.37418 268.17075 270.72818 273.03491 275.01303 276.67703 278.07065 279.27234
 280.35571 281.07773 281.45322 281.79227 282.42078 283.17868 284.07422 284.96701
 285.80396 286.53555 287.16577 287.98532
 366.78100 356.35091 345.79882 334.68072 323.09963 311.30954 299.19545 287.01436
 274.74226 262.65517 250.68008 239.99699 230.13490 221.25480 213.45271 206.47062
 200.32053 195.27444 191.87234 189.93025 188.98316 189.06307 189.91397 191.23788
 192.97879 195.08970 197.36861 199.74351 202.20442 204.70033 206.80424 208.66215
 210.30405 211.46496 211.70987 211.95378 211.90669 211.62759 211.27650 210.92241
 210.55532 210.28123 210.10513 209.98504 209.92895 210.27586 210.67777 211.08267
 211.89158 213.08549 214.35140 216.15031 218.09421 220.15312 222.26403 224.36294
 226.43885 228.53875 230.65166 232.77357 234.91848 237.10638 239.37829 241.76420
 244.40111 246.66802 248.68592 250.46683 251.89974 253.03865 253.87656 254.20846
 254.26137 254.05128 253.42719 252.39110 251.01300 249.18991 247.11482 244.96373
 242.77064 240.59054 238.42645 236.28136 234.15727 232.04018 230.08208 228.25499
 226.55390 225.04181 223.68772 222.47562 221.37353 220.34944 219.46935 218.62626
 217.88416 217.08007 216.19398 215.57389 215.03979 214.90932 214.60104 213.90480
 212.86105 210.61147 210.22850 212.80768 216.47629 220.87505 226.32408 230.97812
 234.95151 239.16759 243.41835 247.52374 251.42224 255.18254 258.83575 262.27414
 265.35922 268.15018 270.69113 272.96277 274.93243 276.62115 278.04602 279.26859
 280.33252 280.99979 281.31772 281.65079 282.26508 283.03827 283.93298 284.81952
 285.64746 286.38861 287.04193 287.87714
 366.78100 356.35073 345.79845 334.68018 323.09891 311.30864 299.19436 287.01309
 274.74082 262.65355 250.67827 239.99500 230.13273 221.25245 213.45018 206.46791
 200.31764 195.27136 191.86909 189.92682 188.97955 189.05927 189.91000 191.23373
 192.97445 195.08518 197.36391 199.73864 202.19936 204.69509 206.79882 208.65655
 210.29827 211.45900 211.70373 211.94745 211.90018 211.62091 211.26964 210.91536
 210.54809 210.27382 210.09755 209.97727 209.92100 210.26773 210.66946 211.07418
 211.88291 213.07664 214.34236 216.14109 218.08482 220.14355 222.25427 224.35300
 226.42873 228.52846 230.64118 232.76291 234.90764 237.09536 239.36709 241.75282
 244.38955 246.65627 248.67400 250.45473 251.88746 253.02618 253.86391 254.19564
 254.24836 254.03809 253.41382 252.37755 250.99927 249.17600 247.10073 244.94946
 242.75618 240.57591 238.41164 236.26636 234.14209 232.02482 230.06655 228.23927
 226.53800 225.02573 223.67146 222.45918 221.35691 220.33264 219.45236 218.60909
 217.86682 217.06255 216.17627 215.55600 215.02173 214.90887 214.64223 213.87810
 212.87621 210.61562 210.15527 212.78169 216.43878 220.84285 226.29697 230.97987
 234.93405 239.16287 243.41740 247.52458 251.42227 255.17726 258.82254 262.26248
 265.34741 268.12891 270.64404 272.87613 274.83490 276.54388 278.00015 279.24619
 280.27448 280.89233 281.19168 281.53403 282.13959 282.92783 283.84109 284.72440
 285.54733 286.30670 286.98874 287.85791
 366.78100 356.35063 345.79827 334.67990 323.09854 311.30817 299.19380 287.01244
 274.74007 262.65271 250.67734 239.99397 230.13161 221.25124 213.44888 206.46651
 200.31614 195.26978 191.86741 189.92505 188.97768 189.05732 189.90795 191.23158
 192.97222 195.08285 197.36149 199.73612 202.19675 204.69239 206.79602 208.65366
 210.29529 211.45592 211.70056 211.94419 211.89683 211.61746 211.26609 210.91173
 210.54436 210.27000 210.09363 209.97326 209.91690 210.26353 210.66517 211.06980
 211.87843 213.07207 214.33770 216.13634 218.07997 220.13860 222.24924 224.34787
 226.42351 228.52314 230.63578 232.75741 234.90204 237.08968 239.36131 241.74695
 244.38358 246.65021 248.66785 250.44848 251.88112 253.01975 253.85738 254.18902
 254.24165 254.03129 253.40692 252.37055 250.99219 249.16882 247.09346 244.94209
 242.74872 240.56836 238.40399 236.25863 234.13426 232.01689 230.05853 228.23116
 226.52980 225.01743 223.66306 222.45070 221.34833 220.32397 219.44360 218.60024
 217.85787 217.05350 216.16714 215.54677 215.01241 214.91144 214.67290 213.86813
 212.88957 210.61011 210.13654 212.75296 216.40575 220.80981 226.26666 230.97282
 234.91435 239.15382 243.41368 247.52280 251.41924 255.17024 258.81088 262.25415
 265.33929 268.10818 270.59378 272.78833 274.73395 276.45517 277.93210 279.18500
 280.17175 280.77490 281.05524 281.40964 282.04846 282.87997 283.84030 284.73337
 285.56677 286.34314 287.03256 287.91113
 366.78100 356.35051 345.79802 334.67953 323.09804 311.30754 299.19305 287.01156
 274.73907 262.65158 250.67609 239.99260 230.13011 221.24962 213.44713 206.46463
 200.31414 195.26765 191.86516 189.92267 188.97518 189.05469 189.90520 191.22871
 192.96921 195.07972 197.35823 199.73274 202.19325 204.68876 206.79227 208.64978
 210.29129 211.45179 211.69630 211.93981 211.89232 211.61283 211.26134 210.90685
 210.53936 210.26487 210.08838 209.96788 209.91139 210.25790 210.65941 211.06392
 211.87243 213.06594 214.33145 216.12996 218.07346 220.13197 222.24248 224.34099
 226.41650 228.51601 230.62852 232.75003 234.89454 237.08204 239.35355 241.73906
 244.37557 246.64208 248.65959 250.44010 251.87261 253.01112 253.84863 254.18013
 254.23264 254.02215 253.39766 252.36117 250.98268 249.15919 247.08370 244.93221
 242.73871 240.55822 238.39373 236.24824 234.12375 232.00626 230.04777 228.22028
 226.51879 225.00629 223.65180 222.43931 221.33682 220.31233 219.43184 218.58835
 217.84586 217.04137 216.15488 215.53438 214.99989 214.91017 214.69818 213.86375
 212.89975 210.61397 210.11916 212.72348 216.37395 220.77377 226.23727 230.95346
 234.89290 239.14198 243.40849 247.51964 251.41397 255.16270 258.80389 262.25482
 265.34085 268.09393 270.54648 272.70300 274.63034 276.35486 277.84070 279.08777
 280.04456 280.64050 280.92529 281.31387 282.00757 282.92255 283.88727 284.78662
 285.63077 286.42050 287.11514 288.00040
 366.78100 356.35045 345.79790 334.67935 323.09780 311.30725 299.19270 287.01115
 274.73860 262.65105 250.67550 239.99195 230.12940 221.24885 213.44630 206.46375
 200.31320 195.26665 191.86410 189.92155 188.97400 189.05345 189.90390 191.22735
 192.96780 195.07825 197.35670 199.73115 202.19160 204.68705 206.79050 208.64795
 210.28940 211.44985 211.69430 211.93775 211.89020 211.61065 211.25910 210.90455
 210.53700 210.26245 210.08590 209.96535 209.90880 210.25525 210.65670 211.06115
 211.86960 213.06305 214.32850 216.12695 218.07040 220.12885 222.23930 224.33775
 226.41320 228.51265 230.62510 232.74655 234.89100 237.07845 239.34990 241.73535
 244.37180 246.63825 248.65570 250.43615 251.86860 253.00705 253.84450 254.17595
 254.22840 254.01785 253.39330 252.35675 250.97820 249.15465 247.07910 244.92755
 242.73400 240.55345 238.38890 236.24335 234.11880 232.00125 230.04270 228.21515
 226.51360 225.00105 223.64650 222.43395 221.33140 220.30685 219.42630 218.58275
 217.84020 217.03565 216.14910 215.52855 214.99400 214.90941 214.70952 213.87126
 212.91847 210.62906 210.09195 212.68605 216.33638 220.73044 226.20493 230.91911
 234.86513 239.12505 243.39984 247.51341 251.40569 255.15477 258.80237 262.26602
 265.35175 268.08618 270.50345 272.61768 274.51968 276.24078 277.73083 278.96857
 279.92056 280.54843 280.92288 281.36530 282.06583 282.95251 283.91806 284.82092
 285.66574 286.44211 287.12308 287.99094
 366.78100 356.35046 345.79793 334.67939 323.09786 311.30732 299.19278 287.01125
 274.73871 262.65118 250.67564 239.99210 230.12957 221.24903 213.44650 206.46396
 200.31343 195.26689 191.86435 189.92182 188.97428 189.05375 189.90421 191.22767
 192.96814 195.07860 197.35707 199.73153 202.19199 204.68746 206.79092 208.64839
 210.28985 211.45031 211.69478 211.93824 211.89071 211.61117 211.25963 210.90510
 210.53756 210.26303 210.08649 209.96596 209.90942 210.25588 210.65735 211.06181
 211.87028 213.06374 214.32920 216.12767 218.07113 220.12960 222.24006 224.33852
 226.41399 228.51345 230.62592 232.74738 234.89184 237.07931 239.35077 241.73624
 244.37270 246.63916 248.65663 250.43709 251.86956 253.00802 253.84548 254.17695
 254.22941 254.01888 253.39434 252.35781 250.97927 249.15573 247.08020 244.92866
 242.73513 240.55459 238.39005 236.24452 234.11998 232.00245 230.04391 228.21637
 226.51484 225.00230 223.64777 222.43523 221.33269 220.30816 219.42762 218.58409
 217.84155 217.03701 216.15048 215.52994 214.99541 214.91267 214.71724 213.87521
 212.95345 210.65910 210.06189 212.64680 216.29060 220.67514 226.16211 230.87999
 234.83304 239.10248 243.38692 247.50491 251.39722 255.14890 258.80420 262.27859
 265.36356 268.07874 270.45984 272.52957 274.40454 276.11865 277.61380 278.86356
 279.85239 280.55551 281.00607 281.46591 282.15686 283.02237 283.98849 284.89157
 285.74118 286.51175 287.18323 288.03900
 366.78100 356.35061 345.79823 334.67984 323.09845 311.30806 299.19368 287.01229
 274.73990 262.65252 250.67713 239.99374 230.13136 221.25097 213.44858 206.46619
 200.31581 195.26942 191.86703 189.92465 188.97726 189.05687 189.90749 191.23110
 192.97171 195.08232 197.36094 199.73555 202.19616 204.69178 206.79539 208.65300
 210.29462 211.45523 211.69984 211.94345 211.89607 211.61668 211.26529 210.91091
 210.54352 210.26913 210.09275 209.97236 209.91597 210.26258 210.66420 211.06881
 211.87742 213.07104 214.33665 216.13526 218.07888 220.13749 222.24810 224.34671
 226.42233 228.52194 230.63455 232.75617 234.90078 237.08839 239.36001 241.74562
 244.38223 246.64884 248.66646 250.44707 251.87968 253.01830 253.85591 254.18752
 254.24014 254.02975 253.40536 252.36897 250.99059 249.16720 247.09181 244.94043
 242.74704 240.56665 238.40227 236.25688 234.13249 232.01510 230.05672 228.22933
 226.52794 225.01556 223.66117 222.44878 221.34640 220.32201 219.44162 218.59823
 217.85585 217.05146 216.16507 215.54469 215.01030 214.92422 214.72086 213.88472
 212.98019 210.68271 210.09012 212.60150 216.24294 220.63329 226.11368 230.84950
 234.79607 239.07756 243.37209 247.49736 251.39310 255.14787 258.81024 262.28793
 265.37094 268.06573 270.40927 272.43976 274.29022 275.99979 277.51126 278.80222
 279.83911 280.58600 281.03076 281.50739 282.24164 283.11475 284.07687 284.97421
 285.84747 286.62820 287.31021 288.17938
 366.78100 356.35054 345.79809 334.67963 323.09818 311.30772 299.19327 287.01181
 274.73936 262.65190 250.67645 239.99299 230.13054 221.25008 213.44763 206.46517
 200.31472 195.26826 191.86581 189.92335 188.97590 189.05544 189.90599 191.22953
 192.97008 195.08062 197.35917 199.73371 202.19426 204.68980 206.79335 208.65089
 210.29244 211.45298 211.69753 211.94107 211.89362 211.61416 211.26271 210.90825
 210.54080 210.26634 210.08989 209.96943 209.91298 210.25952 210.66107 211.06561
 211.87416 213.06770 214.33325 216.13179 218.07534 220.13388 222.24443 224.34297
 226.41852 228.51806 230.63061 232.75215 234.89670 237.08424 239.35579 241.74133
 244.37788 246.64442 248.66197 250.44251 251.87506 253.01360 253.85115 254.18269
 254.23524 254.02478 253.40033 252.36387 250.98542 249.16196 247.08651 244.93505
 242.74160 240.56114 238.39669 236.25123 234.12678 232.00932 230.05087 228.22341
 226.52195 225.00950 223.65504 222.44259 221.34013 220.31568 219.43522 218.59177
 217.84931 217.04486 216.15840 215.53795 215.00349 214.92491 214.73778 213.87402
 213.01547 210.69308 210.08604 212.60147 216.20268 220.57651 226.06616 230.82263
 234.76183 239.05380 243.35732 247.48819 251.38759 255.14775 258.82013 262.30215
 265.38431 268.06003 270.36234 272.34964 274.17368 275.88242 277.42264 278.74561
 279.77811 280.50287 280.97531 281.54272 282.28586 283.22083 284.19376 285.10788
 285.99542 286.80066 287.50409 288.40054
 366.78100 356.35005 345.79710 334.67815 323.09620 311.30526 299.19031 287.00836
 274.73541 262.64746 250.67151 239.98756 230.12461 221.24367 213.44072 206.45777
 200.30682 195.25987 191.85692 189.91397 188.96602 189.04507 189.89513 191.21818
 192.95823 195.06828 197.34633 199.72038 202.18043 204.67548 206.77854 208.63559
 210.27664 211.43669 211.68074 211.92379 211.87584 211.59589 211.24394 210.88900
 210.52105 210.24610 210.06915 209.94820 209.89125 210.23730 210.63835 211.04240
 211.85046 213.04351 214.30856 216.10661 218.04966 220.10771 222.21776 224.31581
 226.39087 228.48992 230.60197 232.72302 234.86707 237.05412 239.32517 241.71022
 244.34627 246.61233 248.62938 250.40943 251.84148 252.97953 253.81658 254.14763
 254.19968 253.98874 253.36379 252.32684 250.94789 249.12394 247.04799 244.89604
 242.70209 240.52114 238.35620 236.21025 234.08530 231.96735 230.00840 228.18045
 226.47850 224.96555 223.61061 222.39766 221.29471 220.26976 219.38881 218.54486
 217.80191 216.99696 216.11001 215.48907 214.95412 214.90302 214.77608 213.84784
 213.04123 210.77417 210.08597 212.46989 216.12744 220.55464 226.03259 230.79568
 234.73135 239.03412 243.34894 247.48306 251.38097 255.14563 258.83456 262.32916
 265.40839 268.05615 270.31345 272.25830 274.05899 275.76712 277.32208 278.63730
 279.61789 280.34000 280.89764 281.52744 282.39374 283.45905 284.45737 285.37613
 286.23355 286.99707 287.66406 288.51410
 366.78100 356.34966 345.79632 334.67698 323.09464 311.30330 299.18796 287.00562
 274.73228 262.64394 250.66760 239.98326 230.11992 221.23858 213.43524 206.45190
 200.30056 195.25322 191.84988 189.90654 188.95820 189.03686 189.88652 191.20917
 192.94883 195.05849 197.33615 199.70981 202.16947 204.66413 206.76679 208.62345
 210.26411 211.42377 211.66743 211.91009 211.86175 211.58141 211.22907 210.87373
 210.50539 210.23005 210.05271 209.93137 209.87403 210.21969 210.62035 211.02401
 211.83167 213.02433 214.28899 216.08665 218.02931 220.08697 222.19663 224.29429
 226.36895 228.46761 230.57927 232.69993 234.84359 237.03025 239.30091 241.68557
 244.32123 246.58689 248.60355 250.38321 251.81487 252.95252 253.78918 254.11984
 254.17150 253.96016 253.33482 252.29748 250.91814 249.09380 247.01746 244.86512
 242.67078 240.48944 238.32410 236.17776 234.05242 231.93408 229.97474 228.14640
 226.44406 224.93072 223.57538 222.36204 221.25870 220.23336 219.35202 218.50768
 217.76434 216.95900 216.07166 215.45032 214.91498 214.88496 214.80420 213.84311
 213.04259 210.84868 210.10265 212.37781 216.04861 220.51669 225.99860 230.76292
 234.70096 239.01259 243.33626 247.47704 251.38083 255.15236 258.85025 262.34827
 265.42636 268.05832 270.28055 272.17981 273.94565 275.64282 277.19632 278.48880
 279.44901 280.21741 280.88635 281.64096 282.54495 283.56323 284.54742 285.46194
 286.30948 287.06421 287.72351 288.56375
 366.78100 356.34944 345.79588 334.67633 323.09377 311.30221 299.18665 287.00409
 274.73054 262.64198 250.66542 239.98086 230.11730 221.23574 213.43219 206.44863
 200.29707 195.24951 191.84595 189.90240 188.95384 189.03228 189.88172 191.20416
 192.94361 195.05305 197.33049 199.70393 202.16337 204.65781 206.76026 208.61670
 210.25714 211.41658 211.66002 211.90247 211.85391 211.57335 211.22079 210.86523
 210.49668 210.22112 210.04356 209.92200 209.86444 210.20988 210.61033 211.01377
 211.82121 213.01365 214.27809 216.07554 218.01798 220.07542 222.18486 224.28230
 226.35675 228.45519 230.56663 232.68707 234.83051 237.01695 239.28740 241.67184
 244.30728 246.57272 248.58916 250.36861 251.80005 252.93749 253.77393 254.10437
 254.15582 253.94426 253.31870 252.28114 250.90158 249.07703 247.00047 244.84791
 242.65335 240.47179 238.30623 236.15968 234.03412 231.91556 229.95600 228.12744
 226.42489 224.91133 223.55577 222.34221 221.23865 220.21310 219.33154 218.48698
 217.74342 216.93786 216.05030 215.42875 214.89319 214.87492 214.81882 213.85551
 213.00833 210.92790 210.13762 212.23213 216.01381 220.53989 225.97334 230.72470
 234.66081 238.98634 243.32254 247.45586 251.34286 255.12106 258.85959 262.39389
 265.47095 268.06354 270.23401 272.08990 273.82922 275.50998 277.06784 278.37958
 279.34409 280.17212 280.92789 281.76154 282.77939 283.85767 284.88968 285.81583
 286.64096 287.37576 288.01767 288.83569
 366.78100 356.34871 345.79442 334.67413 323.09085 311.29856 299.18227 286.99898
 274.72469 262.63540 250.65812 239.97283 230.10854 221.22625 213.42196 206.43767
 200.28539 195.23710 191.83281 189.88852 188.93923 189.01694 189.86566 191.18737
 192.92608 195.03479 197.31150 199.68421 202.14292 204.63664 206.73835 208.59406
 210.23377 211.39248 211.63519 211.87691 211.82762 211.54633 211.19304 210.83675
 210.46746 210.19118 210.01289 209.89060 209.83231 210.17702 210.57673 210.97945
 211.78616 212.97787 214.24158 216.03829 217.98000 220.03671 222.14543 224.24214
 226.31585 228.41356 230.52427 232.64398 234.78670 236.97241 239.24212 241.62583
 244.26054 246.52525 248.54097 250.31968 251.75039 252.88710 253.72281 254.05252
 254.10324 253.89095 253.26466 252.22637 250.84608 249.02079 246.94350 244.79022
 242.59493 240.41264 238.24635 236.09906 233.97277 231.85349 229.89320 228.06391
 226.36062 224.84633 223.49004 222.27576 221.17147 220.14518 219.26289 218.41760
 217.67331 216.86703 215.97874 215.35645 214.82016 214.81187 214.77571 213.87984
 213.00592 210.99709 210.17838 212.09677 216.00949 220.58632 225.94798 230.68477
 234.61789 238.96179 243.31441 247.43727 251.30243 255.08653 258.86942 262.43793
 265.50720 268.06033 270.18674 272.00885 273.72195 275.37973 276.95355 278.27881
 279.26337 280.12885 280.96786 281.91333 282.95895 284.04208 285.08289 285.82074
 286.42459 286.96234 287.43207 288.03073
 366.78100 356.34777 345.79255 334.67132 323.08709 311.29387 299.17664 286.99242
 274.71719 262.62696 250.64874 239.96251 230.09728 221.21406 213.40883 206.42360
 200.27038 195.22115 191.81593 189.87070 188.92047 188.99725 189.84502 191.16579
 192.90357 195.01134 197.28711 199.65889 202.11666 204.60944 206.71021 208.56498
 210.20376 211.36153 211.60330 211.84408 211.79385 211.51162 211.15740 210.80017
 210.42995 210.15272 209.97349 209.85027 209.79104 210.13481 210.53359 210.93536
 211.74113 212.93191 214.19468 215.99046 217.93123 219.98700 222.09478 224.19055
 226.26332 228.36010 230.46987 232.58864 234.73042 236.91519 239.18397 241.56674
 244.20051 246.46429 248.47906 250.25683 251.68661 252.82238 253.65715 253.98593
 254.03570 253.82248 253.19525 252.15602 250.77480 248.94857 246.87034 244.71612
 242.51989 240.33666 238.16944 236.02121 233.89399 231.77376 229.81253 227.98231
 226.27808 224.76285 223.40563 222.19040 221.08518 220.05795 219.17472 218.32850
 217.58327 216.77604 215.88682 215.26359 214.72636 214.72569 214.70485 213.91180
 213.03751 211.05693 210.21628 212.01471 215.99802 220.60056 225.91336 230.64226
 234.58041 238.94371 243.31276 247.42986 251.28012 255.06944 258.88239 262.46973
 265.53101 268.05801 270.15598 271.95166 273.63654 275.26971 276.85202 278.17725
 279.17783 280.07092 281.00833 282.03693 283.12543 284.23465 285.28183 286.12073
 286.87521 287.54709 288.13400 288.88199
 366.78100 356.34679 345.79059 334.66838 323.08318 311.28897 299.17077 286.98556
 274.70936 262.61815 250.63895 239.95174 230.08554 221.20133 213.39513 206.40892
 200.25472 195.20451 191.79831 189.85210 188.90090 188.97669 189.82349 191.14328
 192.88008 194.98687 197.26167 199.63246 202.08926 204.58105 206.68085 208.53464
 210.17244 211.32923 211.57003 211.80982 211.75862 211.47541 211.12021 210.76200
 210.39080 210.11259 209.93239 209.80818 209.74798 210.09077 210.48857 210.88936
 211.69416 212.88395 214.14575 215.94054 217.88034 219.93513 222.04193 224.13672
 226.20852 228.30431 230.41311 232.53090 234.67170 236.85549 239.12329 241.50508
 244.13788 246.40067 248.41447 250.19126 251.62006 252.75485 253.58865 253.91644
 253.96524 253.75103 253.12283 252.08262 250.70042 248.87321 246.79401 244.63880
 242.44160 240.25739 238.08919 235.93998 233.81178 231.69057 229.72837 227.89716
 226.19195 224.67575 223.31754 222.10134 220.99513 219.96693 219.08272 218.23552
 217.48931 216.68111 215.79090 215.16670 214.62849 214.63002 214.61565 213.98395
 213.15782 211.16249 210.28291 212.01019 216.02107 220.62245 225.89549 230.61308
 234.55455 238.93822 243.32187 247.42888 251.26025 255.05560 258.89630 262.49786
 265.54715 268.04965 270.12408 271.89975 273.55890 275.17523 276.75150 278.07175
 279.07895 280.00427 281.03433 282.14413 283.28174 284.44769 285.51385 286.18893
 286.79608 287.33676 287.80908 288.41098
 354.97500 345.04800 334.58700 324.11500 313.32600 302.53700 291.65000 280.76700
 269.93100 259.19300 248.62200 238.61700 229.08700 220.35500 212.54000 205.53500
 199.46400 194.49300 191.14300 189.19000 188.08900 188.01400 188.72400 189.90600
 191.46900 193.38200 195.40300 197.55600 199.80700 202.06000 204.28800 206.47900
 208.55200 210.37800 212.02500 213.65900 214.99800 216.11800 217.17200 218.25900
 219.49400 220.64500 221.67900 222.61400 223.54500 224.98200 226.57100 228.19000
 229.79700 231.81100 233.86500 235.97200 238.24200 240.55300 242.89900 245.25300
 247.48800 249.53500 251.36600 252.84800 254.09800 255.16700 256.02700 256.25300
 256.09500 255.54300 253.93500 252.56600 251.38400 250.24500 249.05200 247.70100
 246.01600 243.99600 241.78400 239.39300 236.81300 234.22300 231.65800 229.14400
 226.74000 224.47300 222.33500 220.32500 218.44000 216.67700 214.96200 213.47200
 212.20000 211.10800 210.26000 209.63900 209.24400 209.03100 209.05800 209.33300
 209.78400 210.62600 211.33100 212.39100 213.62500 214.84668 217.72949 219.47640
 220.32566 220.86828 220.88710 220.27371 219.43733 218.84250 219.04934 220.86203
 222.60583 225.72206 229.03064 232.61777 236.12270 239.51333 242.70767 245.68587
 248.41061 250.90679 253.19353 254.91714 256.48655 257.94920 259.39966 260.69384
 261.81714 262.77997 263.71679 264.54570 265.26305 265.89772 266.47676 267.00133
 267.47312 267.89325 268.26027 268.72800
