|-------------------------------------------------------------------------|
|   File Name : in_temp.dat
|   Subject   : temperature profiles used for initial guess atmosphere
|   File Type : input of gmtr
|   Data Type : atmospherical data
|   Author/s  : WRF-Chem
|   Date      : Fri Jul 26 15:39:24 2024
|-------------------------------------------------------------------------|

 WRF-Chem temperature
#
 values of T (K)    (8f10.5)
#
 354.97500 345.04800 334.58700 324.11500 313.32600 302.53700 291.65000 280.76700
 269.93100 259.19300 248.62200 238.61700 229.08700 220.35500 212.54000 205.53500
 199.46400 194.49300 191.14300 189.19000 188.08900 188.01400 188.72400 189.90600
 191.46900 193.38200 195.40300 197.55600 199.80700 202.06000 204.28800 206.47900
 208.55200 210.37800 212.02500 213.65900 214.99800 216.11800 217.17200 218.25900
 219.49400 220.64500 221.67900 222.61400 223.54500 224.98200 226.57100 228.19000
 229.79700 231.81100 233.86500 235.97200 238.24200 240.55300 242.89900 245.25300
 247.48800 249.53500 251.36600 252.84800 254.09800 255.16700 256.02700 256.25300
 256.09500 255.54300 253.93500 252.56600 251.38400 250.24500 249.05200 247.70100
 246.01600 243.99600 241.78400 239.39300 236.81300 234.22300 231.65800 229.14400
 226.74000 224.47300 222.33500 220.32500 218.44000 216.67700 214.96200 213.47200
 212.20000 211.10800 210.26000 209.63900 209.24400 209.03100 209.05800 209.33300
 209.78400 210.62600 211.33100 212.39100 213.62500 214.84668 217.72949 219.47640
 220.32566 220.86828 220.88710 220.27371 219.43733 218.84250 219.04934 220.86203
 222.60583 225.72206 229.03064 232.61777 236.12270 239.51333 242.70767 245.68587
 248.41061 250.90679 253.19353 254.91714 256.48655 257.94920 259.39966 260.69384
 261.81714 262.77997 263.71679 264.54570 265.26305 265.89772 266.47676 267.00133
 267.47312 267.89325 268.26027 268.72800
 366.78100 356.33500 345.76700 334.63300 323.03600 311.23000 299.10000 286.90300
 274.61500 262.51200 250.52100 239.82200 229.94400 221.04800 213.23000 206.23200
 200.06600 195.00400 191.58600 189.62800 188.66500 188.72900 189.56400 190.87200
 192.59700 194.69200 196.95500 199.31400 201.75900 204.23900 206.32700 208.16900
 209.79500 210.94000 211.16900 211.39700 211.33400 211.03900 210.67200 210.30200
 209.91900 209.62900 209.43700 209.30100 209.22900 209.56000 209.94600 210.33500
 211.12800 212.30600 213.55600 215.33900 217.26700 219.31000 221.40500 223.48800
 225.54800 227.63200 229.72900 231.83500 233.96400 236.13600 238.39200 240.76200
 243.38300 245.63400 247.63600 249.40100 250.81800 251.94100 252.76300 253.07900
 253.11600 252.89000 252.25000 251.19800 249.80400 247.96500 245.87400 243.70700
 241.49800 239.30200 237.12200 234.96100 232.82100 230.68800 228.71400 226.87100
 225.15400 223.62600 222.25600 221.02800 219.91000 218.87000 217.97400 217.11500
 216.35700 215.53700 214.63500 213.99900 213.44900 212.85855 212.01316 212.61654
 214.26826 216.08686 218.14273 220.53346 223.40855 226.78828 231.49734 235.90155
 239.42278 243.28576 247.23140 251.11907 254.80144 258.23331 261.38913 264.27520
 266.89312 269.26852 271.44504 273.08845 274.58484 275.98591 277.39845 278.65879
 279.75272 280.69038 281.56708 282.34086 283.01050 283.60295 284.14348 284.63317
 285.07358 285.46577 285.80838 286.24500
 381.81900 372.39900 361.20600 349.77600 337.62200 324.85300 311.81000 298.35300
 284.86000 271.32400 258.56100 246.30400 236.08700 226.79600 218.44800 211.29000
 205.52200 200.89400 197.38100 194.84800 193.01500 192.31500 192.25000 192.43100
 192.91200 193.53700 194.13600 194.71200 195.26200 195.83100 196.39300 196.97600
 197.60400 198.14900 198.58400 199.05700 199.69500 200.37800 201.05400 201.70800
 202.31300 202.85700 203.35500 203.86200 204.56900 205.29700 206.02600 206.98700
 208.19300 209.44100 210.96900 212.57600 214.46200 216.51300 218.63000 220.85300
 223.34100 225.96200 228.73900 231.69700 234.70600 237.70600 240.69200 243.65700
 246.73700 249.69900 252.52100 255.06300 257.29000 259.23300 260.63300 261.68000
 262.46100 262.79800 262.69100 262.22400 261.06900 259.52500 257.70700 255.50700
 253.00100 250.30200 247.39800 244.45200 241.65400 239.05400 236.73300 234.59000
 232.59500 230.72500 228.83400 226.82600 224.66600 222.38700 220.10400 217.71500
 215.45900 213.06600 210.54600 208.09300 205.35400 202.08130 196.05959 200.71215
 209.01611 216.90438 223.84126 229.78593 235.00632 240.20838 245.98943 250.68668
 254.32982 257.93487 261.55666 264.96801 268.15192 271.06452 273.76717 276.25691
 278.57680 280.74479 282.77456 284.60533 286.27232 287.81705 289.31715 290.65561
 291.81734 292.81312 293.70701 294.49387 295.17482 295.77730 296.32696 296.82492
 297.27278 297.67160 298.02000 298.46400
 399.33000 389.90700 379.81300 368.66800 357.52200 345.30100 333.07400 320.22700
 307.21600 293.84800 280.37600 267.29600 254.61000 242.98700 232.15100 221.97700
 212.67200 204.28600 197.66900 192.82100 189.48600 187.45200 186.81400 187.08900
 187.78100 189.05400 190.64800 192.54200 194.63000 196.75200 198.67100 200.15800
 201.53500 202.48700 202.97500 203.34000 203.53900 203.49700 203.38500 203.24700
 203.00500 202.78600 202.60300 202.43700 202.42600 202.88800 203.42000 203.95100
 204.89500 205.99200 207.30100 208.95800 210.73800 213.10000 215.56400 218.18000
 220.96600 223.91800 226.96100 230.09200 233.29300 236.55700 239.95500 243.53700
 246.84500 249.39000 251.54200 253.47400 255.19500 256.48400 257.43100 258.05900
 258.21200 258.04000 257.58200 256.64300 255.23900 253.50700 251.40800 249.05600
 246.57600 243.99400 241.38900 238.83000 236.34400 233.98600 231.96900 230.11800
 228.42300 226.89900 225.54800 224.29700 223.10500 221.96500 220.95800 220.11300
 219.49000 218.92000 218.32500 217.88100 217.42300 216.96366 216.35568 216.80261
 217.73415 218.28582 218.64258 219.10077 220.44626 222.53987 226.38451 230.35736
 233.59734 237.39164 241.29814 245.22796 248.98002 252.51130 255.78595 258.80109
 261.54781 264.05210 266.34239 268.04198 269.58951 271.01303 272.35754 273.55718
 274.59842 275.49092 276.28989 276.99307 277.60161 278.14001 278.63122 279.07623
 279.47646 279.83287 280.14422 280.54100
 399.73800 389.78500 379.66200 368.15100 356.64100 344.35000 331.79200 318.88800
 305.72600 292.49300 279.20900 266.73800 254.69600 244.21100 234.45700 225.43300
 217.56900 210.45100 204.30000 199.30600 195.45800 192.57600 191.02700 190.38600
 190.23900 190.53400 191.16600 191.92500 192.79500 193.76600 194.73200 195.31200
 195.80000 196.05200 196.11500 196.11500 196.03900 195.72300 195.34000 194.98900
 194.75100 194.79200 195.13300 195.59800 196.50600 198.13600 199.85800 201.56600
 204.17900 206.82300 209.89300 213.28400 216.82800 220.60500 224.38700 228.20900
 232.03200 235.82500 239.56000 243.25800 246.84500 250.20100 253.70900 257.46800
 261.53000 264.22100 266.60100 268.68100 270.32900 271.74100 272.83600 273.47400
 273.89800 274.00200 273.75700 273.28800 272.37100 271.10000 269.58900 267.77900
 265.81600 263.72100 261.39300 258.91600 256.29800 253.42300 250.33100 247.11400
 243.83700 240.52900 237.24900 233.99900 230.72800 227.51500 224.25400 220.95200
 217.62700 213.65600 210.12100 206.78900 204.01000 201.99491 199.07309 198.76551
 199.40006 200.48994 201.46112 202.31912 203.45100 204.96110 207.47502 210.85391
 213.70530 217.29629 220.99574 224.72316 228.28753 231.64854 234.68024 237.40893
 239.70644 241.60899 243.46854 245.67368 247.68154 249.52395 251.24767 252.78566
 254.12057 255.26479 256.23740 257.09036 257.82852 258.48160 259.07744 259.61723
 260.10271 260.53504 260.91270 261.39400
 399.73800 389.78500 379.66200 368.15100 356.64100 344.35000 331.79200 318.88800
 305.72600 292.49300 279.20900 266.73800 254.69600 244.21100 234.45700 225.43300
 217.56900 210.45100 204.30000 199.30600 195.45800 192.57600 191.02700 190.38600
 190.23900 190.53400 191.16600 191.92500 192.79500 193.76600 194.73200 195.31200
 195.80000 196.05200 196.11500 196.11500 196.03900 195.72300 195.34000 194.98900
 194.75100 194.79200 195.13300 195.59800 196.50600 198.13600 199.85800 201.56600
 204.17900 206.82300 209.89300 213.28400 216.82800 220.60500 224.38700 228.20900
 232.03200 235.82500 239.56000 243.25800 246.84500 250.20100 253.70900 257.46800
 261.53000 264.22100 266.60100 268.68100 270.32900 271.74100 272.83600 273.47400
 273.89800 274.00200 273.75700 273.28800 272.37100 271.10000 269.58900 267.77900
 265.81600 263.72100 261.39300 258.91600 256.29800 253.42300 250.33100 247.11400
 243.83700 240.52900 237.24900 233.99900 230.72800 227.51500 224.25400 220.95200
 217.62700 213.65600 210.12100 206.78900 204.01000 201.99491 199.07309 198.76551
 199.40006 200.48994 201.46112 202.31912 203.45100 204.96110 207.47502 210.85391
 213.70530 217.29629 220.99574 224.72316 228.28753 231.64854 234.68024 237.40893
 239.70644 241.60899 243.46854 245.67368 247.68154 249.52395 251.24767 252.78566
 254.12057 255.26479 256.23740 257.09036 257.82852 258.48160 259.07744 259.61723
 260.10271 260.53504 260.91270 261.39400
 399.33000 389.90700 379.81300 368.66800 357.52200 345.30100 333.07400 320.22700
 307.21600 293.84800 280.37600 267.29600 254.61000 242.98700 232.15100 221.97700
 212.67200 204.28600 197.66900 192.82100 189.48600 187.45200 186.81400 187.08900
 187.78100 189.05400 190.64800 192.54200 194.63000 196.75200 198.67100 200.15800
 201.53500 202.48700 202.97500 203.34000 203.53900 203.49700 203.38500 203.24700
 203.00500 202.78600 202.60300 202.43700 202.42600 202.88800 203.42000 203.95100
 204.89500 205.99200 207.30100 208.95800 210.73800 213.10000 215.56400 218.18000
 220.96600 223.91800 226.96100 230.09200 233.29300 236.55700 239.95500 243.53700
 246.84500 249.39000 251.54200 253.47400 255.19500 256.48400 257.43100 258.05900
 258.21200 258.04000 257.58200 256.64300 255.23900 253.50700 251.40800 249.05600
 246.57600 243.99400 241.38900 238.83000 236.34400 233.98600 231.96900 230.11800
 228.42300 226.89900 225.54800 224.29700 223.10500 221.96500 220.95800 220.11300
 219.49000 218.92000 218.32500 217.88100 217.42300 216.96366 216.35568 216.80261
 217.73415 218.28582 218.64258 219.10077 220.44626 222.53987 226.38451 230.35736
 233.59734 237.39164 241.29814 245.22796 248.98002 252.51130 255.78595 258.80109
 261.54781 264.05210 266.34239 268.04198 269.58951 271.01303 272.35754 273.55718
 274.59842 275.49092 276.28989 276.99307 277.60161 278.14001 278.63122 279.07623
 279.47646 279.83287 280.14422 280.54100
 381.81900 372.39900 361.20600 349.77600 337.62200 324.85300 311.81000 298.35300
 284.86000 271.32400 258.56100 246.30400 236.08700 226.79600 218.44800 211.29000
 205.52200 200.89400 197.38100 194.84800 193.01500 192.31500 192.25000 192.43100
 192.91200 193.53700 194.13600 194.71200 195.26200 195.83100 196.39300 196.97600
 197.60400 198.14900 198.58400 199.05700 199.69500 200.37800 201.05400 201.70800
 202.31300 202.85700 203.35500 203.86200 204.56900 205.29700 206.02600 206.98700
 208.19300 209.44100 210.96900 212.57600 214.46200 216.51300 218.63000 220.85300
 223.34100 225.96200 228.73900 231.69700 234.70600 237.70600 240.69200 243.65700
 246.73700 249.69900 252.52100 255.06300 257.29000 259.23300 260.63300 261.68000
 262.46100 262.79800 262.69100 262.22400 261.06900 259.52500 257.70700 255.50700
 253.00100 250.30200 247.39800 244.45200 241.65400 239.05400 236.73300 234.59000
 232.59500 230.72500 228.83400 226.82600 224.66600 222.38700 220.10400 217.71500
 215.45900 213.06600 210.54600 208.09300 205.35400 202.08130 196.05959 200.71215
 209.01611 216.90438 223.84126 229.78593 235.00632 240.20838 245.98943 250.68668
 254.32982 257.93487 261.55666 264.96801 268.15192 271.06452 273.76717 276.25691
 278.57680 280.74479 282.77456 284.60533 286.27232 287.81705 289.31715 290.65561
 291.81734 292.81312 293.70701 294.49387 295.17482 295.77730 296.32696 296.82492
 297.27278 297.67160 298.02000 298.46400
 366.78100 356.33642 345.76983 334.63725 323.04167 311.23709 299.10850 286.91292
 274.62634 262.52476 250.53517 239.83759 229.96101 221.06642 213.24984 206.25326
 200.08868 195.02809 191.61151 189.65493 188.69335 188.75876 189.59518 190.90460
 192.63101 194.72743 196.99185 199.35227 201.79868 204.28010 206.36952 208.21294
 209.84035 210.98677 211.21719 211.44661 211.38502 211.09144 210.72586 210.35727
 209.97569 209.68711 209.49653 209.36194 209.29136 209.62378 210.01120 210.40161
 211.19603 212.37545 213.62686 215.41128 217.34070 219.38512 221.48153 223.56595
 225.62737 227.71279 229.81120 231.91862 234.04904 236.22245 238.47987 240.85129
 243.47371 245.72612 247.72954 249.49596 250.91438 252.03879 252.86221 253.17963
 253.21804 252.99346 252.35488 251.30430 249.91171 248.07413 245.98455 243.81897
 241.61138 239.41680 237.23822 235.07863 232.94005 230.80847 228.83589 226.99430
 225.27872 223.75214 222.38356 221.15697 220.04039 219.00181 218.10723 217.24964
 216.49306 215.67448 214.77389 214.13931 213.59073 212.82884 211.03267 210.39279
 210.61128 212.04117 213.79536 215.91536 219.16243 223.71758 229.54828 234.71742
 238.62898 242.49202 246.40233 250.37611 254.28474 258.03647 260.86374 262.61667
 265.32602 268.15918 270.51538 272.30563 274.23199 276.21268 277.75867 279.28543
 280.96732 282.54150 284.01013 285.36615 286.54688 287.59439 288.55215 289.42307
 290.20959 290.91486 291.53705 292.35782
 366.78100 356.33688 345.77076 334.63864 323.04352 311.23940 299.11128 286.91616
 274.63004 262.52892 250.53980 239.84268 229.96656 221.07244 213.25632 206.26020
 200.09608 195.03596 191.61984 189.66372 188.70260 188.76848 189.60536 190.91524
 192.64212 194.73900 197.00388 199.36476 201.81164 204.29352 206.38340 208.22728
 209.85516 211.00204 211.23292 211.46280 211.40168 211.10856 210.74344 210.37532
 209.99420 209.70608 209.51596 209.38184 209.31172 209.64460 210.03248 210.42336
 211.21824 212.39812 213.65000 215.43488 217.36476 219.40964 221.50652 223.59140
 225.65328 227.73916 229.83804 231.94592 234.07680 236.25068 238.50856 240.88044
 243.50332 245.75620 247.76008 249.52696 250.94584 252.07072 252.89460 253.21248
 253.25136 253.02724 252.38912 251.33900 249.94687 248.10975 246.02063 243.85551
 241.64839 239.45427 237.27615 235.11703 232.97891 230.84779 228.87567 227.03455
 225.31943 223.79331 222.42519 221.19907 220.08295 219.04483 218.15071 217.29359
 216.53747 215.71935 214.81923 214.18511 213.63699 212.88783 211.12105 210.45021
 210.64642 212.13124 213.89882 215.95178 219.09311 223.65102 229.50133 234.65863
 238.55573 242.40329 246.30006 250.27779 254.21837 257.96725 260.78549 262.55084
 265.26810 268.10794 270.46371 272.22455 274.12338 276.10120 277.65573 279.18503
 280.87491 282.45419 283.91299 285.26834 286.45050 287.49734 288.45602 289.32571
 290.11420 290.81998 291.44025 292.26846
 366.78100 356.33705 345.77110 334.63916 323.04421 311.24026 299.11231 286.91737
 274.63142 262.53047 250.54152 239.84457 229.96863 221.07468 213.25873 206.26278
 200.09884 195.03889 191.62294 189.66699 188.70604 188.77210 189.60915 190.91920
 192.64625 194.74331 197.00836 199.36941 201.81646 204.29851 206.38857 208.23262
 209.86067 211.00772 211.23877 211.46883 211.40788 211.11493 210.74998 210.38204
 210.00109 209.71314 209.52319 209.38924 209.31930 209.65235 210.04040 210.43145
 211.22651 212.40656 213.65861 215.44366 217.37371 219.41877 221.51582 223.60087
 225.66292 227.74898 229.84803 231.95608 234.08713 236.26118 238.51924 240.89129
 243.51434 245.76739 247.77145 249.53850 250.95755 252.08260 252.90665 253.22471
 253.26376 253.03981 252.40186 251.35192 249.95997 248.12302 246.03407 243.86912
 241.66218 239.46823 237.29028 235.13133 232.99339 230.86244 228.89049 227.04954
 225.33459 223.80865 222.44070 221.21475 220.09880 219.06086 218.16691 217.30996
 216.55401 215.73606 214.83612 214.20217 213.65422 212.93069 211.22360 210.50043
 210.69644 212.21272 213.99060 215.99185 219.04530 223.57941 229.44965 234.59348
 238.47673 242.31145 246.19899 250.18228 254.15677 257.90106 260.70602 262.48584
 265.20554 268.05069 270.40851 272.14383 274.01755 275.99149 277.55478 279.08658
 280.78555 282.36716 283.82117 285.17673 286.35782 287.40701 288.36462 289.23547
 290.02423 290.72830 291.35376 292.17880
 366.78100 356.33719 345.77138 334.63957 323.04476 311.24095 299.11314 286.91833
 274.63252 262.53171 250.54290 239.84609 229.97029 221.07648 213.26067 206.26486
 200.10105 195.04124 191.62543 189.66962 188.70881 188.77500 189.61219 190.92238
 192.64957 194.74676 197.01195 199.37314 201.82033 204.30252 206.39271 208.23690
 209.86509 211.01228 211.24348 211.47367 211.41286 211.12005 210.75524 210.38743
 210.00662 209.71881 209.52900 209.39519 209.32538 209.65857 210.04676 210.43795
 211.23314 212.41333 213.66552 215.45071 217.38090 219.42609 221.52328 223.60847
 225.67067 227.75686 229.85605 231.96424 234.09543 236.26962 238.52781 240.90000
 243.52319 245.77638 247.78057 249.54776 250.96695 252.09214 252.91633 253.23452
 253.27371 253.04990 252.41209 251.36228 249.97047 248.13366 246.04486 243.88005
 241.67324 239.47943 237.30162 235.14281 233.00500 230.87419 228.90238 227.06157
 225.34676 223.82095 222.45314 221.22733 220.11152 219.07371 218.17990 217.32309
 216.56728 215.74947 214.84966 214.21585 213.66805 212.97006 211.32269 210.56248
 210.75552 212.27733 214.07021 216.03806 219.01967 223.50987 229.39410 234.52322
 238.39478 242.21861 246.09843 250.08865 254.09912 257.83548 260.62408 262.41888
 265.13635 267.98563 270.34723 272.06250 273.91507 275.88626 277.45956 278.99509
 280.69937 282.28366 283.73392 285.08963 286.27090 287.31842 288.27811 289.14850
 289.93820 290.64267 291.26636 292.09555
 366.78100 356.33737 345.77174 334.64012 323.04549 311.24186 299.11423 286.91960
 274.63398 262.53335 250.54472 239.84809 229.97246 221.07884 213.26321 206.26758
 200.10395 195.04432 191.62870 189.67307 188.71244 188.77881 189.61618 190.92656
 192.65393 194.75130 197.01667 199.37804 201.82542 204.30779 206.39816 208.24253
 209.87090 211.01828 211.24965 211.48002 211.41939 211.12677 210.76214 210.39451
 210.01388 209.72625 209.53663 209.40300 209.33337 209.66674 210.05511 210.44649
 211.24186 212.42223 213.67460 215.45997 217.39035 219.43572 221.53309 223.61846
 225.68083 227.76721 229.86658 231.97495 234.10632 236.28069 238.53907 240.91144
 243.53481 245.78818 247.79255 249.55993 250.97930 252.10467 252.92904 253.24741
 253.28679 253.06316 252.42553 251.37590 249.98427 248.14765 246.05902 243.89439
 241.68776 239.49413 237.31651 235.15788 233.02025 230.88962 228.91799 227.07737
 225.36274 223.83711 222.46948 221.24385 220.12823 219.09060 218.19697 217.34034
 216.58471 215.76709 214.86746 214.23383 213.68620 213.01003 211.41376 210.63869
 210.82277 212.32674 214.13908 216.08858 219.00381 223.44872 229.33681 234.44962
 238.30927 242.12321 245.99710 249.99619 254.04350 257.76978 260.53806 262.34964
 265.06061 267.91205 270.27905 271.97931 273.81622 275.78659 277.37207 278.91135
 280.61984 282.20526 283.65140 285.00574 286.18774 287.23608 288.19437 289.06610
 289.85574 290.56000 291.18500 292.01526
 366.78100 356.33756 345.77211 334.64067 323.04623 311.24278 299.11534 286.92090
 274.63545 262.53501 250.54657 239.85012 229.97468 221.08124 213.26580 206.27035
 200.10691 195.04747 191.63202 189.67658 188.71614 188.78269 189.62025 190.93081
 192.65836 194.75592 197.02148 199.38303 201.83059 204.31315 206.40370 208.24826
 209.87682 211.02437 211.25593 211.48649 211.42605 211.13360 210.76916 210.40172
 210.02127 209.73383 209.54439 209.41094 209.34150 209.67506 210.06361 210.45517
 211.25073 212.43128 213.68384 215.46940 217.39995 219.44551 221.54307 223.62862
 225.69118 227.77774 229.87730 231.98585 234.11741 236.29197 238.55052 240.92308
 243.54664 245.80019 247.80475 249.57231 250.99186 252.11742 252.94198 253.26053
 253.30009 253.07665 252.43920 251.38976 249.99832 248.16187 246.07343 243.90899
 241.70255 239.50910 237.33166 235.17322 233.03577 230.90533 228.93389 227.09344
 225.37900 223.85356 222.48611 221.26067 220.14523 219.10778 218.21434 217.35790
 216.60245 215.78501 214.88557 214.25212 213.70468 213.04898 211.50078 210.72614
 210.89392 212.36967 214.20358 216.14160 218.98886 223.39497 229.27954 234.37552
 238.22078 242.02554 245.89462 249.90565 253.99126 257.70477 260.44980 262.28055
 264.97995 267.82962 270.20215 271.89337 273.72018 275.69229 277.29144 278.83466
 280.54364 282.13184 283.57358 284.92792 286.10980 287.15781 288.11703 288.98865
 289.77765 290.48697 291.11005 291.94058
 366.78100 356.33764 345.77228 334.64091 323.04655 311.24319 299.11583 286.92147
 274.63611 262.53574 250.54738 239.85102 229.97566 221.08230 213.26694 206.27157
 200.10821 195.04885 191.63349 189.67813 188.71777 188.78440 189.62204 190.93268
 192.66032 194.75796 197.02360 199.38523 201.83287 204.31551 206.40615 208.25079
 209.87943 211.02706 211.25870 211.48934 211.42898 211.13662 210.77226 210.40489
 210.02453 209.73717 209.54781 209.41445 209.34509 209.67872 210.06736 210.45900
 211.25464 212.43528 213.68791 215.47355 217.40419 219.44983 221.54747 223.63311
 225.69574 227.78238 229.88202 231.99066 234.12230 236.29694 238.55557 240.92821
 243.55185 245.80549 247.81013 249.57777 250.99740 252.12304 252.94768 253.26632
 253.30596 253.08260 252.44523 251.39587 250.00451 248.16815 246.07979 243.91543
 241.70906 239.51570 237.33834 235.17998 233.04262 230.91226 228.94089 227.10053
 225.38617 223.86081 222.49345 221.26808 220.15272 219.11536 218.22200 217.36564
 216.61028 215.79291 214.89355 214.26019 213.71283 213.08165 211.59108 210.81879
 210.96606 212.41002 214.26701 216.19621 218.96968 223.34402 229.22221 234.29842
 238.12813 241.92300 245.79207 249.81970 253.94420 257.64197 260.36276 262.21475
 264.89459 267.73691 270.11450 271.80048 273.62463 275.60123 277.21576 278.76489
 280.47250 282.06421 283.50040 284.85635 286.03784 287.08578 288.04517 288.91754
 289.70523 290.41412 291.03741 291.87222
 366.78100 356.33754 345.77208 334.64062 323.04616 311.24270 299.11524 286.92077
 274.63531 262.53485 250.54639 239.84993 229.97447 221.08101 213.26555 206.27009
 200.10663 195.04717 191.63171 189.67625 188.71579 188.78232 189.61986 190.93040
 192.65794 194.75548 197.02102 199.38256 201.83010 204.31264 206.40318 208.24772
 209.87626 211.02380 211.25534 211.48587 211.42541 211.13295 210.76849 210.40103
 210.02057 209.73311 209.54365 209.41019 209.34073 209.67427 210.06281 210.45435
 211.24988 212.43042 213.68296 215.46850 217.39904 219.44458 221.54212 223.62766
 225.69020 227.77674 229.87628 231.98482 234.11636 236.29090 238.54943 240.92197
 243.54551 245.79905 247.80359 249.57113 250.99067 252.11621 252.94075 253.25929
 253.29883 253.07537 252.43791 251.38844 249.99698 248.16052 246.07206 243.90760
 241.70114 239.50768 237.33022 235.17176 233.03430 230.90384 228.93238 227.09192
 225.37746 223.85199 222.48453 221.25907 220.14361 219.10615 218.21269 217.35623
 216.60077 215.78331 214.88385 214.25039 213.70293 213.10384 211.68886 210.91733
 211.03879 212.44479 214.32703 216.25375 218.95276 223.29211 229.16246 234.21790
 238.03160 241.81787 245.69084 249.73929 253.90462 257.58041 260.27823 262.15283
 264.80612 267.63419 270.01529 271.70078 273.52911 275.51483 277.14505 278.69980
 280.40555 281.99988 283.43448 284.78827 285.97183 287.01895 287.97818 288.85095
 289.64044 290.34854 290.97324 291.80945
 366.78100 356.33730 345.77160 334.63990 323.04520 311.24151 299.11381 286.91911
 274.63341 262.53271 250.54401 239.84731 229.97161 221.07791 213.26222 206.26652
 200.10282 195.04312 191.62742 189.67172 188.71102 188.77732 189.61462 190.92492
 192.65223 194.74953 197.01483 199.37613 201.82343 204.30573 206.39603 208.24033
 209.86863 211.01594 211.24724 211.47754 211.41684 211.12414 210.75944 210.39174
 210.01104 209.72334 209.53365 209.39995 209.33025 209.66355 210.05185 210.44315
 211.23845 212.41875 213.67105 215.45635 217.38666 219.43196 221.52926 223.61456
 225.67686 227.76316 229.86246 231.97076 234.10206 236.27637 238.53467 240.90697
 243.53027 245.78357 247.78787 249.55517 250.97447 252.09977 252.92408 253.24238
 253.28168 253.05798 252.42028 251.37058 249.97888 248.14218 246.05348 243.88879
 241.68209 239.48839 237.31069 235.15199 233.01429 230.88359 228.91189 227.07119
 225.35649 223.83080 222.46310 221.23740 220.12170 219.08400 218.19030 217.33360
 216.57790 215.76020 214.86051 214.22681 213.67911 213.11734 211.79036 211.02812
 211.10948 212.47128 214.38914 216.31555 218.93925 223.23729 229.10123 234.12964
 237.92615 241.70570 245.58817 249.66263 253.87085 257.52243 260.19772 262.09717
 264.71585 267.52359 269.90759 271.59747 273.43497 275.43256 277.07996 278.64111
 280.34406 281.93869 283.37112 284.72604 285.90851 286.95630 287.91586 288.78915
 289.57724 290.28625 290.91464 291.74915
 366.78100 356.33687 345.77073 334.63860 323.04347 311.23934 299.11120 286.91607
 274.62994 262.52881 250.53967 239.84254 229.96641 221.07227 213.25614 206.26001
 200.09588 195.03574 191.61961 189.66348 188.70235 188.76821 189.60508 190.91495
 192.64181 194.73868 197.00355 199.36442 201.81128 204.29315 206.38302 208.22689
 209.85475 211.00162 211.23249 211.46235 211.40122 211.10809 210.74296 210.37482
 209.99369 209.70556 209.51543 209.38129 209.31116 209.64403 210.03189 210.42276
 211.21763 212.39750 213.64936 215.43423 217.36410 219.40897 221.50583 223.59070
 225.65257 227.73843 229.83730 231.94517 234.07604 236.24990 238.50777 240.87964
 243.50251 245.75537 247.75924 249.52611 250.94497 252.06984 252.89371 253.21158
 253.25044 253.02631 252.38818 251.33805 249.94591 248.10878 246.01965 243.85451
 241.64738 239.45325 237.27512 235.11598 232.97785 230.84672 228.87459 227.03345
 225.31832 223.79219 222.42405 221.19792 220.08179 219.04366 218.14952 217.29239
 216.53626 215.71813 214.81799 214.18386 213.63573 213.12021 211.90233 211.13065
 211.19263 212.50722 214.45084 216.37073 218.92645 223.18448 229.03128 234.02974
 237.81255 241.58957 245.48631 249.59007 253.83998 257.46478 260.11642 262.04507
 264.62592 267.40619 269.79483 271.49506 273.34644 275.35995 277.02530 278.59033
 280.28650 281.88007 283.31360 284.66803 285.85062 286.89963 287.85754 288.72955
 289.52090 290.23206 290.85709 291.69302
 366.78100 356.33679 345.77058 334.63837 323.04316 311.23895 299.11074 286.91554
 274.62933 262.52812 250.53891 239.84170 229.96549 221.07128 213.25507 206.25886
 200.09465 195.03444 191.61823 189.66203 188.70082 188.76661 189.60340 190.91319
 192.63998 194.73677 197.00156 199.36235 201.80914 204.29093 206.38072 208.22452
 209.85231 210.99910 211.22989 211.45968 211.39847 211.10526 210.74005 210.37184
 209.99063 209.70242 209.51221 209.37801 209.30780 209.64059 210.02838 210.41917
 211.21396 212.39375 213.64554 215.43033 217.36012 219.40491 221.50170 223.58650
 225.64829 227.73408 229.83287 231.94066 234.07145 236.24524 238.50303 240.87482
 243.49761 245.75040 247.75419 249.52099 250.93978 252.06457 252.88836 253.20615
 253.24494 253.02073 252.38252 251.33231 249.94010 248.10289 246.01368 243.84847
 241.64127 239.44706 237.26885 235.10964 232.97143 230.84022 228.86801 227.02680
 225.31159 223.78538 222.41717 221.19096 220.07476 219.03655 218.14234 217.28513
 216.52892 215.71071 214.81050 214.17629 213.62808 213.13992 211.98662 211.26288
 211.28215 212.54523 214.49496 216.41562 218.92151 223.12263 228.95609 233.92151
 237.69014 241.46640 245.38252 249.52118 253.81285 257.40897 260.03732 262.00101
 264.53937 267.28738 269.68021 271.39685 273.26355 275.29443 276.97778 278.54626
 280.23465 281.82495 283.26001 284.61377 285.79572 286.84607 287.80371 288.67581
 289.46732 290.17734 290.80441 291.64285
 366.78100 356.33608 345.76915 334.63623 323.04031 311.23538 299.10646 286.91053
 274.62361 262.52169 250.53176 239.83384 229.95692 221.06199 213.24507 206.24815
 200.08322 195.02230 191.60538 189.64845 188.68653 188.75160 189.58768 190.89676
 192.62283 194.71891 196.98299 199.34306 201.78914 204.27022 206.35929 208.20237
 209.82944 210.97552 211.20560 211.43467 211.37275 211.07883 210.71290 210.34398
 209.96206 209.67313 209.48221 209.34729 209.27636 209.60844 209.99551 210.38559
 211.17967 212.35874 213.60982 215.39390 217.32297 219.36705 221.46313 223.54720
 225.60828 227.69336 229.79143 231.89851 234.02858 236.20166 238.45874 240.82981
 243.45189 245.70397 247.70704 249.47312 250.89120 252.01527 252.83835 253.15542
 253.19350 252.96858 252.32965 251.27873 249.88581 248.04788 245.95796 243.79204
 241.58411 239.38919 237.21027 235.05034 232.91142 230.77949 228.80657 226.96465
 225.24872 223.72180 222.35288 221.12595 220.00903 218.97011 218.07518 217.21726
 216.46033 215.64141 214.74049 214.10556 213.55664 213.12576 212.10780 211.37988
 211.37103 212.60110 214.56895 216.42178 218.86575 223.07294 228.88216 233.80728
 237.56323 241.34123 245.28250 249.46080 253.79262 257.36075 259.96915 261.97089
 264.45908 267.16678 269.56177 271.29575 273.18018 275.22906 276.92786 278.49930
 280.18167 281.76962 283.20779 284.56198 285.74515 286.79446 287.75311 288.62619
 289.41727 290.12769 290.75574 291.59445
 366.78100 356.33562 345.76824 334.63486 323.03848 311.23310 299.10372 286.90734
 274.61997 262.51759 250.52721 239.82883 229.95145 221.05607 213.23869 206.24131
 200.07593 195.01455 191.59717 189.63979 188.67741 188.74203 189.57765 190.88627
 192.61190 194.70752 196.97114 199.33076 201.77638 204.25700 206.34562 208.18824
 209.81486 210.96048 211.19010 211.41872 211.35634 211.06196 210.69558 210.32620
 209.94383 209.65445 209.46307 209.32769 209.25631 209.58793 209.97455 210.36417
 211.15779 212.33641 213.58703 215.37065 217.29927 219.34289 221.43851 223.52213
 225.58276 227.66738 229.76500 231.87162 234.00124 236.17386 238.43048 240.80110
 243.42272 245.67434 247.67696 249.44258 250.86020 251.98382 252.80644 253.12306
 253.16069 252.93531 252.29593 251.24455 249.85117 248.01279 245.92241 243.75603
 241.54765 239.35227 237.17289 235.01251 232.87313 230.74075 228.76737 226.92499
 225.20862 223.68124 222.31186 221.08448 219.96710 218.92772 218.03234 217.17396
 216.41658 215.59720 214.69582 214.06044 213.51106 213.12360 212.20816 211.46666
 211.53500 212.66745 214.56487 216.46335 218.88368 222.98396 228.79359 233.68503
 237.42908 241.21498 245.18863 249.41032 253.77940 257.32135 259.91086 261.94937
 264.38260 267.04333 269.43649 271.18823 273.09274 275.16144 276.87378 278.44843
 280.12796 281.71143 283.15906 284.51498 285.69864 286.74588 287.70691 288.57736
 289.37000 290.08057 290.70947 291.54926
 366.78100 356.33489 345.76678 334.63267 323.03555 311.22944 299.09933 286.90222
 274.61411 262.51100 250.51988 239.82077 229.94266 221.04655 213.22844 206.23033
 200.06421 195.00210 191.58399 189.62588 188.66277 188.72666 189.56154 190.86943
 192.59432 194.68921 196.95210 199.31099 201.75587 204.23576 206.32365 208.16554
 209.79143 210.93632 211.16520 211.39309 211.32998 211.03487 210.66776 210.29765
 209.91453 209.62442 209.43231 209.29620 209.22409 209.55498 209.94086 210.32975
 211.12264 212.30053 213.55042 215.33331 217.26119 219.30408 221.39897 223.48186
 225.54175 227.62564 229.72252 231.82841 233.95730 236.12919 238.38508 240.75497
 243.37585 245.62674 247.62863 249.39352 250.81041 251.93330 252.75518 253.07107
 253.10796 252.88185 252.24174 251.18963 249.79552 247.95640 245.86529 243.69818
 241.48907 239.29296 237.11285 234.95173 232.81162 230.67851 228.70440 226.86129
 225.14418 223.61606 222.24595 221.01784 219.89973 218.85962 217.96351 217.10439
 216.34628 215.52617 214.62406 213.98795 213.43784 213.10760 212.32739 211.57315
 211.61533 212.74821 214.59976 216.50073 218.89137 222.89252 228.71199 233.57187
 237.30331 241.09909 245.10454 249.36778 253.76939 257.28348 259.85101 261.92349
 264.30380 266.91547 269.30731 271.08069 273.00781 275.09586 276.82080 278.39859
 280.07599 281.65503 283.11267 284.46979 285.65204 286.70215 287.65915 288.53412
 289.32584 290.03439 290.66547 291.50623
 366.78100 356.33431 345.76561 334.63092 323.03323 311.22654 299.09584 286.89815
 274.60946 262.50577 250.51407 239.81438 229.93569 221.03900 213.22030 206.22161
 200.05492 194.99223 191.57353 189.61484 188.65115 188.71446 189.54876 190.85607
 192.58038 194.67469 196.93699 199.29530 201.73961 204.21892 206.30622 208.14753
 209.77284 210.91715 211.14545 211.37276 211.30907 211.01338 210.64568 210.27499
 209.89130 209.60061 209.40791 209.27122 209.19853 209.52884 209.91414 210.30245
 211.09476 212.27207 213.52137 215.30368 217.23099 219.27330 221.36760 223.44991
 225.50922 227.59252 229.68883 231.79414 233.92245 236.09375 238.34906 240.71837
 243.33868 245.58898 247.59029 249.35460 250.77091 251.89321 252.71452 253.02983
 253.06614 252.83944 252.19875 251.14606 249.75137 247.91167 245.81998 243.65229
 241.44260 239.24590 237.06521 234.90352 232.76283 230.62913 228.65444 226.81075
 225.09306 223.56436 222.19367 220.96498 219.84629 218.80559 217.90890 217.04921
 216.29052 215.46982 214.56713 213.93044 213.37975 213.09726 212.42984 211.72379
 211.64694 212.82776 214.67700 216.53047 218.87074 222.80533 228.63812 233.46603
 237.18132 240.98666 245.02525 249.32651 253.75613 257.23822 259.78210 261.89017
 264.22375 266.78757 269.17978 270.97833 272.92889 275.03577 276.77155 278.35052
 280.02594 281.59641 283.06952 284.42618 285.60892 286.65735 287.61810 288.49127
 289.28189 289.99292 290.62341 291.46661
 366.78100 356.33377 345.76455 334.62932 323.03110 311.22387 299.09265 286.89442
 274.60520 262.50097 250.50874 239.80852 229.92929 221.03207 213.21284 206.21362
 200.04639 194.98317 191.56394 189.60471 188.64049 188.70326 189.53704 190.84381
 192.56759 194.66136 196.92314 199.28091 201.72469 204.20346 206.29023 208.13101
 209.75578 210.89956 211.12733 211.35411 211.28988 210.99366 210.62543 210.25420
 209.86998 209.57875 209.38553 209.24830 209.17508 209.50485 209.88963 210.27740
 211.06917 212.24595 213.49472 215.27650 217.20327 219.24505 221.33882 223.42060
 225.47937 227.56214 229.65792 231.76269 233.89047 236.06124 238.31602 240.68479
 243.30457 245.55434 247.55511 249.31889 250.73466 251.85644 252.67721 252.99199
 253.02776 252.80054 252.15931 251.10608 249.71086 247.87063 245.77841 243.61018
 241.39996 239.20273 237.02151 234.85928 232.71806 230.58383 228.60860 226.76438
 225.04615 223.51693 222.14570 220.91648 219.79725 218.75603 217.85880 216.99857
 216.23935 215.41812 214.51490 213.87767 213.32645 213.08873 212.52710 211.87874
 211.68907 212.90147 214.75008 216.55789 218.85094 222.72678 228.56413 233.35835
 237.05663 240.87372 244.94800 249.28688 253.73828 257.18613 259.70850 261.85394
 264.14551 266.66312 269.05615 270.88333 272.85590 274.97934 276.72464 278.30243
 279.97595 281.52655 283.03036 284.38846 285.57083 286.61841 287.57834 288.45154
 289.24329 289.95575 290.58307 291.42691
 366.78100 356.33311 345.76322 334.62733 323.02844 311.22055 299.08867 286.88978
 274.59989 262.49500 250.50211 239.80122 229.92133 221.02344 213.20355 206.20366
 200.03577 194.97188 191.55200 189.59211 188.62722 188.68933 189.52244 190.82855
 192.55166 194.64477 196.90588 199.26299 201.70610 204.18421 206.27033 208.11044
 209.73455 210.87766 211.10477 211.33088 211.26599 210.96910 210.60021 210.22832
 209.84343 209.55155 209.35766 209.21977 209.14588 209.47499 209.85910 210.24621
 211.03732 212.21343 213.46154 215.24265 217.16876 219.20988 221.30299 223.38410
 225.44221 227.52432 229.61943 231.72354 233.85065 236.02076 238.27487 240.64298
 243.26210 245.51121 247.51132 249.27443 250.68954 251.81065 252.63076 252.94487
 252.97998 252.75209 252.11020 251.05631 249.66043 247.81954 245.72665 243.55776
 241.34687 239.14898 236.96709 234.80420 232.66231 230.52742 228.55153 226.70664
 224.98776 223.45787 222.08598 220.85609 219.73620 218.69431 217.79642 216.93553
 216.17564 215.35375 214.44986 213.81198 213.26009 213.07358 212.63295 212.01752
 211.75349 212.97304 214.80907 216.57938 218.83722 222.65799 228.48929 233.24582
 236.92972 240.76300 244.87614 249.25006 253.71620 257.12930 259.63214 261.81436
 264.06885 266.54303 268.93680 270.79358 272.78778 274.92514 276.67731 278.25201
 279.92361 281.46167 282.99008 284.35217 285.53445 286.58206 287.54092 288.41541
 289.20770 289.91882 290.54739 291.39566
 366.78100 356.33238 345.76177 334.62515 323.02554 311.21692 299.08431 286.88469
 274.59408 262.48846 250.49484 239.79323 229.91261 221.01400 213.19338 206.19277
 200.02415 194.95953 191.53892 189.57830 188.61269 188.67407 189.50646 190.81184
 192.53423 194.62661 196.88699 199.24338 201.68576 204.16315 206.24853 208.08792
 209.71130 210.85368 211.08007 211.30545 211.23984 210.94222 210.57261 210.19999
 209.81438 209.52176 209.32714 209.18853 209.11391 209.44230 209.82568 210.21207
 211.00245 212.17784 213.42522 215.20560 217.13099 219.17137 221.26376 223.34414
 225.40153 227.48291 229.57729 231.68068 233.80706 235.97645 238.22983 240.59722
 243.21560 245.46399 247.46337 249.22575 250.64014 251.76052 252.57991 252.89329
 252.92768 252.69906 252.05644 251.00183 249.60521 247.76360 245.66998 243.50037
 241.28875 239.09014 236.90752 234.74390 232.60129 230.46567 228.48906 226.64344
 224.92383 223.39321 222.02060 220.78998 219.66936 218.62675 217.72813 216.86652
 216.10590 215.28329 214.37867 213.74005 213.18744 213.05550 212.74374 212.14761
 211.83109 213.04329 214.86020 216.59543 218.82474 222.59561 228.41492 233.13155
 236.80569 240.65977 244.81143 249.21658 253.68892 257.06763 259.55063 261.76672
 263.99164 266.42679 268.82236 270.71103 272.72546 274.87411 276.62961 278.20193
 279.87024 281.41379 282.94733 284.31061 285.49368 286.54440 287.50241 288.37732
 289.16879 289.88193 290.50854 291.36099
 366.78100 356.33174 345.76048 334.62322 323.02296 311.21370 299.08044 286.88018
 274.58892 262.48266 250.48840 239.78614 229.90488 221.00562 213.18436 206.18310
 200.01384 194.94858 191.52732 189.56606 188.59980 188.66054 189.49228 190.79702
 192.51876 194.61050 196.87024 199.22598 201.66772 204.14446 206.22920 208.06794
 209.69068 210.83242 211.05816 211.28290 211.21664 210.91838 210.54812 210.17486
 209.78860 209.49534 209.30008 209.16082 209.08556 209.41330 209.79604 210.18178
 210.97152 212.14626 213.39300 215.17274 217.09748 219.13722 221.22896 223.30870
 225.36544 227.44618 229.53992 231.64266 233.76840 235.93714 238.18988 240.55662
 243.17436 245.42210 247.42084 249.18258 250.59632 251.71606 252.53480 252.84754
 252.88128 252.65202 252.00876 250.95350 249.55624 247.71398 245.61972 243.44946
 241.23720 239.03794 236.85468 234.69042 232.54716 230.41090 228.43364 226.58738
 224.86712 223.33586 221.96260 220.73134 219.61008 218.56682 217.66756 216.80530
 216.04404 215.22078 214.31552 213.67626 213.12300 213.04175 212.84978 212.27890
 211.91760 213.11064 214.90132 216.60783 218.81326 222.53891 228.34039 233.01845
 236.68842 240.56516 244.75468 249.18539 253.65462 256.99792 259.46109 261.70801
 263.91260 266.31677 268.71585 270.63791 272.67096 274.82639 276.58313 278.15161
 279.81790 281.37054 282.90598 284.26907 285.45422 286.50284 287.46368 288.33804
 289.13065 289.84222 290.47253 291.32254
 366.78100 356.33113 345.75927 334.62140 323.02054 311.21068 299.07681 286.87595
 274.58408 262.47722 250.48235 239.77948 229.89762 220.99776 213.17589 206.17403
 200.00416 194.93829 191.51643 189.55456 188.58770 188.64784 189.47897 190.78311
 192.50424 194.59537 196.85451 199.20964 201.65078 204.12691 206.21105 208.04918
 209.67132 210.81245 211.03759 211.26172 211.19486 210.89599 210.52513 210.15126
 209.76440 209.47053 209.27467 209.13480 209.05894 209.38608 209.76821 210.15335
 210.94248 212.11661 213.36275 215.14189 217.06602 219.10515 221.19629 223.27542
 225.33156 227.41170 229.50483 231.60697 233.73210 235.90023 238.15237 240.51851
 243.13564 245.38277 247.38091 249.14204 250.55518 251.67432 252.49245 252.80459
 252.83772 252.60785 251.96399 250.90812 249.51026 247.66739 245.57253 243.40166
 241.18880 238.98893 236.80507 234.64021 232.49634 230.35947 228.38161 226.53474
 224.81388 223.28202 221.90815 220.67628 219.55442 218.51055 217.61069 216.74783
 215.98596 215.16209 214.25623 213.61636 213.06250 213.03008 212.95348 212.41443
 212.00287 213.16803 214.93579 216.62079 218.80190 222.48793 228.26762 232.91473
 236.58281 240.48360 244.70734 249.15639 253.61227 256.91888 259.36163 261.63556
 263.83011 266.21262 268.61792 270.57410 272.62473 274.78308 276.53653 278.10159
 279.76587 281.32819 282.86542 284.23007 285.41339 286.46344 287.42484 288.29785
 289.09161 289.80280 290.43497 291.28464
 366.78100 356.33069 345.75839 334.62008 323.01878 311.20847 299.07417 286.87286
 274.58056 262.47325 250.47795 239.77464 229.89234 220.99203 213.16972 206.16742
 199.99711 194.93081 191.50850 189.54620 188.57889 188.63859 189.46928 190.77298
 192.49367 194.58437 196.84306 199.19776 201.63845 204.11414 206.19784 208.03553
 209.65723 210.79792 211.02262 211.24631 211.17901 210.87970 210.50840 210.13409
 209.74679 209.45248 209.25617 209.11587 209.03956 209.36626 209.74795 210.13265
 210.92134 212.09504 213.34073 215.11943 217.04312 219.08182 221.17251 223.25120
 225.30690 227.38659 229.47929 231.58098 233.70568 235.87337 238.12507 240.49076
 243.10746 245.35415 247.35185 249.11254 250.52523 251.64393 252.46162 252.77332
 252.80601 252.57571 251.93140 250.87510 249.47679 247.63349 245.53818 243.36688
 241.15357 238.95327 236.76896 234.60365 232.45935 230.32204 228.34374 226.49643
 224.77513 223.24282 221.86852 220.63621 219.51391 218.46960 217.56930 216.70599
 215.94368 215.11938 214.21307 213.57277 213.01846 213.02666 213.04599 212.55698
 212.09831 213.21640 214.95497 216.63225 218.79724 222.44571 228.19832 232.81682
 236.48697 240.41277 244.66805 249.12915 253.56070 256.82889 259.25192 261.54770
 263.74081 266.11090 268.52454 270.51630 272.58411 274.74289 276.49185 278.05304
 279.71680 281.28836 282.82620 284.19092 285.37653 286.42618 287.38818 288.26132
 289.05511 289.76779 290.39706 291.24948
 366.78100 356.33030 345.75760 334.61890 323.01720 311.20650 299.07180 286.87010
 274.57740 262.46970 250.47400 239.77030 229.88760 220.98690 213.16420 206.16151
 199.99081 194.92411 191.50141 189.53871 188.57101 188.63031 189.46061 190.76391
 192.48421 194.57451 196.83281 199.18711 201.62741 204.10271 206.18601 208.02331
 209.64461 210.78491 211.00921 211.23251 211.16481 210.86511 210.49341 210.11871
 209.73101 209.43631 209.23961 209.09891 209.02222 209.34852 209.72982 210.11412
 210.90242 212.07572 213.32102 215.09932 217.02262 219.06092 221.15122 223.22952
 225.28482 227.36412 229.45642 231.55772 233.68202 235.84932 238.10062 240.46592
 243.08222 245.32852 247.32582 249.08612 250.49842 251.61672 252.43402 252.74532
 252.77762 252.54693 251.90223 250.84553 249.44683 247.60313 245.50743 243.33573
 241.12203 238.92133 236.73663 234.57093 232.42623 230.28853 228.30983 226.46213
 224.74043 223.20773 221.83303 220.60033 219.47763 218.43293 217.53223 216.66853
 215.90583 215.08113 214.17443 213.53373 212.97903 213.02596 213.13684 212.69640
 212.20409 213.25949 214.95769 216.64017 218.80344 222.40681 228.13069 232.72697
 236.40356 240.35574 244.63963 249.10583 253.50208 256.73111 259.13391 261.44156
 263.63965 266.00632 268.43222 270.46115 272.54855 274.70599 276.44897 278.00696
 279.66977 281.25208 282.79144 284.15686 285.34152 286.39212 287.35339 288.22900
 289.02213 289.73312 290.36557 291.21579
 366.78100 356.32999 345.75698 334.61797 323.01596 311.20495 299.06994 286.86793
 274.57492 262.46691 250.47090 239.76688 229.88387 220.98286 213.15985 206.15684
 199.98583 194.91882 191.49581 189.53280 188.56479 188.62378 189.45377 190.75676
 192.47675 194.56674 196.82473 199.17872 201.61871 204.09370 206.17669 208.01368
 209.63466 210.77465 210.99864 211.22163 211.15362 210.85361 210.48160 210.10659
 209.71858 209.42357 209.22656 209.08555 209.00854 209.33453 209.71552 210.09951
 210.88750 212.06049 213.30548 215.08347 217.00646 219.04444 221.13443 223.21242
 225.26741 227.34640 229.43839 231.53938 233.66337 235.83036 238.08135 240.44634
 243.06233 245.30832 247.30531 249.06530 250.47729 251.59528 252.41227 252.72326
 252.75525 252.52424 251.87922 250.82221 249.42320 247.57919 245.48318 243.31117
 241.09716 238.89615 236.71114 234.54513 232.40012 230.26211 228.28310 226.43509
 224.71308 223.18007 221.80506 220.57205 219.44904 218.40403 217.50302 216.63900
 215.87599 215.05098 214.14397 213.50296 212.94795 213.02974 213.22299 212.84334
 212.30029 213.29204 214.96426 216.64960 218.80444 222.37613 228.07460 232.64752
 236.33098 240.30969 244.62048 249.08598 253.43520 256.62366 259.00574 261.31744
 263.52655 265.89932 268.34048 270.40878 272.51791 274.67203 276.40729 277.96158
 279.62674 281.21933 282.76105 284.12708 285.31097 286.36154 287.32361 288.20038
 288.99210 289.70554 290.33704 291.18939
 366.78100 356.32956 345.75612 334.61668 323.01424 311.20280 299.06737 286.86493
 274.57149 262.46305 250.46661 239.76217 229.87873 220.97729 213.15385 206.15041
 199.97897 194.91154 191.48810 189.52466 188.55622 188.61478 189.44434 190.74690
 192.46646 194.55602 196.81358 199.16714 201.60671 204.08127 206.16383 208.00039
 209.62095 210.76051 210.98407 211.20663 211.13819 210.83775 210.46531 210.08988
 209.70144 209.40600 209.20856 209.06712 208.98968 209.31524 209.69580 210.07936
 210.86692 212.03948 213.28405 215.06161 216.98417 219.02173 221.11129 223.18885
 225.24341 227.32197 229.41353 231.51409 233.63765 235.80422 238.05478 240.41934
 243.03490 245.28046 247.27702 249.03658 250.44814 251.56570 252.38226 252.69282
 252.72439 252.49295 251.84751 250.79007 249.39063 247.54619 245.44975 243.27731
 241.06287 238.86143 236.67599 234.50955 232.36412 230.22568 228.24624 226.39780
 224.67536 223.14192 221.76648 220.53304 219.40960 218.36416 217.46272 216.59829
 215.83485 215.00941 214.10197 213.46053 212.90509 213.02856 213.32028 212.96982
 212.40974 213.33273 214.95578 216.65475 218.82626 222.34843 228.00993 232.56815
 236.26607 240.27391 244.61130 249.07068 253.36330 256.51062 258.87143 261.17706
 263.40158 265.78955 268.24918 270.35968 272.49203 274.64032 276.36575 277.91614
 279.58746 281.19104 282.73450 284.10001 285.28400 286.33572 287.29669 288.17334
 288.96735 289.68088 290.30923 291.16486
 366.78100 356.32933 345.75567 334.61600 323.01334 311.20167 299.06601 286.86334
 274.56967 262.46101 250.46434 239.75968 229.87601 220.97435 213.15068 206.14701
 199.97535 194.90768 191.48402 189.52035 188.55169 188.61002 189.43935 190.74169
 192.46102 194.55036 196.80769 199.16103 201.60036 204.07469 206.15703 207.99336
 209.61370 210.75303 210.97637 211.19870 211.13004 210.82937 210.45670 210.08104
 209.69237 209.39671 209.19904 209.05738 208.97971 209.30504 209.68538 210.06871
 210.85605 212.02838 213.27272 215.05005 216.97238 219.00972 221.09905 223.17639
 225.23072 227.30906 229.40039 231.50072 233.62406 235.79039 238.04073 240.40506
 243.02040 245.26573 247.26206 249.02140 250.43273 251.55007 252.36640 252.67674
 252.70807 252.47640 251.83074 250.77307 249.37341 247.52874 245.43208 243.25941
 241.04474 238.84308 236.65741 234.49075 232.34508 230.20642 228.22675 226.37808
 224.65542 223.12175 221.74609 220.51242 219.38876 218.34309 217.44143 216.57676
 215.81309 214.98743 214.07976 213.43810 212.88243 213.03835 213.40669 213.09612
 212.52257 213.37724 214.94510 216.65567 218.82700 222.32426 227.96481 232.50862
 236.21579 240.25069 244.61057 249.05887 253.28194 256.38391 258.72028 261.01434
 263.26208 265.67596 268.15891 270.31610 272.47348 274.61548 276.32980 277.87576
 279.55096 281.16647 282.71039 284.07657 285.26135 286.31229 287.27435 288.14981
 288.94516 289.65726 290.28802 291.14050
 366.78100 356.32968 345.75636 334.61704 323.01472 311.20341 299.06809 286.86577
 274.57245 262.46413 250.46781 239.76349 229.88017 220.97885 213.15554 206.15222
 199.98090 194.91358 191.49026 189.52694 188.55862 188.61730 189.44699 190.74967
 192.46935 194.55903 196.81671 199.17039 201.61007 204.08475 206.16743 208.00412
 209.62480 210.76448 210.98816 211.21084 211.14252 210.84220 210.46988 210.09456
 209.70625 209.41093 209.21361 209.07229 208.99497 209.32065 209.70133 210.08501
 210.87269 212.04538 213.29006 215.06774 216.99042 219.02810 221.11778 223.19546
 225.25014 227.32883 229.42051 231.52119 233.64487 235.81155 238.06223 240.42691
 243.04259 245.28827 247.28496 249.04464 250.45632 251.57400 252.39068 252.70136
 252.73304 252.50172 251.85640 250.79909 249.39977 247.55545 245.45913 243.28681
 241.07249 238.87117 236.68585 234.51953 232.37422 230.23590 228.25658 226.40826
 224.68594 223.15262 221.77730 220.54398 219.42067 218.37535 217.47403 216.60971
 215.84639 215.02107 214.11375 213.47243 212.91711 213.07765 213.45697 213.25101
 212.61743 213.38281 214.95001 216.70082 218.87318 222.31932 227.90408 232.43219
 236.15663 240.22473 244.60875 249.04254 253.18507 256.23782 258.55191 260.83545
 263.11554 265.56503 268.07623 270.28485 272.46826 274.60107 276.30627 277.84424
 279.52023 281.14532 282.69034 284.05652 285.24219 286.29221 287.25507 288.12985
 288.92694 289.63873 290.26755 291.12238
 366.78100 356.33021 345.75742 334.61863 323.01683 311.20604 299.07125 286.86946
 274.57667 262.46888 250.47308 239.76929 229.88650 220.98571 213.16292 206.16013
 199.98934 194.92254 191.49975 189.53696 188.56917 188.62838 189.45859 190.76180
 192.48200 194.57221 196.83042 199.18463 201.62484 204.10005 206.18325 208.02046
 209.64167 210.78188 211.00609 211.22930 211.16151 210.86171 210.48992 210.11513
 209.72734 209.43255 209.23576 209.09496 209.01817 209.34438 209.72559 210.10980
 210.89801 212.07122 213.31642 215.09463 217.01784 219.05605 221.14626 223.22447
 225.27968 227.35888 229.45109 231.55230 233.67651 235.84372 238.09493 240.46013
 243.07634 245.32255 247.31976 249.07997 250.49218 251.61039 252.42759 252.73880
 252.77101 252.54022 251.89543 250.83864 249.43984 247.59605 245.50026 243.32847
 241.11468 238.91389 236.72910 234.56330 232.41851 230.28072 228.30193 226.45414
 224.73235 223.19956 221.82476 220.59197 219.46918 218.42439 217.52360 216.65981
 215.89701 215.07222 214.16543 213.52464 212.96985 213.12881 213.50439 213.37029
 212.70328 213.44659 214.94406 216.73315 218.94958 222.29016 227.83836 232.35843
 236.10335 240.20618 244.61264 249.02695 253.08173 256.08588 258.38062 260.65189
 262.96979 265.46045 268.00235 270.26239 272.47070 274.59290 276.28717 277.81607
 279.49335 281.12637 282.67178 284.03940 285.22403 286.27359 287.23697 288.11349
 288.90811 289.61972 290.25269 291.10324
 366.78100 356.33032 345.75765 334.61897 323.01729 311.20662 299.07194 286.87026
 274.57759 262.46991 250.47424 239.77056 229.88788 220.98721 213.16453 206.16185
 199.99118 194.92450 191.50182 189.53915 188.57147 188.63079 189.46112 190.76444
 192.48476 194.57509 196.83341 199.18774 201.62806 204.10338 206.18671 208.02403
 209.64535 210.78568 211.01000 211.23332 211.16565 210.86597 210.49429 210.11962
 209.73194 209.43727 209.24059 209.09991 209.02324 209.34956 209.73088 210.11521
 210.90353 212.07685 213.32218 215.10050 217.02382 219.06215 221.15247 223.23079
 225.28612 227.36544 229.45777 231.55909 233.68341 235.85074 238.10206 240.46738
 243.08371 245.33003 247.32735 249.08768 250.50000 251.61832 252.43565 252.74697
 252.77929 252.54862 251.90394 250.84727 249.44859 247.60491 245.50924 243.33756
 241.12388 238.92321 236.73853 234.57285 232.42818 230.29050 228.31182 226.46415
 224.74247 223.20979 221.83512 220.60244 219.47977 218.43509 217.53441 216.67074
 215.90806 215.08338 214.17671 213.53603 212.98135 213.16109 213.58575 213.45003
 212.80460 213.51970 214.93044 216.76474 219.01437 222.24777 227.77536 232.29352
 236.06010 240.19719 244.62262 249.01086 252.97269 255.92722 258.20541 260.46548
 262.82413 265.35910 267.93161 270.24243 272.47165 274.58139 276.26282 277.78455
 279.46594 281.10986 282.65701 284.02350 285.20776 286.25867 287.22198 288.09802
 288.89206 289.60477 290.23611 291.08713
 366.78100 356.33044 345.75789 334.61933 323.01778 311.20722 299.07267 286.87111
 274.57855 262.47100 250.47544 239.77189 229.88933 220.98878 213.16622 206.16366
 199.99311 194.92655 191.50400 189.54144 188.57388 188.63333 189.46377 190.76722
 192.48766 194.57811 196.83655 199.19099 201.63144 204.10688 206.19033 208.02777
 209.64922 210.78966 211.01410 211.23755 211.16999 210.87044 210.49888 210.12433
 209.73677 209.44221 209.24566 209.10510 209.02855 209.35499 209.73643 210.12088
 210.90932 212.08277 213.32821 215.10666 217.03010 219.06854 221.15899 223.23743
 225.29288 227.37232 229.46477 231.56621 233.69065 235.85810 238.10954 240.47499
 243.09143 245.33788 247.33532 249.09576 250.50821 251.62665 252.44410 252.75554
 252.78798 252.55743 251.91287 250.85632 249.45776 247.61421 245.51865 243.34709
 241.13354 238.93298 236.74843 234.58287 232.43832 230.30076 228.32220 226.47465
 224.75309 223.22054 221.84598 220.61343 219.49087 218.44631 217.54576 216.68220
 215.91965 215.09509 214.18853 213.54798 212.99342 213.19386 213.66739 213.52650
 212.93230 213.56145 214.92857 216.80902 219.04218 222.19977 227.72160 232.23729
 236.02550 240.19595 244.63564 248.99226 252.85699 255.76245 258.02838 260.27701
 262.67932 265.25967 267.86313 270.22195 272.46909 274.56497 276.23184 277.74884
 279.43738 281.09378 282.64075 284.00757 285.19113 286.24286 287.20612 288.08148
 288.87695 289.59015 290.22113 291.06857
 366.78100 356.33087 345.75874 334.62061 323.01947 311.20934 299.07521 286.87408
 274.58195 262.47482 250.47968 239.77655 229.89442 220.99429 213.17216 206.17003
 199.99989 194.93376 191.51163 189.54950 188.58237 188.64224 189.47311 190.77697
 192.49784 194.58871 196.84758 199.20245 201.64332 204.11918 206.20305 208.04092
 209.66279 210.80366 211.02853 211.25240 211.18526 210.88613 210.51500 210.14087
 209.75374 209.45961 209.26347 209.12334 209.04721 209.37408 209.75595 210.14082
 210.92968 212.10355 213.34942 215.12829 217.05216 219.09103 221.18190 223.26076
 225.31663 227.39650 229.48937 231.59124 233.71611 235.88397 238.13584 240.50171
 243.11858 245.36545 247.36332 249.12418 250.53705 251.65592 252.47379 252.78566
 252.81853 252.58840 251.94426 250.88813 249.49000 247.64687 245.55174 243.38061
 241.16747 238.96734 236.78321 234.61808 232.47395 230.33682 228.35868 226.51155
 224.79042 223.25829 221.88416 220.65203 219.52990 218.48576 217.58563 216.72250
 215.96037 215.13624 214.23011 213.58997 213.03584 213.24336 213.73367 213.59531
 213.03870 213.63506 214.96584 216.84444 219.04335 222.16144 227.67336 232.18480
 235.99562 240.19899 244.64748 248.96666 252.73157 255.58961 257.84772 260.08603
 262.53403 265.16113 267.79370 270.19785 272.46130 274.54172 276.19293 277.70670
 279.40338 281.07922 282.62686 283.99301 285.17731 286.22836 287.19000 288.06812
 288.86093 289.57605 290.20438 291.05472
 366.78100 356.33167 345.76035 334.62302 323.02270 311.21337 299.08005 286.87972
 274.58839 262.48207 250.48774 239.78542 229.90409 221.00477 213.18344 206.18211
 200.01279 194.94746 191.52614 189.56481 188.59848 188.65916 189.49083 190.79551
 192.51718 194.60886 196.86853 199.22420 201.66588 204.14255 206.22723 208.06590
 209.68858 210.83025 211.05592 211.28060 211.21427 210.91595 210.54562 210.17230
 209.78597 209.49264 209.29732 209.15799 209.08267 209.41034 209.79302 210.17869
 210.96836 212.14304 213.38971 215.16939 217.09406 219.13374 221.22541 223.30508
 225.36176 227.44243 229.53611 231.63878 233.76445 235.93313 238.18580 240.55248
 243.17015 245.41783 247.41650 249.17817 250.59185 251.71152 252.53020 252.84287
 252.87655 252.64722 252.00389 250.94857 249.55124 247.70892 245.61459 243.44427
 241.23194 239.03261 236.84929 234.68496 232.54164 230.40531 228.42799 226.58166
 224.86133 223.33001 221.95668 220.72536 219.60403 218.56070 217.66138 216.79905
 216.03773 215.21440 214.30908 213.66975 213.11642 213.31348 213.77905 213.66399
 213.13826 213.72112 215.02492 216.87135 219.03462 222.13663 227.62755 232.13593
 235.97131 240.20520 244.65620 248.93108 252.59457 255.40656 257.65976 259.89175
 262.38840 265.06323 267.72443 270.17038 272.44925 274.51746 276.15613 277.66888
 279.37442 281.06088 282.60910 283.97525 285.15933 286.20914 287.17242 288.04886
 288.84271 289.55640 290.18515 291.03403
 366.78100 356.33270 345.76241 334.62611 323.02682 311.21852 299.08623 286.88693
 274.59664 262.49134 250.49805 239.79675 229.91646 221.01816 213.19787 206.19757
 200.02928 194.96498 191.54469 189.58439 188.61910 188.68080 189.51351 190.81921
 192.54192 194.63462 196.89533 199.25203 201.69474 204.17244 206.25814 208.09785
 209.72155 210.86426 211.09096 211.31667 211.25137 210.95408 210.58478 210.21249
 209.82719 209.53490 209.34060 209.20231 209.12801 209.45672 209.84042 210.22713
 211.01783 212.19354 213.44124 215.22195 217.14765 219.18836 221.28106 223.36177
 225.41947 227.50117 229.59588 231.69958 233.82629 235.99599 238.24970 240.61740
 243.23611 245.48481 247.48452 249.24722 250.66193 251.78263 252.60234 252.91604
 252.95075 252.72245 252.08016 251.02586 249.62957 247.78827 245.69498 243.52568
 241.31439 239.11609 236.93380 234.77050 232.62821 230.49291 228.51661 226.67132
 224.95202 223.42173 222.04943 220.81914 219.69884 218.65655 217.75825 216.89696
 216.13666 215.31437 214.41007 213.77178 213.21948 213.39580 213.81236 213.72531
 213.24051 213.81039 215.09784 216.89687 219.02672 222.11938 227.57877 232.09048
 235.95242 240.21391 244.65982 248.88347 252.44531 255.21265 257.46512 259.69675
 262.24496 264.96707 267.65552 270.13931 272.43182 274.49002 276.11829 277.63235
 279.34387 281.04266 282.59094 283.95828 285.14151 286.19260 287.15546 288.03293
 288.82751 289.54074 290.16791 291.01425
 366.78100 356.33383 345.76466 334.62948 323.03131 311.22414 299.09297 286.89480
 274.60562 262.50145 250.50928 239.80911 229.92994 221.03276 213.21359 206.21442
 200.04725 194.98408 191.56490 189.60573 188.64156 188.70439 189.53822 190.84504
 192.56887 194.66270 196.92453 199.28236 201.72618 204.20501 206.29184 208.13267
 209.75750 210.90132 211.12915 211.35598 211.29181 210.99564 210.62746 210.25629
 209.87212 209.58095 209.38778 209.25061 209.17743 209.50726 209.89209 210.27992
 211.07175 212.24857 213.49740 215.27923 217.20606 219.24789 221.34171 223.42354
 225.48237 227.56520 229.66103 231.76585 233.89368 236.06451 238.31934 240.68817
 243.30799 245.55782 247.55865 249.32248 250.73831 251.86013 252.68096 252.99579
 253.03162 252.80445 252.16327 251.11010 249.71493 247.87476 245.78259 243.61441
 241.40424 239.20707 237.02590 234.86373 232.72255 230.58838 228.61321 226.76904
 225.05087 223.52169 222.15052 220.92135 219.80218 218.76101 217.86383 217.00366
 216.24449 215.42332 214.52015 213.88297 213.33180 213.48363 213.84233 213.77579
 213.34682 213.90454 215.18285 216.92569 219.02411 222.10365 227.52568 232.04744
 235.93709 240.22346 244.65692 248.82199 252.28485 255.01080 257.26718 259.50745
 262.10773 264.87485 267.58759 270.10446 272.40762 274.45609 276.07675 277.59418
 279.30762 281.02490 282.57385 283.94025 285.12531 286.17572 287.13895 288.01675
 288.81628 289.52963 290.16040 291.00616
 366.78100 356.33501 345.76701 334.63302 323.03603 311.23003 299.10004 286.90305
 274.61505 262.51206 250.52106 239.82207 229.94408 221.04808 213.23009 206.23210
 200.06610 195.00411 191.58612 189.62812 188.66513 188.72914 189.56414 190.87215
 192.59716 194.69216 196.95517 199.31417 201.75918 204.23919 206.32719 208.16920
 209.79521 210.94021 211.16922 211.39723 211.33423 211.03924 210.67225 210.30225
 209.91926 209.62926 209.43727 209.30128 209.22928 209.56029 209.94630 210.33530
 211.12831 212.30632 213.55632 215.33933 217.26734 219.31034 221.40535 223.48836
 225.54836 227.63237 229.72937 231.83538 233.96439 236.13639 238.39240 240.76241
 243.38341 245.63442 247.63643 249.40143 250.81844 251.94145 252.76345 253.07946
 253.11647 252.89047 252.25048 251.19848 249.80449 247.96550 245.87450 243.70751
 241.49852 239.30252 237.12253 234.96154 232.82154 230.68855 228.71456 226.87156
 225.15457 223.62657 222.25658 221.02859 219.91059 218.87060 217.97461 217.11561
 216.35762 215.53763 214.63563 213.99964 213.44965 213.57480 213.87050 213.81622
 213.45866 214.00432 215.27536 216.96245 219.02531 222.08746 227.47012 232.00803
 235.92546 240.23199 244.64378 248.74356 252.11131 254.80008 257.06766 259.32776
 261.98093 264.78928 267.52335 270.06741 272.37842 274.42050 276.03461 277.55652
 279.27057 281.00064 282.54944 283.91571 285.09967 286.14975 287.11295 287.99173
 288.78922 289.50491 290.13419 290.97809
 366.78100 356.33624 345.76948 334.63672 323.04096 311.23621 299.10745 286.91169
 274.62493 262.52317 250.53341 239.83565 229.95889 221.06413 213.24737 206.25062
 200.08586 195.02510 191.60834 189.65158 188.68982 188.75506 189.59130 190.90054
 192.62679 194.72303 196.98727 199.34751 201.79375 204.27499 206.36423 208.20747
 209.83471 210.98095 211.21120 211.44044 211.37868 211.08492 210.71916 210.35040
 209.96864 209.67988 209.48912 209.35437 209.28361 209.61585 210.00309 210.39333
 211.18757 212.36681 213.61805 215.40229 217.33153 219.37578 221.47202 223.55626
 225.61750 227.70274 229.80098 231.90822 234.03846 236.21170 238.46895 240.84019
 243.46243 245.71467 247.71791 249.48415 250.90239 252.02663 252.84987 253.16711
 253.20536 252.98060 252.34184 251.29108 249.89832 248.06056 245.97080 243.80504
 241.59728 239.40252 237.22377 235.06401 232.92525 230.79349 228.82073 226.97897
 225.26321 223.73645 222.36769 221.14094 220.02418 218.98542 218.09066 217.23290
 216.47614 215.65738 214.75662 214.12186 213.57310 213.66899 213.89552 213.84544
 213.57993 214.10707 215.36736 217.00887 219.03217 222.07092 227.41496 231.97054
 235.91414 240.23734 244.61804 248.64539 251.92297 254.58005 256.86676 259.15891
 261.86591 264.71280 267.46570 270.03030 272.34845 274.38544 275.99704 277.52249
 279.23468 280.96442 282.51422 283.87936 285.06345 286.11389 287.07770 287.95630
 288.75305 289.46860 290.09897 290.93951
 366.78100 356.33775 345.77250 334.64125 323.04700 311.24375 299.11650 286.92225
 274.63700 262.53675 250.54850 239.85225 229.97700 221.08375 213.26850 206.27325
 200.11000 195.05075 191.63550 189.68025 188.72000 188.78675 189.62450 190.93525
 192.66300 194.76075 197.02650 199.38825 201.83600 204.31875 206.40950 208.25425
 209.88300 211.03075 211.26250 211.49325 211.43301 211.14076 210.77651 210.40926
 210.02901 209.74176 209.55251 209.41926 209.35001 209.68376 210.07251 210.46426
 211.26001 212.44076 213.69351 215.47926 217.41001 219.45576 221.55351 223.63926
 225.70201 227.78876 229.88851 231.99726 234.12901 236.30376 238.56251 240.93526
 243.55901 245.81276 247.81751 249.58526 251.00501 252.13076 252.95551 253.27426
 253.31401 253.09076 252.45351 251.40426 250.01301 248.17676 246.08851 243.92426
 241.71801 239.52476 237.34751 235.18926 233.05201 230.92176 228.95051 227.11026
 225.39601 223.87076 222.50351 221.27826 220.16301 219.12576 218.23251 217.37626
 216.62101 215.80376 214.90451 214.27126 213.72401 213.77705 213.90234 213.88092
 213.70358 214.20868 215.46373 217.06357 219.04008 222.05360 227.35985 231.93796
 235.90756 240.24162 244.58179 248.52838 251.71982 254.34904 256.66147 258.99902
 261.76071 264.64395 267.41360 269.99338 272.31738 274.35400 275.96552 277.49210
 279.19922 280.91763 282.46732 283.83264 285.01639 286.06686 287.02844 287.90720
 288.70212 289.41229 290.03964 290.88184
 366.78100 356.33926 345.77553 334.64579 323.05306 311.25132 299.12558 286.93285
 274.64911 262.55037 250.56364 239.86890 229.99517 221.10343 213.28969 206.29596
 200.13422 195.07648 191.66275 189.70901 188.75028 188.81854 189.65780 190.97007
 192.69933 194.79860 197.06586 199.42912 201.87839 204.36265 206.45491 208.30118
 209.93144 211.08071 211.31397 211.54623 211.48750 211.19676 210.83402 210.46829
 210.08955 209.80382 209.61608 209.48434 209.41661 209.75187 210.14214 210.53540
 211.33266 212.51493 213.76919 215.55645 217.48872 219.53598 221.63525 223.72251
 225.78677 227.87504 229.97630 232.08657 234.21983 236.39609 238.65636 241.03062
 243.65588 245.91115 247.91741 249.68668 251.10794 252.23520 253.06147 253.38173
 253.42299 253.20126 252.56552 251.51779 250.12805 248.29331 246.20658 244.04384
 241.83911 239.64737 237.47163 235.31490 233.17916 231.05042 229.08069 227.24195
 225.52922 224.00548 222.63974 221.41601 220.30227 219.26653 218.37480 217.52006
 216.76633 215.95059 215.05285 214.42112 213.87538 213.88531 213.90878 213.90161
 213.84758 214.30823 215.54582 217.11868 219.05515 222.04320 227.31464 231.91158
 235.90279 240.24159 244.53181 248.38879 251.49925 254.10762 256.45432 258.85034
 261.66757 264.58508 267.36923 269.95865 272.28806 274.32501 275.94031 277.46536
 279.16296 280.86191 282.40829 283.77478 284.95862 286.00873 286.96899 287.84546
 288.63846 289.35049 289.97650 290.81677
 366.78100 356.34129 345.77958 334.65188 323.06117 311.26146 299.13775 286.94704
 274.66533 262.56863 250.58392 239.89121 230.01950 221.12979 213.31809 206.32638
 200.16667 195.11096 191.69925 189.74755 188.79084 188.86113 189.70242 191.01671
 192.74800 194.84930 197.11859 199.48388 201.93517 204.42146 206.51576 208.36405
 209.99634 211.14763 211.38292 211.61722 211.56051 211.27180 210.91109 210.54738
 210.17067 209.88697 209.70126 209.57155 209.50584 209.84313 210.23543 210.63072
 211.43001 212.61430 213.87059 215.65988 217.59418 219.64347 221.74476 223.83405
 225.90034 227.99064 230.09393 232.20622 234.34151 236.51980 238.78210 241.15839
 243.78568 246.04297 248.05126 249.82255 251.24585 252.37514 253.20343 253.52572
 253.56901 253.34931 252.71560 251.66989 250.28218 248.44947 246.36477 244.20406
 242.00135 239.81164 237.63793 235.48322 233.34952 231.22281 229.25510 227.41839
 225.70768 224.18598 222.82227 221.60056 220.48885 219.45514 218.56543 217.71273
 216.96102 216.14731 215.25160 214.62189 214.07819 214.01860 213.87779 213.95813
 213.98067 214.40154 215.63998 217.18297 219.05867 222.02129 227.26256 231.88507
 235.90073 240.24046 244.47330 248.23636 251.27281 253.86560 256.25241 258.71512
 261.58682 264.53534 267.32913 269.92331 272.25693 274.29596 275.91559 277.43896
 279.12198 280.79788 282.34250 283.70844 284.89163 285.94107 286.90244 287.77780
 288.57040 289.28146 289.90674 290.74982
 366.78100 356.34323 345.78345 334.65768 323.06890 311.27113 299.14935 286.96058
 274.68080 262.58603 250.60326 239.91248 230.04271 221.15493 213.34516 206.35538
 200.19761 195.14384 191.73406 189.78429 188.82951 188.90174 189.74496 191.06119
 192.79441 194.89764 197.16887 199.53609 201.98932 204.47754 206.57377 208.42399
 210.05822 211.21145 211.44867 211.68490 211.63012 211.34335 210.98457 210.62280
 210.24802 209.96625 209.78248 209.65470 209.59093 209.93015 210.32438 210.72160
 211.52283 212.70905 213.96728 215.75851 217.69473 219.74596 221.84918 223.94041
 226.00863 228.10086 230.20609 232.32031 234.45754 236.63776 238.90199 241.28021
 243.90944 246.16866 248.17889 249.95212 251.37734 252.50857 253.33879 253.66302
 253.70824 253.49047 252.85869 251.81492 250.42915 248.59837 246.51560 244.35682
 242.15605 239.96827 237.79650 235.64373 233.51195 231.38718 229.42140 227.58663
 225.87785 224.35808 222.99630 221.77653 220.66676 219.63498 218.74721 217.89643
 217.14666 216.33488 215.44111 214.81334 214.27156 214.14735 213.85390 213.98422
 214.15961 214.49277 215.70779 217.20772 219.06795 222.01230 227.23183 231.87613
 235.90900 240.24229 244.40846 248.06985 251.03497 253.61403 256.04410 258.58356
 261.51138 264.48923 267.29175 269.88889 272.22720 274.27353 275.90149 277.42130
 279.08176 280.72852 282.26971 283.63550 284.81750 285.86752 286.82864 287.70496
 288.49649 289.20721 289.83401 290.67020
 366.78100 356.34426 345.78551 334.66077 323.07302 311.27628 299.15553 286.96779
 274.68904 262.59530 250.61355 239.92381 230.05507 221.16832 213.35958 206.37083
 200.21409 195.16134 191.75260 189.80385 188.85011 188.92336 189.76762 191.08487
 192.81913 194.92339 197.19564 199.56390 202.01815 204.50741 206.60466 208.45592
 210.09117 211.24543 211.48368 211.72094 211.66720 211.38145 211.02371 210.66296
 210.28922 210.00847 209.82573 209.69898 209.63624 209.97649 210.37175 210.77000
 211.57226 212.75952 214.01877 215.81103 217.74828 219.80054 221.90479 223.99705
 226.06630 228.15956 230.26581 232.38107 234.51933 236.70058 238.96584 241.34509
 243.97535 246.23560 248.24686 250.02111 251.44737 252.57962 253.41088 253.73613
 253.78239 253.56565 252.93490 251.89216 250.50741 248.67767 246.59592 244.43818
 242.23843 240.05169 237.88094 235.72920 233.59846 231.47471 229.50997 227.67622
 225.96848 224.44973 223.08899 221.87024 220.76150 219.73075 218.84401 217.99427
 217.24552 216.43478 215.54203 214.91529 214.37454 214.23166 213.89407 213.94679
 214.29631 214.64304 215.77321 217.28641 219.09406 221.99525 227.19508 231.86314
 235.91368 240.23499 244.32570 247.88071 250.78162 253.35448 255.83667 258.46243
 261.44724 264.45309 267.26230 269.86053 272.20551 274.26254 275.90173 277.41409
 279.04410 280.65515 282.19443 283.55884 284.74066 285.79111 286.75067 287.62616
 288.41888 289.12933 289.75659 290.59082
 366.78100 356.34547 345.78793 334.66440 323.07786 311.28233 299.16279 286.97626
 274.69872 262.60619 250.62565 239.93712 230.06958 221.18405 213.37651 206.38898
 200.23344 195.18191 191.77437 189.82684 188.87430 188.94877 189.79423 191.11270
 192.84816 194.95363 197.22709 199.59656 202.05202 204.54249 206.64095 208.49342
 210.12988 211.28535 211.52481 211.76328 211.71075 211.42621 211.06968 210.71014
 210.33761 210.05807 209.87654 209.75100 209.68947 210.03093 210.42740 210.82686
 211.63033 212.81879 214.07926 215.87272 217.81119 219.86465 221.97012 224.06358
 226.13405 228.22851 230.33598 232.45244 234.59191 236.77437 239.04084 241.42130
 244.05277 246.31423 248.32670 250.10216 251.52963 252.66309 253.49556 253.82202
 253.86949 253.65396 253.02442 251.98289 250.59935 248.77082 246.69028 244.53375
 242.33521 240.14968 237.98014 235.82961 233.70007 231.57754 229.61400 227.78147
 226.07493 224.55740 223.19786 221.98033 220.87279 219.84326 218.95772 218.10919
 217.36165 216.55212 215.66058 215.03505 214.49551 214.32346 213.91695 213.95088
 214.40990 214.74707 215.82355 217.38788 219.11258 221.98886 227.15501 231.84779
 235.91988 240.22551 244.23775 247.68817 250.53548 253.10863 255.64532 258.35898
 261.39667 264.42621 267.23846 269.83441 272.18576 274.25479 275.90601 277.40942
 279.00555 280.58102 282.11517 283.48013 284.66269 285.71259 286.67233 287.54724
 288.33859 289.04883 289.67917 290.51132
 366.78100 356.34678 345.79057 334.66835 323.08313 311.28891 299.17070 286.98548
 274.70926 262.61804 250.63883 239.95161 230.08539 221.20117 213.39496 206.40874
 200.25452 195.20430 191.79809 189.85187 188.90065 188.97643 189.82322 191.14300
 192.87978 194.98656 197.26135 199.63213 202.08891 204.58069 206.68048 208.53426
 210.17204 211.32883 211.56961 211.80939 211.75817 211.47496 211.11974 210.76152
 210.39030 210.11209 209.93187 209.80765 209.74743 210.09022 210.48800 210.88878
 211.69356 212.88335 214.14513 215.93991 217.87969 219.93448 222.04126 224.13604
 226.20782 228.30361 230.41239 232.53017 234.67095 236.85474 239.12252 241.50430
 244.13709 246.39987 248.41365 250.19043 251.61922 252.75400 253.58778 253.91556
 253.96435 253.75013 253.12191 252.08169 250.69948 248.87226 246.79304 244.63782
 242.44061 240.25639 238.08817 235.93895 233.81074 231.68952 229.72730 227.89608
 226.19087 224.67465 223.31643 222.10022 220.99400 219.96578 219.08156 218.23435
 217.48813 216.67991 215.78969 215.16548 214.62726 214.41873 213.92606 213.98451
 214.50990 214.82953 215.86331 217.47461 219.13982 221.99182 227.11998 231.83932
 235.93109 240.21877 244.15060 247.49756 250.29660 252.87137 255.46120 258.26263
 261.35080 264.39996 267.21341 269.80386 272.16077 274.24393 275.90915 277.40741
 278.96811 280.50851 282.03647 283.40207 284.58401 285.63263 286.59329 287.46817
 288.26016 288.97025 289.59985 290.43097
 366.78100 356.34784 345.79267 334.67151 323.08735 311.29419 299.17702 286.99286
 274.71770 262.62753 250.64937 239.96321 230.09805 221.21488 213.40972 206.42456
 200.27139 195.22223 191.81707 189.87191 188.92174 188.99858 189.84642 191.16725
 192.90509 195.01293 197.28877 199.66060 202.11844 204.61128 206.71211 208.56695
 210.20579 211.36362 211.60546 211.84630 211.79614 211.51397 211.15981 210.80265
 210.43248 210.15532 209.97616 209.85300 209.79383 210.13767 210.53651 210.93834
 211.74418 212.93502 214.19786 215.99369 217.93453 219.99037 222.09820 224.19404
 226.26688 228.36372 230.47355 232.59239 234.73423 236.91906 239.18790 241.57074
 244.20458 246.46841 248.48325 250.26109 251.69092 252.82676 253.66160 253.99044
 254.04027 253.82711 253.19995 252.16078 250.77962 248.95346 246.87530 244.72113
 242.52497 240.34181 238.17464 236.02648 233.89932 231.77916 229.81799 227.98783
 226.28367 224.76850 223.41134 222.19618 221.09101 220.06385 219.18069 218.33453
 217.58936 216.78220 215.89304 215.26987 214.73271 214.49901 213.94685 214.02042
 214.59914 214.91229 215.89462 217.53415 219.18309 222.00513 227.09438 231.84129
 235.94730 240.21185 244.05850 247.30014 250.05463 252.63275 255.27673 258.16809
 261.30585 264.37265 267.18646 269.77094 272.13391 274.23373 275.91602 277.41269
 278.93787 280.44012 281.96115 283.32523 284.50787 285.55667 286.51727 287.39270
 288.18408 288.89490 289.52023 290.35623
 366.78100 356.34859 345.79417 334.67376 323.09034 311.29793 299.18151 286.99810
 274.72369 262.63427 250.65686 239.97144 230.10703 221.22461 213.42020 206.43579
 200.28337 195.23496 191.83054 189.88613 188.93671 189.01430 189.86289 191.18447
 192.92306 195.03164 197.30823 199.68081 202.13940 204.63299 206.73457 208.59016
 210.22974 211.38833 211.63091 211.87250 211.82309 211.54167 211.18826 210.83184
 210.46243 210.18601 210.00760 209.88519 209.82677 210.17136 210.57094 210.97353
 211.78011 212.97170 214.23529 216.03187 217.97346 220.03004 222.13863 224.23521
 226.30880 228.40639 230.51697 232.63656 234.77914 236.96473 239.23431 241.61790
 244.25249 246.51707 248.53266 250.31124 251.74183 252.87841 253.71400 254.04359
 254.09417 253.88176 253.25534 252.21693 250.83651 249.01110 246.93369 244.78027
 242.58486 240.40244 238.23603 236.08861 233.96220 231.84279 229.88237 228.05296
 226.34954 224.83513 223.47871 222.26430 221.15989 220.13347 219.25106 218.40564
 217.66123 216.85481 215.96640 215.34399 214.80757 214.56201 213.98184 214.05455
 214.68311 214.99529 215.92635 217.57419 219.22624 222.02478 227.07799 231.85114
 235.96429 240.19951 243.95706 247.09506 249.81155 252.39700 255.09735 258.07880
 261.26376 264.34595 267.15805 269.73703 272.10626 274.22488 275.92752 277.42548
 278.91663 280.37988 281.89114 283.25400 284.43686 285.48553 286.44571 287.32251
 288.11212 288.82397 289.45361 290.27829
 366.78100 356.34909 345.79517 334.67526 323.09234 311.30043 299.18451 287.00160
 274.72768 262.63877 250.66185 239.97694 230.11302 221.23111 213.42719 206.44328
 200.29136 195.24345 191.83953 189.89562 188.94670 189.02479 189.87387 191.19596
 192.93504 195.04413 197.32121 199.69430 202.15338 204.64747 206.74955 208.60564
 210.24572 211.40481 211.64789 211.88998 211.84106 211.56015 211.20724 210.85132
 210.48241 210.20649 210.02858 209.90666 209.84875 210.19383 210.59392 210.99700
 211.80409 212.99617 214.26026 216.05734 217.99943 220.05651 222.16560 224.26268
 226.33677 228.43485 230.54594 232.66602 234.80911 236.99519 239.26528 241.64936
 244.28445 246.54953 248.56562 250.34470 251.77579 252.91287 253.74896 254.07904
 254.13013 253.91821 253.29230 252.25439 250.87447 249.04956 246.97264 244.81973
 242.62481 240.44290 238.27698 236.13007 234.00415 231.88524 229.92532 228.09641
 226.39349 224.87958 223.52366 222.30975 221.20583 220.17992 219.29800 218.45309
 217.70917 216.90326 216.01534 215.39343 214.85751 214.61037 214.02649 214.09058
 214.76253 215.06889 215.96214 217.60782 219.26076 222.04335 227.07016 231.86575
 235.97894 240.17921 243.84785 246.88715 249.57385 252.17088 254.92615 257.99518
 261.22342 264.31796 267.12683 269.70126 272.07791 274.21561 275.93994 277.44412
 278.90762 280.33218 281.82913 283.19211 284.37515 285.42389 286.38382 287.25906
 288.05188 288.76196 289.38910 290.21622
 366.78100 356.34946 345.79591 334.67637 323.09382 311.30228 299.18673 287.00419
 274.73064 262.64210 250.66555 239.98101 230.11746 221.23592 213.43237 206.44883
 200.29728 195.24974 191.84619 189.90265 188.95410 189.03256 189.88201 191.20447
 192.94392 195.05338 197.33083 199.70429 202.16374 204.65820 206.76065 208.61711
 210.25756 211.41702 211.66047 211.90293 211.85438 211.57384 211.22129 210.86575
 210.49720 210.22166 210.04411 209.92257 209.86502 210.21048 210.61093 211.01439
 211.82184 213.01430 214.27875 216.07621 218.01866 220.07612 222.18557 224.28303
 226.35748 228.45594 230.56739 232.68785 234.83130 237.01776 239.28821 241.67267
 244.30812 246.57358 248.59003 250.36949 251.80094 252.93840 253.77485 254.10531
 254.15676 253.94522 253.31967 252.28213 250.90258 249.07804 247.00149 244.84895
 242.65440 240.47286 238.30731 236.16077 234.03522 231.91668 229.95713 228.12859
 226.42604 224.91250 223.55695 222.34341 221.23986 220.21432 219.33277 218.48823
 217.74468 216.93914 216.05159 215.43005 214.89450 214.65019 214.07298 214.13429
 214.84041 215.13512 216.00066 217.64517 219.27200 222.06311 227.06207 231.87788
 235.98839 240.15117 243.73407 246.68288 249.34637 251.95706 254.76482 257.91580
 261.18311 264.28549 267.09158 269.66299 272.04907 274.20526 275.95145 277.46515
 278.90601 280.29694 281.77820 283.14069 284.32373 285.37283 286.33243 287.20837
 287.99902 288.71097 289.33835 290.16580
 366.78100 356.34976 345.79652 334.67728 323.09504 311.30380 299.18856 287.00632
 274.73308 262.64484 250.66860 239.98436 230.12112 221.23988 213.43664 206.45341
 200.30217 195.25493 191.85169 189.90845 188.96021 189.03897 189.88873 191.21149
 192.95125 195.06101 197.33877 199.71253 202.17229 204.66705 206.76981 208.62657
 210.26733 211.42709 211.67085 211.91361 211.86537 211.58513 211.23289 210.87765
 210.50941 210.23417 210.05693 209.93569 209.87845 210.22422 210.62498 211.02874
 211.83650 213.02926 214.29402 216.09178 218.03454 220.09230 222.20206 224.29982
 226.37458 228.47334 230.58510 232.70586 234.84962 237.03638 239.30714 241.69190
 244.32766 246.59342 248.61018 250.38994 251.82170 252.95946 253.79622 254.12698
 254.17874 253.96750 253.34226 252.30503 250.92579 249.10155 247.02531 244.87307
 242.67883 240.49759 238.33235 236.18611 234.06087 231.94263 229.98339 228.15515
 226.45291 224.93967 223.58443 222.37119 221.26795 220.24271 219.36147 218.51723
 217.77399 216.96875 216.08151 215.46027 214.92503 214.68481 214.11728 214.18498
 214.91629 215.20900 216.03799 217.65714 219.27805 222.07310 227.07008 231.90092
 235.99855 240.12161 243.62167 246.48418 249.12683 251.75122 254.60873 257.83566
 261.13791 264.24600 267.04858 269.62088 272.01920 274.19510 275.96277 277.48685
 278.91260 280.27887 281.74179 283.10220 284.28598 285.33487 286.29596 287.16928
 287.96243 288.67480 289.30133 290.12802
 366.78100 356.34993 345.79687 334.67780 323.09573 311.30467 299.18960 287.00753
 274.73447 262.64640 250.67033 239.98627 230.12320 221.24213 213.43907 206.45600
 200.30493 195.25787 191.85480 189.91173 188.96367 189.04260 189.89253 191.21547
 192.95540 195.06533 197.34327 199.71720 202.17713 204.67207 206.77500 208.63193
 210.27287 211.43280 211.67673 211.91967 211.87160 211.59153 211.23947 210.88440
 210.51633 210.24127 210.06420 209.94313 209.88607 210.23200 210.63294 211.03687
 211.84480 213.03774 214.30267 216.10060 218.04354 220.10147 222.21140 224.30934
 226.38427 228.48320 230.59514 232.71607 234.86000 237.04694 239.31787 241.70280
 244.33874 246.60467 248.62160 250.40154 251.83347 252.97140 253.80834 254.13927
 254.19120 253.98014 253.35507 252.31800 250.93894 249.11487 247.03880 244.88674
 242.69267 240.51160 238.34654 236.20047 234.07540 231.95734 229.99827 228.17020
 226.46814 224.95507 223.60000 222.38694 221.28387 220.25880 219.37774 218.53367
 217.79060 216.98554 216.09847 215.47740 214.94234 214.71100 214.16444 214.24144
 214.98077 215.29361 216.08286 217.66600 219.29384 222.08560 227.08571 231.92545
 236.00316 240.08028 243.49504 246.27554 248.90193 251.54536 254.45541 257.75421
 261.08853 264.19931 266.99847 269.57632 271.98956 274.18723 275.97900 277.51633
 278.93256 280.28302 281.71869 283.07764 284.26010 285.31076 286.27106 287.14636
 287.93842 288.65060 289.27448 290.10443
 366.78100 356.34999 345.79697 334.67796 323.09595 311.30494 299.18992 287.00791
 274.73490 262.64689 250.67087 239.98686 230.12385 221.24284 213.43982 206.45681
 200.30580 195.25879 191.85577 189.91276 188.96475 189.04374 189.89372 191.21671
 192.95670 195.06668 197.34467 199.71866 202.17865 204.67363 206.77662 208.63361
 210.27460 211.43458 211.67857 211.92156 211.87355 211.59353 211.24152 210.88651
 210.51850 210.24348 210.06647 209.94546 209.88845 210.23443 210.63542 211.03941
 211.84739 213.04038 214.30537 216.10336 218.04634 220.10433 222.21432 224.31231
 226.38729 228.48628 230.59827 232.71926 234.86324 237.05023 239.32122 241.70621
 244.34219 246.60818 248.62517 250.40515 251.83714 252.97513 253.81212 254.14310
 254.19509 253.98408 253.35907 252.32205 250.94304 249.11903 247.04302 244.89100
 242.69699 240.51598 238.35097 236.20495 234.07994 231.96193 230.00292 228.17490
 226.47289 224.95988 223.60486 222.39185 221.28884 220.26383 219.38281 218.53880
 217.79579 216.99078 216.10376 215.48275 214.94774 214.72896 214.21207 214.30844
 215.03394 215.37860 216.14426 217.68398 219.31039 222.10515 227.09769 231.94353
 235.99933 240.02364 243.35013 246.05397 248.67233 251.34308 254.30997 257.67514
 261.03708 264.14737 266.94449 269.53043 271.96271 274.18417 276.00198 277.55685
 278.96771 280.30991 281.70975 283.06616 284.25006 285.29999 286.26212 287.13693
 287.92810 288.63922 289.26547 290.09302
 366.78100 356.34979 345.79657 334.67736 323.09515 311.30394 299.18872 287.00651
 274.73330 262.64508 250.66887 239.98466 230.12145 221.24023 213.43702 206.45381
 200.30260 195.25538 191.85217 189.90896 188.96074 189.03953 189.88932 191.21211
 192.95189 195.06168 197.33947 199.71325 202.17304 204.66783 206.77062 208.62740
 210.26819 211.42798 211.67176 211.91455 211.86634 211.58613 211.23391 210.87870
 210.51049 210.23527 210.05806 209.93685 209.87964 210.22542 210.62621 211.03000
 211.83779 213.03057 214.29536 216.09315 218.03593 220.09372 222.20351 224.30130
 226.37608 228.47487 230.58666 232.70744 234.85123 237.03802 239.30881 241.69359
 244.32938 246.59517 248.61195 250.39174 251.82353 252.96132 253.79810 254.12889
 254.18068 253.96946 253.34425 252.30704 250.92783 249.10361 247.02740 244.87519
 242.68098 240.49976 238.33455 236.18834 234.06312 231.94491 229.98570 228.15749
 226.45527 224.94206 223.58685 222.37363 221.27042 220.24521 219.36400 218.51978
 217.77657 216.97136 216.08414 215.46293 214.92772 214.73209 214.26988 214.36938
 215.09308 215.47031 216.20268 217.70366 219.33344 222.13281 227.10913 231.95543
 235.98685 239.94954 243.18600 245.82161 248.44240 251.14920 254.17619 257.60233
 260.98572 264.09271 266.88873 269.48587 271.93835 274.18436 276.02609 277.59634
 279.00385 280.33582 281.71997 283.07593 284.26135 285.31247 286.27524 287.14954
 287.94174 288.65158 289.27722 290.10315
 366.78100 356.34964 345.79628 334.67691 323.09455 311.30319 299.18783 287.00546
 274.73210 262.64374 250.66738 239.98302 230.11965 221.23829 213.43493 206.45157
 200.30020 195.25284 191.84948 189.90612 188.95776 189.03639 189.88603 191.20867
 192.94831 195.05795 197.33558 199.70922 202.16886 204.66350 206.76613 208.62277
 210.26341 211.42305 211.66669 211.90932 211.86096 211.58060 211.22824 210.87287
 210.50451 210.22915 210.05179 209.93043 209.87306 210.21870 210.61934 211.02298
 211.83061 213.02325 214.28789 216.08553 218.02817 220.08580 222.19544 224.29308
 226.36772 228.46636 230.57799 232.69863 234.84227 237.02891 239.29954 241.68418
 244.31982 246.58546 248.60210 250.38173 251.81337 252.95101 253.78765 254.11828
 254.16992 253.95856 253.33320 252.29584 250.91647 249.09211 247.01575 244.86339
 242.66902 240.48766 238.32230 236.17594 234.05058 231.93221 229.97285 228.14449
 226.44213 224.92876 223.57340 222.36004 221.25668 220.23132 219.34995 218.50559
 217.76223 216.95687 216.06951 215.44814 214.91278 214.73535 214.31618 214.44537
 215.14545 215.55835 216.28520 217.72986 219.34993 222.15344 227.11922 231.96205
 235.96655 239.85887 243.00833 245.58662 248.21921 250.96855 254.05592 257.53564
 260.93359 264.03488 266.82950 269.43958 271.91470 274.18387 276.05130 277.63550
 279.04260 280.36368 281.74283 283.09845 284.28424 285.33685 286.29840 287.17206
 287.96521 288.67288 289.29840 290.12891
 366.78100 356.34933 345.79567 334.67600 323.09334 311.30167 299.18601 287.00334
 274.72968 262.64101 250.66435 239.97968 230.11602 221.23435 213.43068 206.44702
 200.29535 195.24769 191.84402 189.90036 188.95169 189.03003 189.87936 191.20170
 192.94103 195.05037 197.32770 199.70103 202.16037 204.65470 206.75704 208.61337
 210.25371 211.41304 211.65638 211.89871 211.85005 211.56938 211.21672 210.86105
 210.49238 210.21672 210.03905 209.91739 209.85972 210.20506 210.60539 211.00873
 211.81606 213.00840 214.27273 216.07007 218.01240 220.06973 222.17907 224.27640
 226.35074 228.44907 230.56041 232.68074 234.82408 237.01041 239.28075 241.66508
 244.30042 246.56575 248.58208 250.36142 251.79275 252.93009 253.76642 254.09676
 254.14809 253.93643 253.31076 252.27310 250.89343 249.06877 246.99210 244.83943
 242.64477 240.46310 238.29744 236.15077 234.02511 231.90644 229.94678 228.11811
 226.41545 224.90178 223.54612 222.33245 221.22878 220.20312 219.32145 218.47679
 217.73312 216.92746 216.03979 215.41813 214.88246 214.72928 214.36736 214.50630
 215.22539 215.65176 216.34326 217.75444 219.37943 222.19084 227.14029 231.96869
 235.93977 239.75360 242.81595 245.34474 247.99553 250.79276 253.94183 257.46933
 260.87616 263.96878 266.76285 269.39011 271.88950 274.18463 276.07770 277.67966
 279.08725 280.39999 281.77731 283.13303 284.32089 285.37497 286.33569 287.21240
 288.00613 288.71463 289.34323 290.16571
 366.78100 356.34866 345.79432 334.67398 323.09064 311.29830 299.18196 286.99861
 274.72427 262.63493 250.65759 239.97225 230.10791 221.22557 213.42123 206.43689
 200.28455 195.23621 191.83187 189.88753 188.93819 189.01584 189.86450 191.18616
 192.92482 195.03348 197.31014 199.68280 202.14146 204.63512 206.73678 208.59244
 210.23210 211.39076 211.63341 211.87507 211.82573 211.54439 211.19105 210.83471
 210.46537 210.18903 210.01069 209.88835 209.83001 210.17467 210.57433 210.97699
 211.78364 212.97530 214.23896 216.03562 217.97728 220.03394 222.14260 224.23926
 226.31292 228.41058 230.52124 232.64090 234.78356 236.96921 239.23887 241.62253
 244.25719 246.52185 248.53751 250.31617 251.74683 252.88349 253.71915 254.04881
 254.09947 253.88713 253.26079 252.22244 250.84210 249.01676 246.93942 244.78608
 242.59074 240.40840 238.24206 236.09472 233.96838 231.84904 229.88870 228.05936
 226.35602 224.84167 223.48533 222.27099 221.16665 220.14031 219.25797 218.41263
 217.66829 216.86195 215.97361 215.35127 214.81493 214.70329 214.43958 214.54211
 215.28400 215.78137 216.46928 217.81631 219.41550 222.18776 227.14618 231.96375
 235.89441 239.62106 242.59868 245.09044 247.76971 250.62312 253.83652 257.40646
 260.81787 263.90121 266.69650 269.34454 271.86823 274.19034 276.11221 277.73553
 279.14764 280.45352 281.81824 283.17358 284.36163 285.41647 286.38110 287.25613
 288.04880 288.75992 289.38684 290.20834
 366.78100 356.34809 345.79317 334.67226 323.08834 311.29543 299.17851 286.99460
 274.71969 262.62977 250.65186 239.96594 230.10103 221.21811 213.41320 206.42829
 200.27537 195.22646 191.82154 189.87663 188.92671 189.00380 189.85189 191.17297
 192.91106 195.01914 197.29523 199.66731 202.12540 204.61848 206.71957 208.57466
 210.21374 211.37183 211.61391 211.85500 211.80508 211.52317 211.16926 210.81234
 210.44243 210.16551 209.98660 209.86368 209.80477 210.14886 210.54794 210.95003
 211.75611 212.94720 214.21028 216.00637 217.94746 220.00354 222.11163 224.20771
 226.28080 228.37788 230.48797 232.60706 234.74914 236.93423 239.20331 241.58640
 244.22048 246.48457 248.49966 250.27774 251.70783 252.84391 253.67900 254.00808
 254.05817 253.84525 253.21834 252.17943 250.79851 248.97260 246.89468 244.74077
 242.54485 240.36194 238.19503 236.04711 233.92020 231.80028 229.83937 228.00945
 226.30554 224.79063 223.43371 222.21880 221.11388 220.08697 219.20405 218.35814
 217.61323 216.80631 215.91740 215.29448 214.75757 214.68048 214.49835 214.60684
 215.30583 215.88376 216.60481 217.86356 219.42409 222.23688 227.15358 231.94930
 235.84422 239.48404 242.38400 244.84921 247.56267 250.47495 253.74792 257.35275
 260.76532 263.83719 266.63397 269.30026 271.84885 274.19769 276.14847 277.79306
 279.21426 280.51852 281.86282 283.21561 284.40573 285.46152 286.42450 287.30026
 288.09357 288.80426 289.42850 290.25235
 366.78100 356.34778 345.79255 334.67133 323.08710 311.29388 299.17665 286.99243
 274.71720 262.62698 250.64875 239.96253 230.09731 221.21408 213.40886 206.42363
 200.27041 195.22118 191.81596 189.87073 188.92051 188.99728 189.84506 191.16584
 192.90361 195.01139 197.28716 199.65894 202.11671 204.60949 206.71026 208.56504
 210.20382 211.36159 211.60337 211.84414 211.79392 211.51169 211.15747 210.80024
 210.43002 210.15279 209.97357 209.85035 209.79112 210.13490 210.53367 210.93545
 211.74122 212.93200 214.19477 215.99055 217.93132 219.98710 222.09488 224.19065
 226.26343 228.36020 230.46998 232.58875 234.73053 236.91530 239.18408 241.56685
 244.20063 246.46441 248.47918 250.25696 251.68673 252.82251 253.65728 253.98606
 254.03583 253.82261 253.19538 252.15616 250.77494 248.94871 246.87049 244.71626
 242.52004 240.33681 238.16959 236.02136 233.89414 231.77392 229.81269 227.98247
 226.27824 224.76302 223.40579 222.19057 221.08534 220.05812 219.17489 218.32867
 217.58345 216.77622 215.88700 215.26377 214.72655 214.66847 214.53127 214.70920
 215.32559 215.95894 216.72342 217.92204 219.42549 222.28029 227.16908 231.94138
 235.79663 239.35098 242.17775 244.62277 247.37207 250.34406 253.67204 257.30374
 260.71179 263.77048 266.56784 269.25238 271.82675 274.20093 276.17789 277.84439
 279.27438 280.57843 281.90750 283.26022 284.44876 285.50543 286.47037 287.34515
 288.13763 288.84708 289.47192 290.29242
 366.78100 356.34765 345.79230 334.67094 323.08659 311.29324 299.17589 286.99154
 274.71619 262.62583 250.64748 239.96113 230.09578 221.21243 213.40707 206.42172
 200.26837 195.21902 191.81367 189.86832 188.91796 188.99461 189.84226 191.16291
 192.90056 195.00821 197.28385 199.65550 202.11315 204.60580 206.70645 208.56109
 210.19974 211.35739 211.59904 211.83969 211.78934 211.50698 211.15263 210.79528
 210.42493 210.14758 209.96822 209.84487 209.78552 210.12917 210.52782 210.92947
 211.73511 212.92576 214.18841 215.98406 217.92471 219.98036 222.08800 224.18365
 226.25630 228.35295 230.46260 232.58124 234.72289 236.90754 239.17619 241.55884
 244.19249 246.45613 248.47078 250.24843 251.67808 252.81373 253.64837 253.97702
 254.02667 253.81332 253.18597 252.14662 250.76526 248.93891 246.86056 244.70621
 242.50986 240.32651 238.15915 236.01080 233.88345 231.76310 229.80175 227.97139
 226.26704 224.75169 223.39434 222.17899 221.07364 220.04628 219.16293 218.31658
 217.57123 216.76388 215.87452 215.25117 214.71382 214.66354 214.54477 214.82408
 215.36505 216.02898 216.82898 217.99091 219.43195 222.30086 227.19072 231.93784
 235.74725 239.21442 241.97104 244.40158 247.18948 250.22134 253.60251 257.25565
 260.65536 263.69919 266.49814 269.20349 271.80307 274.20050 276.20151 277.88904
 279.32849 280.63440 281.95627 283.30841 284.49927 285.55823 286.52280 287.40137
 288.19925 288.91650 289.54541 290.36859
 366.78100 356.34752 345.79204 334.67056 323.08608 311.29260 299.17512 286.99064
 274.71516 262.62468 250.64620 239.95972 230.09424 221.21076 213.40528 206.41980
 200.26632 195.21684 191.81136 189.86588 188.91540 188.99192 189.83944 191.15996
 192.89748 195.00500 197.28052 199.65204 202.10956 204.60208 206.70260 208.55712
 210.19564 211.35316 211.59468 211.83520 211.78472 211.50224 211.14776 210.79028
 210.41980 210.14232 209.96284 209.83936 209.77988 210.12339 210.52191 210.92343
 211.72895 212.91947 214.18199 215.97751 217.91803 219.97355 222.08107 224.17659
 226.24911 228.34563 230.45515 232.57367 234.71519 236.89971 239.16823 241.55075
 244.18427 246.44779 248.46231 250.23983 251.66935 252.80487 253.63939 253.96791
 254.01743 253.80395 253.17647 252.13699 250.75551 248.92903 246.85055 244.69607
 242.49959 240.31611 238.14863 236.00015 233.87267 231.75219 229.79071 227.96023
 226.25575 224.74027 223.38279 222.16731 221.06183 220.03435 219.15087 218.30439
 217.55891 216.75143 215.86195 215.23847 214.70099 214.65727 214.55400 214.92673
 215.43355 216.11423 216.93335 218.05460 219.44165 222.30550 227.21220 231.93188
 235.68938 239.06709 241.75635 244.18001 247.01103 250.10515 253.53815 257.20831
 260.59760 263.62833 266.43109 269.15738 271.78168 274.20203 276.22614 277.93280
 279.37970 280.68402 282.00403 283.35675 284.54883 285.60727 286.57294 287.45206
 288.25089 288.96967 289.59692 290.42181
 366.78100 356.34735 345.79170 334.67005 323.08540 311.29175 299.17410 286.98945
 274.71380 262.62315 250.64450 239.95785 230.09220 221.20854 213.40289 206.41724
 200.26359 195.21394 191.80829 189.86264 188.91199 188.98834 189.83569 191.15604
 192.89339 195.00074 197.27609 199.64744 202.10479 204.59714 206.69749 208.55184
 210.19019 211.34754 211.58889 211.82924 211.77859 211.49594 211.14128 210.78363
 210.41298 210.13533 209.95568 209.83203 209.77238 210.11573 210.51408 210.91543
 211.72078 212.91113 214.17348 215.96883 217.90918 219.96453 222.07188 224.16723
 226.23958 228.33593 230.44528 232.56363 234.70498 236.88933 239.15768 241.54002
 244.17337 246.43672 248.45107 250.22842 251.65777 252.79312 253.62747 253.95582
 254.00517 253.79152 253.16387 252.12422 250.74257 248.91592 246.83727 244.68262
 242.48597 240.30232 238.13467 235.98602 233.85837 231.73772 229.77607 227.94542
 226.24076 224.72511 223.36746 222.15181 221.04616 220.01851 219.13486 218.28821
 217.54256 216.73491 215.84526 215.22161 214.68396 214.64822 214.56383 215.01186
 215.52147 216.21306 217.04240 218.11601 219.45674 222.30769 227.22955 231.92030
 235.62288 238.91084 241.53676 243.96190 246.83908 249.99635 253.47868 257.16132
 260.53784 263.55676 266.36523 269.11380 271.76178 274.20364 276.25064 277.97739
 279.43274 280.73456 282.04498 283.39789 284.58920 285.64862 286.61349 287.49188
 288.29181 289.00809 289.63654 290.46021
 366.78100 356.34735 345.79170 334.67005 323.08541 311.29176 299.17411 286.98946
 274.71381 262.62316 250.64452 239.95787 230.09222 221.20857 213.40292 206.41727
 200.26363 195.21398 191.80833 189.86268 188.91203 188.98838 189.83573 191.15609
 192.89344 195.00079 197.27614 199.64749 202.10484 204.59720 206.69755 208.55190
 210.19025 211.34760 211.58895 211.82931 211.77866 211.49601 211.14136 210.78371
 210.41306 210.13541 209.95577 209.83212 209.77247 210.11582 210.51417 210.91552
 211.72088 212.91123 214.17358 215.96893 217.90928 219.96463 222.07199 224.16734
 226.23969 228.33604 230.44539 232.56374 234.70509 236.88945 239.15780 241.54015
 244.17350 246.43685 248.45120 250.22856 251.65791 252.79326 253.62761 253.95596
 254.00531 253.79167 253.16402 252.12437 250.74272 248.91607 246.83742 244.68278
 242.48613 240.30248 238.13483 235.98618 233.85853 231.73788 229.77624 227.94559
 226.24094 224.72529 223.36764 222.15199 221.04635 220.01870 219.13505 218.28840
 217.54275 216.73510 215.84546 215.22181 214.68416 214.64754 214.56099 215.09975
 215.61763 216.30984 217.15216 218.17784 219.47687 222.31477 227.24312 231.90411
 235.55058 238.74937 241.31892 243.75266 246.67822 249.89738 253.42427 257.11365
 260.47534 263.48203 266.29761 269.06750 271.73828 274.19894 276.26712 278.01428
 279.48096 280.78790 282.08026 283.42990 284.62405 285.68225 286.64804 287.52588
 288.32596 289.04166 289.66885 290.49249
 366.78100 356.34745 345.79190 334.67035 323.08580 311.29225 299.17470 286.99015
 274.71460 262.62405 250.64550 239.95895 230.09340 221.20985 213.40430 206.41875
 200.26520 195.21566 191.81011 189.86456 188.91401 188.99046 189.83791 191.15836
 192.89581 195.00326 197.27871 199.65016 202.10761 204.60006 206.70051 208.55496
 210.19341 211.35086 211.59231 211.83276 211.78221 211.49966 211.14511 210.78756
 210.41701 210.13946 209.95991 209.83636 209.77681 210.12026 210.51871 210.92016
 211.72561 212.91607 214.17852 215.97397 217.91442 219.96987 222.07732 224.17277
 226.24522 228.34167 230.45112 232.56957 234.71102 236.89547 239.16392 241.54637
 244.17982 246.44327 248.45772 250.23517 251.66462 252.80007 253.63452 253.96297
 254.01242 253.79887 253.17132 252.13177 250.75022 248.92367 246.84512 244.69057
 242.49402 240.31047 238.14293 235.99438 233.86683 231.74628 229.78473 227.95418
 226.24963 224.73408 223.37653 222.16098 221.05543 220.02788 219.14433 218.29778
 217.55223 216.74468 215.85513 215.23158 214.69403 214.65120 214.55000 215.19437
 215.71925 216.40538 217.26129 218.23616 219.49840 222.32428 227.25089 231.88013
 235.46922 238.58255 241.10402 243.55484 246.53046 249.80806 253.37398 257.06442
 260.40854 263.40408 266.22772 269.01868 271.70950 274.18683 276.27283 278.03864
 279.51889 280.83438 282.10831 283.45764 284.64911 285.70782 286.67361 287.55203
 288.34976 289.06653 289.69400 290.51257
 366.78100 356.34762 345.79223 334.67085 323.08647 311.29308 299.17570 286.99132
 274.71593 262.62555 250.64717 239.96078 230.09540 221.21202 213.40663 206.42125
 200.26787 195.21848 191.81310 189.86772 188.91733 188.99395 189.84157 191.16218
 192.89980 195.00742 197.28303 199.65465 202.11227 204.60488 206.70550 208.56012
 210.19873 211.35635 211.59797 211.83858 211.78820 211.50582 211.15143 210.79405
 210.42367 210.14628 209.96690 209.84352 209.78413 210.12775 210.52636 210.92798
 211.73360 212.92421 214.18683 215.98245 217.92306 219.97868 222.08630 224.18191
 226.25453 228.35115 230.46076 232.57938 234.72100 236.90561 239.17423 241.55685
 244.19046 246.45408 248.46870 250.24631 251.67593 252.81155 253.64616 253.97478
 254.02440 253.81101 253.18363 252.14425 250.76286 248.93648 246.85810 244.70371
 242.50733 240.32395 238.15656 236.00818 233.88080 231.76041 229.79903 227.96865
 226.26426 224.74888 223.39150 222.17611 221.07073 220.04335 219.15996 218.31358
 217.56820 216.76081 215.87143 215.24805 214.71066 214.65814 214.53407 215.28644
 215.82848 216.50609 217.37704 218.29576 219.52135 222.33366 227.25299 231.84752
 235.37769 238.41037 240.89447 243.36967 246.39563 249.72758 253.32648 257.01205
 260.33682 263.32315 266.15692 268.96826 271.67761 274.16785 276.26755 278.04828
 279.53735 280.86359 282.13126 283.47986 284.67236 285.73209 286.69586 287.57477
 288.37134 289.09085 289.71570 290.53781
 366.78100 356.34798 345.79296 334.67193 323.08791 311.29489 299.17787 286.99385
 274.71882 262.62880 250.65078 239.96476 230.09974 221.21672 213.41169 206.42667
 200.27365 195.22463 191.81961 189.87458 188.92456 189.00154 189.84952 191.17050
 192.90847 195.01645 197.29243 199.66441 202.12239 204.61537 206.71634 208.57132
 210.21030 211.36828 211.61026 211.85123 211.80121 211.51919 211.16517 210.80815
 210.43812 210.16110 209.98208 209.85906 209.80004 210.14401 210.54299 210.94497
 211.75095 212.94193 214.20491 216.00088 217.94186 219.99784 222.10582 224.20180
 226.27477 228.37175 230.48173 232.60071 234.74269 236.92766 239.19664 241.57962
 244.21360 246.47758 248.49256 250.27053 251.70051 252.83649 253.67147 254.00045
 254.05042 253.83740 253.21038 252.17136 250.79034 248.96431 246.88629 244.73227
 242.53625 240.35323 238.18620 236.03818 233.91116 231.79114 229.83012 228.00010
 226.29607 224.78105 223.42403 222.20901 221.10399 220.07696 219.19394 218.34792
 217.60290 216.79588 215.90685 215.28383 214.74681 214.67513 214.50574 215.37003
 215.95323 216.61577 217.49896 218.35735 219.55127 222.34290 227.24878 231.80493
 235.27516 238.23529 240.69272 243.19904 246.27551 249.65749 253.28140 256.95654
 260.26047 263.23904 266.08502 268.91748 271.64255 274.14310 276.25461 278.04861
 279.54495 280.88150 282.14584 283.49496 284.68625 285.74619 286.71033 287.58951
 288.38541 289.10199 289.72821 290.54764
 366.78100 356.34832 345.79364 334.67295 323.08927 311.29659 299.17991 286.99622
 274.72154 262.63186 250.65418 239.96850 230.10381 221.22113 213.41645 206.43177
 200.27908 195.23040 191.82572 189.88104 188.93136 189.00867 189.85699 191.17831
 192.91663 195.02494 197.30126 199.67358 202.13190 204.62522 206.72653 208.58185
 210.22117 211.37949 211.62180 211.86312 211.81344 211.53176 211.17808 210.82139
 210.45171 210.17503 209.99635 209.87366 209.81498 210.15930 210.55862 210.96094
 211.76725 212.95857 214.22189 216.01821 217.95952 220.01584 222.12416 224.22048
 226.29380 228.39111 230.50143 232.62075 234.76307 236.94838 239.21770 241.60102
 244.23534 246.49966 248.51497 250.29329 251.72361 252.85993 253.69524 254.02456
 254.07488 253.86220 253.23551 252.19683 250.81615 248.99047 246.91279 244.75910
 242.56342 240.38074 238.21406 236.06637 233.93969 231.82001 229.85933 228.02965
 226.32596 224.81128 223.45460 222.23992 221.13523 220.10855 219.22587 218.38019
 217.63551 216.82882 215.94014 215.31746 214.78078 214.69098 214.47881 215.43732
 216.09184 216.73775 217.62238 218.42331 219.57388 222.34526 227.23897 231.75403
 235.16519 238.05937 240.49934 243.04222 246.16931 249.59727 253.23964 256.89819
 260.18024 263.15387 266.01385 268.86752 271.60718 274.11353 276.23706 278.04333
 279.54718 280.89059 282.15515 283.50415 284.69543 285.75305 286.71786 287.59485
 288.39175 289.10754 289.73453 290.55313
 366.78100 356.34850 345.79399 334.67349 323.08998 311.29748 299.18098 286.99747
 274.72297 262.63346 250.65596 239.97045 230.10595 221.22345 213.41894 206.43444
 200.28193 195.23343 191.82893 189.88442 188.93492 189.01241 189.86091 191.18240
 192.92090 195.02940 197.30589 199.67839 202.13688 204.63038 206.73188 208.58737
 210.22687 211.38536 211.62786 211.86935 211.81985 211.53835 211.18484 210.82834
 210.45883 210.18233 210.00383 209.88132 209.82282 210.16731 210.56681 210.96930
 211.77580 212.96730 214.23079 216.02729 217.96878 220.02528 222.13378 224.23027
 226.30377 228.40126 230.51176 232.63125 234.77375 236.95925 239.22874 241.61224
 244.24673 246.51123 248.52673 250.30522 251.73572 252.87221 253.70771 254.03720
 254.08770 253.87520 253.24869 252.21019 250.82968 249.00418 246.92668 244.77317
 242.57767 240.39516 238.22866 236.08115 233.95465 231.83515 229.87464 228.04514
 226.34163 224.82713 223.47063 222.25612 221.15162 220.12511 219.24261 218.39710
 217.65260 216.84610 215.95759 215.33509 214.79858 214.69792 214.46007 215.48877
 216.23605 216.87357 217.72961 218.48416 219.60809 222.34967 227.22285 231.69125
 235.04231 237.87514 240.30609 242.89439 246.07535 249.54684 253.20216 256.83942
 260.09982 263.07169 265.94800 268.82126 271.57202 274.08118 276.21362 278.02811
 279.53748 280.88638 282.15808 283.50940 284.69983 285.75754 286.72058 287.59738
 288.39362 289.10910 289.73380 290.55389
 366.78100 356.34881 345.79462 334.67443 323.09124 311.29906 299.18287 286.99968
 274.72549 262.63630 250.65911 239.97392 230.10973 221.22755 213.42336 206.43917
 200.28698 195.23879 191.83460 189.89041 188.94122 189.01904 189.86785 191.18966
 192.92847 195.03728 197.31409 199.68690 202.14571 204.63953 206.74134 208.59715
 210.23696 211.39577 211.63858 211.88039 211.83120 211.55002 211.19683 210.84064
 210.47145 210.19526 210.01707 209.89488 209.83669 210.18151 210.58132 210.98413
 211.79094 212.98275 214.24656 216.04337 217.98518 220.04200 222.15081 224.24762
 226.32143 228.41924 230.53005 232.64986 234.79267 236.97849 239.24830 241.63211
 244.26692 246.53173 248.54754 250.32635 251.75716 252.89398 253.72979 254.05960
 254.11041 253.89822 253.27203 252.23384 250.85365 249.02847 246.95128 244.79809
 242.60290 240.42071 238.25452 236.10733 233.98114 231.86196 229.90177 228.07258
 226.36939 224.85520 223.49901 222.28482 221.18063 220.15445 219.27226 218.42707
 217.68288 216.87669 215.98850 215.36631 214.83012 214.71155 214.43140 215.53912
 216.38609 217.01807 217.85031 218.55110 219.61394 222.33994 227.19847 231.61885
 234.91133 237.68889 240.11972 242.76086 245.99800 249.50977 253.17017 256.78143
 260.02087 262.99222 265.88477 268.77509 271.53448 274.04276 276.18127 278.00037
 279.51303 280.86530 282.15543 283.50681 284.69812 285.75406 286.71667 287.59250
 288.38904 289.10406 289.72879 290.54922
 366.78100 356.34937 345.79574 334.67611 323.09348 311.30185 299.18622 287.00359
 274.72996 262.64133 250.66470 239.98007 230.11644 221.23481 213.43118 206.44755
 200.29592 195.24829 191.84466 189.90103 188.95240 189.03077 189.88014 191.20251
 192.94188 195.05125 197.32862 199.70199 202.16136 204.65573 206.75810 208.61447
 210.25484 211.41421 211.65758 211.89995 211.85132 211.57068 211.21805 210.86242
 210.49379 210.21816 210.04053 209.91890 209.86127 210.20664 210.60701 211.01038
 211.81775 213.01012 214.27449 216.07186 218.01423 220.07160 222.18097 224.27834
 226.35271 228.45108 230.56245 232.68282 234.82619 237.01256 239.28293 241.66730
 244.30267 246.56804 248.58441 250.36378 251.79515 252.93252 253.76889 254.09926
 254.15063 253.93900 253.31337 252.27574 250.89611 249.07148 246.99485 244.84222
 242.64759 240.46596 238.30033 236.15370 234.02807 231.90944 229.94981 228.12118
 226.41855 224.90492 223.54929 222.33566 221.23203 220.20640 219.32477 218.48014
 217.73651 216.93088 216.04325 215.42162 214.88599 214.73848 214.38998 215.58261
 216.56143 217.17807 217.92465 218.60860 219.65015 222.33899 227.17438 231.54355
 234.77721 237.50145 239.93608 242.63567 245.93088 249.47945 253.13945 256.71960
 259.93747 262.90994 265.82050 268.72809 271.49304 273.99933 276.14056 277.96307
 279.47687 280.83588 282.14587 283.49777 284.68796 285.74347 286.70731 287.58105
 288.37805 289.09036 289.71744 290.52826
 366.78100 356.34980 345.79660 334.67740 323.09520 311.30400 299.18880 287.00660
 274.73340 262.64520 250.66900 239.98480 230.12160 221.24040 213.43720 206.45400
 200.30280 195.25560 191.85240 189.90920 188.96100 189.03980 189.88960 191.21240
 192.95220 195.06200 197.33980 199.71360 202.17340 204.66820 206.77100 208.62780
 210.26860 211.42840 211.67220 211.91499 211.86679 211.58659 211.23439 210.87919
 210.51099 210.23579 210.05859 209.93739 209.88019 210.22599 210.62679 211.03059
 211.83839 213.03119 214.29599 216.09379 218.03659 220.09439 222.20419 224.30199
 226.37679 228.47559 230.58739 232.70819 234.85199 237.03879 239.30959 241.69439
 244.33019 246.59599 248.61279 250.39259 251.82439 252.96219 253.79899 254.12979
 254.18159 253.97039 253.34519 252.30799 250.92879 249.10459 247.02839 244.87619
 242.68199 240.50079 238.33559 236.18939 234.06419 231.94599 229.98679 228.15859
 226.45639 224.94319 223.58799 222.37479 221.27159 220.24639 219.36519 218.52099
 217.77779 216.97259 216.08539 215.46419 214.92899 214.76013 214.36119 215.59744
 216.72884 217.38823 218.07401 218.64848 219.64613 222.33267 227.14091 231.45300
 234.62624 237.29774 239.74335 242.51167 245.87038 249.45419 253.10892 256.65564
 259.85248 262.82852 265.75851 268.68268 271.45233 273.95447 276.09845 277.92432
 279.44046 280.80701 282.13074 283.48352 284.67261 285.72751 286.68875 287.56360
 288.35919 289.07089 289.69632 290.50977
 366.78100 356.35003 345.79706 334.67809 323.09612 311.30515 299.19018 287.00820
 274.73523 262.64726 250.67129 239.98732 230.12435 221.24338 213.44041 206.45744
 200.30647 195.25950 191.85653 189.91355 188.96558 189.04461 189.89464 191.21767
 192.95770 195.06773 197.34576 199.71979 202.17982 204.67485 206.77788 208.63491
 210.27593 211.43596 211.67999 211.92302 211.87505 211.59508 211.24311 210.88814
 210.52017 210.24520 210.06823 209.94726 209.89028 210.23631 210.63734 211.04137
 211.84940 213.04243 214.30746 216.10549 218.04852 220.10655 222.21658 224.31461
 226.38963 228.48866 230.60069 232.72172 234.86575 237.05278 239.32381 241.70884
 244.34487 246.61090 248.62793 250.40796 251.83999 252.97801 253.81504 254.14607
 254.19810 253.98713 253.36216 252.32519 250.94622 249.12225 247.04628 244.89431
 242.70034 240.51936 238.35439 236.20842 234.08345 231.96548 230.00651 228.17854
 226.47657 224.96360 223.60863 222.39566 221.29269 220.26772 219.38674 218.54277
 217.79980 216.99483 216.10786 215.48689 214.95192 214.77156 214.34547 215.59795
 216.86992 217.58888 218.26610 218.69855 219.62704 222.32536 227.10297 231.35327
 234.46606 237.08932 239.55432 242.39973 245.82475 249.44069 253.08481 256.59610
 259.77264 262.75403 265.70200 268.63937 271.41083 273.90665 276.05206 277.87964
 279.39871 280.77374 282.10974 283.46317 284.65015 285.70514 286.66498 287.53973
 288.33206 289.04428 289.66953 290.48553
 366.78100 356.35020 345.79741 334.67861 323.09681 311.30602 299.19122 287.00942
 274.73663 262.64883 250.67303 239.98924 230.12644 221.24564 213.44285 206.46005
 200.30925 195.26246 191.85966 189.91686 188.96907 189.04827 189.89847 191.22168
 192.96188 195.07208 197.35029 199.72449 202.18469 204.67990 206.78310 208.64030
 210.28151 211.44171 211.68591 211.92912 211.88132 211.60152 211.24973 210.89493
 210.52713 210.25234 210.07554 209.95474 209.89795 210.24415 210.64535 211.04956
 211.85776 213.05096 214.31616 216.11437 218.05757 220.11577 222.22598 224.32418
 226.39938 228.49859 230.61079 232.73199 234.87620 237.06340 239.33460 241.71981
 244.35601 246.62221 248.63942 250.41962 251.85182 252.99003 253.82723 254.15843
 254.21064 253.99984 253.37504 252.33825 250.95945 249.13565 247.05986 244.90806
 242.71426 240.53347 238.36867 236.22287 234.09808 231.98028 230.02148 228.19369
 226.49189 224.97909 223.62430 222.41150 221.30870 220.28391 219.40311 218.55931
 217.81652 217.01172 216.12492 215.50413 214.96933 214.77835 214.32713 215.59912
 217.00731 217.77591 218.45119 218.76476 219.60886 222.31566 227.06070 231.24767
 234.30257 236.88406 239.37714 242.30429 245.79549 249.43898 253.06677 256.54037
 259.69672 262.68213 265.64633 268.59424 271.36328 273.85025 275.99344 277.81812
 279.34164 280.73016 282.08218 283.43622 284.62213 285.67572 286.63528 287.50916
 288.29858 289.01166 289.63586 290.44730
 366.78100 356.35033 345.79766 334.67899 323.09732 311.30665 299.19198 287.01031
 274.73765 262.64998 250.67431 239.99064 230.12797 221.24730 213.44463 206.46196
 200.31129 195.26462 191.86195 189.91928 188.97161 189.05094 189.90128 191.22461
 192.96494 195.07527 197.35360 199.72793 202.18826 204.68359 206.78692 208.64425
 210.28558 211.44591 211.69024 211.93357 211.88591 211.60624 211.25457 210.89990
 210.53223 210.25756 210.08089 209.96022 209.90355 210.24988 210.65121 211.05554
 211.86387 213.05720 214.32254 216.12087 218.06420 220.12253 222.23286 224.33119
 226.40652 228.50585 230.61818 232.73951 234.88384 237.07117 239.34250 241.72783
 244.36417 246.63050 248.64783 250.42816 251.86049 252.99882 253.83615 254.16748
 254.21981 254.00914 253.38447 252.34780 250.96913 249.14546 247.06980 244.91813
 242.72446 240.54379 238.37912 236.23345 234.10878 231.99111 230.03244 228.20477
 226.50310 224.99043 223.63576 222.42309 221.32043 220.29576 219.41509 218.57142
 217.82875 217.02408 216.13741 215.51674 214.98207 214.78053 214.30435 215.59892
 217.14941 217.96933 218.61249 218.83694 219.59428 222.29901 227.01381 231.13715
 234.13611 236.68167 239.21010 242.22321 245.78024 249.44611 253.05298 256.48657
 259.62183 262.61014 265.58942 268.54510 271.30896 273.78430 275.92218 277.74026
 279.27100 280.67612 282.04999 283.40393 284.58911 285.63925 286.59860 287.47153
 288.26117 288.97266 289.59412 290.40701
 366.78100 356.35041 345.79783 334.67924 323.09765 311.30707 299.19248 287.01089
 274.73831 262.65072 250.67514 239.99155 230.12896 221.24838 213.44579 206.46320
 200.31262 195.26603 191.86344 189.92086 188.97327 189.05268 189.90310 191.22651
 192.96693 195.07734 197.35575 199.73017 202.19058 204.68599 206.78941 208.64682
 210.28823 211.44865 211.69306 211.93647 211.88889 211.60930 211.25772 210.90313
 210.53554 210.26096 210.08437 209.96378 209.90720 210.25361 210.65502 211.05944
 211.86785 213.06126 214.32668 216.12509 218.06851 220.12692 222.23733 224.33575
 226.41116 228.51057 230.62299 232.74440 234.88881 237.07623 239.34764 241.73305
 244.36947 246.63588 248.65330 250.43371 251.86612 253.00454 253.84195 254.17336
 254.22578 254.01519 253.39060 252.35402 250.97543 249.15184 247.07626 244.92467
 242.73109 240.55050 238.38591 236.24033 234.11574 231.99815 230.03957 228.21198
 226.51039 224.99781 223.64322 222.43063 221.32805 220.30346 219.42288 218.57929
 217.83670 217.03212 216.14553 215.52494 214.99036 214.77939 214.28096 215.59714
 217.29214 218.17035 218.75653 218.90775 219.58751 222.27504 226.96237 231.02184
 233.96700 236.48332 239.05363 242.15508 245.77640 249.45972 253.04091 256.43347
 259.54758 262.53888 265.53223 268.49243 271.24869 273.71234 275.84192 277.65308
 279.19131 280.61713 282.01202 283.36539 284.54742 285.59772 286.55478 287.42593
 288.21735 288.92581 289.54935 290.35724
 366.78100 356.35052 345.79805 334.67957 323.09809 311.30761 299.19314 287.01166
 274.73918 262.65170 250.67623 239.99275 230.13027 221.24979 213.44732 206.46484
 200.31436 195.26789 191.86541 189.92293 188.97545 189.05498 189.90550 191.22902
 192.96954 195.08007 197.35859 199.73311 202.19363 204.68916 206.79268 208.65020
 210.29173 211.45225 211.69677 211.94029 211.89282 211.61334 211.26186 210.90738
 210.53991 210.26543 210.08895 209.96847 209.91200 210.25852 210.66004 211.06457
 211.87309 213.06661 214.33213 216.13066 218.07418 220.13270 222.24322 224.34175
 226.41727 228.51679 230.62931 232.75084 234.89536 237.08288 239.35441 241.73993
 244.37645 246.64297 248.66050 250.44102 251.87354 253.01206 253.84959 254.18111
 254.23363 254.02315 253.39868 252.36220 250.98372 249.16025 247.08477 244.93329
 242.73981 240.55934 238.39486 236.24938 234.12490 232.00743 230.04895 228.22147
 226.51999 225.00752 223.65304 222.44056 221.33809 220.31361 219.43313 218.58965
 217.84718 217.04270 216.15622 215.53574 215.00127 214.78047 214.25882 215.59598
 217.43066 218.36420 218.89587 218.98068 219.59161 222.24780 226.90874 230.90485
 233.79924 236.29164 238.90846 242.09933 245.78197 249.47704 253.02939 256.37988
 259.47293 262.46768 265.47382 268.43710 271.18478 273.63513 275.75403 277.55606
 279.10684 280.55435 281.96555 283.31766 284.49954 285.54788 286.50388 287.37344
 288.16190 288.87225 289.49417 290.30164
 366.78100 356.35074 345.79849 334.68023 323.09898 311.30872 299.19446 287.01321
 274.74095 262.65369 250.67844 239.99518 230.13293 221.25267 213.45041 206.46816
 200.31790 195.27164 191.86939 189.92713 188.97988 189.05962 189.91036 191.23411
 192.97485 195.08559 197.36434 199.73908 202.19983 204.69557 206.79931 208.65706
 210.29880 211.45954 211.70429 211.94803 211.90078 211.62152 211.27026 210.91601
 210.54875 210.27449 210.09824 209.97798 209.92173 210.26847 210.67021 211.07496
 211.88370 213.07744 214.34319 216.14193 218.08568 220.14442 222.25516 224.35391
 226.42965 228.52939 230.64214 232.76388 234.90863 237.09637 239.36811 241.75386
 244.39060 246.65734 248.67509 250.45583 251.88858 253.02732 253.86506 254.19681
 254.24955 254.03929 253.41504 252.37878 251.00053 249.17727 247.10201 244.95076
 242.75750 240.57724 238.41299 236.26773 234.14348 232.02622 230.06796 228.24071
 226.53945 225.02720 223.67294 222.46068 221.35843 220.33417 219.45391 218.61066
 217.86840 217.06415 216.17789 215.55763 215.02338 214.78886 214.23480 215.59343
 217.56110 218.54771 219.03209 219.05875 219.61221 222.22243 226.85295 230.78598
 233.63245 236.10747 238.77519 242.05472 245.79428 249.49597 253.01651 256.32440
 259.39676 262.39514 265.41513 268.37830 271.11508 273.55124 275.65869 277.45422
 279.01877 280.48795 281.91193 283.26190 284.44119 285.48730 286.44107 287.31131
 288.09872 288.80652 289.42935 290.23950
 366.78100 356.35087 345.79874 334.68061 323.09948 311.30934 299.19521 287.01408
 274.74195 262.65482 250.67969 239.99656 230.13443 221.25430 213.45216 206.47003
 200.31990 195.27377 191.87164 189.92951 188.98238 189.06225 189.91312 191.23698
 192.97785 195.08872 197.36759 199.74246 202.20333 204.69920 206.80307 208.66094
 210.30280 211.46367 211.70854 211.95241 211.90528 211.62615 211.27502 210.92089
 210.55376 210.27962 210.10349 209.98336 209.92723 210.27410 210.67597 211.08084
 211.88971 213.08358 214.34944 216.14831 218.09218 220.15105 222.26192 224.36079
 226.43666 228.53653 230.64940 232.77126 234.91613 237.10400 239.37587 241.76174
 244.39861 246.66548 248.68335 250.46422 251.89708 253.03595 253.87382 254.20569
 254.25856 254.04843 253.42430 252.38817 251.01004 249.18690 247.11177 244.96064
 242.76751 240.58738 238.42325 236.27812 234.15399 232.03686 230.07872 228.25159
 226.55046 225.03833 223.68420 222.47207 221.36994 220.34581 219.46568 218.62254
 217.88041 217.07628 216.19015 215.57002 215.03589 214.79128 214.21333 215.59476
 217.67909 218.71751 219.16853 219.14259 219.64159 222.19757 226.79416 230.66508
 233.46703 235.93056 238.65273 242.02054 245.81168 249.51360 253.00050 256.26697
 259.32040 262.32462 265.35623 268.31693 271.04208 273.46356 275.55420 277.34067
 278.92206 280.41516 281.84790 283.19196 284.37018 285.41519 286.36978 287.23737
 288.02444 288.73416 289.35449 290.16235
 366.78100 356.35063 345.79825 334.67988 323.09851 311.30813 299.19376 287.01239
 274.74001 262.65264 250.67727 239.99389 230.13152 221.25115 213.44877 206.46640
 200.31603 195.26965 191.86728 189.92490 188.97753 189.05716 189.90778 191.23141
 192.97204 195.08266 197.36129 199.73592 202.19654 204.69217 206.79580 208.65342
 210.29505 211.45568 211.70030 211.94393 211.89656 211.61718 211.26581 210.91144
 210.54406 210.26969 210.09332 209.97294 209.91657 210.26320 210.66482 211.06945
 211.87808 213.07170 214.33733 216.13596 218.07958 220.13821 222.24884 224.34746
 226.42309 228.52271 230.63534 232.75697 234.90159 237.08922 239.36085 241.74647
 244.38310 246.64973 248.66735 250.44798 251.88061 253.01923 253.85686 254.18849
 254.24111 254.03074 253.40637 252.36999 250.99162 249.16825 247.09287 244.94150
 242.74813 240.56775 238.40338 236.25801 234.13363 232.01626 230.05789 228.23051
 226.52914 225.01677 223.66239 222.45002 221.34765 220.32327 219.44290 218.59952
 217.85715 217.05278 216.16640 215.54603 215.01166 214.77347 214.21071 215.60107
 217.77962 218.86623 219.28468 219.21938 219.67349 222.17355 226.73457 230.54744
 233.31105 235.77031 238.54953 242.00075 245.83737 249.53609 252.98839 256.21561
 259.25220 262.26089 265.30002 268.25305 270.96283 273.36597 275.43832 277.22171
 278.82071 280.33606 281.77036 283.10767 284.28220 285.32739 286.27988 287.14685
 287.93530 288.64542 289.26660 290.07504
 366.78100 356.35021 345.79742 334.67863 323.09684 311.30605 299.19126 287.00947
 274.73668 262.64889 250.67310 239.98931 230.12652 221.24573 213.44294 206.46015
 200.30937 195.26258 191.85979 189.91700 188.96921 189.04842 189.89863 191.22184
 192.96205 195.07226 197.35047 199.72468 202.18489 204.68010 206.78331 208.64052
 210.28173 211.44194 211.68615 211.92936 211.88157 211.60178 211.24999 210.89520
 210.52741 210.25262 210.07583 209.95504 209.89825 210.24446 210.64567 211.04988
 211.85810 213.05131 214.31652 216.11473 218.05794 220.11615 222.22636 224.32457
 226.39978 228.49899 230.61120 232.73241 234.87662 237.06383 239.33504 241.72025
 244.35646 246.62267 248.63988 250.42009 251.85230 252.99051 253.82772 254.15893
 254.21114 254.00035 253.37556 252.33877 250.95998 249.13619 247.06040 244.90862
 242.71483 240.53404 238.36925 236.22346 234.09867 231.98088 230.02209 228.19430
 226.49251 224.97972 223.62493 222.41214 221.30935 220.28456 219.40377 218.55998
 217.81719 217.01240 216.12561 215.50482 214.97003 214.75043 214.23161 215.60254
 217.85390 218.99185 219.37425 219.28835 219.71077 222.15599 226.67682 230.43439
 233.16530 235.62938 238.47101 242.00520 245.87936 249.56783 252.98328 256.17355
 259.19519 262.20630 265.24753 268.18536 270.87634 273.25827 275.30933 277.08856
 278.70981 280.24002 281.67288 283.00085 284.17346 285.21634 286.16870 287.03864
 287.82620 288.53528 289.16031 289.97256
 366.78100 356.34969 345.79639 334.67708 323.09478 311.30347 299.18817 287.00586
 274.73256 262.64425 250.66794 239.98364 230.12033 221.23903 213.43572 206.45242
 200.30111 195.25381 191.85050 189.90719 188.95889 189.03758 189.88728 191.20997
 192.94967 195.05936 197.33705 199.71075 202.17044 204.66514 206.76783 208.62453
 210.26522 211.42492 211.66861 211.91130 211.86300 211.58269 211.23039 210.87508
 210.50678 210.23147 210.05417 209.93286 209.87555 210.22125 210.62194 211.02564
 211.83333 213.02603 214.29072 216.08842 218.03111 220.08880 222.19850 224.29619
 226.37089 228.46958 230.58128 232.70197 234.84567 237.03236 239.30305 241.68775
 244.32344 246.58914 248.60583 250.38553 251.81722 252.95491 253.79161 254.12230
 254.17400 253.96269 253.33739 252.30008 250.92078 249.09647 247.02016 244.86786
 242.67355 240.49225 238.32694 236.18064 234.05533 231.93703 229.97772 228.14941
 226.44711 224.93380 223.57850 222.36519 221.26189 220.23658 219.35528 218.51097
 217.76766 216.96236 216.07505 215.45375 214.91844 214.72551 214.26970 215.59781
 217.90805 219.09668 219.43828 219.34103 219.75642 222.14760 226.62419 230.33371
 233.03819 235.51289 238.41602 242.02597 245.93568 249.60933 252.98700 256.14218
 259.14996 262.16196 265.19962 268.11768 270.78589 273.13867 275.16068 276.93835
 278.58130 280.12430 281.55005 282.86832 284.03723 285.07889 286.03186 286.89941
 287.69177 288.40335 289.02890 289.84305
 366.78100 356.34849 345.79399 334.67348 323.08997 311.29747 299.18096 286.99745
 274.72294 262.63344 250.65593 239.97042 230.10592 221.22341 213.41890 206.43440
 200.28189 195.23338 191.82888 189.88437 188.93486 189.01235 189.86085 191.18234
 192.92083 195.02933 197.30582 199.67831 202.13681 204.63030 206.73179 208.58729
 210.22678 211.38527 211.62777 211.86926 211.81975 211.53824 211.18474 210.82823
 210.45872 210.18222 210.00371 209.88120 209.82270 210.16719 210.56668 210.96918
 211.77567 212.96716 214.23065 216.02715 217.96864 220.02513 222.13363 224.23012
 226.30361 228.40111 230.51160 232.63109 234.77359 236.95908 239.22857 241.61206
 244.24656 246.51105 248.52654 250.30504 251.73553 252.87202 253.70752 254.03701
 254.08750 253.87500 253.24849 252.20998 250.82948 249.00397 246.92646 244.77295
 242.57745 240.39494 238.22843 236.08093 233.95442 231.83491 229.87441 228.04490
 226.34139 224.82689 223.47038 222.25587 221.15136 220.12486 219.24235 218.39684
 217.65234 216.84583 215.95732 215.33482 214.79831 214.66016 214.33374 215.61635
 217.94243 219.17418 219.49072 219.37315 219.77718 222.12224 226.55769 230.22141
 232.91252 235.41849 238.39861 242.08850 246.02483 249.68304 253.02158 256.14038
 259.12604 262.12393 265.14459 268.02850 270.65878 272.97525 274.98267 276.77615
 278.43848 279.97949 281.39249 282.69290 283.85464 284.89548 285.84799 286.71851
 287.50842 288.22473 288.85492 289.66809
 366.78100 356.34705 345.79111 334.66916 323.08421 311.29026 299.17232 286.98737
 274.71142 262.62048 250.64153 239.95458 230.08863 221.20469 213.39874 206.41279
 200.25885 195.20890 191.80295 189.85700 188.90606 188.98211 189.82916 191.14921
 192.88627 194.99332 197.26837 199.63943 202.09648 204.58853 206.68858 208.54264
 210.18069 211.33774 211.57880 211.81885 211.76790 211.48495 211.13001 210.77206
 210.40111 210.12317 209.94322 209.81927 209.75932 210.10238 210.50043 210.90148
 211.70654 212.89659 214.15864 215.95369 217.89375 219.94880 222.05585 224.15090
 226.22296 228.31901 230.42806 232.54612 234.68717 236.87122 239.13927 241.52133
 244.15438 246.41743 248.43149 250.20854 251.63759 252.77264 253.60670 253.93475
 253.98380 253.76986 253.14191 252.10196 250.72001 248.89307 246.81412 244.65917
 242.46223 240.27828 238.11033 235.96138 233.83344 231.71249 229.75054 227.91960
 226.21465 224.69870 223.34075 222.12481 221.01886 219.99091 219.10696 218.26002
 217.51407 216.70612 215.81618 215.19223 214.65428 214.57202 214.37767 215.71349
 217.98453 219.18401 219.46698 219.33022 219.75317 222.08205 226.49112 230.12000
 232.79903 235.33690 238.39661 242.17159 246.16301 249.81076 253.11139 256.19427
 259.15488 262.13254 265.12152 267.95856 270.54303 272.80692 274.76132 276.53763
 278.20105 279.75461 281.16766 282.47104 283.63220 284.67102 285.62375 286.49426
 287.28885 288.00616 288.63571 289.46021
 366.78100 356.34770 345.79239 334.67109 323.08678 311.29348 299.17618 286.99187
 274.71657 262.62626 250.64796 239.96166 230.09635 221.21305 213.40774 206.42244
 200.26914 195.21983 191.81453 189.86922 188.91892 188.99562 189.84331 191.16401
 192.90170 195.00940 197.28510 199.65679 202.11449 204.60718 206.70788 208.56258
 210.20127 211.35897 211.60066 211.84136 211.79106 211.50875 211.15445 210.79714
 210.42684 210.14953 209.97023 209.84693 209.78762 210.13132 210.53001 210.93171
 211.73741 212.92810 214.19080 215.98649 217.92719 219.98289 222.09058 224.18628
 226.25897 228.35567 230.46537 232.58406 234.72576 236.91045 239.17915 241.56185
 244.19554 246.45924 248.47393 250.25163 251.68133 252.81702 253.65172 253.98041
 254.03011 253.81681 253.18950 252.15020 250.76889 248.94259 246.86429 244.70998
 242.51368 240.33037 238.16307 236.01477 233.88746 231.76716 229.80585 227.97555
 226.27125 224.75594 223.39864 222.18333 221.07803 220.05073 219.16742 218.32112
 217.57581 216.76851 215.87921 215.25590 214.71860 214.59137 214.29079 215.88081
 218.18016 219.24461 219.39828 219.18184 219.59280 221.94136 226.34995 229.93018
 232.61826 235.23048 238.40329 242.25066 246.26947 249.95920 253.26428 256.34821
 259.29742 262.24960 265.21695 268.01776 270.57986 272.82782 274.75510 276.45663
 278.12347 279.61005 280.90479 282.07935 283.14145 284.15170 285.09766 285.96738
 286.76163 287.48492 288.12106 288.95590
 366.78100 356.34967 345.79634 334.67701 323.09468 311.30335 299.18802 287.00569
 274.73236 262.64403 250.66770 239.98338 230.12005 221.23872 213.43539 206.45206
 200.30073 195.25340 191.85007 189.90674 188.95841 189.03708 189.88675 191.20942
 192.94909 195.05876 197.33643 199.71010 202.16977 204.66444 206.76711 208.62378
 210.26445 211.42413 211.66780 211.91047 211.86214 211.58181 211.22948 210.87415
 210.50582 210.23049 210.05316 209.93183 209.87450 210.22017 210.62084 211.02451
 211.83218 213.02485 214.28952 216.08719 218.02986 220.08753 222.19720 224.29488
 226.36955 228.46822 230.57989 232.70056 234.84423 237.03090 239.30157 241.68624
 244.32191 246.58758 248.60425 250.38392 251.81559 252.95326 253.78993 254.12060
 254.17227 253.96094 253.33561 252.29828 250.91896 249.09463 247.01830 244.86597
 242.67164 240.49031 238.32498 236.17865 234.05332 231.93499 229.97566 228.14733
 226.44500 224.93167 223.57634 222.36301 221.25968 220.23435 219.35302 218.50869
 217.76536 216.96003 216.07271 215.45138 214.91605 214.68808 214.14948 215.91737
 218.50597 219.51889 219.49547 219.06284 219.38806 221.74109 226.14236 229.63588
 232.27580 234.93077 238.24788 242.28864 246.44788 250.09959 253.36977 256.44257
 259.39511 262.35736 265.28894 268.04919 270.58957 272.83884 274.78189 276.50266
 278.12186 279.40018 280.58630 281.63678 282.59753 283.57556 284.51941 285.38931
 286.19260 286.92700 287.57449 288.41599
 366.78100 356.34980 345.79661 334.67741 323.09521 311.30402 299.18882 287.00663
 274.73343 262.64523 250.66904 239.98484 230.12164 221.24045 213.43725 206.45406
 200.30286 195.25566 191.85247 189.90927 188.96107 189.03988 189.88968 191.21248
 192.95229 195.06209 197.33990 199.71370 202.17350 204.66831 206.77111 208.62791
 210.26872 211.42852 211.67232 211.91513 211.86693 211.58674 211.23454 210.87934
 210.51115 210.23595 210.05875 209.93756 209.88036 210.22617 210.62697 211.03077
 211.83858 213.03138 214.29618 216.09399 218.03679 220.09459 222.20440 224.30220
 226.37701 228.47581 230.58761 232.70842 234.85222 237.03902 239.30983 241.69463
 244.33043 246.59624 248.61304 250.39285 251.82465 252.96245 253.79926 254.13006
 254.18186 253.97067 253.34547 252.30828 250.92908 249.10488 247.02869 244.87649
 242.68229 240.50110 238.33590 236.18970 234.06451 231.94631 229.98712 228.15892
 226.45672 224.94353 223.58833 222.37513 221.27194 220.24674 219.36555 218.52135
 217.77815 216.97296 216.08576 215.46456 214.92937 214.69264 214.13336 215.84488
 218.67079 219.81601 219.71725 219.07919 219.28584 221.61310 225.99826 229.43967
 232.05138 234.75076 238.16930 242.28096 246.43858 250.05537 253.29848 256.38818
 259.35287 262.33511 265.27145 268.01154 270.54636 272.81366 274.77951 276.51700
 278.06409 279.25717 280.36319 281.37222 282.37991 283.40042 284.35251 285.22809
 286.03595 286.77399 287.42484 288.27399
 366.78100 356.34799 345.79299 334.67198 323.08797 311.29497 299.17796 286.99395
 274.71895 262.62894 250.65094 239.96493 230.09992 221.21692 213.41191 206.42690
 200.27390 195.22489 191.81988 189.87488 188.92487 189.00186 189.84986 191.17085
 192.90884 195.01684 197.29283 199.66483 202.12282 204.61581 206.71681 208.57180
 210.21079 211.36879 211.61078 211.85177 211.80177 211.51976 211.16575 210.80875
 210.43874 210.16173 209.98273 209.85972 209.80071 210.14471 210.54370 210.94570
 211.75169 212.94268 214.20568 216.00167 217.94266 219.99866 222.10665 224.20264
 226.27564 228.37263 230.48262 232.60162 234.74361 236.92860 239.19760 241.58059
 244.21459 246.47858 248.49357 250.27157 251.70156 252.83755 253.67255 254.00154
 254.05153 253.83853 253.21152 252.17251 250.79151 248.96550 246.88749 244.73349
 242.53748 240.35448 238.18747 236.03946 233.91246 231.79245 229.83144 228.00144
 226.29743 224.78242 223.42542 222.21041 221.10540 220.07840 219.19539 218.34938
 217.60438 216.79737 215.90837 215.28536 214.74835 214.59157 214.22113 215.83368
 218.65982 219.97633 219.90164 219.10593 219.19388 221.49580 225.86217 229.25226
 231.84863 234.60959 238.13766 242.33739 246.58429 250.18242 253.39780 256.49738
 259.47165 262.45511 265.34781 268.03787 270.54245 272.79980 274.75342 276.49191
 277.93408 279.01248 280.08264 281.04660 281.97992 282.95966 283.90701 284.77844
 285.58820 286.32874 286.98450 287.83478
 366.78100 356.34642 345.78983 334.66725 323.08167 311.28708 299.16850 286.98292
 274.70633 262.61475 250.63517 239.94758 230.08100 221.19641 213.38983 206.40325
 200.24866 195.19808 191.79150 189.84491 188.89333 188.96875 189.81516 191.13458
 192.87100 194.97741 197.25183 199.62225 202.07866 204.57008 206.66950 208.52291
 210.16033 211.31675 211.55716 211.79658 211.74499 211.46141 211.10583 210.74724
 210.37566 210.09708 209.91649 209.79191 209.73133 210.07374 210.47116 210.87158
 211.67599 212.86541 214.12683 215.92124 217.86066 219.91508 222.02149 224.11591
 226.18733 228.28274 230.39116 232.50857 234.64899 236.83241 239.09982 241.48124
 244.11366 246.37607 248.38949 250.16591 251.59432 252.72874 253.56216 253.88957
 253.93799 253.72341 253.09482 252.05424 250.67166 248.84407 246.76449 244.60891
 242.41132 240.22674 238.05816 235.90857 233.77999 231.65840 229.69582 227.86424
 226.15865 224.64207 223.28349 222.06690 220.96032 219.93174 219.04715 218.19957
 217.45299 216.64440 215.75382 215.12924 214.59065 214.50613 214.30644 215.86061
 218.62283 220.07982 220.07314 219.17279 219.13907 221.39537 225.71832 229.03203
 231.60280 234.42216 238.05917 242.36786 246.68710 250.25191 253.44438 256.53485
 259.51840 262.50821 265.36456 268.01361 270.48917 272.73499 274.69370 276.42480
 277.82037 278.85965 279.91043 280.85477 281.71268 282.65637 283.59738 284.46878
 285.27728 286.02094 286.67911 287.53659
 366.78100 356.34525 345.78749 334.66374 323.07698 311.28123 299.16147 286.97472
 274.69696 262.60421 250.62345 239.93470 230.06694 221.18119 213.37343 206.38568
 200.22992 195.17817 191.77041 189.82266 188.86990 188.94415 189.78939 191.10764
 192.84288 194.94813 197.22137 199.59062 202.04586 204.53611 206.63435 208.48660
 210.12284 211.27809 211.51733 211.75558 211.70282 211.41807 211.06131 210.70156
 210.32880 210.04905 209.86729 209.74154 209.67978 210.02103 210.41727 210.81652
 211.61977 212.80801 214.06826 215.86150 217.79975 219.85299 221.95824 224.05148
 226.12173 228.21597 230.32322 232.43946 234.57871 236.76095 239.02720 241.40744
 244.03869 246.29993 248.31218 250.08742 251.51467 252.64791 253.48016 253.80640
 253.85365 253.63789 253.00814 251.96638 250.58263 248.75387 246.67312 244.51636
 242.31761 240.13185 237.96210 235.81134 233.68159 231.55883 229.59508 227.76232
 226.05557 224.53781 223.17806 221.96030 220.85255 219.82279 218.93704 218.08829
 217.34053 216.53078 215.63902 215.01327 214.47351 214.44949 214.39273 215.87384
 218.55800 220.13118 220.20811 219.25348 219.13521 221.34334 225.61473 228.86592
 231.40973 234.26222 237.97502 242.43034 246.77290 250.27565 253.44485 256.52966
 259.52145 262.52240 265.35855 267.97226 270.42090 272.66159 274.63104 276.36951
 277.73648 278.75925 279.81943 280.76126 281.57159 282.47006 283.40356 284.27155
 285.07825 285.82254 286.48444 287.34470
 366.78100 356.34398 345.78496 334.65995 323.07193 311.27491 299.15389 286.96587
 274.68686 262.59284 250.61082 239.92080 230.05178 221.16477 213.35575 206.36673
 200.20971 195.15669 191.74768 189.79866 188.84464 188.91762 189.76160 191.07859
 192.81257 194.91655 197.18853 199.55651 202.01050 204.49948 206.59646 208.44744
 210.08242 211.23641 211.47439 211.71137 211.65735 211.37133 211.01332 210.65230
 210.27828 209.99726 209.81424 209.68723 209.62421 209.96419 210.35917 210.75715
 211.55914 212.74612 214.00510 215.79708 217.73406 219.78605 221.89003 223.98201
 226.05099 228.14397 230.24996 232.36494 234.50292 236.68390 238.94888 241.32787
 243.95785 246.21783 248.22881 250.00279 251.42877 252.56076 253.39174 253.71672
 253.76270 253.54568 252.91467 251.87165 250.48663 248.65661 246.57459 244.41658
 242.21656 240.02954 237.85852 235.70650 233.57549 231.45147 229.48645 227.65243
 225.94441 224.42540 223.06438 221.84536 220.73634 219.70532 218.81831 217.96829
 217.21927 216.40825 215.51523 214.88822 214.34720 214.38837 214.48564 215.90427
 218.49475 220.11961 220.26326 219.26160 219.10519 221.30161 225.53900 228.74226
 231.26338 234.15088 237.94934 242.53767 246.88435 250.32451 253.46568 256.55350
 259.55316 262.56134 265.38333 267.95987 270.38052 272.61719 274.59665 276.31378
 277.63055 278.64142 279.67996 280.58359 281.37271 282.29321 283.22476 284.09375
 284.89474 285.63483 286.29315 287.15829
 366.78100 356.34305 345.78309 334.65714 323.06818 311.27023 299.14828 286.95932
 274.67937 262.58442 250.60146 239.91051 230.04055 221.15260 213.34265 206.35269
 200.19474 195.14078 191.73083 189.78088 188.82592 188.89797 189.74102 191.05706
 192.79011 194.89315 197.16420 199.53125 201.98429 204.47234 206.56838 208.41843
 210.05248 211.20552 211.44257 211.67862 211.62366 211.33671 210.97775 210.61580
 210.24085 209.95889 209.77494 209.64699 209.58303 209.92208 210.31612 210.71317
 211.51422 212.70026 213.95831 215.74935 217.68540 219.73645 221.83949 223.93054
 225.99859 228.09063 230.19568 232.30972 234.44677 236.62682 238.89086 241.26891
 243.89795 246.15700 248.16705 249.94009 251.36514 252.49619 253.32623 253.65028
 253.69532 253.47737 252.84542 251.80146 250.41551 248.58455 246.50160 244.34265
 242.14169 239.95374 237.78179 235.62883 233.49688 231.37192 229.40597 227.57102
 225.86206 224.34211 222.98015 221.76020 220.65025 219.61829 218.73034 217.87939
 217.12943 216.31748 215.42352 214.79557 214.25362 214.34312 214.55463 215.94174
 218.47472 220.13519 220.31407 219.23015 219.04430 221.23619 225.43645 228.59305
 231.10443 234.04471 237.96187 242.62506 246.95607 250.34914 253.46465 256.56470
 259.58221 262.59964 265.41058 267.96555 270.37140 272.60950 274.58963 276.28973
 277.58475 278.57715 279.59998 280.49289 281.22675 282.08325 282.99933 283.86557
 284.66336 285.39505 286.05276 286.91772
 366.78100 356.34165 345.78031 334.65296 323.06261 311.26327 299.13992 286.94957
 274.66822 262.57188 250.58753 239.89518 230.02384 221.13449 213.32314 206.33180
 200.17245 195.11710 191.70575 189.75441 188.79806 188.86871 189.71037 191.02502
 192.75667 194.85833 197.12798 199.49363 201.94529 204.43194 206.52659 208.37524
 210.00790 211.15955 211.39520 211.62986 211.57351 211.28516 210.92482 210.56147
 210.18512 209.90177 209.71643 209.58708 209.52173 209.85939 210.25204 210.64769
 211.44735 212.63200 213.88865 215.67830 217.61296 219.66261 221.76426 223.85392
 225.92057 228.01122 230.11488 232.22753 234.36318 236.54184 238.80449 241.18114
 243.80879 246.06645 248.07510 249.84675 251.27041 252.40006 253.22871 253.55137
 253.59502 253.37567 252.74232 251.69698 250.30963 248.47728 246.39294 244.23259
 242.03024 239.84090 237.66755 235.51320 233.37986 231.25351 229.28616 227.44981
 225.73947 224.21812 222.85477 221.63343 220.52208 219.48873 218.59939 217.74704
 216.99569 216.18234 215.28700 214.65765 214.11430 214.27446 214.65286 215.99908
 218.36931 220.11978 220.41443 219.25882 219.00325 221.18127 225.33879 228.42491
 230.92763 233.95828 237.99599 242.69269 246.97729 250.32292 253.43152 256.54605
 259.57645 262.60788 265.42450 267.96118 270.35251 272.59579 274.59351 276.29855
 277.61163 278.62137 279.64294 280.53909 281.31992 282.00488 282.84763 283.70749
 284.51385 285.26010 285.89575 286.74356
 366.78100 356.34033 345.77765 334.64898 323.05730 311.25663 299.13195 286.94028
 274.65760 262.55993 250.57425 239.88058 230.00790 221.11723 213.30455 206.31188
 200.15120 195.09453 191.68185 189.72918 188.77150 188.84083 189.68115 190.99448
 192.72481 194.82513 197.09346 199.45778 201.90811 204.39343 206.48676 208.33408
 209.96541 211.11573 211.35006 211.58338 211.52571 211.23603 210.87436 210.50968
 210.13201 209.84733 209.66066 209.52998 209.46331 209.79963 210.19096 210.58529
 211.38361 212.56694 213.82226 215.61059 217.54391 219.59224 221.69256 223.78089
 225.84621 227.93554 230.03786 232.14919 234.28351 236.46084 238.72216 241.09749
 243.72381 245.98014 247.98746 249.75779 251.18011 252.30844 253.13577 253.45709
 253.49942 253.27874 252.64407 251.59739 250.20872 248.37504 246.28937 244.12769
 241.92402 239.73334 237.55867 235.40299 233.26832 231.14064 229.17197 227.33429
 225.62262 224.09994 222.73527 221.51259 220.39992 219.36525 218.47457 217.62090
 216.86822 216.05355 215.15687 214.52620 213.98152 214.20993 214.74959 216.12267
 218.23872 219.99774 220.45334 219.32756 219.04126 221.16330 225.24464 228.30095
 230.82018 233.90895 238.02979 242.73131 246.97597 250.30890 253.43166 256.57645
 259.61249 262.63623 265.42880 267.95407 270.33447 272.56082 274.53110 276.23288
 277.54330 278.55844 279.56241 280.43729 281.18719 282.09256 283.04187 283.92307
 284.71625 285.41302 286.02823 286.86044
 366.78100 356.34293 345.78286 334.65678 323.06771 311.26964 299.14757 286.95850
 274.67842 262.58335 250.60028 239.90921 230.03913 221.15106 213.34099 206.35092
 200.19285 195.13877 191.72870 189.77863 188.82356 188.89549 189.73841 191.05434
 192.78727 194.89020 197.16113 199.52805 201.98098 204.46891 206.56484 208.41477
 210.04869 211.20162 211.43855 211.67448 211.61940 211.33233 210.97326 210.61119
 210.23612 209.95404 209.76997 209.64190 209.57783 209.91676 210.31068 210.70761
 211.50854 212.69447 213.95240 215.74332 217.67925 219.73018 221.83311 223.92403
 225.99196 228.08389 230.18882 232.30275 234.43967 236.61960 238.88353 241.26146
 243.89039 246.14931 248.15924 249.93217 251.35710 252.48803 253.31795 253.64188
 253.68681 253.46874 252.83667 251.79259 250.40652 248.57545 246.49238 244.33330
 242.13223 239.94416 237.77209 235.61902 233.48694 231.36187 229.39580 227.56073
 225.85166 224.33158 222.96951 221.74944 220.63937 219.60730 218.71922 217.86815
 217.11808 216.30601 215.41193 214.78386 214.24179 214.36378 214.65205 216.16196
 218.42137 220.10832 220.50639 219.17468 218.80125 221.02040 225.10577 228.06305
 230.56360 233.75386 238.05594 242.81853 247.04991 250.35995 253.48521 256.66159
 259.67795 262.71878 265.49100 267.93762 270.25479 272.46500 274.47409 276.17862
 277.47610 278.50021 279.50702 280.43201 281.26044 282.14111 283.06223 283.84161
 284.55670 285.26160 285.92508 286.78778
 366.78100 356.34650 345.79000 334.66750 323.08200 311.28750 299.16900 286.98350
 274.70700 262.61550 250.63600 239.94850 230.08200 221.19750 213.39100 206.40450
 200.25000 195.19950 191.79300 189.84650 188.89500 188.97050 189.81700 191.13650
 192.87300 194.97950 197.25400 199.62450 202.08100 204.57250 206.67200 208.52550
 210.16300 211.31950 211.56000 211.79950 211.74800 211.46450 211.10900 210.75050
 210.37900 210.10050 209.92000 209.79550 209.73500 210.07750 210.47500 210.87550
 211.68000 212.86950 214.13100 215.92550 217.86500 219.91950 222.02600 224.12050
 226.19200 228.28750 230.39600 232.51350 234.65400 236.83750 239.10500 241.48650
 244.11900 246.38150 248.39500 250.17150 251.60000 252.73450 253.56800 253.89550
 253.94400 253.72950 253.10100 252.06050 250.67800 248.85050 246.77100 244.61550
 242.41800 240.23350 238.06500 235.91550 233.78700 231.66550 229.70300 227.87150
 226.16600 224.64950 223.29100 222.07450 220.96800 219.93950 219.05500 218.20750
 217.46100 216.65250 215.76200 215.13750 214.59900 214.59390 214.65056 216.12170
 218.41887 219.89052 220.32138 219.08324 218.66814 220.77672 224.77182 228.03230
 230.44911 233.76622 238.09087 242.80292 246.94975 250.33328 253.52173 256.69412
 259.79843 262.78268 265.52600 267.96680 270.21982 272.29358 274.27884 275.96927
 277.27856 278.41245 279.41888 280.37488 281.23337 282.07907 283.07718 284.00296
 284.83560 285.57709 286.22482 287.05029
 366.78100 356.34500 345.78700 334.66300 323.07599 311.27999 299.15999 286.97299
 274.69499 262.60199 250.62099 239.93198 230.06398 221.17798 213.36998 206.38198
 200.22598 195.17397 191.76597 189.81797 188.86497 188.93897 189.78397 191.10197
 192.83696 194.94196 197.21496 199.58396 202.03896 204.52896 206.62696 208.47895
 210.11495 211.26995 211.50895 211.74695 211.69395 211.40895 211.05194 210.69194
 210.31894 210.03894 209.85694 209.73094 209.66894 210.00993 210.40593 210.80493
 211.60793 212.79593 214.05593 215.84892 217.78692 219.83992 221.94492 224.03792
 226.10792 228.20192 230.30891 232.42491 234.56391 236.74591 239.01191 241.39191
 244.02291 246.28390 248.29590 250.07090 251.49790 252.63090 253.46290 253.78890
 253.83589 253.61989 252.98989 251.94789 250.56389 248.73489 246.65388 244.49688
 242.29788 240.11188 237.94188 235.79088 233.66088 231.53787 229.57387 227.74087
 226.03387 224.51587 223.15587 221.93787 220.82986 219.79986 218.91386 218.06486
 217.31686 216.50686 215.61486 214.98885 214.44885 214.57184 214.95572 216.15205
 218.21690 219.81839 220.23932 219.32986 219.20863 221.09422 224.85985 227.95290
 230.46715 233.83125 238.20609 242.90913 246.91922 250.27795 253.49092 256.69495
 259.82950 262.81433 265.53394 267.97363 270.15704 272.22354 274.28607 275.89432
 277.12473 278.38629 279.37491 280.31351 281.12579 281.84445 282.50012 283.09412
 283.62833 284.10406 284.51965 285.04929
 366.78100 356.33960 345.77619 334.64679 323.05438 311.25298 299.12757 286.93517
 274.65176 262.55336 250.56695 239.87255 229.99914 221.10774 213.29433 206.30093
 200.13952 195.08212 191.66871 189.71531 188.75690 188.82550 189.66509 190.97769
 192.70728 194.80688 197.07447 199.43807 201.88766 204.37226 206.46485 208.31145
 209.94204 211.09164 211.32523 211.55783 211.49942 211.20902 210.84661 210.48121
 210.10280 209.81740 209.62999 209.49859 209.43118 209.76678 210.15737 210.55097
 211.34856 212.53116 213.78575 215.57335 217.50594 219.55354 221.65313 223.74073
 225.80532 227.89392 229.99551 232.10611 234.23970 236.41630 238.67690 241.05149
 243.67709 245.93268 247.93928 249.70887 251.13047 252.25806 253.08466 253.40525
 253.44685 253.22544 252.59004 251.54263 250.15323 248.31882 246.23242 244.07001
 241.86561 239.67420 237.49880 235.34239 233.20699 231.07858 229.10918 227.27077
 225.55837 224.03496 222.66956 221.44615 220.33275 219.29734 218.40594 217.55153
 216.79813 215.98272 215.08532 214.45391 213.90851 214.33481 215.31000 216.12337
 217.83961 219.71031 220.33498 219.47290 219.34245 221.21123 225.02873 228.05809
 230.50848 233.84198 238.26790 242.93924 246.92775 250.27600 253.46300 256.67023
 259.81854 262.81998 265.55017 267.97647 270.11716 272.44238 274.34915 275.85632
 277.26495 278.33044 279.14581 279.85953 280.47714 281.02362 281.52216 281.97382
 282.38004 282.74179 283.05780 283.46051
 366.78100 356.33727 345.77154 334.63981 323.04507 311.24134 299.11361 286.91888
 274.63315 262.53242 250.54369 239.84696 229.97122 221.07749 213.26176 206.26603
 200.10230 195.04257 191.62684 189.67111 188.71037 188.77664 189.61391 190.92418
 192.65145 194.74872 197.01399 199.37526 201.82252 204.30479 206.39506 208.23933
 209.86760 211.01487 211.24614 211.47641 211.41567 211.12294 210.75821 210.39048
 210.00975 209.72202 209.53229 209.39856 209.32882 209.66209 210.05036 210.44163
 211.23690 212.41717 213.66944 215.45471 217.38497 219.43024 221.52751 223.61278
 225.67505 227.76132 229.86059 231.96885 234.10012 236.27439 238.53266 240.90493
 243.52820 245.78147 247.78574 249.55300 250.97227 252.09754 252.92181 253.24008
 253.27935 253.05562 252.41789 251.36815 249.97642 248.13969 246.05096 243.88623
 241.67950 239.48577 237.30804 235.14930 233.01157 230.88084 228.90911 227.06838
 225.35365 223.82792 222.46019 221.23445 220.11872 219.08099 218.18726 217.33053
 216.57480 215.75707 214.85734 214.22360 213.67587 214.24097 215.48918 216.12363
 217.65884 219.64729 220.47339 219.51616 219.27518 221.14397 224.89182 227.94397
 230.37309 233.78998 238.30054 242.94998 246.88748 250.22038 253.44553 256.70206
 259.80383 262.77917 265.54059 267.97083 270.22879 272.43823 274.29825 275.80811
 277.11969 278.25674 279.67545 280.99368 282.13449 283.14383 284.06467 284.89893
 285.64923 286.31735 286.90103 287.64487
 366.78100 356.33851 345.77402 334.64353 323.05004 311.24755 299.12106 286.92757
 274.64308 262.54359 250.55610 239.86061 229.98612 221.09363 213.27914 206.28465
 200.12216 195.06367 191.64918 189.69469 188.73520 188.80271 189.64122 190.95273
 192.68124 194.77975 197.04626 199.40877 201.85729 204.34080 206.43231 208.27782
 209.90733 211.05584 211.28835 211.51986 211.46037 211.16888 210.80539 210.43890
 210.05941 209.77292 209.58443 209.45194 209.38345 209.71796 210.10747 210.49998
 211.29649 212.47800 213.73151 215.51802 217.44953 219.49604 221.59455 223.68106
 225.74457 227.83208 229.93259 232.04210 234.17461 236.35012 238.60963 240.98314
 243.60765 245.86216 247.86767 249.63618 251.05669 252.18320 253.00871 253.32822
 253.36873 253.14624 252.50975 251.46126 250.07077 248.23528 246.14779 243.98430
 241.77881 239.58632 237.40984 235.25235 233.11586 230.98637 229.01588 227.17639
 225.46290 223.93841 222.57192 221.34743 220.23294 219.19645 218.30396 217.44847
 216.69398 215.87749 214.97900 214.34651 213.80002 214.32903 215.51738 216.18419
 217.45149 219.53761 220.79404 219.85245 219.30237 221.00011 224.68364 227.69753
 230.17932 233.74399 238.32915 242.91806 246.81297 250.17221 253.45741 256.79752
 259.85306 262.77634 265.53104 267.92068 270.33585 272.50009 274.27707 275.76068
 277.07993 278.24109 279.48770 280.58231 281.52960 282.36774 283.13239 283.82510
 284.44815 285.00296 285.48761 286.10529
 366.78100 356.33985 345.77669 334.64754 323.05538 311.25423 299.12907 286.93692
 274.65377 262.55561 250.56946 239.87530 230.00215 221.11099 213.29784 206.30468
 200.14353 195.08638 191.67322 189.72007 188.76191 188.83076 189.67060 190.98345
 192.71330 194.81314 197.08099 199.44483 201.89468 204.37952 206.47237 208.31921
 209.95006 211.09991 211.33375 211.56660 211.50844 211.21829 210.85613 210.49098
 210.11283 209.82767 209.64052 209.50936 209.44221 209.77805 210.16890 210.56274
 211.36059 212.54344 213.79828 215.58613 217.51897 219.56682 221.66666 223.75451
 225.81936 227.90820 230.01005 232.12089 234.25474 236.43158 238.69243 241.06727
 243.69312 245.94897 247.95581 249.72566 251.14750 252.27535 253.10219 253.42304
 253.46489 253.24373 252.60858 251.56142 250.17227 248.33811 246.25196 244.08980
 241.88565 239.69450 237.51934 235.36319 233.22803 231.09988 229.13072 227.29257
 225.58042 224.05726 222.69211 221.46895 220.35580 219.32064 218.42949 217.57534
 216.82218 216.00703 215.10987 214.47872 213.93356 214.41541 215.55344 216.32637
 217.16852 219.15518 220.81311 220.20784 219.53362 221.05183 224.58069 227.54852
 230.02010 233.71835 238.38123 242.93515 246.82494 250.22203 253.55484 256.91718
 259.97278 262.84543 265.56256 268.06711 270.53632 272.58279 274.20203 275.65466
 277.01920 278.11612 279.11276 280.00497 280.77713 281.46030 282.08356 282.64819
 283.15604 283.60828 284.00333 284.50677
 366.78100 356.33896 345.77492 334.64489 323.05185 311.24981 299.12377 286.93073
 274.64669 262.54766 250.56062 239.86558 229.99154 221.09950 213.28547 206.29143
 200.12939 195.07135 191.65731 189.70328 188.74424 188.81220 189.65116 190.96312
 192.69208 194.79105 197.05801 199.42097 201.86993 204.35389 206.44586 208.29182
 209.92178 211.07074 211.30370 211.53566 211.47663 211.18559 210.82255 210.45651
 210.07747 209.79144 209.60340 209.47136 209.40332 209.73828 210.12824 210.52121
 211.31817 212.50013 213.75409 215.54105 217.47302 219.51998 221.61894 223.70590
 225.76986 227.85783 229.95879 232.06875 234.20171 236.37767 238.63763 241.01160
 243.63656 245.89152 247.89748 249.66644 251.08741 252.21437 253.04033 253.36029
 253.40125 253.17921 252.54318 251.49514 250.10510 248.27006 246.18302 244.01999
 241.81495 239.62291 237.44687 235.28983 233.15379 231.02476 229.05472 227.21568
 225.50264 223.97860 222.61257 221.38853 220.27449 219.23845 218.34641 217.49138
 216.73734 215.92130 215.02326 214.39122 213.84518 214.40013 215.68164 216.36696
 217.09370 218.88544 220.45210 220.19627 219.72333 221.15218 224.46432 227.42711
 229.96008 233.76437 238.44682 242.96063 246.82489 250.26616 253.64989 257.00952
 260.09375 262.96878 265.68637 268.23230 270.64682 272.55457 274.04800 275.48080
 276.78372 277.96078 279.01581 280.37946 281.55957 282.60370 283.55627 284.41928
 285.19543 285.88660 286.49039 287.25986
 366.78100 356.33814 345.77328 334.64243 323.04857 311.24571 299.11885 286.92499
 274.64014 262.54028 250.55242 239.85656 229.98171 221.08885 213.27399 206.27913
 200.11627 195.05742 191.64256 189.68770 188.72784 188.79498 189.63313 190.94427
 192.67241 194.77055 197.03670 199.39884 201.84698 204.33012 206.42126 208.26641
 209.89555 211.04369 211.27583 211.50697 211.44712 211.15526 210.79140 210.42454
 210.04469 209.75783 209.56897 209.43611 209.36725 209.70140 210.09054 210.48268
 211.27882 212.45996 213.71311 215.49925 217.43039 219.47653 221.57468 223.66082
 225.72396 227.81110 229.91124 232.02039 234.15253 236.32767 238.58681 240.95995
 243.58410 245.83824 247.84338 249.61152 251.03167 252.15781 252.98295 253.30209
 253.34223 253.11938 252.48252 251.43366 250.04280 248.20694 246.11909 243.95523
 241.74937 239.55651 237.37966 235.22180 233.08494 230.95508 228.98422 227.14437
 225.43051 223.90565 222.53879 221.31393 220.19908 219.16222 218.26936 217.41350
 216.65865 215.84179 214.94293 214.31007 213.76321 214.40047 215.82518 216.29552
 217.03732 218.93269 220.38580 220.06992 219.69115 221.15578 224.38779 227.27654
 229.83058 233.75496 238.48962 242.94247 246.76773 250.24283 253.66827 257.03372
 260.12723 263.03439 265.79221 268.42383 270.71509 272.50934 273.84464 275.22131
 276.56140 277.81021 278.99023 280.39529 281.61127 282.68710 283.66861 284.55780
 285.35754 286.06970 286.69183 287.48468
 366.78100 356.33889 345.77478 334.64467 323.05156 311.24945 299.12334 286.93023
 274.64611 262.54700 250.55989 239.86478 229.99067 221.09856 213.28445 206.29034
 200.12823 195.07012 191.65601 189.70190 188.74279 188.81068 189.64957 190.96146
 192.69034 194.78923 197.05612 199.41901 201.86790 204.35179 206.44368 208.28957
 209.91946 211.06835 211.30124 211.53313 211.47402 211.18291 210.81980 210.45369
 210.07457 209.78846 209.60035 209.46824 209.40013 209.73502 210.12491 210.51780
 211.31469 212.49658 213.75047 215.53736 217.46925 219.51614 221.61503 223.70192
 225.76580 227.85369 229.95458 232.06447 234.19736 236.37325 238.63314 241.00703
 243.63192 245.88681 247.89270 249.66159 251.08248 252.20937 253.03526 253.35514
 253.39603 253.17392 252.53781 251.48970 250.09959 248.26448 246.17737 244.01426
 241.80915 239.61704 237.44093 235.28382 233.14771 231.01860 229.04849 227.20937
 225.49626 223.97215 222.60604 221.38193 220.26782 219.23171 218.33960 217.48449
 216.73038 215.91427 215.01616 214.38405 213.83794 214.48149 215.90506 216.31068
 216.88307 218.93170 220.50911 220.03844 219.58109 221.09656 224.41055 227.17696
 229.81139 233.78703 238.48508 242.87480 246.72218 250.26865 253.75287 257.11725
 260.21597 263.15686 265.97964 268.58005 270.72385 272.41852 273.69736 275.15085
 276.61032 277.78290 278.74902 279.59732 280.33145 280.98099 281.57358 282.11041
 282.59326 283.02322 283.39883 283.87750
 366.78100 356.34084 345.77869 334.65053 323.05937 311.25921 299.13506 286.94390
 274.66174 262.56459 250.57943 239.88627 230.01412 221.12396 213.31180 206.31964
 200.15949 195.10333 191.69117 189.73902 188.78186 188.85170 189.69254 191.00639
 192.73723 194.83807 197.10692 199.47176 201.92260 204.40845 206.50229 208.35013
 209.98197 211.13282 211.36766 211.60150 211.54435 211.25519 210.89403 210.52987
 210.15272 209.86856 209.68240 209.55225 209.48609 209.82293 210.21478 210.60962
 211.40846 212.59230 213.84815 215.63699 217.57083 219.61968 221.72052 223.80936
 225.87521 227.96505 230.06789 232.17973 234.31458 236.49242 238.75426 241.13011
 243.75695 246.01379 248.02163 249.79248 251.21532 252.34416 253.17201 253.49385
 253.53669 253.31654 252.68238 251.63622 250.24806 248.41491 246.32975 244.16859
 241.96544 239.77528 237.60112 235.44596 233.31181 231.18465 229.21649 227.37934
 225.66818 224.14602 222.78187 221.55971 220.44755 219.41339 218.52324 217.67008
 216.91792 216.10377 215.20761 214.57745 214.03329 214.61014 215.94563 216.41562
 216.64851 218.68600 220.53284 220.04243 219.41299 220.98491 224.47272 227.21178
 229.97809 233.94710 238.55257 242.89644 246.74448 250.32507 253.84225 257.20166
 260.33316 263.30731 266.13318 268.61392 270.71863 272.33539 273.74051 275.23407
 276.52847 277.63675 278.59576 279.43787 280.16663 280.81140 281.39963 281.93256
 282.41187 282.83868 283.21152 283.68671
 366.78100 356.34131 345.77962 334.65193 323.06124 311.26154 299.13785 286.94716
 274.66547 262.56878 250.58409 239.89140 230.01971 221.13001 213.31832 206.32663
 200.16694 195.11125 191.69956 189.74787 188.79118 188.86148 189.70279 191.01710
 192.74841 194.84972 197.11903 199.48434 201.93565 204.42196 206.51626 208.36457
 209.99688 211.14819 211.38350 211.61781 211.56112 211.27243 210.91173 210.54804
 210.17135 209.88766 209.70197 209.57228 209.50659 209.84390 210.23620 210.63151
 211.43082 212.61513 213.87144 215.66075 217.59506 219.64437 221.74568 223.83498
 225.90129 227.99160 230.09491 232.20722 234.34253 236.52084 238.78315 241.15945
 243.78676 246.04407 248.05238 249.82369 251.24700 252.37631 253.20462 253.52692
 253.57023 253.35054 252.71685 251.67116 250.28347 248.45078 246.36609 244.20540
 242.00270 239.81301 237.63932 235.48463 233.35094 231.22425 229.25656 227.41987
 225.70917 224.18748 222.82379 221.60210 220.49041 219.45672 218.56703 217.71434
 216.96264 216.14895 215.25326 214.62357 214.07988 214.67531 216.03564 216.47627
 216.54108 218.40491 220.41647 219.97348 219.47810 220.96230 224.52499 227.26941
 230.03569 234.01926 238.62743 242.94168 246.75842 250.35371 253.88358 257.25879
 260.41418 263.41687 266.25809 268.72281 270.74646 272.33994 273.65195 275.05557
 275.79593 276.41901 276.95819 277.43164 277.84134 278.20386 278.53458 278.83420
 279.10367 279.34363 279.55325 279.82040
 366.78100 356.33917 345.77534 334.64552 323.05269 311.25086 299.12503 286.93220
 274.64838 262.54955 250.56272 239.86789 229.99406 221.10224 213.28841 206.29458
 200.13275 195.07492 191.66110 189.70727 188.74844 188.81661 189.65578 190.96796
 192.69713 194.79630 197.06347 199.42664 201.87581 204.35999 206.45216 208.29833
 209.92850 211.07767 211.31085 211.54302 211.48419 211.19336 210.83053 210.46471
 210.08588 209.80005 209.61222 209.48039 209.41257 209.74774 210.13791 210.53108
 211.32825 212.51043 213.76460 215.55177 217.48394 219.53111 221.63029 223.71746
 225.78163 227.86980 229.97097 232.08115 234.21432 236.39049 238.65066 241.02483
 243.65001 245.90518 247.91135 249.68052 251.10169 252.22887 253.05504 253.37521
 253.41638 253.19455 252.55872 251.51090 250.12107 248.28624 246.19941 244.03658
 241.83176 239.63993 237.46410 235.30727 233.17144 231.04262 229.07279 227.23396
 225.52113 223.99730 222.63148 221.40765 220.29382 219.25799 218.36616 217.51134
 216.75751 215.94168 215.04385 214.41202 213.86620 214.62724 216.21497 216.40607
 216.44035 218.26718 220.27731 219.80081 219.41133 220.97578 224.44980 227.25836
 230.03909 234.06781 238.69943 242.95587 246.76640 250.40463 253.96404 257.36667
 260.53955 263.51404 266.30930 268.79703 270.84079 272.41708 273.57205 274.52377
 275.14462 275.67679 276.13727 276.54163 276.89154 277.20114 277.48358 277.73947
 277.96964 278.17456 278.35361 278.58176
 366.78100 356.33915 345.77529 334.64544 323.05259 311.25073 299.12488 286.93203
 274.64818 262.54932 250.56247 239.86762 229.99376 221.10191 213.28806 206.29420
 200.13235 195.07450 191.66064 189.70679 188.74794 188.81609 189.65523 190.96738
 192.69653 194.79567 197.06282 199.42597 201.87511 204.35926 206.45141 208.29755
 209.92770 211.07685 211.31000 211.54214 211.48329 211.19244 210.82958 210.46373
 210.08488 209.79902 209.61117 209.47932 209.41147 209.74661 210.13676 210.52991
 211.32705 212.50920 213.76335 215.55049 217.48264 219.52979 221.62893 223.71608
 225.78023 227.86838 229.96952 232.07967 234.21282 236.38896 238.64911 241.02326
 243.64840 245.90355 247.90970 249.67884 251.09999 252.22714 253.05329 253.37343
 253.41458 253.19273 252.55687 251.50902 250.11917 248.28431 246.19746 244.03461
 241.82975 239.63790 237.46205 235.30520 233.16934 231.04049 229.07064 227.23178
 225.51893 223.99508 222.62922 221.40537 220.29152 219.25566 218.36381 217.50896
 216.75511 215.93925 215.04140 214.40955 213.86369 214.65184 216.31528 216.44623
 216.23410 218.00648 220.06015 219.67764 219.32205 220.97614 224.48186 227.34888
 230.12737 234.15314 238.79854 243.03789 246.85316 250.50720 254.08359 257.50430
 260.67444 263.66318 266.47061 268.94708 271.02820 272.71262 273.55542 274.70743
 275.73993 276.62494 277.39075 278.06320 278.64514 279.16003 279.62979 280.05533
 280.43808 280.77890 281.07666 281.45609
 366.78100 356.34188 345.78075 334.65363 323.06350 311.26438 299.14126 286.95113
 274.67001 262.57388 250.58976 239.89764 230.02651 221.13739 213.32626 206.33514
 200.17602 195.12089 191.70977 189.75864 188.80252 188.87340 189.71527 191.03015
 192.76202 194.86390 197.13378 199.49965 201.95153 204.43840 206.53328 208.38215
 210.01503 211.16691 211.40278 211.63766 211.58153 211.29341 210.93329 210.57016
 210.19404 209.91091 209.72579 209.59667 209.53154 209.86942 210.26229 210.65817
 211.45805 212.64292 213.89980 215.68967 217.62455 219.67443 221.77630 223.86618
 225.93305 228.02393 230.12781 232.24068 234.37656 236.55543 238.81831 241.19519
 243.82306 246.08094 248.08981 249.86169 251.28557 252.41544 253.24432 253.56719
 253.61107 253.39195 252.75882 251.71370 250.32657 248.49445 246.41033 244.25020
 242.04808 239.85895 237.68583 235.53171 233.39858 231.27246 229.30533 227.46921
 225.75909 224.23796 222.87484 221.65371 220.54259 219.50946 218.62034 217.76822
 217.01709 216.20397 215.30884 214.67972 214.13660 214.79037 216.27985 216.64011
 216.22760 217.65482 219.59946 219.48518 219.18381 220.99095 224.53236 227.46835
 230.28835 234.24463 238.80531 243.06581 246.90668 250.57254 254.16194 257.57687
 260.73651 263.68863 266.47360 268.95135 271.10571 272.85049 273.99792 275.30286
 277.76175 279.91208 281.77283 283.40668 284.82068 286.07169 287.21301 288.24701
 289.17697 290.00510 290.72855 291.65048
 366.78100 356.34211 345.78122 334.65432 323.06443 311.26554 299.14265 286.95276
 274.67187 262.57597 250.59208 239.90019 230.02930 221.14041 213.32951 206.33862
 200.17973 195.12484 191.71395 189.76306 188.80716 188.87827 189.72038 191.03549
 192.76760 194.86971 197.13981 199.50592 201.95803 204.44514 206.54025 208.38935
 210.02246 211.17457 211.41068 211.64579 211.58990 211.30200 210.94211 210.57922
 210.20333 209.92044 209.73554 209.60665 209.54176 209.87987 210.27298 210.66909
 211.46919 212.65430 213.91141 215.70152 217.63663 219.68673 221.78884 223.87895
 225.94606 228.03717 230.14128 232.25438 234.39049 236.56960 238.83271 241.20982
 243.83793 246.09603 248.10514 249.87725 251.30136 252.43147 253.26057 253.58368
 253.62779 253.40890 252.77601 251.73112 250.34422 248.51233 246.42844 244.26855
 242.06666 239.87776 237.70487 235.55098 233.41809 231.29220 229.32531 227.48941
 225.77952 224.25863 222.89574 221.67485 220.56395 219.53106 218.64217 217.79028
 217.03939 216.22650 215.33160 214.70271 214.15982 214.82468 216.31537 216.68349
 216.32291 217.47264 219.19316 219.22290 219.01683 221.09422 224.45802 227.45081
 230.29762 234.25815 238.81642 243.08102 246.94075 250.63098 254.24182 257.66089
 260.80234 263.71295 266.44888 268.91452 271.06427 272.82028 274.21854 275.63138
 277.70602 279.75266 281.52368 283.07877 284.42453 285.61520 286.70154 287.68567
 288.57077 289.35895 290.04752 290.92499
 366.78100 356.34087 345.77874 334.65062 323.05949 311.25936 299.13523 286.94411
 274.66198 262.56485 250.57972 239.88659 230.01447 221.12434 213.31221 206.32008
 200.15996 195.10383 191.69170 189.73957 188.78244 188.85232 189.69319 191.00706
 192.73793 194.83881 197.10768 199.47255 201.92342 204.40930 206.50317 208.35104
 209.98291 211.13378 211.36866 211.60253 211.54540 211.25627 210.89515 210.53102
 210.15389 209.86976 209.68363 209.55351 209.48738 209.82425 210.21612 210.61100
 211.40987 212.59374 213.84961 215.63848 217.57236 219.62123 221.72210 223.81097
 225.87685 227.96672 230.06959 232.18146 234.31633 236.49421 238.75608 241.13195
 243.75882 246.01570 248.02357 249.79444 251.21731 252.34618 253.17406 253.49593
 253.53880 253.31867 252.68455 251.63842 250.25029 248.41716 246.33204 244.17091
 241.96778 239.77765 237.60352 235.44840 233.31427 231.18714 229.21901 227.38189
 225.67076 224.14863 222.78450 221.56237 220.45025 219.41612 218.52599 217.67286
 216.92074 216.10661 215.21048 214.58035 214.03622 214.78250 216.41917 216.66910
 216.27618 217.32704 218.95233 219.05186 219.10210 221.16640 224.37404 227.43031
 230.26813 234.27229 238.87250 243.14575 247.01282 250.72301 254.33678 257.75327
 260.87653 263.76526 266.47388 268.93466 271.07147 272.83868 274.35712 275.90927
 277.49173 279.34555 281.02805 282.50540 283.78394 284.91510 285.94711 286.88205
 287.72293 288.47174 289.12589 289.95950
 366.78100 356.34070 345.77841 334.65011 323.05881 311.25852 299.13422 286.94292
 274.66063 262.56333 250.57803 239.88474 230.01244 221.12215 213.30985 206.31755
 200.15726 195.10096 191.68866 189.73637 188.77907 188.84877 189.68948 191.00318
 192.73388 194.83459 197.10329 199.46799 201.91870 204.40440 206.49810 208.34581
 209.97751 211.12821 211.36292 211.59662 211.53933 211.25003 210.88873 210.52444
 210.14714 209.86284 209.67655 209.54625 209.47995 209.81666 210.20836 210.60306
 211.40177 212.58547 213.84117 215.62988 217.56358 219.61228 221.71299 223.80169
 225.86739 227.95710 230.05980 232.17151 234.30621 236.48391 238.74562 241.12132
 243.74802 246.00473 248.01243 249.78313 251.20584 252.33454 253.16224 253.48395
 253.52665 253.30635 252.67206 251.62576 250.23746 248.40417 246.31887 244.15758
 241.95428 239.76398 237.58969 235.43439 233.30009 231.17280 229.20450 227.36720
 225.65591 224.13361 222.76931 221.54702 220.43472 219.40042 218.51013 217.65683
 216.90453 216.09024 215.19394 214.56364 214.01935 214.78540 216.47748 216.72849
 216.22342 217.12953 218.68471 218.89967 219.09688 221.16515 224.30904 227.36214
 230.19739 234.29013 238.94237 243.21162 247.08318 250.80634 254.41942 257.81540
 260.92804 263.80405 266.49945 268.94653 271.09109 272.89725 274.41193 276.10355
 277.41965 279.06775 280.72922 282.18811 283.45065 284.56766 285.58676 286.51001
 287.34039 288.07983 288.72577 289.54898
 366.78100 356.34095 345.77889 334.65084 323.05978 311.25973 299.13568 286.94462
 274.66257 262.56551 250.58046 239.88741 230.01535 221.12530 213.31324 206.32119
 200.16114 195.10508 191.69303 189.74097 188.78392 188.85386 189.69481 191.00876
 192.73970 194.84065 197.10959 199.47454 201.92549 204.41143 206.50538 208.35332
 209.98527 211.13622 211.37116 211.60511 211.54805 211.25900 210.89795 210.53389
 210.15684 209.87278 209.68673 209.55668 209.49062 209.82757 210.21951 210.61446
 211.41341 212.59735 213.85330 215.64224 217.57619 219.62514 221.72608 223.81503
 225.88097 227.97092 230.07386 232.18581 234.32076 236.49870 238.76065 241.13659
 243.76354 246.02049 248.02843 249.79938 251.22232 252.35127 253.17922 253.50116
 253.54411 253.32405 252.69000 251.64395 250.25589 248.42284 246.33778 244.17673
 241.97368 239.78362 237.60957 235.45451 233.32046 231.19341 229.22535 227.38830
 225.67724 224.15519 222.79113 221.56908 220.45703 219.42297 218.53292 217.67986
 216.92781 216.11376 215.21770 214.58765 214.04359 214.80963 216.50555 216.73904
 216.22388 217.01869 218.44130 218.66150 219.01440 221.11372 224.29639 227.33940
 230.17368 234.34422 239.06046 243.32486 247.19460 250.91977 254.53131 257.90527
 260.99078 263.85495 266.54062 268.97861 271.11438 272.86810 274.48752 276.26437
 277.49026 278.98254 280.58685 282.03278 283.28409 284.39120 285.40128 286.31631
 287.13928 287.87216 288.51239 289.32828
 366.78100 356.34160 345.78021 334.65281 323.06242 311.26302 299.13963 286.94923
 274.66783 262.57144 250.58704 239.89465 230.02325 221.13385 213.32246 206.33106
 200.17167 195.11627 191.70488 189.75348 188.79708 188.86769 189.70929 191.02390
 192.75550 194.85711 197.12671 199.49231 201.94392 204.43052 206.52513 208.37373
 210.00633 211.15794 211.39354 211.62815 211.57175 211.28336 210.92296 210.55956
 210.18317 209.89977 209.71438 209.58498 209.51959 209.85719 210.24979 210.64540
 211.44500 212.62961 213.88621 215.67581 217.61042 219.66002 221.76163 223.85123
 225.91784 228.00844 230.11204 232.22465 234.36025 236.53886 238.80146 241.17807
 243.80567 246.06327 248.07188 249.84348 251.26709 252.39669 253.22529 253.54790
 253.59150 253.37211 252.73871 251.69332 250.30592 248.47352 246.38913 244.22873
 242.02634 239.83694 237.66355 235.50915 233.37575 231.24936 229.28196 227.44557
 225.73517 224.21377 222.85038 221.62898 220.51759 219.48419 218.59480 217.74240
 216.99100 216.17761 215.28221 214.65282 214.10942 214.84666 216.50511 216.79404
 216.18106 216.82918 218.16325 218.45245 218.93048 221.05786 224.33502 227.42212
 230.35745 234.47932 239.13646 243.42624 247.30544 251.02275 254.62085 257.96597
 261.03268 263.89221 266.57123 269.00650 271.12222 272.90558 274.59296 276.36600
 277.65109 278.91885 280.35910 281.73026 282.94101 284.01221 284.98950 285.87488
 286.67117 287.38028 287.99973 288.78915
 366.78100 356.34335 345.78371 334.65806 323.06942 311.27177 299.15013 286.96148
 274.68184 262.58719 250.60455 239.91390 230.04425 221.15661 213.34696 206.35732
 200.19967 195.14603 191.73638 189.78674 188.83209 188.90445 189.74780 191.06415
 192.79751 194.90086 197.17222 199.53957 201.99293 204.48128 206.57764 208.42799
 210.06235 211.21570 211.45305 211.68941 211.63476 211.34812 210.98947 210.62783
 210.25318 209.97154 209.78789 209.66025 209.59660 209.93595 210.33031 210.72766
 211.52902 212.71537 213.97373 215.76508 217.70144 219.75279 221.85615 223.94750
 226.01585 228.10821 230.21356 232.32792 234.46527 236.64563 238.90998 241.28834
 243.91769 246.17705 248.18740 249.96075 251.38611 252.51746 253.34782 253.67217
 253.71753 253.49988 252.86824 251.82459 250.43895 248.60830 246.52565 244.36701
 242.16636 239.97872 237.80707 235.65443 233.52278 231.39814 229.43249 227.59785
 225.88920 224.36955 223.00791 221.78826 220.67862 219.64697 218.75933 217.90868
 217.15904 216.34739 215.45375 214.82610 214.28445 214.93477 216.43549 216.94159
 216.17696 216.67857 218.01588 218.29500 218.78363 220.94832 224.26462 227.39932
 230.37326 234.53474 239.20502 243.48981 247.37537 251.10286 254.70078 258.02377
 261.07489 263.92908 266.60379 269.02655 271.12527 272.89276 274.66827 276.43967
 277.73993 279.01572 280.40045 281.78256 283.01294 284.10153 285.09470 285.99445
 286.80368 287.52429 288.15381 288.95605
 366.78100 356.34457 345.78613 334.66170 323.07427 311.27784 299.15740 286.96997
 274.69154 262.59811 250.61667 239.92724 230.05881 221.17238 213.36394 206.37551
 200.21908 195.16665 191.75821 189.80978 188.85635 188.92992 189.77448 191.09205
 192.82662 194.93119 197.20375 199.57232 202.02689 204.51646 206.61402 208.46559
 210.10116 211.25573 211.49429 211.73186 211.67843 211.39300 211.03556 210.67513
 210.30170 210.02127 209.83883 209.71240 209.64997 209.99054 210.38610 210.78467
 211.58724 212.77481 214.03437 215.82694 217.76451 219.81708 221.92164 224.01421
 226.08378 228.17735 230.28391 232.39948 234.53805 236.71962 238.98518 241.36475
 243.99532 246.25589 248.26745 250.04202 251.46859 252.60116 253.43272 253.75829
 253.80486 253.58842 252.95799 251.91556 250.53113 248.70169 246.62026 244.46283
 242.26340 240.07696 237.90653 235.75510 233.62467 231.50123 229.53680 227.70337
 225.99594 224.47750 223.11707 221.89864 220.79021 219.75977 218.87334 218.02391
 217.27548 216.46504 215.57261 214.94618 214.40575 215.00084 216.39287 216.98552
 216.25931 216.61662 217.86646 218.10640 218.66602 220.87604 224.22621 227.39806
 230.38411 234.60245 239.30362 243.59428 247.48494 251.22595 254.81999 258.12292
 261.15567 263.99783 266.66608 269.07333 271.15091 272.95029 274.77890 276.51666
 277.81848 279.17444 280.64429 282.09033 283.35022 284.46490 285.48187 286.40317
 287.23178 287.96967 288.61429 289.43573
 366.78100 356.34444 345.78589 334.66133 323.07378 311.27722 299.15667 286.96911
 274.69055 262.59700 250.61544 239.92589 230.05733 221.17078 213.36222 206.37366
 200.21711 195.16455 191.75600 189.80744 188.85389 188.92733 189.77178 191.08922
 192.82366 194.92811 197.20055 199.56900 202.02344 204.51289 206.61033 208.46177
 210.09722 211.25166 211.49011 211.72755 211.67400 211.38844 211.03088 210.67033
 210.29677 210.01622 209.83366 209.70711 209.64455 209.98499 210.38044 210.77888
 211.58133 212.76877 214.02822 215.82066 217.75810 219.81055 221.91499 224.00744
 226.07688 228.17033 230.27677 232.39222 234.53066 236.71210 238.97755 241.35699
 243.98744 246.24788 248.25933 250.03377 251.46021 252.59266 253.42410 253.74955
 253.79599 253.57944 252.94888 251.90632 250.52177 248.69221 246.61066 244.45310
 242.25355 240.06699 237.89643 235.74488 233.61432 231.49077 229.52621 227.69266
 225.98510 224.46655 223.10599 221.88743 220.77888 219.74832 218.86177 218.01221
 217.26366 216.45310 215.56054 214.93399 214.39343 215.00546 216.41399 216.92566
 216.40434 216.66714 217.72443 217.85437 218.50452 220.77597 224.21516 227.39754
 230.38480 234.65111 239.38930 243.69243 247.61049 251.35655 254.93529 258.20984
 261.21689 264.04425 266.69955 269.09442 271.18613 272.99908 274.93362 276.58441
 277.92657 279.44272 281.05237 282.52084 283.79172 284.91608 285.94189 286.87125
 287.70706 288.45139 289.10159 289.93021
 366.78100 356.34518 345.78735 334.66353 323.07670 311.28088 299.16105 286.97423
 274.69640 262.60358 250.62275 239.93393 230.06610 221.18028 213.37245 206.38463
 200.22880 195.17698 191.76915 189.82133 188.86850 188.94268 189.78785 191.10603
 192.84121 194.94638 197.21956 199.58873 202.04391 204.53408 206.63226 208.48443
 210.12061 211.27578 211.51496 211.75313 211.70031 211.41548 211.05866 210.69883
 210.32601 210.04618 209.86436 209.73853 209.67671 210.01788 210.41406 210.81324
 211.61641 212.80459 214.06476 215.85794 217.79611 219.84929 221.95446 224.04764
 226.11781 228.21199 230.31916 232.43534 234.57451 236.75669 239.02286 241.40304
 244.03421 246.29539 248.30756 250.08274 251.50992 252.64309 253.47527 253.80144
 253.84862 253.63279 253.00297 251.96114 250.57732 248.74849 246.66767 244.51084
 242.31202 240.12619 237.95637 235.80554 233.67572 231.55289 229.58907 227.75624
 226.04942 224.53159 223.17177 221.95395 220.84612 219.81630 218.93047 218.08165
 217.33382 216.52400 215.63217 215.00635 214.46652 215.05159 216.38885 216.89755
 216.55211 216.76131 217.62767 217.56096 218.25674 220.61385 224.19835 227.39822
 230.50876 234.75342 239.42943 243.76990 247.73120 251.50262 255.07503 258.32306
 261.29483 264.10043 266.74451 269.12964 271.20758 273.06961 275.10031 276.62152
 278.10883 280.04703 281.83170 283.39877 284.75494 285.95480 287.04947 288.04120
 288.93314 289.72742 290.42126 291.30551
 366.78100 356.34675 345.79049 334.66824 323.08299 311.28873 299.17048 286.98523
 274.70898 262.61772 250.63847 239.95122 230.08496 221.20071 213.39446 206.40820
 200.25395 195.20370 191.79744 189.85119 188.89994 188.97568 189.82243 191.14218
 192.87893 194.98567 197.26042 199.63117 202.08791 204.57966 206.67941 208.53315
 210.17090 211.32765 211.56839 211.80814 211.75689 211.47363 211.11838 210.76013
 210.38888 210.11062 209.93037 209.80612 209.74586 210.08861 210.48636 210.88710
 211.69185 212.88160 214.14334 215.93809 217.87784 219.93258 222.03933 224.13408
 226.20583 228.30157 230.41032 232.52807 234.66881 236.85256 239.12031 241.50205
 244.13480 246.39755 248.41129 250.18804 251.61679 252.75153 253.58528 253.91303
 253.96178 253.74752 253.11927 252.07902 250.69676 248.86951 246.79026 244.63500
 242.43775 240.25350 238.08524 235.93599 233.80774 231.68648 229.72423 227.89298
 226.18773 224.67147 223.31322 222.09697 220.99071 219.96246 219.07821 218.23095
 217.48470 216.67645 215.78619 215.16194 214.62369 215.13452 216.31693 216.89264
 216.68611 216.80827 217.50694 217.25851 217.97304 220.40948 224.13564 227.36650
 230.56140 234.83667 239.51291 243.89381 247.90024 251.69853 255.28409 258.51025
 261.46082 264.24109 266.86752 269.25076 271.35437 273.19675 275.27316 276.75092
 278.67792 280.77713 282.59363 284.18866 285.56903 286.79028 287.90451 288.91391
 289.82178 290.63022 291.33646 292.23648
 366.78100 356.34657 345.79014 334.66771 323.08227 311.28784 299.16941 286.98398
 274.70755 262.61612 250.63669 239.94925 230.08282 221.19839 213.39196 206.40553
 200.25110 195.20066 191.79423 189.84780 188.89637 188.97194 189.81851 191.13808
 192.87464 194.98121 197.25578 199.62635 202.08292 204.57449 206.67406 208.52762
 210.16519 211.32176 211.56233 211.80190 211.75047 211.46703 211.11160 210.75317
 210.38174 210.10331 209.92288 209.79845 209.73801 210.08058 210.47815 210.87872
 211.68329 212.87286 214.13443 215.92899 217.86856 219.92313 222.02970 224.12427
 226.19584 228.29140 230.39997 232.51754 234.65811 236.84168 239.10925 241.49082
 244.12338 246.38595 248.39952 250.17609 251.60466 252.73923 253.57280 253.90036
 253.94893 253.73450 253.10607 252.06564 250.68321 248.85577 246.77634 244.62091
 242.42348 240.23905 238.07062 235.92119 233.79275 231.67132 229.70889 227.87746
 226.17203 224.65560 223.29717 222.08073 220.97430 219.94587 219.06144 218.21401
 217.46758 216.65914 215.76871 215.14428 214.60585 215.12775 216.30280 216.80096
 216.81233 216.95180 217.41931 217.08105 217.80917 220.34511 223.92349 227.24895
 230.50461 234.87439 239.59790 243.97379 247.99124 251.80060 255.38109 258.60583
 261.55692 264.35440 266.99033 269.36151 271.51782 273.66409 275.79507 277.29056
 279.05853 281.09222 282.92789 284.53973 285.93466 287.16879 288.29477 289.31482
 290.23224 291.04919 291.76288 292.67239
 366.78100 356.34576 345.78852 334.66529 323.07905 311.28381 299.16457 286.97833
 274.70109 262.60886 250.62862 239.94038 230.07314 221.18790 213.38066 206.39343
 200.23819 195.18695 191.77971 189.83247 188.88024 188.95500 189.80076 191.11952
 192.85528 194.96104 197.23481 199.60457 202.06033 204.55109 206.64985 208.50261
 210.13938 211.29514 211.53490 211.77366 211.72142 211.43719 211.08095 210.72171
 210.34947 210.07023 209.88899 209.76376 209.70252 210.04428 210.44104 210.84080
 211.64456 212.83333 214.09409 215.88785 217.82661 219.88037 221.98614 224.07990
 226.15066 228.24542 230.35318 232.46994 234.60971 236.79247 239.05923 241.43999
 244.07175 246.33352 248.34628 250.12204 251.54980 252.68356 253.51632 253.84309
 253.89085 253.67561 253.04637 252.00513 250.62189 248.79366 246.71342 244.55718
 242.35894 240.17370 238.00447 235.85423 233.72499 231.60275 229.63951 227.80727
 226.10104 224.58380 223.22456 222.00732 220.90008 219.87084 218.98561 218.13737
 217.39013 216.58089 215.68965 215.06442 214.52518 215.07452 216.31595 216.72984
 216.85463 217.02638 217.23901 217.03600 217.78633 220.28496 223.77011 227.17867
 230.50481 234.91553 239.65593 244.01340 248.00095 251.74991 255.25365 258.44714
 261.42474 264.26459 266.94193 269.40320 271.74915 274.04465 276.15051 277.97849
 279.47159 280.90994 282.24759 283.47934 284.56989 285.53473 286.41501 287.21249
 287.92972 288.56842 289.12637 289.83743
 366.78100 356.34585 345.78871 334.66556 323.07941 311.28427 299.16512 286.97897
 274.70183 262.60968 250.62953 239.94138 230.07424 221.18909 213.38194 206.39480
 200.23965 195.18850 191.78136 189.83421 188.88206 188.95692 189.80277 191.12162
 192.85748 194.96333 197.23718 199.60704 202.06289 204.55374 206.65260 208.50545
 210.14230 211.29815 211.53801 211.77686 211.72471 211.44057 211.08442 210.72527
 210.35313 210.07398 209.89283 209.76769 209.70654 210.04839 210.44525 210.84510
 211.64895 212.83781 214.09866 215.89251 217.83136 219.88522 221.99107 224.08492
 226.15578 228.25063 230.35848 232.47534 234.61519 236.79804 239.06490 241.44575
 244.07760 246.33946 248.35231 250.12816 251.55602 252.68987 253.52272 253.84958
 253.89743 253.68228 253.05313 252.01199 250.62884 248.80069 246.72055 244.56440
 242.36625 240.18111 238.01196 235.86181 233.73267 231.61052 229.64737 227.81523
 226.10908 224.59193 223.23279 222.01564 220.90849 219.87934 218.99420 218.14605
 217.39890 216.58976 215.69861 215.07346 214.53432 215.06361 216.28644 216.75743
 216.86519 217.02374 217.13086 216.84692 217.52486 220.05843 223.70319 227.05338
 230.56677 234.93556 239.64873 244.04008 248.04700 251.80507 255.29106 258.44717
 261.37796 264.18518 266.85910 269.37726 271.81976 274.20160 276.33182 278.13916
 279.67624 280.90298 281.88971 282.66968 283.51752 284.50992 285.42581 286.25555
 287.00180 287.66632 288.24686 288.98666
 366.78100 356.34528 345.78757 334.66385 323.07713 311.28141 299.16170 286.97498
 274.69726 262.60454 250.62383 239.93511 230.06739 221.18167 213.37396 206.38624
 200.23052 195.17880 191.77109 189.82337 188.87065 188.94494 189.79022 191.10850
 192.84378 194.94907 197.22235 199.59163 202.04691 204.53720 206.63548 208.48776
 210.12404 211.27933 211.51861 211.75689 211.70418 211.41946 211.06274 210.70302
 210.33031 210.05059 209.86887 209.74315 209.68144 210.02272 210.41900 210.81828
 211.62157 212.80985 214.07013 215.86341 217.80170 219.85498 221.96026 224.05355
 226.12383 228.21811 230.32539 232.44168 234.58096 236.76324 239.02952 241.40981
 244.04109 246.30237 248.31465 250.08994 251.51722 252.65050 253.48279 253.80907
 253.85635 253.64063 253.01092 251.96920 250.58548 248.75676 246.67605 244.51933
 242.32061 240.13489 237.96518 235.81446 233.68474 231.56202 229.59831 227.76559
 226.05887 224.54116 223.18144 221.96372 220.85600 219.82629 218.94057 218.09185
 217.34413 216.53442 215.64270 215.01698 214.47726 215.03105 216.30681 216.69315
 216.87263 217.11900 217.15593 216.72594 217.33412 219.89240 223.57201 226.90276
 230.52979 234.96979 239.70660 244.11179 248.14018 251.91856 255.41684 258.56836
 261.47632 264.23578 266.85681 269.34079 271.84515 274.38263 276.55164 278.29483
 279.81638 281.07477 282.02597 282.54114 282.94937 283.93521 284.88669 285.74863
 286.52386 287.21423 287.81729 288.58585
 366.78100 356.34576 345.78852 334.66528 323.07904 311.28380 299.16456 286.97832
 274.70109 262.60885 250.62861 239.94037 230.07313 221.18789 213.38065 206.39341
 200.23817 195.18693 191.77969 189.83245 188.88021 188.95497 189.80074 191.11950
 192.85526 194.96102 197.23478 199.60454 202.06030 204.55106 206.64982 208.50258
 210.13934 211.29510 211.53486 211.77362 211.72139 211.43715 211.08091 210.72167
 210.34943 210.07019 209.88895 209.76371 209.70247 210.04423 210.44099 210.84075
 211.64451 212.83327 214.09404 215.88780 217.82656 219.88032 221.98608 224.07984
 226.15060 228.24536 230.35312 232.46988 234.60964 236.79240 239.05916 241.43992
 244.07168 246.33345 248.34621 250.12197 251.54973 252.68349 253.51625 253.84301
 253.89077 253.67553 253.04629 252.00505 250.62181 248.79357 246.71333 244.55710
 242.35886 240.17362 238.00438 235.85414 233.72490 231.60266 229.63942 227.80718
 226.10094 224.58370 223.22446 222.00722 220.89998 219.87075 218.98551 218.13727
 217.39003 216.58079 215.68955 215.06431 214.52507 215.04486 216.25706 216.73564
 216.83478 217.02235 217.07344 216.63167 217.21466 219.79414 223.55551 226.81450
 230.53763 235.01241 239.77737 244.19563 248.22717 251.99126 255.47151 258.61414
 261.51978 264.26752 266.86264 269.33115 271.88345 274.52011 276.72369 278.42795
 279.96637 281.25912 282.24182 282.75858 282.94296 283.57669 284.49561 285.32812
 286.07687 286.74365 287.32614 288.06845
 366.78100 356.34743 345.79185 334.67028 323.08570 311.29213 299.17455 286.98998
 274.71440 262.62383 250.64526 239.95868 230.09311 221.20953 213.40396 206.41838
 200.26481 195.21524 191.80966 189.86409 188.91351 188.98994 189.83736 191.15779
 192.89521 195.00264 197.27807 199.64949 202.10692 204.59934 206.69977 208.55419
 210.19262 211.35004 211.59147 211.83190 211.78132 211.49875 211.14417 210.78660
 210.41602 210.13845 209.95887 209.83530 209.77573 210.11915 210.51758 210.91900
 211.72443 212.91485 214.17728 215.97271 217.91313 219.96856 222.07598 224.17141
 226.24383 228.34026 230.44968 232.56811 234.70954 236.89396 239.16239 241.54481
 244.17824 246.44166 248.45609 250.23351 251.66294 252.79837 253.63279 253.96122
 254.01064 253.79707 253.16949 252.12992 250.74834 248.92177 246.84320 244.68862
 242.49205 240.30847 238.14090 235.99232 233.86475 231.74418 229.78260 227.95203
 226.24745 224.73188 223.37430 222.15873 221.05315 220.02558 219.14201 218.29543
 217.54986 216.74228 215.85271 215.22913 214.69156 215.11916 216.12930 216.83755
 217.01208 217.07269 216.96982 216.47377 217.06953 219.70622 223.49142 226.68024
 230.51747 235.04160 239.83086 244.24936 248.27856 252.03290 255.50919 258.65256
 261.56384 264.30481 266.87146 269.32388 271.91357 274.66483 276.84973 278.48410
 279.97391 281.21973 282.09241 282.53491 282.66815 283.25439 284.10141 284.91833
 285.65311 286.30743 286.87903 287.60748
 366.78100 356.34680 345.79059 334.66839 323.08319 311.28898 299.17078 286.98558
 274.70937 262.61817 250.63896 239.95176 230.08556 221.20135 213.39515 206.40895
 200.25474 195.20454 191.79834 189.85213 188.90093 188.97673 189.82352 191.14332
 192.88012 194.98691 197.26171 199.63250 202.08930 204.58110 206.68089 208.53469
 210.17249 211.32928 211.57008 211.80988 211.75867 211.47547 211.12027 210.76206
 210.39086 210.11266 209.93245 209.80825 209.74804 210.09084 210.48864 210.88943
 211.69423 212.88403 214.14582 215.94062 217.88042 219.93521 222.04201 224.13681
 226.20860 228.30440 230.41320 232.53099 234.67179 236.85558 239.12338 241.50518
 244.13797 246.40077 248.41457 250.19136 251.62016 252.75496 253.58875 253.91655
 253.96535 253.75114 253.12294 252.08274 250.70053 248.87333 246.79412 244.63892
 242.44172 240.25751 238.08931 235.94011 233.81190 231.69070 229.72850 227.89729
 226.19209 224.67589 223.31768 222.10148 220.99528 219.96707 219.08287 218.23566
 217.48946 216.68126 215.79105 215.16685 214.62865 215.08844 216.16748 216.75406
 217.01776 217.16199 217.01097 216.42004 216.97029 219.53229 223.26750 226.64995
 230.49667 235.07980 239.86292 244.28130 248.32056 252.08940 255.58040 258.74805
 261.67676 264.40515 266.93979 269.33728 271.93216 274.69659 276.93799 278.63275
 280.09311 281.23901 281.95804 282.24664 282.45517 282.92960 283.81201 284.69330
 285.48593 286.19174 286.80835 287.59412
 366.78100 356.34671 345.79042 334.66813 323.08285 311.28856 299.17027 286.98498
 274.70869 262.61740 250.63811 239.95082 230.08454 221.20025 213.39396 206.40767
 200.25338 195.20309 191.79680 189.85052 188.89923 188.97494 189.82165 191.14136
 192.87807 194.98478 197.25949 199.63021 202.08692 204.57863 206.67834 208.53205
 210.16976 211.32647 211.56719 211.80690 211.75561 211.47232 211.11703 210.75874
 210.38745 210.10916 209.92888 209.80459 209.74430 210.08701 210.48472 210.88543
 211.69014 212.87985 214.14157 215.93628 217.87599 219.93070 222.03741 224.13212
 226.20383 228.29955 230.40826 232.52597 234.66668 236.85039 239.11810 241.49981
 244.13252 246.39524 248.40895 250.18566 251.61437 252.74908 253.58279 253.91050
 253.95922 253.74493 253.11664 252.07635 250.69406 248.86677 246.78748 244.63219
 242.43491 240.25062 238.08233 235.93304 233.80475 231.68346 229.72117 227.88989
 226.18460 224.66831 223.31002 222.09373 220.98744 219.95915 219.07486 218.22758
 217.48129 216.67300 215.78271 215.15842 214.62013 215.08022 216.16167 216.77158
 216.98598 217.17937 217.10240 216.41260 216.88101 219.38593 223.13504 226.58817
 230.49565 235.12215 239.92113 244.33469 248.37497 252.14595 255.64037 258.81555
 261.75275 264.48264 267.00650 269.37198 271.90079 274.80908 277.16672 278.90503
 280.36819 281.53479 282.23788 282.47452 282.48071 282.65906 283.48083 284.35312
 285.13760 285.83621 286.44650 287.22424
 366.78100 356.34796 345.79292 334.67189 323.08785 311.29481 299.17777 286.99373
 274.71870 262.62866 250.65062 239.96458 230.09955 221.21651 213.41147 206.42643
 200.27339 195.22436 191.81932 189.87428 188.92424 189.00120 189.84917 191.17013
 192.90809 195.01605 197.29201 199.66398 202.12194 204.61490 206.71586 208.57082
 210.20979 211.36775 211.60971 211.85067 211.80064 211.51860 211.16456 210.80752
 210.43748 210.16045 209.98141 209.85837 209.79933 210.14329 210.54226 210.94422
 211.75018 212.94114 214.20410 216.00007 217.94103 219.99699 222.10495 224.20091
 226.27388 228.37084 230.48080 232.59976 234.74173 236.92669 239.19565 241.57861
 244.21257 246.47654 248.49150 250.26946 251.69942 252.83538 253.67035 253.99931
 254.04927 253.83623 253.20919 252.17016 250.78912 248.96308 246.88504 244.73100
 242.53497 240.35193 238.18489 236.03685 233.90982 231.78978 229.82874 227.99870
 226.29466 224.77963 223.42259 222.20755 221.10251 220.07547 219.19244 218.34640
 217.60136 216.79432 215.90528 215.28225 214.74521 215.13394 216.05421 216.87674
 217.16463 217.23975 217.11009 216.28252 216.69113 219.20117 223.04822 226.46848
 230.49382 235.15805 239.99005 244.39731 248.43466 252.19551 255.68286 258.84726
 261.77133 264.48480 266.98718 269.39096 272.03680 274.83289 277.24551 279.05099
 280.55862 281.71204 282.42532 282.70389 282.74594 282.80975 283.14349 283.76569
 284.52649 285.20401 285.79587 286.55011
 366.78100 356.34796 345.79293 334.67189 323.08785 311.29482 299.17778 286.99374
 274.71870 262.62867 250.65063 239.96459 230.09956 221.21652 213.41148 206.42645
 200.27341 195.22437 191.81933 189.87430 188.92426 189.00122 189.84919 191.17015
 192.90811 195.01608 197.29204 199.66400 202.12196 204.61493 206.71589 208.57085
 210.20982 211.36778 211.60974 211.85071 211.80067 211.51863 211.16459 210.80756
 210.43752 210.16048 209.98145 209.85841 209.79937 210.14334 210.54230 210.94426
 211.75022 212.94119 214.20415 216.00011 217.94108 219.99704 222.10500 224.20097
 226.27393 228.37089 230.48085 232.59982 234.74178 236.92674 239.19571 241.57867
 244.21263 246.47660 248.49156 250.26952 251.69948 252.83545 253.67041 253.99937
 254.04934 253.83630 253.20926 252.17023 250.78919 248.96315 246.88511 244.73108
 242.53504 240.35200 238.18497 236.03693 233.90989 231.78986 229.82882 227.99878
 226.29474 224.77971 223.42267 222.20763 221.10260 220.07556 219.19252 218.34649
 217.60145 216.79441 215.90537 215.28234 214.74530 215.12964 216.03767 216.87086
 217.32562 217.36226 217.06657 216.18927 216.58749 219.02968 222.90923 226.33850
 230.47955 235.19579 240.05380 244.46428 248.50743 252.27344 255.76724 258.92703
 261.84436 264.53656 267.00015 269.35617 271.92288 274.79434 277.30450 279.15979
 280.64624 281.78458 282.43784 282.63684 282.67892 282.75848 283.06494 283.51764
 284.09381 284.74606 285.32123 286.05420
 366.78100 356.34706 345.79113 334.66919 323.08425 311.29032 299.17238 286.98744
 274.71151 262.62057 250.64163 239.95470 230.08876 221.20482 213.39888 206.41295
 200.25901 195.20907 191.80314 189.85720 188.90626 188.98233 189.82939 191.14945
 192.88652 194.99358 197.26864 199.63971 202.09677 204.58883 206.68890 208.54296
 210.18102 211.33809 211.57915 211.81921 211.76827 211.48534 211.13040 210.77246
 210.40153 210.12359 209.94365 209.81972 209.75978 210.10284 210.50091 210.90197
 211.70703 212.89710 214.15916 215.95422 217.89429 219.94935 222.05641 224.15148
 226.22354 228.31960 230.42867 232.54673 234.68779 236.87185 239.13992 241.52198
 244.15504 246.41811 248.43217 250.20923 251.63830 252.77336 253.60742 253.93549
 253.98455 253.77061 253.14268 252.10274 250.72080 248.89387 246.81493 244.65999
 242.46306 240.27912 238.11118 235.96224 233.83431 231.71337 229.75143 227.92050
 226.21556 224.69962 223.34169 222.12575 221.01981 219.99188 219.10794 218.26100
 217.51507 216.70713 215.81719 215.19326 214.65532 215.08324 216.09425 216.82637
 217.37576 217.42630 217.04787 216.14665 216.50740 218.88203 222.74442 226.33781
 230.49277 235.24260 240.10281 244.53052 248.58011 252.35022 255.85431 259.02551
 261.95013 264.62506 267.05081 269.34579 271.83820 274.77722 277.39917 279.26334
 280.76367 281.88751 282.45471 282.55194 282.53720 282.57526 282.95139 283.43741
 283.93350 284.52634 285.08765 285.80295
 366.78100 356.34650 345.79001 334.66751 323.08201 311.28751 299.16902 286.98352
 274.70702 262.61552 250.63603 239.94853 230.08203 221.19754 213.39104 206.40454
 200.25004 195.19955 191.79305 189.84655 188.89505 188.97056 189.81706 191.13656
 192.87307 194.97957 197.25407 199.62457 202.08108 204.57258 206.67208 208.52558
 210.16309 211.31959 211.56009 211.79960 211.74810 211.46460 211.10910 210.75061
 210.37911 210.10061 209.92011 209.79562 209.73512 210.07762 210.47513 210.87563
 211.68013 212.86963 214.13114 215.92564 217.86514 219.91965 222.02615 224.12065
 226.19215 228.28766 230.39616 232.51366 234.65416 236.83767 239.10517 241.48667
 244.11918 246.38168 248.39518 250.17168 251.60019 252.73469 253.56819 253.89569
 253.94420 253.72970 253.10120 252.06071 250.67821 248.85071 246.77121 244.61572
 242.41822 240.23372 238.06522 235.91573 233.78723 231.66573 229.70324 227.87174
 226.16624 224.64974 223.29125 222.07475 220.96825 219.93975 219.05526 218.20776
 217.46126 216.65277 215.76227 215.13777 214.59927 215.05460 216.13033 216.83339
 217.40881 217.44431 216.94572 216.01828 216.39670 218.77133 222.64832 226.32654
 230.50232 235.27744 240.13969 244.59737 248.65718 252.43961 255.95714 259.13263
 262.05267 264.71680 267.12781 269.37448 271.75912 274.67706 277.39590 279.35187
 280.85544 281.95221 282.49594 282.54468 282.47421 282.46490 282.76288 283.23795
 283.78287 284.37662 284.94873 285.67783
 354.97500 345.04800 334.58700 324.11500 313.32600 302.53700 291.65000 280.76700
 269.93100 259.19300 248.62200 238.61700 229.08700 220.35500 212.54000 205.53500
 199.46400 194.49300 191.14300 189.19000 188.08900 188.01400 188.72400 189.90600
 191.46900 193.38200 195.40300 197.55600 199.80700 202.06000 204.28800 206.47900
 208.55200 210.37800 212.02500 213.65900 214.99800 216.11800 217.17200 218.25900
 219.49400 220.64500 221.67900 222.61400 223.54500 224.98200 226.57100 228.19000
 229.79700 231.81100 233.86500 235.97200 238.24200 240.55300 242.89900 245.25300
 247.48800 249.53500 251.36600 252.84800 254.09800 255.16700 256.02700 256.25300
 256.09500 255.54300 253.93500 252.56600 251.38400 250.24500 249.05200 247.70100
 246.01600 243.99600 241.78400 239.39300 236.81300 234.22300 231.65800 229.14400
 226.74000 224.47300 222.33500 220.32500 218.44000 216.67700 214.96200 213.47200
 212.20000 211.10800 210.26000 209.63900 209.24400 209.03100 209.05800 209.33300
 209.78400 210.62600 211.33100 212.39100 213.62500 214.84668 217.72949 219.47640
 220.32566 220.86828 220.88710 220.27371 219.43733 218.84250 219.04934 220.86203
 222.60583 225.72206 229.03064 232.61777 236.12270 239.51333 242.70767 245.68587
 248.41061 250.90679 253.19353 254.91714 256.48655 257.94920 259.39966 260.69384
 261.81714 262.77997 263.71679 264.54570 265.26305 265.89772 266.47676 267.00133
 267.47312 267.89325 268.26027 268.72800
