|-------------------------------------------------------------------------|
|   File Name : in_temp.dat
|   Subject   : temperature profiles used for initial guess atmosphere
|   File Type : input of gmtr
|   Data Type : atmospherical data
|   Author/s  : WRF-Chem
|   Date      : Fri Jul 26 15:39:24 2024
|-------------------------------------------------------------------------|

 WRF-Chem temperature
#
 values of T (K)    (8f10.5)
#
 354.97500 345.04800 334.58700 324.11500 313.32600 302.53700 291.65000 280.76700
 269.93100 259.19300 248.62200 238.61700 229.08700 220.35500 212.54000 205.53500
 199.46400 194.49300 191.14300 189.19000 188.08900 188.01400 188.72400 189.90600
 191.46900 193.38200 195.40300 197.55600 199.80700 202.06000 204.28800 206.47900
 208.55200 210.37800 212.02500 213.65900 214.99800 216.11800 217.17200 218.25900
 219.49400 220.64500 221.67900 222.61400 223.54500 224.98200 226.57100 228.19000
 229.79700 231.81100 233.86500 235.97200 238.24200 240.55300 242.89900 245.25300
 247.48800 249.53500 251.36600 252.84800 254.09800 255.16700 256.02700 256.25300
 256.09500 255.54300 253.93500 252.56600 251.38400 250.24500 249.05200 247.70100
 246.01600 243.99600 241.78400 239.39300 236.81300 234.22300 231.65800 229.14400
 226.74000 224.47300 222.33500 220.32500 218.44000 216.67700 214.96200 213.47200
 212.20000 211.10800 210.26000 209.63900 209.24400 209.03100 209.05800 209.33300
 209.78400 210.62600 211.33100 212.39100 213.62500 214.84668 217.72949 219.47640
 220.32566 220.86828 220.88710 220.27371 219.43733 218.84250 219.04934 220.86203
 222.60583 225.72206 229.03064 232.61777 236.12270 239.51333 242.70767 245.68587
 248.41061 250.90679 253.19353 254.91714 256.48655 257.94920 259.39966 260.69384
 261.81714 262.77997 263.71679 264.54570 265.26305 265.89772 266.47676 267.00133
 267.47312 267.89325 268.26027 268.72800
 366.78100 356.33500 345.76700 334.63300 323.03600 311.23000 299.10000 286.90300
 274.61500 262.51200 250.52100 239.82200 229.94400 221.04800 213.23000 206.23200
 200.06600 195.00400 191.58600 189.62800 188.66500 188.72900 189.56400 190.87200
 192.59700 194.69200 196.95500 199.31400 201.75900 204.23900 206.32700 208.16900
 209.79500 210.94000 211.16900 211.39700 211.33400 211.03900 210.67200 210.30200
 209.91900 209.62900 209.43700 209.30100 209.22900 209.56000 209.94600 210.33500
 211.12800 212.30600 213.55600 215.33900 217.26700 219.31000 221.40500 223.48800
 225.54800 227.63200 229.72900 231.83500 233.96400 236.13600 238.39200 240.76200
 243.38300 245.63400 247.63600 249.40100 250.81800 251.94100 252.76300 253.07900
 253.11600 252.89000 252.25000 251.19800 249.80400 247.96500 245.87400 243.70700
 241.49800 239.30200 237.12200 234.96100 232.82100 230.68800 228.71400 226.87100
 225.15400 223.62600 222.25600 221.02800 219.91000 218.87000 217.97400 217.11500
 216.35700 215.53700 214.63500 213.99900 213.44900 212.85855 212.01316 212.61654
 214.26826 216.08686 218.14273 220.53346 223.40855 226.78828 231.49734 235.90155
 239.42278 243.28576 247.23140 251.11907 254.80144 258.23331 261.38913 264.27520
 266.89312 269.26852 271.44504 273.08845 274.58484 275.98591 277.39845 278.65879
 279.75272 280.69038 281.56708 282.34086 283.01050 283.60295 284.14348 284.63317
 285.07358 285.46577 285.80838 286.24500
 381.81900 372.39900 361.20600 349.77600 337.62200 324.85300 311.81000 298.35300
 284.86000 271.32400 258.56100 246.30400 236.08700 226.79600 218.44800 211.29000
 205.52200 200.89400 197.38100 194.84800 193.01500 192.31500 192.25000 192.43100
 192.91200 193.53700 194.13600 194.71200 195.26200 195.83100 196.39300 196.97600
 197.60400 198.14900 198.58400 199.05700 199.69500 200.37800 201.05400 201.70800
 202.31300 202.85700 203.35500 203.86200 204.56900 205.29700 206.02600 206.98700
 208.19300 209.44100 210.96900 212.57600 214.46200 216.51300 218.63000 220.85300
 223.34100 225.96200 228.73900 231.69700 234.70600 237.70600 240.69200 243.65700
 246.73700 249.69900 252.52100 255.06300 257.29000 259.23300 260.63300 261.68000
 262.46100 262.79800 262.69100 262.22400 261.06900 259.52500 257.70700 255.50700
 253.00100 250.30200 247.39800 244.45200 241.65400 239.05400 236.73300 234.59000
 232.59500 230.72500 228.83400 226.82600 224.66600 222.38700 220.10400 217.71500
 215.45900 213.06600 210.54600 208.09300 205.35400 202.08130 196.05959 200.71215
 209.01611 216.90438 223.84126 229.78593 235.00632 240.20838 245.98943 250.68668
 254.32982 257.93487 261.55666 264.96801 268.15192 271.06452 273.76717 276.25691
 278.57680 280.74479 282.77456 284.60533 286.27232 287.81705 289.31715 290.65561
 291.81734 292.81312 293.70701 294.49387 295.17482 295.77730 296.32696 296.82492
 297.27278 297.67160 298.02000 298.46400
 399.33000 389.90700 379.81300 368.66800 357.52200 345.30100 333.07400 320.22700
 307.21600 293.84800 280.37600 267.29600 254.61000 242.98700 232.15100 221.97700
 212.67200 204.28600 197.66900 192.82100 189.48600 187.45200 186.81400 187.08900
 187.78100 189.05400 190.64800 192.54200 194.63000 196.75200 198.67100 200.15800
 201.53500 202.48700 202.97500 203.34000 203.53900 203.49700 203.38500 203.24700
 203.00500 202.78600 202.60300 202.43700 202.42600 202.88800 203.42000 203.95100
 204.89500 205.99200 207.30100 208.95800 210.73800 213.10000 215.56400 218.18000
 220.96600 223.91800 226.96100 230.09200 233.29300 236.55700 239.95500 243.53700
 246.84500 249.39000 251.54200 253.47400 255.19500 256.48400 257.43100 258.05900
 258.21200 258.04000 257.58200 256.64300 255.23900 253.50700 251.40800 249.05600
 246.57600 243.99400 241.38900 238.83000 236.34400 233.98600 231.96900 230.11800
 228.42300 226.89900 225.54800 224.29700 223.10500 221.96500 220.95800 220.11300
 219.49000 218.92000 218.32500 217.88100 217.42300 216.96366 216.35568 216.80261
 217.73415 218.28582 218.64258 219.10077 220.44626 222.53987 226.38451 230.35736
 233.59734 237.39164 241.29814 245.22796 248.98002 252.51130 255.78595 258.80109
 261.54781 264.05210 266.34239 268.04198 269.58951 271.01303 272.35754 273.55718
 274.59842 275.49092 276.28989 276.99307 277.60161 278.14001 278.63122 279.07623
 279.47646 279.83287 280.14422 280.54100
 399.73800 389.78500 379.66200 368.15100 356.64100 344.35000 331.79200 318.88800
 305.72600 292.49300 279.20900 266.73800 254.69600 244.21100 234.45700 225.43300
 217.56900 210.45100 204.30000 199.30600 195.45800 192.57600 191.02700 190.38600
 190.23900 190.53400 191.16600 191.92500 192.79500 193.76600 194.73200 195.31200
 195.80000 196.05200 196.11500 196.11500 196.03900 195.72300 195.34000 194.98900
 194.75100 194.79200 195.13300 195.59800 196.50600 198.13600 199.85800 201.56600
 204.17900 206.82300 209.89300 213.28400 216.82800 220.60500 224.38700 228.20900
 232.03200 235.82500 239.56000 243.25800 246.84500 250.20100 253.70900 257.46800
 261.53000 264.22100 266.60100 268.68100 270.32900 271.74100 272.83600 273.47400
 273.89800 274.00200 273.75700 273.28800 272.37100 271.10000 269.58900 267.77900
 265.81600 263.72100 261.39300 258.91600 256.29800 253.42300 250.33100 247.11400
 243.83700 240.52900 237.24900 233.99900 230.72800 227.51500 224.25400 220.95200
 217.62700 213.65600 210.12100 206.78900 204.01000 201.99491 199.07309 198.76551
 199.40006 200.48994 201.46112 202.31912 203.45100 204.96110 207.47502 210.85391
 213.70530 217.29629 220.99574 224.72316 228.28753 231.64854 234.68024 237.40893
 239.70644 241.60899 243.46854 245.67368 247.68154 249.52395 251.24767 252.78566
 254.12057 255.26479 256.23740 257.09036 257.82852 258.48160 259.07744 259.61723
 260.10271 260.53504 260.91270 261.39400
 399.73800 389.78500 379.66200 368.15100 356.64100 344.35000 331.79200 318.88800
 305.72600 292.49300 279.20900 266.73800 254.69600 244.21100 234.45700 225.43300
 217.56900 210.45100 204.30000 199.30600 195.45800 192.57600 191.02700 190.38600
 190.23900 190.53400 191.16600 191.92500 192.79500 193.76600 194.73200 195.31200
 195.80000 196.05200 196.11500 196.11500 196.03900 195.72300 195.34000 194.98900
 194.75100 194.79200 195.13300 195.59800 196.50600 198.13600 199.85800 201.56600
 204.17900 206.82300 209.89300 213.28400 216.82800 220.60500 224.38700 228.20900
 232.03200 235.82500 239.56000 243.25800 246.84500 250.20100 253.70900 257.46800
 261.53000 264.22100 266.60100 268.68100 270.32900 271.74100 272.83600 273.47400
 273.89800 274.00200 273.75700 273.28800 272.37100 271.10000 269.58900 267.77900
 265.81600 263.72100 261.39300 258.91600 256.29800 253.42300 250.33100 247.11400
 243.83700 240.52900 237.24900 233.99900 230.72800 227.51500 224.25400 220.95200
 217.62700 213.65600 210.12100 206.78900 204.01000 201.99491 199.07309 198.76551
 199.40006 200.48994 201.46112 202.31912 203.45100 204.96110 207.47502 210.85391
 213.70530 217.29629 220.99574 224.72316 228.28753 231.64854 234.68024 237.40893
 239.70644 241.60899 243.46854 245.67368 247.68154 249.52395 251.24767 252.78566
 254.12057 255.26479 256.23740 257.09036 257.82852 258.48160 259.07744 259.61723
 260.10271 260.53504 260.91270 261.39400
 399.33000 389.90700 379.81300 368.66800 357.52200 345.30100 333.07400 320.22700
 307.21600 293.84800 280.37600 267.29600 254.61000 242.98700 232.15100 221.97700
 212.67200 204.28600 197.66900 192.82100 189.48600 187.45200 186.81400 187.08900
 187.78100 189.05400 190.64800 192.54200 194.63000 196.75200 198.67100 200.15800
 201.53500 202.48700 202.97500 203.34000 203.53900 203.49700 203.38500 203.24700
 203.00500 202.78600 202.60300 202.43700 202.42600 202.88800 203.42000 203.95100
 204.89500 205.99200 207.30100 208.95800 210.73800 213.10000 215.56400 218.18000
 220.96600 223.91800 226.96100 230.09200 233.29300 236.55700 239.95500 243.53700
 246.84500 249.39000 251.54200 253.47400 255.19500 256.48400 257.43100 258.05900
 258.21200 258.04000 257.58200 256.64300 255.23900 253.50700 251.40800 249.05600
 246.57600 243.99400 241.38900 238.83000 236.34400 233.98600 231.96900 230.11800
 228.42300 226.89900 225.54800 224.29700 223.10500 221.96500 220.95800 220.11300
 219.49000 218.92000 218.32500 217.88100 217.42300 216.96366 216.35568 216.80261
 217.73415 218.28582 218.64258 219.10077 220.44626 222.53987 226.38451 230.35736
 233.59734 237.39164 241.29814 245.22796 248.98002 252.51130 255.78595 258.80109
 261.54781 264.05210 266.34239 268.04198 269.58951 271.01303 272.35754 273.55718
 274.59842 275.49092 276.28989 276.99307 277.60161 278.14001 278.63122 279.07623
 279.47646 279.83287 280.14422 280.54100
 381.81900 372.39900 361.20600 349.77600 337.62200 324.85300 311.81000 298.35300
 284.86000 271.32400 258.56100 246.30400 236.08700 226.79600 218.44800 211.29000
 205.52200 200.89400 197.38100 194.84800 193.01500 192.31500 192.25000 192.43100
 192.91200 193.53700 194.13600 194.71200 195.26200 195.83100 196.39300 196.97600
 197.60400 198.14900 198.58400 199.05700 199.69500 200.37800 201.05400 201.70800
 202.31300 202.85700 203.35500 203.86200 204.56900 205.29700 206.02600 206.98700
 208.19300 209.44100 210.96900 212.57600 214.46200 216.51300 218.63000 220.85300
 223.34100 225.96200 228.73900 231.69700 234.70600 237.70600 240.69200 243.65700
 246.73700 249.69900 252.52100 255.06300 257.29000 259.23300 260.63300 261.68000
 262.46100 262.79800 262.69100 262.22400 261.06900 259.52500 257.70700 255.50700
 253.00100 250.30200 247.39800 244.45200 241.65400 239.05400 236.73300 234.59000
 232.59500 230.72500 228.83400 226.82600 224.66600 222.38700 220.10400 217.71500
 215.45900 213.06600 210.54600 208.09300 205.35400 202.08130 196.05959 200.71215
 209.01611 216.90438 223.84126 229.78593 235.00632 240.20838 245.98943 250.68668
 254.32982 257.93487 261.55666 264.96801 268.15192 271.06452 273.76717 276.25691
 278.57680 280.74479 282.77456 284.60533 286.27232 287.81705 289.31715 290.65561
 291.81734 292.81312 293.70701 294.49387 295.17482 295.77730 296.32696 296.82492
 297.27278 297.67160 298.02000 298.46400
 366.78100 356.35354 345.80408 334.68863 323.11017 311.32271 299.21125 287.03279
 274.76334 262.67888 250.70642 240.02596 230.16650 221.28905 213.48959 206.51013
 200.36267 195.31922 191.91976 189.98030 189.03584 189.11838 189.97193 191.29847
 193.04201 195.15555 197.43709 199.81464 202.27818 204.77672 206.88326 208.74380
 210.38835 211.55189 211.79943 212.04597 212.00151 211.72506 211.37660 211.02514
 210.66068 210.38923 210.21577 210.09831 210.04485 210.39439 210.79894 211.20648
 212.01802 213.21456 214.48310 216.28465 218.23119 220.29273 222.40627 224.50781
 226.58636 228.68890 230.80444 232.92898 235.07652 237.26707 239.54161 241.93015
 244.56969 246.83923 248.85978 250.64332 252.07886 253.22040 254.06095 254.39549
 254.45103 254.24357 253.62211 252.58866 251.21320 249.39274 247.32028 245.17182
 242.98137 240.80391 238.64245 236.49999 234.37853 232.26408 230.30862 228.48416
 226.78570 225.27624 223.92479 222.71533 221.61587 220.59441 219.71695 218.87650
 218.13704 217.33558 216.45212 215.83467 215.30321 213.65410 209.78482 209.03081
 210.18044 210.63023 211.94041 215.48738 219.83749 224.62907 230.41524 235.42694
 239.27965 243.32820 247.66689 251.92525 255.50227 258.45602 261.09872 263.75833
 266.59686 269.27722 271.88223 274.50195 276.56424 278.12872 279.45258 281.02280
 283.08221 284.86127 286.40533 287.76190 288.93732 289.97702 290.92145 291.77948
 292.54816 293.23132 293.82385 294.55951
 366.78100 356.35392 345.80484 334.68977 323.11169 311.32461 299.21353 287.03546
 274.76638 262.68230 250.71022 240.03015 230.17107 221.29399 213.49491 206.51584
 200.36876 195.32568 191.92660 189.98753 189.04345 189.12637 189.98029 191.30722
 193.05114 195.16506 197.44698 199.82491 202.28883 204.78775 206.89467 208.75560
 210.40052 211.56444 211.81236 212.05929 212.01521 211.73913 211.39105 211.03998
 210.67590 210.40482 210.23174 210.11467 210.06159 210.41151 210.81643 211.22436
 212.03628 213.23320 214.50212 216.30405 218.25097 220.31289 222.42681 224.52874
 226.60766 228.71058 230.82650 232.95143 235.09935 237.29027 239.56519 241.95412
 244.59404 246.86396 248.88488 250.66881 252.10473 253.24665 254.08757 254.42250
 254.47842 254.27134 253.65026 252.61719 251.24211 249.42203 247.34995 245.20188
 243.01180 240.83472 238.67364 236.53157 234.41049 232.29641 230.34133 228.51726
 226.81918 225.31010 223.95902 222.74995 221.65087 220.62979 219.75271 218.91264
 218.17356 217.37248 216.48940 215.87233 215.34125 213.69513 209.83156 209.08084
 210.19785 210.68752 211.96205 215.42938 219.78503 224.57416 230.34245 235.34413
 239.19589 243.24573 247.59003 251.85907 255.46021 258.45087 261.10510 263.73984
 266.56299 269.23727 271.83701 274.43921 276.47180 278.02045 279.37485 280.98785
 283.06650 284.84811 286.39374 287.75174 288.92456 289.96487 290.91025 291.76675
 292.53485 293.21753 293.80960 294.54440
 366.78100 356.35443 345.80586 334.69129 323.11372 311.32715 299.21658 287.03901
 274.77044 262.68687 250.71530 240.03573 230.17716 221.30059 213.50202 206.52345
 200.37688 195.33431 191.93574 189.99717 189.05360 189.13703 189.99146 191.31889
 193.06332 195.17775 197.46018 199.83861 202.30304 204.80247 206.90989 208.77132
 210.41675 211.58118 211.82961 212.07704 212.03347 211.75790 211.41033 211.05976
 210.69619 210.42562 210.25305 210.13648 210.08391 210.43434 210.83977 211.24820
 212.06063 213.25806 214.52749 216.32992 218.27735 220.33978 222.45421 224.55664
 226.63607 228.73950 230.85593 232.98136 235.12979 237.32122 239.59665 241.98608
 244.62651 246.89694 248.91837 250.70280 252.13923 253.28166 254.12309 254.45852
 254.51495 254.30838 253.68781 252.65524 251.28067 249.46110 247.38953 245.24196
 243.05239 240.87582 238.71525 236.57368 234.45311 232.33954 230.38497 228.56140
 226.86383 225.35525 224.00468 222.79611 221.69754 220.67697 219.80040 218.96083
 218.22226 217.42169 216.53912 215.92255 215.39198 213.74104 209.86517 209.14175
 210.21829 210.73944 211.97588 215.37915 219.73972 224.52139 230.25912 235.26208
 239.11815 243.17224 247.51781 251.79399 255.41589 258.44193 261.10910 263.72061
 266.52753 269.19421 271.78891 274.37149 276.37564 277.91107 279.29877 280.95810
 283.04440 284.82889 286.37607 287.73407 288.90796 289.94757 290.89240 291.74829
 292.51547 293.19690 293.78915 294.52231
 366.78100 356.35476 345.80652 334.69227 323.11503 311.32879 299.21855 287.04131
 274.77306 262.68982 250.71858 240.03934 230.18109 221.30485 213.50661 206.52837
 200.38213 195.33988 191.94164 190.00340 189.06016 189.14392 189.99867 191.32643
 193.07119 195.18595 197.46871 199.84746 202.31222 204.81198 206.91974 208.78149
 210.42725 211.59201 211.84077 212.08853 212.04528 211.77004 211.42280 211.07256
 210.70932 210.43907 210.26683 210.15059 210.09835 210.44911 210.85486 211.26362
 212.07638 213.27414 214.54389 216.34665 218.29441 220.35717 222.47193 224.57468
 226.65444 228.75820 230.87496 233.00072 235.14947 237.34123 239.61699 242.00675
 244.64751 246.91826 248.94002 250.72478 252.16154 253.30429 254.14605 254.48181
 254.53857 254.33233 253.71208 252.67984 251.30560 249.48636 247.41512 245.26787
 243.07863 240.90239 238.74215 236.60091 234.48066 232.36742 230.41318 228.58994
 226.89269 225.38445 224.03421 222.82597 221.72773 220.70748 219.83124 218.99200
 218.25376 217.45352 216.57127 215.95503 215.42479 213.77664 209.90627 209.20280
 210.23923 210.78493 211.99159 215.33890 219.68695 224.46266 230.18062 235.18492
 239.04416 243.10188 247.44650 251.72868 255.36986 258.43167 261.11395 263.70197
 266.49173 269.14899 271.73660 274.29886 276.27661 277.80145 279.22250 280.92624
 283.01587 284.80441 286.35074 287.70972 288.88416 289.92319 290.86670 291.72333
 292.49017 293.17139 293.76157 294.49210
 366.78100 356.35491 345.80682 334.69274 323.11565 311.32956 299.21947 287.04238
 274.77429 262.69121 250.72012 240.04103 230.18294 221.30685 213.50877 206.53068
 200.38459 195.34250 191.94441 190.00633 189.06324 189.14715 190.00206 191.32997
 193.07488 195.18980 197.47271 199.85162 202.31653 204.81644 206.92436 208.78627
 210.43218 211.59709 211.84600 212.09391 212.05083 211.77574 211.42865 211.07856
 210.71547 210.44539 210.27330 210.15721 210.10512 210.45603 210.86195 211.27086
 212.08377 213.28168 214.55159 216.35450 218.30242 220.36533 222.48024 224.58315
 226.66306 228.76698 230.88389 233.00980 235.15871 237.35062 239.62654 242.01645
 244.65736 246.92827 248.95018 250.73509 252.17201 253.31492 254.15683 254.49274
 254.54965 254.34357 253.72348 252.69139 251.31730 249.49821 247.42712 245.28004
 243.09095 240.91486 238.75477 236.61368 234.49360 232.38051 230.42642 228.60333
 226.90624 225.39816 224.04807 222.83998 221.74189 220.72180 219.84571 219.00663
 218.26854 217.46845 216.58636 215.97027 215.44019 213.80232 209.95497 209.26486
 210.26129 210.82166 212.00803 215.30661 219.63177 224.40117 230.10808 235.11229
 238.97238 243.03215 247.37556 251.66357 255.32484 258.42242 261.11932 263.68460
 266.45441 269.10071 271.67841 274.22095 276.17484 277.69431 279.14719 280.89194
 282.98264 284.77182 286.31924 287.67770 288.85178 289.88965 290.83426 291.68872
 292.45413 293.13385 293.72247 294.44949
 366.78100 356.35489 345.80677 334.69266 323.11554 311.32943 299.21931 287.04220
 274.77408 262.69097 250.71985 240.04074 230.18262 221.30651 213.50839 206.53028
 200.38416 195.34205 191.94394 190.00582 189.06271 189.14659 190.00148 191.32936
 193.07425 195.18913 197.47202 199.85090 202.31579 204.81567 206.92356 208.78544
 210.43133 211.59622 211.84510 212.09299 212.04987 211.77476 211.42764 211.07753
 210.71441 210.44430 210.27218 210.15607 210.10395 210.45484 210.86072 211.26961
 212.08249 213.28038 214.55027 216.35315 218.30104 220.36392 222.47881 224.58169
 226.66158 228.76546 230.88235 233.00823 235.15712 237.34900 239.62489 242.01477
 244.65566 246.92654 248.94843 250.73332 252.17020 253.31309 254.15497 254.49086
 254.54774 254.34163 253.72151 252.68940 251.31528 249.49617 247.42505 245.27794
 243.08882 240.91271 238.75260 236.61148 234.49137 232.37825 230.42414 228.60102
 226.90391 225.39579 224.04568 222.83756 221.73945 220.71933 219.84322 219.00410
 218.26599 217.46587 216.58376 215.96765 215.43753 213.81767 210.01134 209.32698
 210.28688 210.84839 212.02228 215.28459 219.57288 224.33664 230.04004 235.04282
 238.90219 242.96364 247.30658 251.59998 255.28186 258.41412 261.12579 263.66833
 266.41690 269.04965 271.61429 274.13690 276.07050 277.58585 279.07083 280.85062
 282.94260 284.73257 286.28043 287.63803 288.81143 289.84869 290.79230 291.64676
 292.41122 293.08963 293.67673 294.39972
 366.78100 356.35480 345.80660 334.69240 323.11519 311.32899 299.21879 287.04159
 274.77339 262.69019 250.71898 240.03978 230.18158 221.30538 213.50718 206.52898
 200.38278 195.34057 191.94237 190.00417 189.06097 189.14477 189.99957 191.32737
 193.07216 195.18696 197.46976 199.84856 202.31336 204.81316 206.92095 208.78275
 210.42855 211.59335 211.84215 212.08995 212.04675 211.77154 211.42434 211.07414
 210.71094 210.44074 210.26854 210.15233 210.10013 210.45093 210.85673 211.26553
 212.07833 213.27613 214.54592 216.34872 218.29652 220.35932 222.47412 224.57692
 226.65672 228.76051 230.87731 233.00311 235.15191 237.34371 239.61951 242.00930
 244.65010 246.92090 248.94270 250.72750 252.16430 253.30710 254.14889 254.48469
 254.54149 254.33529 253.71509 252.68289 251.30868 249.48948 247.41828 245.27108
 243.08188 240.90568 238.74548 236.60427 234.48407 232.37087 230.41667 228.59347
 226.89627 225.38806 224.03786 222.82966 221.73146 220.71126 219.83506 218.99586
 218.25765 217.45745 216.57525 215.95905 215.42885 213.82846 210.06671 209.39618
 210.31723 210.86472 212.03619 215.26776 219.51041 224.26624 229.97200 234.97383
 238.83363 242.89680 247.23958 251.53813 255.23953 258.40704 261.13522 263.65646
 266.38293 268.99857 271.54706 274.04749 275.96255 277.47760 278.99307 280.80402
 282.89603 284.68454 286.23148 287.58817 288.75952 289.79605 290.73767 291.58688
 292.34735 293.02142 293.60461 294.31458
 366.78100 356.35472 345.80644 334.69216 323.11488 311.32860 299.21833 287.04105
 274.77277 262.68949 250.71821 240.03893 230.18065 221.30437 213.50609 206.52781
 200.38154 195.33926 191.94098 190.00270 189.05942 189.14314 189.99786 191.32558
 193.07030 195.18502 197.46775 199.84647 202.31119 204.81091 206.91863 208.78035
 210.42607 211.59079 211.83951 212.08723 212.04395 211.76868 211.42140 211.07112
 210.70784 210.43756 210.26528 210.14900 210.09672 210.44744 210.85316 211.26189
 212.07461 213.27233 214.54205 216.34477 218.29249 220.35521 222.46993 224.57265
 226.65237 228.75610 230.87282 232.99854 235.14726 237.33898 239.61470 242.00442
 244.64514 246.91586 248.93758 250.72230 252.15903 253.30175 254.14347 254.47919
 254.53591 254.32963 253.70935 252.67707 251.30279 249.48351 247.41224 245.26496
 243.07568 240.89940 238.73912 236.59784 234.47756 232.36428 230.41000 228.58672
 226.88945 225.38117 224.03089 222.82261 221.72433 220.70405 219.82777 218.98849
 218.25021 217.44993 216.56765 215.95138 215.42110 213.83853 210.11768 209.47023
 210.36024 210.87619 212.04463 215.25148 219.44185 224.18994 229.90341 234.90594
 238.76674 242.83321 247.17598 251.47812 255.19814 258.40106 261.14789 263.65088
 266.35291 268.94720 271.47528 273.95343 275.85568 277.37372 278.91324 280.74677
 282.83652 284.62283 286.16797 287.52319 288.69427 289.72809 290.66953 291.51761
 292.27365 292.94592 293.52658 294.22543
 366.78100 356.35481 345.80662 334.69243 323.11524 311.32905 299.21886 287.04167
 274.77348 262.69029 250.71910 240.03991 230.18172 221.30553 213.50734 206.52915
 200.38296 195.34077 191.94258 190.00439 189.06120 189.14501 189.99982 191.32762
 193.07243 195.18724 197.47005 199.84886 202.31367 204.81348 206.92129 208.78310
 210.42891 211.59372 211.84253 212.09034 212.04715 211.77196 211.42477 211.07458
 210.71139 210.44120 210.26901 210.15282 210.10063 210.45144 210.85725 211.26606
 212.07887 213.27668 214.54649 216.34930 218.29711 220.35992 222.47473 224.57754
 226.65735 228.76116 230.87797 233.00378 235.15259 237.34440 239.62021 242.01002
 244.65083 246.92164 248.94345 250.72825 252.16506 253.30787 254.14968 254.48549
 254.54230 254.33611 253.71592 252.68373 251.30954 249.49035 247.41916 245.27197
 243.08278 240.90659 238.74640 236.60521 234.48502 232.37183 230.41764 228.59445
 226.89726 225.38907 224.03888 222.83069 221.73250 220.71231 219.83612 218.99693
 218.25874 217.45855 216.57636 215.96017 215.42998 213.85559 210.15324 209.55850
 210.41170 210.88300 212.04945 215.22659 219.36754 224.11292 229.83723 234.84103
 238.70424 242.77573 247.11719 251.42062 255.15698 258.39325 261.16074 263.64682
 266.32434 268.89484 271.39749 273.85336 275.74997 277.28021 278.84280 280.69351
 282.76770 284.55365 286.09760 287.45181 288.62231 289.65311 290.58786 291.43143
 292.18726 292.84784 293.41016 294.06287
 366.78100 356.35453 345.80606 334.69159 323.11412 311.32765 299.21718 287.03971
 274.77124 262.68777 250.71630 240.03683 230.17836 221.30189 213.50342 206.52495
 200.37848 195.33601 191.93754 189.99907 189.05560 189.13913 189.99367 191.32120
 193.06573 195.18026 197.46279 199.84132 202.30585 204.80538 206.91291 208.77444
 210.41997 211.58450 211.83303 212.08056 212.03709 211.76162 211.41415 211.06368
 210.70021 210.42974 210.25727 210.14080 210.08833 210.43886 210.84439 211.25292
 212.06545 213.26298 214.53251 216.33504 218.28257 220.34510 222.45963 224.56216
 226.64169 228.74522 230.86175 232.98728 235.13581 237.32734 239.60287 241.99240
 244.63293 246.90347 248.92500 250.70953 252.14606 253.28859 254.13012 254.46565
 254.52218 254.31571 253.69524 252.66277 251.28830 249.46883 247.39736 245.24989
 243.06042 240.88395 238.72348 236.58201 234.46154 232.34807 230.39360 228.57013
 226.87266 225.36419 224.01372 222.80525 221.70678 220.68631 219.80984 218.97037
 218.23190 217.43143 216.54896 215.93249 215.40202 213.85318 210.20987 209.62764
 210.48819 210.89391 212.02516 215.21150 219.29224 224.02864 229.77068 234.77571
 238.64330 242.72183 247.06224 251.36469 255.11588 258.38519 261.17566 263.64639
 266.29773 268.84024 271.31393 273.74597 275.64343 277.18832 278.77209 280.64075
 282.68063 284.46701 286.01181 287.36606 288.53641 289.56451 290.49631 291.33954
 292.09570 292.76236 293.31271 293.89786
 366.78100 356.35532 345.80763 334.69395 323.11726 311.33158 299.22189 287.04521
 274.77753 262.69484 250.72416 240.04547 230.18779 221.31210 213.51442 206.53674
 200.39105 195.34937 191.95168 190.01400 189.07132 189.15563 190.01095 191.33926
 193.08458 195.19989 197.48321 199.86253 202.32784 204.82816 206.93647 208.79879
 210.44510 211.61042 211.85974 212.10805 212.06537 211.79068 211.44400 211.09431
 210.73163 210.46195 210.29026 210.17458 210.12289 210.47421 210.88052 211.28984
 212.10316 213.30147 214.57179 216.37510 218.32342 220.38674 222.50205 224.60537
 226.68568 228.79000 230.90731 233.03363 235.18295 237.37526 239.65158 242.04189
 244.68321 246.95452 248.97684 250.76216 252.19947 253.34279 254.18510 254.52142
 254.57873 254.37305 253.75337 252.72168 251.34800 249.52931 247.45863 245.31194
 243.12326 240.94758 238.78789 236.64721 234.52752 232.41484 230.46115 228.63847
 226.94179 225.43410 224.08442 222.87673 221.77905 220.75937 219.88368 219.04500
 218.30731 217.50763 216.62594 216.01026 215.48058 213.90247 210.19022 209.75362
 210.58583 210.88057 212.02585 215.16022 219.17992 223.94174 229.70497 234.71561
 238.59048 242.67841 247.01553 251.31544 255.07822 258.37784 261.19003 263.64526
 266.26834 268.78024 271.22025 273.62891 275.53113 277.09500 278.69565 280.57382
 282.58887 284.37555 285.91870 287.27176 288.43951 289.46445 290.39722 291.24240
 291.99936 292.66586 293.18826 293.65320
 366.78100 356.35666 345.81032 334.69798 323.12264 311.33830 299.22996 287.05462
 274.78827 262.70693 250.73759 240.06025 230.20391 221.32957 213.53323 206.55689
 200.41255 195.37221 191.97587 190.03953 189.09819 189.18385 190.04050 191.37016
 193.11682 195.23348 197.51814 199.89880 202.36546 204.86712 206.97678 208.84044
 210.48810 211.65476 211.90542 212.15508 212.11373 211.84039 211.49505 211.14671
 210.78537 210.51703 210.34669 210.23235 210.18201 210.53467 210.94233 211.35299
 212.16765 213.36731 214.63896 216.44362 218.39328 220.45794 222.57460 224.67926
 226.76092 228.86658 230.98524 233.11290 235.26356 237.45722 239.73488 242.12654
 244.76919 247.04185 249.06551 250.85217 252.29083 253.43549 254.27915 254.61681
 254.67547 254.47113 253.85279 252.82245 251.45011 249.63277 247.56342 245.41808
 243.23074 241.05640 238.89806 236.75872 234.64038 232.52904 230.57670 228.75536
 227.06002 225.55368 224.20534 222.99900 221.90265 220.88431 220.00997 219.17263
 218.43629 217.63795 216.75761 216.14327 215.61493 213.98596 210.15311 209.78757
 210.86697 210.88971 211.83038 215.09402 219.11574 223.86954 229.66278 234.67798
 238.55455 242.64984 246.97781 251.26933 255.03828 258.36276 261.19388 263.63367
 266.23077 268.70911 271.11526 273.50012 275.40698 276.99350 278.60953 280.49344
 282.49600 284.27676 285.81729 287.16879 288.33459 289.35504 290.28873 291.13754
 291.90274 292.57751 292.91605 293.26273
 366.78100 356.35602 345.80904 334.69607 323.12009 311.33511 299.22613 287.05016
 274.78318 262.70120 250.73122 240.05325 230.19627 221.32129 213.52431 206.54734
 200.40236 195.36138 191.96440 190.02743 189.08545 189.17047 190.02649 191.35551
 193.10154 195.21756 197.50158 199.88160 202.34763 204.84865 206.95767 208.82069
 210.46772 211.63374 211.88376 212.13278 212.09081 211.81683 211.47085 211.12187
 210.75990 210.49092 210.31994 210.20496 210.15399 210.50601 210.91303 211.32305
 212.13707 213.33610 214.60712 216.41114 218.36016 220.42419 222.54021 224.64423
 226.72525 228.83028 230.94830 233.07532 235.22534 237.41837 239.69539 242.08641
 244.72843 247.00046 249.02348 250.80950 252.24752 253.39154 254.23457 254.57159
 254.62961 254.42463 253.80566 252.77468 251.40170 249.58372 247.51375 245.36777
 243.17979 241.00481 238.84584 236.70586 234.58688 232.47490 230.52193 228.69995
 227.00397 225.49699 224.14802 222.94104 221.84406 220.82508 219.95010 219.11213
 218.37515 217.57617 216.69519 216.08022 215.55124 213.97656 210.26855 209.71230
 210.93079 211.02499 211.81361 215.01201 219.06567 223.85046 229.62833 234.64429
 238.52061 242.62210 246.94130 251.22418 254.99953 258.34891 261.20020 263.62329
 266.18970 268.63312 271.00690 273.36649 275.28143 276.89053 278.51813 280.40335
 282.39822 284.17151 285.71005 287.06009 288.22156 289.23019 290.16464 291.01608
 291.78711 292.43930 292.63931 292.91458
 366.78100 356.35511 345.80723 334.69334 323.11645 311.33056 299.22068 287.04379
 274.77590 262.69301 250.72213 240.04324 230.18535 221.30946 213.51158 206.53369
 200.38780 195.34592 191.94803 190.01014 189.06725 189.15137 190.00648 191.33459
 193.07970 195.19482 197.47793 199.85704 202.32215 204.82227 206.93038 208.79249
 210.43861 211.60372 211.85283 212.10094 212.05806 211.78317 211.43628 211.08639
 210.72351 210.45362 210.28173 210.16584 210.11396 210.46507 210.87118 211.28030
 212.09341 213.29152 214.56163 216.36475 218.31286 220.37597 222.49108 224.59420
 226.67431 228.77842 230.89553 233.02165 235.17076 237.36287 239.63898 242.02910
 244.67021 246.94132 248.96344 250.74855 252.18566 253.32877 254.17089 254.50700
 254.56411 254.35822 253.73834 252.70645 251.33256 249.51367 247.44279 245.29590
 243.10701 240.93113 238.77124 236.63035 234.51046 232.39758 230.44369 228.62080
 226.92391 225.41603 224.06614 222.85825 221.76036 220.74048 219.86459 219.02570
 218.28782 217.48793 216.60604 215.99015 215.46027 213.95247 210.40150 209.68289
 210.88866 211.11214 211.87260 214.98474 219.00887 223.81204 229.57983 234.60233
 238.48227 242.59483 246.90637 251.18341 254.97055 258.34918 261.22998 263.64447
 266.17172 268.58276 270.89630 273.22839 275.15350 276.77350 278.40735 280.30936
 282.30051 284.05927 285.59399 286.94287 288.09183 289.08176 290.01526 290.87036
 291.64340 292.22769 292.39752 292.55630
 366.78100 356.35469 345.80637 334.69206 323.11474 311.32843 299.21812 287.04080
 274.77249 262.68917 250.71786 240.03855 230.18023 221.30392 213.50560 206.52729
 200.38098 195.33866 191.94035 190.00203 189.05872 189.14241 189.99709 191.32478
 193.06946 195.18415 197.46684 199.84552 202.31021 204.80989 206.91758 208.77927
 210.42495 211.58964 211.83832 212.08601 212.04270 211.76738 211.42007 211.06975
 210.70644 210.43613 210.26381 210.14750 210.09519 210.44587 210.85156 211.26024
 212.07293 213.27062 214.54030 216.34299 218.29067 220.35336 222.46805 224.57073
 226.65042 228.75410 230.87079 232.99648 235.14516 237.33685 239.61253 242.00222
 244.64291 246.91359 248.93528 250.71996 252.15665 253.29934 254.14102 254.47671
 254.53339 254.32708 253.70677 252.67445 251.30014 249.48082 247.40951 245.26220
 243.07288 240.89657 238.73625 236.59494 234.47463 232.36131 230.40700 228.58368
 226.88637 225.37806 224.02774 222.81943 221.72111 220.70080 219.82449 218.98517
 218.24686 217.44654 216.56423 215.94792 215.41760 213.95210 210.51015 209.72087
 210.82379 211.11446 211.98193 214.98517 218.92468 223.74734 229.52596 234.55876
 238.43816 242.56874 246.87253 251.13396 254.94308 258.35126 261.26126 263.69250
 266.16199 268.52725 270.83356 273.09201 275.02328 276.66919 278.30627 280.18500
 282.16830 283.93723 285.47278 286.80991 287.94244 288.93240 289.85852 290.71942
 291.41000 291.74634 291.85419 291.95856
 366.78100 356.35339 345.80378 334.68817 323.10955 311.32194 299.21033 287.03172
 274.76211 262.67750 250.70488 240.02427 230.16466 221.28705 213.48744 206.50783
 200.36021 195.31660 191.91699 189.97738 189.03277 189.11516 189.96855 191.29493
 193.03832 195.15171 197.43310 199.81049 202.27388 204.77226 206.87865 208.73904
 210.38343 211.54682 211.79421 212.04059 211.99598 211.71937 211.37076 211.01915
 210.65454 210.38293 210.20931 210.09170 210.03809 210.38748 210.79187 211.19926
 212.01064 213.20703 214.47542 216.27681 218.22320 220.28459 222.39797 224.49936
 226.57775 228.68014 230.79553 232.91992 235.06731 237.25769 239.53208 241.92047
 244.55986 246.82925 248.84964 250.63302 252.06841 253.20980 254.05019 254.38458
 254.43997 254.23235 253.61074 252.57713 251.20152 249.38091 247.30830 245.15969
 242.96907 240.79146 238.62985 236.48724 234.36563 232.25102 230.29540 228.47079
 226.77218 225.26257 223.91096 222.70135 221.60173 220.58012 219.70251 218.86190
 218.12229 217.32068 216.43706 215.81945 215.28784 213.90565 210.68274 209.83275
 210.74080 211.03957 212.05357 214.94682 218.82495 223.65187 229.46135 234.50320
 238.37753 242.53398 246.83736 251.06943 254.91103 258.35403 261.29675 263.79297
 266.20840 268.52713 270.77289 272.95816 274.86401 276.53342 278.21646 280.09766
 282.02640 283.79388 285.32593 286.66470 287.78534 288.78714 289.72659 290.48349
 290.80841 290.69824 290.60202 290.47937
 366.78100 356.34840 345.79380 334.67320 323.08960 311.29700 299.18040 286.99680
 274.72220 262.63260 250.65500 239.96940 230.10480 221.22220 213.41760 206.43300
 200.28040 195.23180 191.82719 189.88259 188.93299 189.01039 189.85879 191.18019
 192.91859 195.02699 197.30339 199.67579 202.13419 204.62759 206.72899 208.58439
 210.22379 211.38219 211.62459 211.86599 211.81639 211.53479 211.18119 210.82459
 210.45499 210.17839 209.99979 209.87719 209.81859 210.16299 210.56239 210.96479
 211.77119 212.96259 214.22599 216.02239 217.96378 220.02018 222.12858 224.22498
 226.29838 228.39578 230.50618 232.62558 234.76798 236.95338 239.22278 241.60618
 244.24058 246.50498 248.52038 250.29878 251.72918 252.86558 253.70098 254.03038
 254.08078 253.86818 253.24158 252.20298 250.82238 248.99678 246.91918 244.76558
 242.56998 240.38738 238.22078 236.07318 233.94658 231.82698 229.86638 228.03677
 226.33317 224.81857 223.46197 222.24737 221.14277 220.11617 219.23357 218.38797
 217.64337 216.83677 215.94817 215.32557 214.78897 213.66090 211.05046 210.06482
 210.53568 210.74319 211.93172 214.79446 218.70055 223.52017 229.38701 234.42111
 238.29475 242.48055 246.80545 251.01509 254.90250 258.39621 261.35379 263.92407
 266.20334 268.49237 270.85382 273.02570 274.86151 276.47452 278.11456 279.97256
 281.87332 283.61060 284.98441 286.21835 287.28607 288.06485 288.88242 289.70596
 290.44666 291.10623 291.68243 292.41672
 366.78100 356.34359 345.78418 334.65878 323.07037 311.27296 299.15155 286.96315
 274.68374 262.58933 250.60692 239.91652 230.04711 221.15970 213.35029 206.36088
 200.20348 195.15007 191.74066 189.79125 188.83685 188.90944 189.75303 191.06962
 192.80321 194.90681 197.17840 199.54599 201.99958 204.48818 206.58477 208.43536
 210.06995 211.22355 211.46114 211.69773 211.64332 211.35691 210.99851 210.63710
 210.26269 209.98128 209.79788 209.67047 209.60706 209.94665 210.34124 210.73884
 211.54043 212.72702 213.98561 215.77721 217.71380 219.76539 221.86898 223.96058
 226.02917 228.12176 230.22735 232.34194 234.47954 236.66013 238.92472 241.30331
 243.93291 246.19250 248.20309 249.97668 251.40227 252.53387 253.36446 253.68905
 253.73464 253.51724 252.88583 251.84242 250.45701 248.62661 246.54420 244.38579
 242.18538 239.99797 237.82657 235.67416 233.54275 231.41834 229.45294 227.61853
 225.91012 224.39071 223.02930 221.80990 220.70049 219.66908 218.78167 217.93127
 217.18186 216.37045 215.47704 214.84964 214.30823 213.43153 211.36972 210.30499
 210.49873 210.74533 212.08157 214.83372 218.68063 223.44522 229.39127 234.38394
 238.28822 242.48872 246.81541 251.02649 254.95312 258.48621 261.51263 264.09604
 266.37341 268.62460 270.87115 273.00433 274.84747 276.49823 278.13431 279.87823
 281.60251 283.02972 284.45428 285.92786 287.21002 288.34442 289.37939 290.31699
 291.16028 291.91122 292.56723 293.40323
 366.78100 356.34373 345.78447 334.65920 323.07094 311.27367 299.15241 286.96414
 274.68488 262.59061 250.60835 239.91808 230.04882 221.16155 213.35228 206.36302
 200.20575 195.15249 191.74322 189.79396 188.83969 188.91243 189.75616 191.07290
 192.80663 194.91037 197.18210 199.54984 202.00357 204.49230 206.58904 208.43977
 210.07451 211.22824 211.46598 211.70271 211.64845 211.36218 211.00392 210.64265
 210.26839 209.98712 209.80385 209.67659 209.61332 209.95306 210.34779 210.74553
 211.54726 212.73400 213.99273 215.78447 217.72120 219.77294 221.87667 223.96841
 226.03714 228.12987 230.23561 232.35034 234.48808 236.66881 238.93355 241.31228
 243.94202 246.20175 248.21249 249.98622 251.41196 252.54369 253.37442 253.69916
 253.74489 253.52763 252.89636 251.85310 250.46783 248.63757 246.55530 244.39704
 242.19677 240.00951 237.83824 235.68598 233.55471 231.43044 229.46518 227.63091
 225.92265 224.40338 223.04212 221.82285 220.71359 219.68232 218.79506 217.94479
 217.19553 216.38426 215.49099 214.86373 214.32246 213.47675 211.42143 210.33595
 210.52521 210.84367 212.17958 214.97330 218.68614 223.35925 229.36543 234.39177
 238.29938 242.52185 246.85489 251.10278 255.10295 258.70596 261.75845 264.32559
 266.63882 268.88956 271.11746 273.11859 274.92123 276.44348 277.98468 279.69162
 281.55920 283.80988 285.75748 287.46759 288.94754 290.25696 291.45157 292.53381
 293.50717 294.37396 295.13113 296.09610
 366.78100 356.34877 345.79453 334.67430 323.09106 311.29883 299.18259 286.99936
 274.72512 262.63589 250.65866 239.97342 230.10919 221.22695 213.42272 206.43848
 200.28625 195.23802 191.83378 189.88955 188.94031 189.01808 189.86684 191.18861
 192.92737 195.03614 197.31291 199.68567 202.14444 204.63820 206.73997 208.59573
 210.23550 211.39427 211.63703 211.87880 211.82956 211.54833 211.19509 210.83886
 210.46962 210.19339 210.01516 209.89292 209.83469 210.17945 210.57922 210.98198
 211.78875 212.98052 214.24428 216.04105 217.98281 220.03958 222.14834 224.24511
 226.31887 228.41664 230.52741 232.64717 234.78994 236.97570 239.24547 241.62923
 244.26400 246.52876 248.54453 250.32330 251.75406 252.89083 253.72659 254.05636
 254.10712 253.89489 253.26866 252.23042 250.85019 249.02495 246.94772 244.79448
 242.59925 240.41701 238.25078 236.10355 233.97731 231.85808 229.89784 228.06861
 226.36537 224.85114 223.49491 222.28067 221.17644 220.15020 219.26797 218.42273
 217.67850 216.87226 215.98403 215.36180 214.82556 213.73921 211.24100 210.34258
 210.78114 211.16269 212.25079 214.86993 218.58888 223.30670 229.21628 234.22719
 238.13612 242.37903 246.72849 250.97205 254.94379 258.51981 261.58780 264.29663
 266.82251 269.21640 271.51913 273.67731 275.57184 277.07245 278.33154 279.74365
 281.95596 284.36072 286.44162 288.26880 289.85007 291.24908 292.52548 293.68182
 294.72180 295.64792 296.45694 297.48798
 366.78100 356.35504 345.80708 334.69313 323.11617 311.33021 299.22025 287.04330
 274.77534 262.69238 250.72142 240.04247 230.18451 221.30855 213.51059 206.53263
 200.38668 195.34472 191.94676 190.00880 189.06585 189.14989 190.00493 191.33297
 193.07802 195.19306 197.47610 199.85514 202.32018 204.82023 206.92827 208.79031
 210.43635 211.60140 211.85044 212.09848 212.05552 211.78057 211.43361 211.08365
 210.72069 210.45074 210.27878 210.16282 210.11086 210.46190 210.86795 211.27699
 212.09003 213.28807 214.55812 216.36116 218.30920 220.37224 222.48729 224.59033
 226.67037 228.77441 230.89145 233.01750 235.16654 237.35858 239.63462 242.02467
 244.66571 246.93675 248.95879 250.74384 252.18088 253.32392 254.16596 254.50200
 254.55905 254.35309 253.73313 252.70117 251.32722 249.50826 247.43730 245.29034
 243.10139 240.92543 238.76547 236.62451 234.50455 232.39160 230.43764 228.61468
 226.91772 225.40977 224.05981 222.85185 221.75389 220.73394 219.85798 219.01902
 218.28106 217.48110 216.59915 215.98319 215.45323 214.07108 210.96242 210.16225
 211.00829 211.57352 212.67619 215.01427 218.56961 223.27988 229.02972 234.04005
 237.92413 242.10860 246.36325 250.48642 254.31541 257.79034 260.87946 263.69528
 266.39990 268.97867 271.41098 273.70142 275.76041 277.56491 279.12573 280.54123
 281.95779 283.65121 285.30130 287.00208 288.50446 289.83371 291.04645 292.14508
 293.13321 294.01312 294.78180 295.76141
 366.78100 356.35684 345.81068 334.69851 323.12335 311.33919 299.23103 287.05587
 274.78970 262.70854 250.73938 240.06222 230.20606 221.33189 213.53573 206.55957
 200.41541 195.37525 191.97908 190.04292 189.10176 189.18760 190.04444 191.37427
 193.12111 195.23795 197.52279 199.90363 202.37046 204.87230 206.98214 208.84598
 210.49382 211.66065 211.91149 212.16133 212.12017 211.84700 211.50184 211.15368
 210.79252 210.52436 210.35419 210.24003 210.18987 210.54271 210.95055 211.36138
 212.17622 213.37606 214.64790 216.45274 218.40257 220.46741 222.58425 224.68909
 226.77093 228.87676 230.99560 233.12344 235.27428 237.46812 239.74595 242.13779
 244.78063 247.05347 249.07731 250.86414 252.30298 253.44782 254.29166 254.62950
 254.68833 254.48417 253.86601 252.83585 251.46369 249.64652 247.57736 245.43220
 243.24504 241.07088 238.91271 236.77355 234.65539 232.54423 230.59207 228.77090
 227.07574 225.56958 224.22142 223.01526 221.91909 220.90093 220.02677 219.18961
 218.45345 217.65528 216.77512 216.16096 215.63280 214.20128 210.93944 210.02554
 210.91159 211.64360 212.84756 215.17183 218.62476 223.23828 228.96725 233.97992
 237.86411 242.04587 246.28896 250.39333 254.19086 257.60489 260.59235 263.31189
 265.97357 268.48630 270.92557 273.23898 275.34464 277.21249 278.90268 280.48071
 281.98917 283.53796 285.07184 286.46951 287.71536 288.89151 289.96460 290.93671
 291.81104 292.58963 293.26978 294.13657
 366.78100 356.35496 345.80692 334.69287 323.11583 311.32979 299.21975 287.04271
 274.77466 262.69162 250.72058 240.04154 230.18350 221.30746 213.50941 206.53137
 200.38533 195.34329 191.94525 190.00720 189.06416 189.14812 190.00308 191.33104
 193.07599 195.19095 197.47391 199.85287 202.31783 204.81778 206.92574 208.78770
 210.43366 211.59862 211.84758 212.09553 212.05249 211.77745 211.43041 211.08037
 210.71732 210.44728 210.27524 210.15920 210.10716 210.45811 210.86407 211.27303
 212.08599 213.28395 214.55390 216.35686 218.30482 220.36778 222.48274 224.58569
 226.66565 228.76961 230.88657 233.01253 235.16149 237.35344 239.62940 242.01936
 244.66032 246.93128 248.95323 250.73819 252.17515 253.31811 254.16007 254.49602
 254.55298 254.34694 253.72690 252.69486 251.32081 249.50177 247.43073 245.28369
 243.09465 240.91861 238.75856 236.61752 234.49748 232.38444 230.43040 228.60735
 226.91031 225.40227 224.05223 222.84419 221.74614 220.72610 219.85006 219.01102
 218.27298 217.47293 216.59089 215.97485 215.44481 214.13519 211.14653 210.14406
 210.77933 211.54538 212.79553 215.13846 218.60115 223.21642 228.98149 233.98572
 237.88823 242.08427 246.35602 250.51256 254.37979 257.83911 260.79752 263.38760
 265.86856 268.50510 270.84406 273.04605 275.07745 276.87506 278.50195 280.04407
 281.63986 283.36172 284.92618 286.32935 287.64050 288.82642 289.90839 290.88858
 291.77017 292.55521 293.24103 294.11499
 366.78100 356.35244 345.80188 334.68532 323.10576 311.31720 299.20464 287.02508
 274.75453 262.66897 250.69541 240.01385 230.15329 221.27473 213.47417 206.49361
 200.34505 195.30049 191.89993 189.95937 189.01381 189.09525 189.94770 191.27314
 193.01558 195.12802 197.40846 199.78490 202.24734 204.74478 206.85022 208.70966
 210.35310 211.51554 211.76198 212.00742 211.96187 211.68431 211.33475 210.98219
 210.61663 210.34407 210.16951 210.05095 209.99639 210.34483 210.74827 211.15471
 211.96515 213.16059 214.42803 216.22848 218.17392 220.23436 222.34680 224.44724
 226.52468 228.62612 230.74056 232.86400 235.01044 237.19988 239.47332 241.86076
 244.49920 246.76765 248.78709 250.56953 252.00397 253.14441 253.98385 254.31729
 254.37173 254.16317 253.54061 252.50605 251.12949 249.30793 247.23437 245.08481
 242.89326 240.71470 238.55214 236.40858 234.28602 232.17046 230.21390 228.38834
 226.68878 225.17822 223.82566 222.61510 221.51454 220.49198 219.61343 218.77187
 218.03131 217.22875 216.34419 215.72563 215.19307 214.03847 211.38463 210.28773
 210.68849 211.40300 212.74380 215.10461 218.52092 223.16087 229.01794 233.99521
 237.91725 242.13283 246.42500 250.61966 254.55405 258.08017 261.09903 263.61212
 266.10498 268.60455 270.89877 273.04626 274.97479 276.68192 278.22592 279.76843
 281.51489 283.31982 285.06317 286.76208 288.23236 289.53317 290.71997 291.79510
 292.76208 293.62320 294.37543 295.33408
 366.78100 356.34778 345.79256 334.67135 323.08713 311.29391 299.17669 286.99248
 274.71726 262.62704 250.64882 239.96261 230.09739 221.21417 213.40895 206.42374
 200.27052 195.22130 191.81608 189.87086 188.92065 188.99743 189.84521 191.16599
 192.90378 195.01156 197.28734 199.65912 202.11691 204.60969 206.71047 208.56525
 210.20403 211.36182 211.60360 211.84438 211.79416 211.51195 211.15773 210.80051
 210.43029 210.15308 209.97386 209.85064 209.79142 210.13521 210.53399 210.93577
 211.74155 212.93233 214.19512 215.99090 217.93168 219.98746 222.09525 224.19103
 226.26381 228.36059 230.47038 232.58916 234.73094 236.91572 239.18451 241.56729
 244.20107 246.46485 248.47963 250.25742 251.68720 252.82298 253.65776 253.98655
 254.03633 253.82311 253.19589 252.15668 250.77546 248.94924 246.87102 244.71680
 242.52059 240.33737 238.17015 236.02193 233.89472 231.77450 229.81328 227.98306
 226.27885 224.76363 223.40641 222.19119 221.08598 220.05876 219.17554 218.32932
 217.58410 216.77689 215.88767 215.26445 214.72723 213.82152 211.66183 210.41432
 210.58960 211.22902 212.65236 215.06075 218.44713 223.07248 228.97496 233.95015
 237.88200 242.11975 246.43758 250.67575 254.68361 258.29193 261.34790 263.85208
 266.31784 268.79294 271.03864 273.11636 275.02737 276.68677 278.17892 279.69513
 281.50528 283.33575 285.17340 286.83902 288.28043 289.55573 290.71924 291.77332
 292.72134 293.56555 294.30304 295.24286
 366.78100 356.34425 345.78551 334.66076 323.07301 311.27626 299.15552 286.96777
 274.68902 262.59528 250.61353 239.92378 230.05503 221.16829 213.35954 206.37079
 200.21405 195.16130 191.75255 189.80380 188.85006 188.92331 189.76756 191.08482
 192.81907 194.92332 197.19557 199.56383 202.01808 204.50733 206.60458 208.45584
 210.09109 211.24534 211.48360 211.72085 211.66710 211.38135 211.02361 210.66286
 210.28911 210.00837 209.82562 209.69887 209.63612 209.97638 210.37163 210.76988
 211.57214 212.75939 214.01864 215.81089 217.74815 219.80040 221.90465 223.99691
 226.06616 228.15941 230.26566 232.38092 234.51917 236.70042 238.96568 241.34493
 243.97518 246.23543 248.24669 250.02094 251.44719 252.57945 253.41070 253.73595
 253.78220 253.56546 252.93471 251.89196 250.50721 248.67747 246.59572 244.43797
 242.23823 240.05148 237.88073 235.72898 233.59824 231.47449 229.50974 227.67600
 225.96825 224.44950 223.08875 221.87001 220.76126 219.73051 218.84377 217.99402
 217.24527 216.43452 215.54178 214.91503 214.37428 213.63026 211.83980 210.62563
 210.59474 211.17506 212.62617 214.93874 218.27144 222.96266 228.86372 233.85339
 237.79329 242.04268 246.36905 250.62073 254.66060 258.29840 261.32172 263.84985
 266.33572 268.78268 271.01340 273.16565 275.11807 276.79950 278.30072 279.80322
 281.46384 283.23618 284.89142 286.49796 287.88828 289.11838 290.24063 291.25732
 292.17172 292.98602 293.69736 294.60388
 366.78100 356.34622 345.78944 334.66665 323.08087 311.28609 299.16731 286.98152
 274.70474 262.61296 250.63318 239.94539 230.07861 221.19383 213.38705 206.40026
 200.24548 195.19470 191.78792 189.84113 188.88935 188.96457 189.81079 191.13000
 192.86622 194.97244 197.24666 199.61687 202.07309 204.56431 206.66353 208.51674
 210.15396 211.31018 211.55040 211.78961 211.73783 211.45405 211.09827 210.73948
 210.36770 210.08892 209.90814 209.78335 209.72257 210.06479 210.46201 210.86222
 211.66644 212.85566 214.11688 215.91110 217.85031 219.90453 222.01075 224.10497
 226.17618 228.27140 230.37962 232.49684 234.63705 236.82027 239.08749 241.46871
 244.10092 246.36314 248.37636 250.15258 251.58079 252.71501 253.54823 253.87545
 253.92366 253.70888 253.08010 252.03932 250.65653 248.82875 246.74897 244.59319
 242.39540 240.21062 238.04184 235.89206 233.76327 231.64149 229.67871 227.84693
 226.14114 224.62436 223.26558 222.04880 220.94201 219.91323 219.02845 218.18067
 217.43388 216.62510 215.73432 215.10954 214.57076 213.72330 211.76407 210.79755
 210.80606 211.36485 212.64801 214.78368 218.06154 222.80344 228.73018 233.75333
 237.69106 241.94370 246.26503 250.51233 254.55780 258.18903 261.17795 263.70404
 266.19669 268.68466 270.91910 273.10666 275.09769 276.80490 278.31061 279.82141
 281.40192 283.11972 284.74622 286.32068 287.68323 288.88876 289.98862 290.98499
 291.88113 292.67917 293.37628 294.26471
 366.78100 356.34963 345.79625 334.67688 323.09450 311.30313 299.18775 287.00538
 274.73201 262.64363 250.66726 239.98288 230.11951 221.23813 213.43476 206.45139
 200.30001 195.25264 191.84926 189.90589 188.95752 189.03614 189.88577 191.20839
 192.94802 195.05764 197.33527 199.70890 202.16852 204.66315 206.76577 208.62240
 210.26302 211.42265 211.66628 211.90890 211.86053 211.58015 211.22778 210.87240
 210.50403 210.22866 210.05128 209.92991 209.87253 210.21816 210.61878 211.02241
 211.83004 213.02266 214.28729 216.08491 218.02754 220.08516 222.19479 224.29242
 226.36704 228.46567 230.57729 232.69792 234.84155 237.02817 239.29880 241.68342
 244.31905 246.58467 248.60130 250.38093 251.81255 252.95018 253.78680 254.11743
 254.16905 253.95768 253.33231 252.29493 250.91556 249.09118 247.01481 244.86243
 242.66806 240.48669 238.32131 236.17494 234.04956 231.93119 229.97181 228.14344
 226.44107 224.92769 223.57232 222.35894 221.25557 220.23020 219.34882 218.50445
 217.76107 216.95570 216.06832 215.44695 214.91158 213.92339 211.67116 210.76161
 210.99457 211.67529 212.82770 214.73315 217.93611 222.69640 228.60437 233.63985
 237.56181 241.80742 246.12271 250.37601 254.43689 258.06332 261.04092 263.61115
 266.08450 268.71564 270.98279 273.13968 275.12253 276.84186 278.34616 279.80963
 281.42160 283.25388 284.99350 286.59482 287.98059 289.20667 290.32529 291.33865
 292.25006 293.06171 293.77072 294.67429
 366.78100 356.34902 345.79503 334.67505 323.09206 311.30008 299.18410 287.00111
 274.72713 262.63815 250.66116 239.97618 230.11219 221.23021 213.42623 206.44224
 200.29026 195.24227 191.83829 189.89431 188.94532 189.02334 189.87236 191.19437
 192.93339 195.04240 197.31942 199.69244 202.15145 204.64547 206.74748 208.60350
 210.24352 211.40253 211.64555 211.88757 211.83858 211.55760 211.20461 210.84863
 210.47965 210.20366 210.02568 209.90370 209.84571 210.19073 210.59074 210.99376
 211.80078 212.99279 214.25681 216.05382 217.99584 220.05286 222.16187 224.25889
 226.33291 228.43092 230.54194 232.66195 234.80497 236.99099 239.26100 241.64502
 244.28003 246.54505 248.56107 250.34008 251.77110 252.90812 253.74413 254.07415
 254.12516 253.91318 253.28720 252.24921 250.86923 249.04424 246.96726 244.81428
 242.61929 240.43731 238.27133 236.12434 233.99836 231.87937 229.91939 228.09041
 226.38742 224.87344 223.51745 222.30347 221.19949 220.17350 219.29152 218.44654
 217.70255 216.89657 216.00858 215.38660 214.85062 213.92979 211.77997 210.68541
 210.92627 211.78008 213.01219 214.83157 217.94963 222.66356 228.55005 233.57567
 237.47597 241.70779 246.01941 250.28386 254.35570 257.97870 260.97922 263.58292
 266.12668 268.61856 270.98227 273.17072 275.20645 276.94638 278.44571 279.81201
 281.68762 283.56821 285.40250 287.02393 288.42715 289.66864 290.80130 291.82742
 292.75031 293.57211 294.29007 295.20499
 366.78100 356.34699 345.79098 334.66897 323.08396 311.28995 299.17194 286.98693
 274.71091 262.61990 250.64089 239.95388 230.08787 221.20386 213.39785 206.41184
 200.25783 195.20782 191.80181 189.85580 188.90479 188.98078 189.82777 191.14775
 192.88474 194.99173 197.26672 199.63771 202.09470 204.58669 206.68668 208.54067
 210.17866 211.33565 211.57664 211.81663 211.76562 211.48261 211.12759 210.76958
 210.39857 210.12056 209.94055 209.81654 209.75653 210.09952 210.49751 210.89850
 211.70349 212.89348 214.15547 215.95046 217.89045 219.94543 222.05242 224.14741
 226.21940 228.31539 230.42438 232.54237 234.68336 236.86735 239.13534 241.51733
 244.15032 246.41331 248.42730 250.20429 251.63328 252.76826 253.60225 253.93024
 253.97923 253.76522 253.13721 252.09720 250.71519 248.88818 246.80917 244.65416
 242.45715 240.27314 238.10513 235.95612 233.82810 231.70709 229.74508 227.91407
 226.20906 224.69305 223.33504 222.11903 221.01302 219.98501 219.10100 218.25399
 217.50798 216.69997 215.80996 215.18594 214.64793 213.84441 211.92865 210.73947
 210.77492 211.64366 213.05470 214.95538 218.02936 222.68776 228.58363 233.58803
 237.48500 241.71237 246.01459 250.27936 254.36984 257.99359 260.97089 263.54004
 266.03275 268.61871 270.97031 273.12955 275.13513 276.89615 278.37982 279.88882
 281.92554 283.80255 285.60629 287.19571 288.57120 289.78815 290.89841 291.90427
 292.80890 293.61450 294.31824 295.21509
 366.78100 356.34506 345.78712 334.66318 323.07624 311.28030 299.16036 286.97342
 274.69548 262.60253 250.62159 239.93265 230.06471 221.17877 213.37083 206.38289
 200.22695 195.17501 191.76707 189.81913 188.86619 188.94025 189.78531 191.10337
 192.83843 194.94349 197.21654 199.58560 202.04066 204.53072 206.62878 208.48084
 210.11690 211.27196 211.51102 211.74908 211.69614 211.41120 211.05426 210.69432
 210.32138 210.04144 209.85950 209.73355 209.67161 210.01267 210.40873 210.80779
 211.61085 212.79891 214.05897 215.85203 217.79009 219.84315 221.94821 224.04127
 226.11133 228.20539 230.31245 232.42851 234.56756 236.74962 239.01568 241.39574
 244.02680 246.28786 248.29992 250.07498 251.50204 252.63510 253.46716 253.79322
 253.84028 253.62434 252.99440 251.95246 250.56852 248.73957 246.65863 244.50169
 242.30275 240.11681 237.94687 235.79593 233.66599 231.54305 229.57911 227.74617
 226.03923 224.52129 223.16135 221.94341 220.83547 219.80552 218.91958 218.07064
 217.32270 216.51276 215.62082 214.99488 214.45494 213.76062 212.07274 210.87587
 210.72916 211.45505 212.96407 214.95544 218.06992 222.67625 228.58986 233.59430
 237.50969 241.75146 246.05861 250.33102 254.44885 258.08881 261.03247 263.47144
 265.90463 268.57895 270.89059 273.05899 275.05124 276.75934 278.20789 279.86960
 281.93750 283.82309 285.74109 287.42523 288.88269 290.17218 291.34866 292.41446
 293.37302 294.22662 294.97232 295.92264
 366.78100 356.34657 345.79014 334.66771 323.08228 311.28785 299.16943 286.98400
 274.70757 262.61614 250.63671 239.94928 230.08285 221.19842 213.39199 206.40556
 200.25114 195.20071 191.79428 189.84785 188.89642 188.97199 189.81856 191.13813
 192.87470 194.98127 197.25584 199.62642 202.08299 204.57456 206.67413 208.52770
 210.16527 211.32184 211.56241 211.80198 211.75055 211.46712 211.11170 210.75327
 210.38184 210.10341 209.92298 209.79855 209.73812 210.08069 210.47826 210.87883
 211.68341 212.87298 214.13455 215.92912 217.86869 219.92326 222.02983 224.12440
 226.19597 228.29154 230.40011 232.51769 234.65826 236.84183 239.10940 241.49097
 244.12354 246.38611 248.39968 250.17625 251.60482 252.73940 253.57297 253.90054
 253.94911 253.73468 253.10625 252.06582 250.68339 248.85596 246.77653 244.62110
 242.42368 240.23925 238.07082 235.92139 233.79296 231.67153 229.70910 227.87767
 226.17224 224.65581 223.29738 222.08096 220.97453 219.94610 219.06167 218.21424
 217.46781 216.65938 215.76895 215.14452 214.60609 213.85738 212.07300 211.05666
 210.93690 211.43280 212.76556 214.85345 218.04472 222.56725 228.49124 233.49242
 237.43062 241.70612 246.04234 250.35553 254.52573 258.20993 261.18378 263.61932
 266.09967 268.60056 270.85596 272.99377 274.94016 276.57269 277.99234 279.97266
 282.11813 284.28799 286.16568 287.81442 289.24124 290.50363 291.65536 292.69876
 293.63718 294.47284 295.20285 296.13318
 366.78100 356.35380 345.80459 334.68939 323.11118 311.32398 299.21277 287.03457
 274.76537 262.68116 250.70896 240.02875 230.16955 221.29234 213.49314 206.51394
 200.36673 195.32353 191.92432 189.98512 189.04091 189.12371 189.97750 191.30430
 193.04810 195.16189 197.44369 199.82148 202.28528 204.78407 206.89087 208.75167
 210.39646 211.56026 211.80805 212.05485 212.01064 211.73444 211.38624 211.03503
 210.67083 210.39962 210.22642 210.10921 210.05601 210.40581 210.81060 211.21840
 212.03019 213.22699 214.49578 216.29758 218.24438 220.30617 222.41997 224.52176
 226.60056 228.70335 230.81915 232.94394 235.09174 237.28254 239.55733 241.94613
 244.58592 246.85572 248.87651 250.66031 252.09611 253.23790 254.07870 254.41349
 254.46929 254.26208 253.64088 252.60768 251.23247 249.41227 247.34006 245.19186
 243.00165 240.82445 238.66325 236.52104 234.39984 232.28563 230.33043 228.50622
 226.80802 225.29882 223.94761 222.73841 221.63920 220.61800 219.74079 218.90059
 218.16138 217.36018 216.47698 215.85977 215.32857 214.24022 211.80995 211.08948
 211.33588 211.80557 212.89824 214.73282 217.86273 222.39279 228.23610 233.22614
 237.16074 241.43292 245.78464 250.16379 254.41528 258.09109 261.05658 263.61584
 266.23944 268.80414 271.14465 273.41312 275.46191 277.06705 278.12531 280.19418
 282.53702 284.80731 286.77188 288.49689 289.98978 291.31058 292.51559 293.60727
 294.58911 295.46344 296.22723 297.20062
 366.78100 356.35384 345.80467 334.68951 323.11134 311.32418 299.21301 287.03485
 274.76569 262.68152 250.70936 240.02919 230.17003 221.29287 213.49370 206.51454
 200.36737 195.32421 191.92504 189.98588 189.04172 189.12455 189.97839 191.30522
 193.04906 195.16290 197.44473 199.82257 202.28640 204.78524 206.89207 208.75291
 210.39775 211.56158 211.80942 212.05625 212.01209 211.73592 211.38776 211.03660
 210.67243 210.40127 210.22810 210.11094 210.05778 210.40761 210.81245 211.22028
 212.03212 213.22895 214.49779 216.29963 218.24646 220.30830 222.42213 224.52397
 226.60281 228.70564 230.82148 232.94631 235.09415 237.28498 239.55982 241.94866
 244.58849 246.85833 248.87916 250.66300 252.09883 253.24067 254.08151 254.41634
 254.47218 254.26501 253.64385 252.61069 251.23552 249.41536 247.34319 245.19503
 243.00486 240.82770 238.66654 236.52437 234.40321 232.28904 230.33388 228.50972
 226.81155 225.30239 223.95122 222.74206 221.64289 220.62173 219.74457 218.90440
 218.16524 217.36407 216.48091 215.86374 215.33258 214.27652 211.83403 210.76036
 211.29402 212.22119 213.26964 214.89801 217.90498 222.47067 228.08203 233.10010
 236.97154 241.22340 245.56645 249.87155 253.94783 257.51541 260.54193 263.29599
 266.02304 268.69675 271.18930 273.46130 275.48889 277.30002 278.99155 280.70627
 282.60928 284.43954 286.12350 287.71231 289.08728 290.30377 291.41360 292.41907
 293.32336 294.12866 294.83212 295.72864
 366.78100 356.34707 345.79114 334.66921 323.08428 311.29036 299.17243 286.98750
 274.71157 262.62064 250.64171 239.95478 230.08885 221.20492 213.39900 206.41307
 200.25914 195.20921 191.80328 189.85735 188.90642 188.98249 189.82956 191.14964
 192.88671 194.99378 197.26885 199.63992 202.09699 204.58906 206.68913 208.54320
 210.18128 211.33835 211.57942 211.81949 211.76856 211.48563 211.13070 210.77277
 210.40185 210.12392 209.94399 209.82006 209.76013 210.10320 210.50127 210.90234
 211.70741 212.89749 214.15956 215.95463 217.89470 219.94977 222.05684 224.15191
 226.22398 228.32005 230.42913 232.54720 234.68827 236.87234 239.14041 241.52248
 244.15555 246.41862 248.43269 250.20977 251.63884 252.77391 253.60798 253.93605
 253.98512 253.77119 253.14326 252.10333 250.72141 248.89448 246.81555 244.66062
 242.46369 240.27976 238.11183 235.96290 233.83497 231.71405 229.75212 227.92119
 226.21626 224.70033 223.34240 222.12647 221.02054 219.99261 219.10869 218.26176
 217.51583 216.70790 215.81797 215.19404 214.65611 213.90709 212.14305 211.01161
 210.59801 211.59714 213.19254 215.09657 218.10506 222.53706 228.25621 233.15222
 237.09276 241.30734 245.63921 249.91191 253.95616 257.52075 260.51971 263.19455
 265.82071 268.42529 270.90024 273.16898 275.19977 277.05017 278.79767 280.52670
 282.18332 283.70941 285.08472 286.30807 287.36157 288.33386 289.29187 290.21057
 291.05890 291.81433 292.47427 293.31528
 366.78100 356.34548 345.78796 334.66444 323.07793 311.28241 299.16289 286.97637
 274.69885 262.60633 250.62581 239.93730 230.06978 221.18426 213.37674 206.38922
 200.23370 195.18218 191.77467 189.82715 188.87463 188.94911 189.79459 191.11307
 192.84856 194.95404 197.22752 199.59700 202.05248 204.54296 206.64144 208.49393
 210.13041 211.28589 211.52537 211.76385 211.71133 211.42681 211.07030 210.71078
 210.33826 210.05874 209.87722 209.75170 209.69018 210.03167 210.42815 210.82763
 211.63111 212.81959 214.08007 215.87355 217.81204 219.86552 221.97100 224.06448
 226.13496 228.22944 230.33693 232.45341 234.59289 236.77537 239.04185 241.42233
 244.05381 246.31530 248.32778 250.10326 251.53074 252.66422 253.49670 253.82318
 253.87067 253.65515 253.02563 251.98411 250.60059 248.77207 246.69155 244.53504
 242.33652 240.15100 237.98148 235.83096 233.70144 231.57892 229.61541 227.78289
 226.07637 224.55885 223.19933 221.98181 220.87429 219.84478 218.95926 218.11074
 217.36322 216.55370 215.66218 215.03667 214.49715 213.80498 212.16965 211.30249
 210.73669 211.42627 212.99362 214.87442 217.90691 222.42773 228.31833 233.10744
 237.12906 241.34795 245.69905 249.98030 254.10712 257.74606 260.73074 263.29190
 265.82721 268.35907 270.77417 273.02460 275.04507 276.86954 278.60651 280.29581
 281.94864 283.47250 284.82770 286.00485 286.99487 287.83203 288.55634 289.17648
 289.66364 290.06274 290.35718 290.77493
 366.78100 356.34549 345.78799 334.66448 323.07797 311.28246 299.16296 286.97645
 274.69894 262.60643 250.62593 239.93742 230.06991 221.18440 213.37690 206.38939
 200.23388 195.18237 191.77487 189.82736 188.87485 188.94934 189.79484 191.11333
 192.84882 194.95432 197.22781 199.59730 202.05279 204.54329 206.64178 208.49427
 210.13076 211.28626 211.52575 211.76424 211.71173 211.42723 211.07072 210.71121
 210.33870 210.05920 209.87769 209.75218 209.69067 210.03217 210.42866 210.82815
 211.63165 212.82014 214.08063 215.87412 217.81262 219.86611 221.97160 224.06509
 226.13559 228.23008 230.33757 232.45406 234.59356 236.77605 239.04254 241.42303
 244.05453 246.31602 248.32851 250.10400 251.53150 252.66499 253.49748 253.82397
 253.87147 253.65596 253.02645 251.98495 250.60144 248.77293 246.69242 244.53592
 242.33741 240.15190 237.98239 235.83189 233.70238 231.57987 229.61636 227.78386
 226.07735 224.55984 223.20033 221.98283 220.87532 219.84581 218.96030 218.11180
 217.36429 216.55478 215.66328 215.03777 214.49826 213.82951 212.24950 211.25183
 210.85078 211.50716 212.94418 214.80371 217.82536 222.35541 228.26537 233.07249
 237.05267 241.30846 245.66599 249.95689 254.11090 257.76160 260.74503 263.29065
 265.80927 268.30527 270.68515 272.92953 274.93942 276.75790 278.50119 280.20685
 281.88147 283.40451 284.73242 285.86417 286.79980 287.59674 288.31482 288.95563
 289.46216 289.85727 290.17474 290.66489
 366.78100 356.34405 345.78510 334.66016 323.07221 311.27526 299.15431 286.96637
 274.68742 262.59347 250.61152 239.92158 230.05263 221.16568 213.35673 206.36779
 200.21084 195.15789 191.74894 189.80000 188.84605 188.91910 189.76315 191.08021
 192.81426 194.91831 197.19036 199.55842 202.01247 204.50152 206.59857 208.44963
 210.08468 211.23873 211.47678 211.71384 211.65989 211.37394 211.01599 210.65505
 210.28110 210.00015 209.81720 209.69026 209.62731 209.96736 210.36241 210.76047
 211.56252 212.74957 214.00862 215.80068 217.73773 219.78978 221.89383 223.98589
 226.05494 228.14799 230.25404 232.36910 234.50715 236.68820 238.95325 241.33231
 243.96236 246.22241 248.23346 250.00752 251.43357 252.56562 253.39667 253.72173
 253.76778 253.55083 252.91988 251.87694 250.49199 248.66204 246.58009 244.42215
 242.22220 240.03525 237.86430 235.71236 233.58141 231.45746 229.49251 227.65857
 225.95062 224.43167 223.07072 221.85178 220.74283 219.71188 218.82493 217.97499
 217.22604 216.41509 215.52214 214.89520 214.35425 213.79131 212.45544 211.21902
 210.89566 211.49658 212.81297 214.78731 217.87041 222.37419 228.20743 233.06821
 236.98248 241.26752 245.62422 249.92738 254.06941 257.70004 260.69135 263.28000
 265.81500 268.30060 270.65536 272.86557 274.85184 276.64880 278.37170 280.08612
 281.76553 283.30316 284.61526 285.68265 286.54474 287.32306 288.08771 288.73105
 289.21567 289.66412 290.07068 290.58881
 366.78100 356.34050 345.77800 334.64950 323.05801 311.25751 299.13301 286.94151
 274.65901 262.56151 250.57601 239.88251 230.01002 221.11952 213.30702 206.31452
 200.15402 195.09752 191.68502 189.73252 188.77503 188.84453 189.68503 190.99853
 192.72903 194.82953 197.09803 199.46254 201.91304 204.39854 206.49204 208.33954
 209.97104 211.12154 211.35604 211.58955 211.53205 211.24255 210.88105 210.51655
 210.13905 209.85455 209.66805 209.53756 209.47106 209.80756 210.19906 210.59356
 211.39206 212.57556 213.83107 215.61957 217.55307 219.60157 221.70207 223.79057
 225.85607 227.94557 230.04808 232.15958 234.29408 236.47158 238.73308 241.10858
 243.73508 245.99158 247.99909 249.76959 251.19209 252.32059 253.14809 253.46959
 253.51209 253.29160 252.65710 251.61060 250.22210 248.38860 246.30310 244.14160
 241.93810 239.74761 237.57311 235.41761 233.28311 231.15561 229.18711 227.34961
 225.63811 224.11562 222.75112 221.52862 220.41612 219.38162 218.49112 217.63762
 216.88513 216.07063 215.17413 214.54363 213.99913 213.65321 212.76379 211.33328
 210.76579 211.13403 212.67412 214.91733 218.05666 222.45261 228.16559 233.05711
 236.94659 241.22565 245.58031 249.91803 254.05623 257.68616 260.67804 263.27042
 265.78381 268.24072 270.60141 272.80811 274.78854 276.58420 278.29083 279.95084
 281.55252 282.98929 284.22598 285.28833 286.42929 287.52054 288.59024 289.55933
 290.43094 291.20709 291.88513 292.74921
 366.78100 356.34028 345.77756 334.64884 323.05712 311.25640 299.13168 286.93996
 274.65723 262.55951 250.57379 239.88007 230.00735 221.11663 213.30391 206.31119
 200.15047 195.09375 191.68103 189.72831 188.77059 188.83987 189.68014 190.99342
 192.72370 194.82398 197.09226 199.45654 201.90682 204.39210 206.48538 208.33266
 209.96394 211.11422 211.34850 211.58178 211.52405 211.23433 210.87261 210.50789
 210.13017 209.84545 209.65873 209.52801 209.46129 209.79757 210.18885 210.58313
 211.38141 212.56469 213.81996 215.60824 217.54152 219.58980 221.69008 223.77836
 225.84364 227.93292 230.03520 232.14648 234.28076 236.45804 238.71932 241.09460
 243.72087 245.97715 247.98443 249.75471 251.17699 252.30527 253.13255 253.45383
 253.49611 253.27539 252.64067 251.59395 250.20523 248.37151 246.28578 244.12406
 241.92034 239.72962 237.55490 235.39918 233.26446 231.13674 229.16802 227.33030
 225.61858 224.09586 222.73114 221.50842 220.39569 219.36097 218.47025 217.61653
 216.86381 216.04909 215.15237 214.52165 213.97693 213.69182 212.84840 211.54778
 210.78049 211.13544 212.76080 215.00177 218.12128 222.43327 228.14082 232.98276
 236.89781 241.17479 245.55717 249.91754 254.03546 257.66342 260.73389 263.42905
 265.95856 268.38004 270.67078 272.78641 274.71255 276.49283 278.19208 279.80649
 281.34116 283.28079 285.14066 286.77377 288.18707 289.43747 290.57831 291.61179
 292.54132 293.36905 294.09216 295.01367
 366.78100 356.34973 345.79645 334.67718 323.09490 311.30363 299.18836 287.00608
 274.73281 262.64454 250.66826 239.98399 230.12071 221.23944 213.43617 206.45289
 200.30162 195.25434 191.85107 189.90780 188.95952 189.03825 189.88798 191.21070
 192.95043 195.06015 197.33788 199.71161 202.17133 204.66606 206.76878 208.62551
 210.26624 211.42596 211.66969 211.91242 211.86414 211.58387 211.23159 210.87632
 210.50805 210.23277 210.05550 209.93422 209.87695 210.22268 210.62340 211.02713
 211.83486 213.02758 214.29231 216.09003 218.03276 220.09049 222.20021 224.29794
 226.37266 228.47139 230.58312 232.70384 234.84757 237.03430 239.30502 241.68975
 244.32547 246.59120 248.60793 250.38765 251.81938 252.95710 253.79383 254.12456
 254.17628 253.96501 253.33974 252.30246 250.92319 249.09891 247.02264 244.87037
 242.67609 240.49482 238.32954 236.18327 234.05800 231.93972 229.98045 228.15218
 226.44990 224.93663 223.58135 222.36808 221.26481 220.23953 219.35826 218.51398
 217.77071 216.96544 216.07816 215.45689 214.92162 214.18692 212.51593 211.68088
 211.07823 211.30348 212.70969 214.88016 217.95505 222.25092 227.96490 232.82471
 236.76852 241.08728 245.49736 249.93222 254.16074 257.88812 261.03409 263.78305
 266.36655 268.83041 271.12503 273.23703 275.15018 276.86188 278.44315 279.96729
 282.50415 284.81836 286.82092 288.57935 290.10107 291.44745 292.67578 293.78857
 294.78943 295.68066 296.45926 297.45145
 366.78100 356.35620 345.80940 334.69661 323.12081 311.33601 299.22721 287.05141
 274.78462 262.70282 250.73302 240.05522 230.19843 221.32363 213.52683 206.55003
 200.40523 195.36444 191.96764 190.03084 189.08904 189.17424 190.03045 191.35965
 193.10585 195.22205 197.50626 199.88646 202.35266 204.85386 206.96306 208.82627
 210.47347 211.63967 211.88987 212.13907 212.09728 211.82348 211.47768 211.12888
 210.76709 210.49829 210.32749 210.21269 210.16189 210.51410 210.92130 211.33150
 212.14570 213.34490 214.61611 216.42031 218.36951 220.43371 222.54992 224.65412
 226.73532 228.84052 230.95872 233.08593 235.23613 237.42933 239.70653 242.09773
 244.73994 247.01214 249.03534 250.82154 252.25975 253.40395 254.24715 254.58435
 254.64255 254.43776 253.81896 252.78816 251.41536 249.59756 247.52777 245.38197
 243.19417 241.01937 238.86058 236.72078 234.60198 232.49018 230.53738 228.71559
 227.01979 225.51299 224.16419 222.95739 221.86060 220.84180 219.96700 219.12920
 218.39241 217.59361 216.71281 216.09801 215.56921 214.53807 212.20924 211.46696
 211.68597 211.88789 212.83974 214.61671 217.63797 222.10683 227.66014 232.58609
 236.49741 240.81029 245.22731 249.60307 253.73933 257.41144 260.61084 263.51190
 266.27713 268.92331 271.42050 273.71301 275.74734 277.58371 279.29532 280.91052
 282.48822 284.20953 286.03586 287.78317 289.29532 290.63318 291.85379 292.95956
 293.95407 294.83972 295.61337 296.59933
 366.78100 356.35412 345.80523 334.69035 323.11246 311.32558 299.21469 287.03681
 274.76793 262.68404 250.71216 240.03227 230.17339 221.29650 213.49762 206.51873
 200.37185 195.32897 191.93008 189.99120 189.04731 189.13043 189.98454 191.31166
 193.05578 195.16989 197.45201 199.83012 202.29424 204.79335 206.90047 208.76159
 210.40670 211.57082 211.81893 212.06605 212.02216 211.74628 211.39839 211.04751
 210.68363 210.41274 210.23986 210.12297 210.07009 210.42020 210.82532 211.23344
 212.04555 213.24267 214.51178 216.31390 218.26101 220.32313 222.43725 224.53936
 226.61848 228.72159 230.83771 232.96282 235.11094 237.30205 239.57717 241.96629
 244.60640 246.87652 248.89763 250.68175 252.11786 253.25998 254.10110 254.43621
 254.49233 254.28544 253.66456 252.63167 251.25679 249.43691 247.36502 245.21714
 243.02725 240.85037 238.68948 236.54760 234.42671 232.31283 230.35795 228.53406
 226.83618 225.32729 223.97641 222.76752 221.66864 220.64776 219.77087 218.93099
 218.19210 217.39122 216.50833 215.89145 215.36057 214.46188 212.34615 211.14990
 211.57259 212.20158 213.13661 214.80873 217.72174 222.04543 227.52293 232.44366
 236.34827 240.64914 245.05501 249.40819 253.49487 257.07480 260.16873 263.03159
 265.83810 268.55521 271.10077 273.45065 275.54825 277.42303 279.18027 280.86032
 282.46222 284.01288 285.52139 286.90408 288.14471 289.30026 290.35455 291.30963
 292.16864 292.93359 293.60184 294.45343
 366.78100 356.34736 345.79171 334.67007 323.08543 311.29178 299.17414 286.98949
 274.71385 262.62321 250.64456 239.95792 230.09228 221.20863 213.40299 206.41734
 200.26370 195.21406 191.80841 189.86277 188.91213 188.98848 189.83584 191.15620
 192.89355 195.00091 197.27626 199.64762 202.10498 204.59733 206.69769 208.55205
 210.19040 211.34776 211.58911 211.82947 211.77883 211.49618 211.14154 210.78390
 210.41325 210.13561 209.95597 209.83232 209.77268 210.11603 210.51439 210.91575
 211.72110 212.91146 214.17382 215.96917 217.90953 219.96488 222.07224 224.16760
 226.23995 228.33631 230.44567 232.56402 234.70538 236.88974 239.15809 241.54045
 244.17380 246.43716 248.45152 250.22887 251.65823 252.79359 253.62794 253.95630
 254.00565 253.79201 253.16437 252.12472 250.74308 248.91644 246.83779 244.68315
 242.48651 240.30286 238.13522 235.98657 233.85893 231.73829 229.77664 227.94600
 226.24136 224.72571 223.36807 222.15242 221.04678 220.01914 219.13549 218.28885
 217.54321 216.73556 215.84592 215.22228 214.68463 214.12428 212.75615 211.13200
 210.89148 211.91255 213.33243 215.09415 217.88747 222.09138 227.59676 232.43408
 236.37926 240.66183 245.07074 249.40877 253.49017 257.10284 260.22632 263.07745
 265.86124 268.54718 271.05499 273.39706 275.48102 277.29718 278.96008 280.57434
 282.17841 283.73676 285.21826 286.57040 287.75708 288.81473 289.80139 290.72409
 291.55396 292.29294 292.93851 293.76120
 366.78100 356.34690 345.79079 334.66869 323.08358 311.28948 299.17137 286.98627
 274.71016 262.61906 250.63995 239.95285 230.08674 221.20264 213.39653 206.41043
 200.25632 195.20622 191.80011 189.85401 188.90290 188.97880 189.82569 191.14559
 192.88248 194.98938 197.26428 199.63517 202.09207 204.58396 206.68386 208.53775
 210.17565 211.33254 211.57344 211.81333 211.76223 211.47912 211.12402 210.76591
 210.39481 210.11670 209.93660 209.81249 209.75239 210.09528 210.49318 210.89407
 211.69897 212.88886 214.15076 215.94565 217.88555 219.94045 222.04734 224.14224
 226.21413 228.31003 230.41892 232.53682 234.67771 236.86161 239.12950 241.51140
 244.14429 246.40719 248.42108 250.19798 251.62687 252.76177 253.59566 253.92356
 253.97245 253.75835 253.13024 252.09014 250.70803 248.88093 246.80183 244.64672
 242.44962 240.26551 238.09741 235.94830 233.82020 231.69909 229.73699 227.90588
 226.20078 224.68467 223.32657 222.11046 221.00436 219.97625 219.09215 218.24504
 217.49894 216.69083 215.80073 215.17662 214.63852 214.08653 212.77979 211.38594
 210.70894 211.79601 213.29390 215.09679 217.89308 222.11636 227.72141 232.38867
 236.45010 240.69258 245.11519 249.43301 253.50951 257.11252 260.22372 263.07883
 265.88638 268.59036 271.08774 273.38425 275.43039 277.24457 278.92905 280.52982
 282.06976 283.51740 284.84451 286.04578 287.10229 288.00192 288.75311 289.41571
 290.00488 290.49768 290.86050 291.32291
 366.78100 356.34930 345.79559 334.67589 323.09319 311.30148 299.18578 287.00308
 274.72938 262.64067 250.66397 239.97927 230.11556 221.23386 213.43016 206.44645
 200.29475 195.24705 191.84334 189.89964 188.95094 189.02924 189.87853 191.20083
 192.94013 195.04942 197.32672 199.70002 202.15931 204.65361 206.75591 208.61220
 210.25250 211.41180 211.65510 211.89739 211.84869 211.56799 211.21528 210.85958
 210.49088 210.21517 210.03747 209.91577 209.85806 210.20336 210.60366 211.00696
 211.81425 213.00655 214.27085 216.06814 218.01044 220.06774 222.17703 224.27433
 226.34863 228.44692 230.55822 232.67852 234.82182 237.00811 239.27841 241.66271
 244.29800 246.56330 248.57960 250.35889 251.79019 252.92749 253.76378 254.09408
 254.14538 253.93368 253.30797 252.27027 250.89057 249.06586 246.98916 244.83646
 242.64175 240.46005 238.29435 236.14764 234.02194 231.90324 229.94354 228.11483
 226.41213 224.89843 223.54272 222.32902 221.22532 220.19961 219.31791 218.47321
 217.72950 216.92380 216.03610 215.41440 214.87869 214.23851 212.72404 211.58940
 210.77783 211.38303 212.97853 215.06564 218.01527 222.19794 227.70895 232.53505
 236.43977 240.73117 245.13748 249.45859 253.49809 257.06583 260.15726 262.98636
 265.73978 268.39389 270.89539 273.19583 275.24002 277.05762 278.73618 280.32401
 281.82623 283.22632 284.51807 285.68616 286.74661 287.76846 288.74182 289.65573
 290.47772 291.20969 291.84912 292.66400
 366.78100 356.35222 345.80144 334.68467 323.10489 311.31611 299.20333 287.02356
 274.75278 262.66700 250.69322 240.01144 230.15067 221.27189 213.47111 206.49033
 200.34156 195.29678 191.89600 189.95522 189.00944 189.09067 189.94289 191.26811
 193.01033 195.12255 197.40278 199.77900 202.24122 204.73844 206.84367 208.70289
 210.34611 211.50833 211.75455 211.99978 211.95400 211.67622 211.32644 210.97367
 210.60789 210.33511 210.16033 210.04155 209.98678 210.33500 210.73822 211.14444
 211.95467 213.14989 214.41711 216.21733 218.16255 220.22278 222.33500 224.43522
 226.51244 228.61366 230.72789 232.85111 234.99733 237.18655 239.45978 241.84700
 244.48522 246.75344 248.77266 250.55489 251.98911 253.12933 253.96855 254.30178
 254.35600 254.14722 253.52444 252.48966 251.11289 249.29111 247.21733 245.06755
 242.87578 240.69700 238.53422 236.39044 234.26766 232.15189 230.19511 228.36933
 226.66955 225.15877 223.80600 222.59522 221.49444 220.47166 219.59289 218.75111
 218.01033 217.20755 216.32277 215.70400 215.17122 214.44955 212.74202 211.57437
 211.06291 211.60896 213.03079 215.05330 217.96640 222.18132 227.72365 232.51994
 236.42873 240.72981 245.14262 249.45956 253.47064 257.04169 260.20261 263.10040
 265.83688 268.43539 270.88406 273.14178 275.17679 277.00870 278.67926 280.22592
 281.72995 283.54037 285.44888 287.12473 288.57498 289.85809 291.02878 292.08929
 293.04312 293.89252 294.63452 295.58014
 366.78100 356.35466 345.80632 334.69198 323.11464 311.32830 299.21796 287.04062
 274.77228 262.68894 250.71760 240.03826 230.17992 221.30358 213.50524 206.52690
 200.38056 195.33822 191.93988 190.00154 189.05820 189.14186 189.99652 191.32417
 193.06883 195.18349 197.46615 199.84481 202.30947 204.80913 206.91679 208.77845
 210.42411 211.58877 211.83743 212.08509 212.04175 211.76641 211.41907 211.06873
 210.70539 210.43505 210.26271 210.14637 210.09403 210.44469 210.85035 211.25901
 212.07167 213.26933 214.53899 216.34165 218.28931 220.35197 222.46663 224.56929
 226.64895 228.75261 230.86927 232.99493 235.14359 237.33525 239.61091 242.00057
 244.64123 246.91189 248.93355 250.71821 252.15487 253.29752 254.13918 254.47484
 254.53150 254.32516 253.70482 252.67248 251.29814 249.47880 247.40746 245.26012
 243.07078 240.89444 238.73410 236.59276 234.47242 232.35908 230.40474 228.58140
 226.88406 225.37572 224.02538 222.81704 221.71870 220.69836 219.82202 218.98268
 218.24434 217.44400 216.56166 215.94532 215.41498 214.62070 212.69191 211.42955
 211.29260 211.88264 213.16103 215.00682 217.82300 221.99318 227.58423 232.36758
 236.27890 240.59506 245.03252 249.39571 253.45207 257.03842 260.20084 263.15887
 266.00266 268.66010 271.15015 273.52914 275.69519 277.61960 279.28119 280.61813
 282.26743 284.46097 286.42493 288.14948 289.64191 290.96231 292.16699 293.25836
 294.23990 295.11398 295.87756 296.85065
 366.78100 356.35529 345.80758 334.69387 323.11716 311.33145 299.22174 287.04503
 274.77732 262.69461 250.72390 240.04519 230.18748 221.31177 213.51406 206.53635
 200.39064 195.34893 191.95122 190.01352 189.07081 189.15510 190.01039 191.33868
 193.08397 195.19926 197.48255 199.86184 202.32713 204.82742 206.93571 208.79800
 210.44429 211.60958 211.85887 212.10716 212.06445 211.78974 211.44303 211.09332
 210.73061 210.46090 210.28919 210.17348 210.12177 210.47306 210.87935 211.28864
 212.10193 213.30022 214.57051 216.37380 218.32209 220.38538 222.50067 224.60397
 226.68426 228.78855 230.90584 233.03213 235.18142 237.37371 239.65000 242.04029
 244.68158 246.95287 248.97516 250.76045 252.19774 253.34103 254.18332 254.51961
 254.57690 254.37119 253.75148 252.71977 251.34606 249.52735 247.45664 245.30993
 243.12122 240.94551 238.78580 236.64509 234.52538 232.41267 230.45896 228.63625
 226.93954 225.43183 224.08212 222.87441 221.77671 220.75700 219.88129 219.04258
 218.30487 217.50516 216.62345 216.00774 215.47803 214.64563 212.65878 211.25829
 211.22412 212.00146 213.35135 215.14191 217.92052 222.09935 227.49146 232.28159
 236.15488 240.44704 244.84384 249.14015 253.13622 256.67746 259.84558 262.81842
 265.67517 268.39658 270.97720 273.42474 275.68661 277.75107 279.65347 281.38605
 282.93271 284.35083 285.76874 287.18787 288.57675 289.82904 290.97156 292.00662
 292.93753 293.76651 294.49069 295.41357
 366.78100 356.35440 345.80580 334.69119 323.11359 311.32699 299.21639 287.03879
 274.77018 262.68658 250.71498 240.03538 230.17678 221.30017 213.50157 206.52297
 200.37637 195.33376 191.93516 189.99656 189.05296 189.13636 189.99075 191.31815
 193.06255 195.17695 197.45935 199.83774 202.30214 204.80154 206.90894 208.77034
 210.41573 211.58013 211.82853 212.07593 212.03233 211.75672 211.40912 211.05852
 210.69492 210.42432 210.25171 210.13511 210.08251 210.43291 210.83831 211.24670
 212.05910 213.25650 214.52590 216.32829 218.27569 220.33809 222.45249 224.55489
 226.63428 228.73768 230.85408 232.97948 235.12788 237.31927 239.59467 241.98407
 244.62447 246.89487 248.91626 250.70066 252.13706 253.27946 254.12086 254.45625
 254.51265 254.30605 253.68545 252.65285 251.27824 249.45864 247.38704 245.23944
 243.04984 240.87323 238.71263 236.57103 234.45043 232.33682 230.38222 228.55862
 226.86102 225.35242 224.00181 222.79321 221.69461 220.67401 219.79741 218.95780
 218.21920 217.41860 216.53600 215.91940 215.38879 214.57761 212.66478 211.41476
 211.03432 211.73149 213.29623 215.17015 217.91046 222.05727 227.55208 232.26485
 236.16519 240.43739 244.83302 249.10411 253.05820 256.58286 259.74203 262.70712
 265.56073 268.26001 270.78482 273.16147 275.34088 277.31799 279.13614 280.85306
 282.41971 283.82968 285.12201 286.37366 287.52753 288.58398 289.57202 290.48877
 291.32523 292.07010 292.72083 293.55008
 366.78100 356.35450 345.80600 334.69150 323.11400 311.32750 299.21700 287.03950
 274.77100 262.68750 250.71600 240.03650 230.17800 221.30150 213.50300 206.52450
 200.37801 195.33551 191.93701 189.99851 189.05501 189.13851 189.99301 191.32051
 193.06501 195.17951 197.46201 199.84051 202.30501 204.80451 206.91201 208.77351
 210.41901 211.58351 211.83201 212.07951 212.03601 211.76051 211.41301 211.06251
 210.69901 210.42851 210.25601 210.13951 210.08701 210.43751 210.84301 211.25152
 212.06402 213.26152 214.53102 216.33352 218.28102 220.34352 222.45802 224.56052
 226.64002 228.74352 230.86002 232.98552 235.13402 237.32552 239.60102 241.99052
 244.63102 246.90152 248.92302 250.70752 252.14402 253.28652 254.12802 254.46352
 254.52002 254.31352 253.69302 252.66052 251.28602 249.46653 247.39503 245.24753
 243.05803 240.88153 238.72103 236.57953 234.45903 232.34553 230.39103 228.56753
 226.87003 225.36153 224.01103 222.80253 221.70403 220.68353 219.80703 218.96753
 218.22903 217.42853 216.54603 215.92953 215.39903 214.59140 212.68738 211.44632
 211.05804 211.65179 213.21033 215.13837 217.91365 222.05220 227.53194 232.24025
 236.13684 240.42813 244.84442 249.13496 253.09518 256.60526 259.75299 262.73071
 265.61658 268.33136 270.84689 273.21194 275.37994 277.32578 279.07932 280.70474
 282.20123 283.54254 284.75250 285.85727 286.94580 288.00217 288.99164 289.89572
 290.70944 291.43411 292.06714 292.87387
 366.78100 356.35430 345.80561 334.69091 323.11322 311.32652 299.21582 287.03813
 274.76943 262.68574 250.71404 240.03435 230.17565 221.29895 213.50026 206.52156
 200.37487 195.33217 191.93347 189.99478 189.05108 189.13439 189.98869 191.31599
 193.06030 195.17460 197.45691 199.83521 202.29951 204.79882 206.90612 208.76743
 210.41273 211.57704 211.82534 212.07264 212.02895 211.75325 211.40556 211.05486
 210.69116 210.42047 210.24777 210.13108 210.07838 210.42868 210.83399 211.24229
 212.05460 213.25190 214.52120 216.32351 218.27081 220.33312 222.44742 224.54973
 226.62903 228.73233 230.84864 232.97394 235.12225 237.31355 239.58885 241.97816
 244.61846 246.88877 248.91007 250.69437 252.13068 253.27298 254.11429 254.44959
 254.50590 254.29920 253.67850 252.64581 251.27111 249.45142 247.37972 245.23202
 243.04233 240.86563 238.70494 236.56324 234.44254 232.32885 230.37415 228.55046
 226.85276 225.34406 223.99337 222.78467 221.68598 220.66528 219.78859 218.94889
 218.21019 217.40950 216.52680 215.91011 215.37941 214.59541 212.74046 211.41269
 211.03157 211.62843 213.17584 215.16405 217.95734 222.06769 227.50034 232.20497
 236.09279 240.39447 244.82539 249.12962 253.09225 256.58545 259.72449 262.71695
 265.63147 268.35583 270.86777 273.24124 275.42679 277.38736 279.12143 280.70508
 282.17355 283.49207 284.63153 285.60162 286.74695 287.80765 288.81412 289.75635
 290.60376 291.35843 292.01767 292.85779
 366.78100 356.35421 345.80542 334.69063 323.11284 311.32606 299.21527 287.03748
 274.76869 262.68490 250.71311 240.03332 230.17453 221.29775 213.49896 206.52017
 200.37338 195.33059 191.93180 189.99301 189.04922 189.13243 189.98665 191.31386
 193.05807 195.17228 197.45449 199.83270 202.29691 204.79612 206.90334 208.76455
 210.40976 211.57397 211.82218 212.06939 212.02560 211.74981 211.40202 211.05124
 210.68745 210.41666 210.24387 210.12708 210.07429 210.42450 210.82971 211.23793
 212.05014 213.24735 214.51656 216.31877 218.26598 220.32819 222.44240 224.54461
 226.62383 228.72704 230.84325 232.96846 235.11667 237.30788 239.58309 241.97230
 244.61252 246.88273 248.90394 250.68815 252.12436 253.26657 254.10778 254.44299
 254.49920 254.29242 253.67163 252.63884 251.26405 249.44426 247.37247 245.22468
 243.03489 240.85810 238.69732 236.55553 234.43474 232.32095 230.36616 228.54237
 226.84458 225.33579 223.98501 222.77622 221.67743 220.65664 219.77985 218.94006
 218.20127 217.40048 216.51769 215.90091 215.37012 214.58104 212.71945 211.50748
 211.06635 211.63069 213.20157 215.24069 218.00735 222.05376 227.50359 232.14018
 236.03806 240.33759 244.77386 249.07056 253.01767 256.49869 259.62860 262.62924
 265.54666 268.29382 270.82761 273.20258 275.39450 277.36481 279.11884 280.70630
 282.16809 283.48108 284.61661 285.61789 286.60263 287.63083 288.60175 289.46927
 290.26883 290.99329 291.62616 292.43268
 366.78100 356.35451 345.80602 334.69152 323.11403 311.32754 299.21705 287.03955
 274.77106 262.68757 250.71608 240.03659 230.17809 221.30160 213.50311 206.52462
 200.37812 195.33563 191.93714 189.99865 189.05516 189.13866 189.99317 191.32068
 193.06519 195.17970 197.46220 199.84071 202.30522 204.80473 206.91223 208.77374
 210.41925 211.58376 211.83227 212.07977 212.03628 211.76079 211.41330 211.06280
 210.69931 210.42882 210.25633 210.13984 210.08734 210.43785 210.84336 211.25187
 212.06437 213.26188 214.53139 216.33390 218.28141 220.34391 222.45842 224.56093
 226.64044 228.74394 230.86045 232.98596 235.13447 237.32598 239.60148 241.99099
 244.63150 246.90201 248.92351 250.70802 252.14453 253.28704 254.12855 254.46405
 254.52056 254.31407 253.69358 252.66109 251.28659 249.46710 247.39561 245.24812
 243.05862 240.88213 238.72164 236.58015 234.45966 232.34616 230.39167 228.56818
 226.87069 225.36219 224.01170 222.80321 221.70472 220.68423 219.80773 218.96824
 218.22975 217.42926 216.54676 215.93027 215.39978 214.59100 212.68169 211.55330
 211.20918 211.62082 213.18008 215.26952 218.03052 222.05675 227.50322 232.05394
 235.96478 240.25856 244.70126 248.98935 252.91440 256.36945 259.48947 262.50790
 265.44336 268.20163 270.73230 273.11093 275.32666 277.34213 279.15207 280.76083
 282.19836 283.46982 284.57806 285.54398 286.47192 287.48904 288.46564 289.35001
 290.13489 290.85965 291.51044 292.33978
 366.78100 356.35413 345.80526 334.69039 323.11252 311.32565 299.21478 287.03691
 274.76804 262.68417 250.71230 240.03242 230.17355 221.29668 213.49781 206.51894
 200.37207 195.32920 191.93033 189.99146 189.04759 189.13072 189.98485 191.31198
 193.05611 195.17024 197.45237 199.83050 202.29463 204.79376 206.90089 208.76202
 210.40715 211.57127 211.81940 212.06653 212.02266 211.74679 211.39892 211.04805
 210.68418 210.41331 210.24044 210.12357 210.07070 210.42083 210.82596 211.23409
 212.04622 213.24335 214.51248 216.31461 218.26174 220.32387 222.43800 224.54012
 226.61925 228.72238 230.83851 232.96364 235.11177 237.30290 239.57803 241.96716
 244.60729 246.87742 248.89855 250.68268 252.11881 253.26094 254.10207 254.43720
 254.49333 254.28646 253.66559 252.63272 251.25784 249.43797 247.36610 245.21823
 243.02836 240.85149 238.69062 236.54875 234.42788 232.31401 230.35914 228.53527
 226.83740 225.32853 223.97766 222.76879 221.66992 220.64905 219.77218 218.93231
 218.19344 217.39257 216.50969 215.89282 215.36195 214.58813 212.75897 211.40126
 211.31079 211.75542 213.16998 215.23262 218.02240 222.07570 227.47150 232.01628
 235.89644 240.20662 244.64175 248.91757 252.82095 256.26877 259.40994 262.45178
 265.39435 268.13641 270.65329 273.02783 275.25223 277.28351 279.09940 280.72641
 282.19308 283.47357 284.55780 285.51172 286.47476 287.51480 288.48666 289.37817
 290.17480 290.92410 291.57874 292.41299
 366.78100 356.35298 345.80296 334.68694 323.10791 311.31989 299.20787 287.02885
 274.75883 262.67381 250.70079 240.01977 230.15974 221.28172 213.48170 206.50168
 200.35366 195.30964 191.90962 189.96960 189.02457 189.10655 189.95953 191.28551
 193.02849 195.14147 197.42245 199.79943 202.26240 204.76038 206.86636 208.72634
 210.37032 211.53330 211.78028 212.02626 211.98123 211.70421 211.35519 211.00317
 210.63815 210.36613 210.19211 210.07408 210.02006 210.36904 210.77302 211.18000
 211.99098 213.18696 214.45494 216.25591 218.20189 220.26287 222.37585 224.47683
 226.55481 228.65679 230.77177 232.89574 235.04272 237.23270 239.50668 241.89466
 244.53364 246.80262 248.82260 250.60557 252.04055 253.18153 254.02151 254.35549
 254.41047 254.20245 253.58043 252.54640 251.17038 249.34936 247.27634 245.12732
 242.93630 240.75828 238.59625 236.45323 234.33121 232.21619 230.26017 228.43515
 226.73613 225.22611 223.87408 222.66406 221.56404 220.54202 219.66400 218.82298
 218.08296 217.28094 216.39691 215.77889 215.24687 214.55431 212.89639 211.28467
 211.22513 211.69479 213.12825 215.28320 218.13185 222.14568 227.48174 232.09132
 235.87292 240.17856 244.62646 248.91705 252.81285 256.24628 259.37433 262.39352
 265.32721 268.06494 270.57669 272.91571 275.11395 277.15796 278.99158 280.58475
 281.97647 283.18954 284.22873 285.26343 286.43082 287.49606 288.50189 289.44427
 290.29785 291.05798 291.72202 292.56824
 366.78100 356.35256 345.80212 334.68567 323.10623 311.31779 299.20535 287.02590
 274.75546 262.67002 250.69658 240.01514 230.15469 221.27625 213.47581 206.49537
 200.34692 195.30248 191.90204 189.96160 189.01615 189.09771 189.95027 191.27583
 193.01839 195.13094 197.41150 199.78806 202.25062 204.74817 206.85373 208.71329
 210.35685 211.51941 211.76596 212.01152 211.96608 211.68864 211.33919 210.98675
 210.62131 210.34887 210.17442 210.05598 210.00154 210.35010 210.75366 211.16021
 211.97077 213.16633 214.43389 216.23444 218.18000 220.24056 222.35312 224.45368
 226.53123 228.63279 230.74735 232.87091 235.01746 237.20702 239.48058 241.86814
 244.50669 246.77525 248.79481 250.57737 252.01193 253.15248 253.99204 254.32560
 254.38016 254.17171 253.54927 252.51483 251.13839 249.31695 247.24350 245.09406
 242.90262 240.72418 238.56173 236.41829 234.29585 232.18041 230.22396 228.39852
 226.69908 225.18864 223.83620 222.62575 221.52531 220.50287 219.62443 218.78298
 218.04254 217.24010 216.35566 215.73722 215.20477 214.57791 212.98116 211.29736
 211.23683 211.82841 213.29176 215.40257 218.26624 222.24423 227.54300 232.08067
 235.88930 240.19298 244.64000 248.91899 252.80048 256.24866 259.42694 262.46243
 265.35986 268.06885 270.57144 272.89581 275.05606 277.01843 278.73236 280.18192
 281.44122 282.69949 284.20987 285.71423 287.05640 288.24390 289.32730 290.30878
 291.19153 291.97760 292.66431 293.53943
 366.78100 356.35195 345.80090 334.68385 323.10379 311.31474 299.20169 287.02164
 274.75059 262.66454 250.69048 240.00843 230.14738 221.26833 213.46728 206.48623
 200.33718 195.29212 191.89107 189.95002 189.00397 189.08492 189.93687 191.26181
 193.00376 195.11571 197.39566 199.77161 202.23356 204.73050 206.83545 208.69440
 210.33735 211.49930 211.74525 211.99020 211.94414 211.66609 211.31604 210.96299
 210.59694 210.32389 210.14883 210.02978 209.97473 210.32268 210.72563 211.13158
 211.94153 213.13647 214.40342 216.20337 218.14832 220.20827 222.32022 224.42016
 226.49711 228.59806 230.71201 232.83496 234.98091 237.16986 239.44280 241.82975
 244.46770 246.73565 248.75460 250.53655 251.97049 253.11044 253.94939 254.28234
 254.33629 254.12724 253.50419 252.46913 251.09208 249.27003 247.19598 245.04593
 242.85388 240.67482 238.51177 236.36772 234.24467 232.12862 230.17157 228.34551
 226.64546 225.13441 223.78136 222.57031 221.46926 220.44621 219.56715 218.72510
 217.98405 217.18100 216.29595 215.67690 215.14384 214.56424 213.03548 211.28265
 211.23471 211.96150 213.35431 215.37367 218.16344 222.22188 227.48184 232.01961
 235.85516 240.20023 244.68469 248.96681 252.80441 256.21634 259.41229 262.51056
 265.44330 268.12088 270.60107 272.99597 275.25439 277.29190 279.00052 280.31790
 281.41653 283.06265 284.72632 286.35303 287.76077 289.00629 290.14264 291.17209
 292.09796 292.92245 293.64270 294.56061
 366.78100 356.35140 345.79980 334.68220 323.10161 311.31201 299.19841 287.01781
 274.74621 262.65961 250.68501 240.00242 230.14082 221.26122 213.45962 206.47802
 200.32842 195.28282 191.88123 189.93963 188.99303 189.07343 189.92483 191.24923
 192.99063 195.10204 197.38144 199.75684 202.21824 204.71464 206.81904 208.67744
 210.31985 211.48125 211.72665 211.97105 211.92445 211.64585 211.29525 210.94166
 210.57506 210.30146 210.12586 210.00626 209.95066 210.29806 210.70047 211.10587
 211.91527 213.10967 214.37607 216.17547 218.11987 220.17928 222.29068 224.39008
 226.46648 228.56688 230.68028 232.80268 234.94809 237.13649 239.40889 241.79529
 244.43269 246.70009 248.71849 250.49990 251.93330 253.07270 253.91110 254.24350
 254.29690 254.08730 253.46370 252.42811 251.05051 249.22791 247.15331 245.00271
 242.81011 240.63051 238.46692 236.32232 234.19872 232.08212 230.12452 228.29792
 226.59732 225.08573 223.73213 222.52053 221.41893 220.39533 219.51573 218.67313
 217.93154 217.12794 216.24234 215.62274 215.08914 214.47214 213.00027 211.55011
 210.98636 211.45004 213.21211 215.45810 218.26935 222.21281 227.45082 231.99638
 235.83586 240.11395 244.53198 248.77133 252.62233 256.06943 259.25122 262.29401
 265.20462 267.94058 270.49554 272.90927 275.20743 277.36865 279.33023 281.01849
 282.37830 283.46552 284.38120 285.31827 286.34845 287.33606 288.26379 289.13925
 289.95908 290.68915 291.32693 292.13971
 366.78100 356.35236 345.80171 334.68507 323.10542 311.31678 299.20413 287.02449
 274.75384 262.66820 250.69455 240.01291 230.15226 221.27362 213.47297 206.49233
 200.34368 195.29904 191.89839 189.95775 189.01210 189.09346 189.94581 191.27117
 193.01352 195.12588 197.40623 199.78259 202.24494 204.74230 206.84765 208.70701
 210.35036 211.51272 211.75907 212.00443 211.95878 211.68114 211.33149 210.97885
 210.61320 210.34056 210.16591 210.04727 209.99262 210.34098 210.74433 211.15069
 211.96104 213.15640 214.42375 216.22411 218.16946 220.22982 222.34218 224.44253
 226.51989 228.62124 230.73560 232.85895 235.00531 237.19466 239.46802 241.85537
 244.49373 246.76208 248.78144 250.56379 251.99815 253.13850 253.97786 254.31121
 254.36557 254.15692 253.53428 252.49963 251.12299 249.30134 247.22770 245.07805
 242.88641 240.70776 238.54512 236.40147 234.27883 232.16318 230.20654 228.38089
 226.68125 225.17060 223.81796 222.60731 221.50667 220.48402 219.60538 218.76373
 218.02309 217.22044 216.33580 215.71715 215.18451 214.48898 212.84573 211.72002
 211.31499 211.41736 213.12106 215.41565 218.10829 222.07315 227.45650 231.84995
 235.74513 240.04187 244.50208 248.76860 252.61029 256.01349 259.15884 262.20169
 265.12704 267.84055 270.32059 272.63873 274.88287 277.04309 279.04758 280.78949
 282.23163 283.39145 284.34891 285.20026 286.03348 286.84744 287.68814 288.54587
 289.34000 290.02441 290.53217 291.27417
 366.78100 356.35285 345.80271 334.68656 323.10742 311.31927 299.20713 287.02798
 274.75784 262.67269 250.69955 240.01840 230.15825 221.28011 213.47996 206.49982
 200.35167 195.30753 191.90738 189.96724 189.02209 189.10394 189.95680 191.28265
 193.02551 195.13836 197.41922 199.79607 202.25893 204.75678 206.86264 208.72249
 210.36634 211.52920 211.77605 212.02191 211.97676 211.69962 211.35047 210.99833
 210.63318 210.36104 210.18689 210.06874 210.01460 210.36345 210.76731 211.17416
 211.98502 213.18087 214.44873 216.24958 218.19543 220.25629 222.36914 224.47000
 226.54785 228.64971 230.76456 232.88842 235.03527 237.22513 239.49898 241.88683
 244.52569 246.79454 248.81440 250.59725 252.03211 253.17296 254.01282 254.34667
 254.40152 254.19338 253.57123 252.53709 251.16094 249.33980 247.26665 245.11751
 242.92636 240.74822 238.58607 236.44292 234.32078 232.20563 230.24949 228.42434
 226.72520 225.21505 223.86291 222.65276 221.55262 220.53047 219.65232 218.81118
 218.07103 217.26889 216.38474 215.76660 215.23445 214.52136 212.83659 211.61754
 211.31335 211.60562 213.20627 215.39597 218.09520 222.05234 227.42937 231.84082
 235.70229 240.02747 244.51431 248.81122 252.65942 256.05344 259.19730 262.26193
 265.21429 267.94418 270.41629 272.69354 274.87485 276.97733 278.92764 280.61731
 282.00525 283.13208 284.04709 284.88135 285.77191 286.61603 287.47180 288.33450
 289.14243 289.84802 290.43155 291.18671
 366.78100 356.35047 345.79794 334.67942 323.09789 311.30736 299.19283 287.01131
 274.73878 262.65125 250.67572 239.99220 230.12967 221.24914 213.44661 206.46409
 200.31356 195.26703 191.86450 189.92198 188.97445 189.05392 189.90439 191.22787
 192.96834 195.07881 197.35728 199.73176 202.19223 204.68770 206.79117 208.64865
 210.29012 211.45059 211.69506 211.93854 211.89101 211.61148 211.25995 210.90543
 210.53790 210.26337 210.08684 209.96632 209.90979 210.25626 210.65773 211.06221
 211.87068 213.06415 214.32962 216.12810 218.07157 220.13004 222.24051 224.33899
 226.41446 228.51393 230.62640 232.74788 234.89235 237.07982 239.35129 241.73677
 244.37324 246.63971 248.65718 250.43766 251.87013 253.00860 253.84607 254.17754
 254.23002 254.01949 253.39496 252.35843 250.97991 249.15638 247.08085 244.92932
 242.73580 240.55527 238.39074 236.24521 234.12069 232.00316 230.04463 228.21710
 226.51558 225.00305 223.64852 222.43599 221.33347 220.30894 219.42841 218.58488
 217.84236 217.03783 216.15130 215.53077 214.99625 214.40175 212.99718 211.62428
 211.16373 211.65387 213.23477 215.36577 218.11874 222.06645 227.41083 231.80135
 235.66383 239.99365 244.49295 248.79953 252.63855 256.02036 259.16895 262.25720
 265.22699 267.96777 270.45053 272.72360 274.87375 276.92908 278.84439 280.50311
 281.86176 282.95749 283.82819 284.65765 285.59000 286.46057 287.38455 288.25620
 289.07333 289.78067 290.38232 291.15335
 366.78100 356.34795 345.79289 334.67184 323.08779 311.29473 299.17768 286.99363
 274.71857 262.62852 250.65047 239.96441 230.09936 221.21630 213.41125 206.42620
 200.27314 195.22409 191.81904 189.87398 188.92393 189.00088 189.84882 191.16977
 192.90772 195.01566 197.29161 199.66356 202.12150 204.61445 206.71540 208.57034
 210.20929 211.36724 211.60918 211.85013 211.80007 211.51802 211.16397 210.80691
 210.43686 210.15981 209.98075 209.85770 209.79865 210.14259 210.54154 210.94349
 211.74943 212.94038 214.20333 215.99927 217.94022 219.99617 222.10411 224.20006
 226.27301 228.36995 230.47990 232.59884 234.74079 236.92574 239.19468 241.57763
 244.21158 246.47552 248.49047 250.26842 251.69836 252.83431 253.66926 253.99820
 254.04815 253.83510 253.20804 252.16899 250.78794 248.96188 246.88383 244.72978
 242.53372 240.35067 238.18361 236.03556 233.90851 231.78845 229.82740 227.99735
 226.29329 224.77824 223.42119 222.20613 221.10108 220.07403 219.19097 218.34492
 217.59987 216.79281 215.90376 215.28071 214.74365 214.26530 213.13513 211.75294
 211.07472 211.58153 213.15085 215.31747 218.17004 222.12086 227.41013 231.77878
 235.64044 239.95256 244.44453 248.73593 252.55377 255.92923 259.09616 262.21194
 265.19122 267.93256 270.41592 272.68808 274.83185 276.86935 278.77356 280.41867
 281.75488 282.81787 283.64914 284.48898 285.44925 286.34229 287.28159 288.15662
 288.97696 289.67679 290.27509 291.04010
 366.78100 356.34737 345.79174 334.67011 323.08548 311.29185 299.17422 286.98959
 274.71397 262.62334 250.64471 239.95808 230.09245 221.20882 213.40319 206.41756
 200.26393 195.21430 191.80867 189.86304 188.91241 188.98878 189.83615 191.15653
 192.89390 195.00127 197.27664 199.64801 202.10538 204.59775 206.69812 208.55249
 210.19086 211.34823 211.58960 211.82997 211.77934 211.49671 211.14208 210.78446
 210.41383 210.13620 209.95657 209.83294 209.77331 210.11668 210.51505 210.91642
 211.72179 212.91216 214.17453 215.96990 217.91027 219.96564 222.07302 224.16839
 226.24076 228.33713 230.44650 232.56487 234.70624 236.89061 239.15898 241.54135
 244.17472 246.43809 248.45246 250.22983 251.65920 252.79458 253.62895 253.95732
 254.00669 253.79306 253.16543 252.12580 250.74417 248.91754 246.83891 244.68428
 242.48765 240.30402 238.13639 235.98776 233.86014 231.73951 229.77788 227.94725
 226.24262 224.72699 223.36936 222.15373 221.04810 220.02047 219.13684 218.29021
 217.54458 216.73695 215.84732 215.22370 214.68607 214.23036 213.15373 211.88737
 211.10837 211.52214 213.02992 215.20303 218.13908 222.16556 227.43985 231.81001
 235.66919 239.96313 244.44061 248.71808 252.51514 255.87654 259.04861 262.17905
 265.16287 267.90427 270.38358 272.64691 274.77893 276.79700 278.67572 280.28635
 281.58575 282.61703 283.45547 284.34113 285.33585 286.24933 287.18683 288.06448
 288.89050 289.58969 290.18204 290.95212
 366.78100 356.34705 345.79110 334.66915 323.08419 311.29024 299.17229 286.98734
 274.71139 262.62044 250.64148 239.95453 230.08858 221.20463 213.39868 206.41273
 200.25877 195.20882 191.80287 189.85692 188.90597 188.98202 189.82906 191.14911
 192.88616 194.99321 197.26826 199.63931 202.09635 204.58840 206.68845 208.54250
 210.18055 211.33760 211.57865 211.81869 211.76774 211.48479 211.12984 210.77189
 210.40094 210.12298 209.94303 209.81908 209.75913 210.10218 210.50023 210.90127
 211.70632 212.89637 214.15842 215.95347 217.89352 219.94856 222.05561 224.15066
 226.22271 228.31876 230.42781 232.54586 234.68690 236.87095 239.13900 241.52105
 244.15410 246.41715 248.43119 250.20824 251.63729 252.77234 253.60639 253.93444
 253.98348 253.76953 253.14158 252.10163 250.71968 248.89273 246.81377 244.65882
 242.46187 240.27792 238.10997 235.96102 233.83306 231.71211 229.75016 227.91921
 226.21426 224.69831 223.34036 222.12440 221.01845 219.99050 219.10655 218.25960
 217.51365 216.70569 215.81574 215.19179 214.65384 214.21190 213.16779 211.94966
 211.24251 211.53609 212.87079 215.05257 218.06746 222.15210 227.43015 231.81255
 235.70132 239.98990 244.46510 248.74477 252.53172 255.87440 259.02881 262.15015
 265.12360 267.86282 270.34470 272.60471 274.72626 276.71768 278.55994 280.13287
 281.40897 282.43076 283.28629 284.21478 285.23413 286.16232 287.10382 287.98276
 288.81284 289.51044 290.10452 290.88107
 366.78100 356.34692 345.79084 334.66876 323.08369 311.28961 299.17153 286.98645
 274.71037 262.61929 250.64021 239.95314 230.08706 221.20298 213.39690 206.41082
 200.25674 195.20666 191.80059 189.85451 188.90343 188.97935 189.82627 191.14619
 192.88311 194.99004 197.26496 199.63588 202.09280 204.58472 206.68464 208.53856
 210.17649 211.33341 211.57433 211.81425 211.76317 211.48009 211.12501 210.76694
 210.39586 210.11778 209.93770 209.81362 209.75354 210.09646 210.49439 210.89531
 211.70023 212.89015 214.15207 215.94699 217.88691 219.94184 222.04876 224.14368
 226.21560 228.31152 230.42044 232.53836 234.67929 236.86321 239.13113 241.51305
 244.14597 246.40889 248.42281 250.19974 251.62866 252.76358 253.59750 253.92542
 253.97434 253.76026 253.13219 252.09211 250.71003 248.88295 246.80387 244.64879
 242.45172 240.26764 238.09956 235.95048 233.82240 231.70132 229.73924 227.90817
 226.20309 224.68701 223.32893 222.11285 221.00677 219.97869 219.09462 218.24754
 217.50146 216.69338 215.80330 215.17922 214.64114 214.20161 213.16318 212.04984
 211.35867 211.53250 212.80438 214.95567 217.93921 222.07681 227.38194 231.77458
 235.69600 239.98955 244.47375 248.76581 252.55713 255.89336 259.03439 262.14078
 265.09583 267.82309 270.30511 272.56580 274.67606 276.63580 278.44156 279.99423
 281.27145 282.32056 283.22302 284.16385 285.15625 286.07385 287.01041 287.89056
 288.72202 289.41708 290.01361 290.78760
 366.78100 356.34817 345.79333 334.67250 323.08866 311.29583 299.17899 286.99516
 274.72032 262.63049 250.65265 239.96682 230.10198 221.21915 213.41431 206.42948
 200.27664 195.22781 191.82297 189.87814 188.92830 189.00547 189.85363 191.17480
 192.91296 195.02113 197.29729 199.66946 202.12763 204.62079 206.72196 208.57712
 210.21629 211.37445 211.61662 211.85778 211.80795 211.52611 211.17228 210.81544
 210.44561 210.16877 209.98994 209.86710 209.80827 210.15243 210.55160 210.95376
 211.75993 212.95109 214.21426 216.01042 217.95159 220.00775 222.11592 224.21209
 226.28525 228.38242 230.49258 232.61175 234.75391 236.93908 239.20824 241.59141
 244.22557 246.48974 248.50490 250.28307 251.71323 252.84940 253.68456 254.01373
 254.06389 253.85106 253.22422 252.18539 250.80455 248.97872 246.90088 244.74705
 242.55121 240.36838 238.20154 236.05371 233.92688 231.80704 229.84621 228.01637
 226.31254 224.79770 223.44087 222.22603 221.12120 220.09436 219.21153 218.36569
 217.62086 216.81402 215.92519 215.30235 214.76552 214.26123 213.06984 212.22784
 211.51187 211.46910 212.61517 214.85464 217.91849 222.06021 227.35103 231.74763
 235.66928 239.96548 244.45291 248.74979 252.54327 255.88676 259.03900 262.15274
 265.09888 267.81210 270.28064 272.53387 274.62119 276.54453 278.30640 279.83499
 281.11264 282.17984 283.11185 284.07114 285.13123 286.09198 287.03711 287.92334
 288.75555 289.45273 290.05737 290.84155
 366.78100 356.34870 345.79440 334.67410 323.09080 311.29849 299.18219 286.99889
 274.72459 262.63529 250.65799 239.97269 230.10839 221.22609 213.42179 206.43748
 200.28518 195.23688 191.83258 189.88828 188.93898 189.01668 189.86538 191.18708
 192.92577 195.03447 197.31117 199.68387 202.14257 204.63627 206.73797 208.59367
 210.23337 211.39206 211.63476 211.87646 211.82716 211.54586 211.19256 210.83626
 210.46696 210.19066 210.01236 209.89005 209.83175 210.17645 210.57615 210.97885
 211.78555 212.97725 214.24095 216.03765 217.97934 220.03604 222.14474 224.24144
 226.31514 228.41284 230.52354 232.64324 234.78594 236.97163 239.24133 241.62503
 244.25973 246.52443 248.54013 250.31883 251.74953 252.88623 253.72193 254.05162
 254.10232 253.89002 253.26372 252.22542 250.84512 249.01982 246.94252 244.78922
 242.59391 240.41161 238.24531 236.09801 233.97171 231.85241 229.89211 228.06281
 226.35951 224.84521 223.48890 222.27460 221.17030 220.14400 219.26170 218.41640
 217.67210 216.86580 215.97750 215.35519 214.81889 214.28778 213.03299 212.33766
 211.66638 211.41737 212.50066 214.76463 217.88278 222.03706 227.34146 231.74011
 235.65549 239.94884 244.43266 248.72214 252.49699 255.84073 259.01715 262.15936
 265.11087 267.81323 270.26450 272.49884 274.55698 276.42889 278.14224 279.64957
 280.92871 282.01703 282.99622 284.00266 285.07318 286.03363 286.96661 287.84793
 288.66510 289.35110 289.93939 290.70712
 366.78100 356.34753 345.79206 334.67058 323.08611 311.29264 299.17517 286.99070
 274.71522 262.62475 250.64628 239.95981 230.09434 221.21086 213.40539 206.41992
 200.26645 195.21698 191.81150 189.86603 188.91556 188.99209 189.83962 191.16014
 192.89767 195.00520 197.28073 199.65226 202.10978 204.60231 206.70284 208.55737
 210.19590 211.35342 211.59495 211.83548 211.78501 211.50254 211.14806 210.79059
 210.42012 210.14265 209.96317 209.83970 209.78023 210.12376 210.52229 210.92381
 211.72934 212.91987 214.18240 215.97793 217.91845 219.97398 222.08151 224.17704
 226.24957 228.34609 230.45562 232.57415 234.71568 236.90021 239.16873 241.55126
 244.18479 246.44832 248.46285 250.24037 251.66990 252.80543 253.63996 253.96849
 254.01801 253.80454 253.17707 252.13760 250.75613 248.92965 246.85118 244.69671
 242.50024 240.31677 238.14929 236.00082 233.87335 231.75288 229.79141 227.96093
 226.25646 224.74099 223.38352 222.16805 221.06257 220.03510 219.15163 218.30516
 217.55969 216.75221 215.86274 215.23927 214.70180 214.23088 213.11830 212.34413
 211.78476 211.41051 212.44402 214.66032 217.81142 221.99194 227.33377 231.76434
 235.67146 239.97083 244.44740 248.72485 252.46695 255.78688 258.97165 262.14157
 265.10507 267.80341 270.23853 272.45099 274.45343 276.25964 277.92987 279.44186
 280.77393 281.94476 282.99060 283.99594 285.02676 286.05600 287.01361 287.88242
 288.66272 289.35175 289.96780 290.82053
 366.78100 356.34569 345.78839 334.66508 323.07877 311.28346 299.16416 286.97785
 274.70054 262.60824 250.62793 239.93962 230.07231 221.18701 213.37970 206.39239
 200.23708 195.18578 191.77847 189.83116 188.87886 188.95355 189.79924 191.11793
 192.85363 194.95932 197.23301 199.60271 202.05840 204.54909 206.64778 208.50048
 210.13717 211.29286 211.53256 211.77125 211.71894 211.43463 211.07833 210.71902
 210.34671 210.06740 209.88610 209.76079 209.69948 210.04118 210.43787 210.83756
 211.64125 212.82995 214.09064 215.88433 217.82303 219.87672 221.98241 224.07610
 226.14680 228.24149 230.34918 232.46588 234.60557 236.78826 239.05495 241.43565
 244.06734 246.32903 248.34172 250.11742 251.54511 252.67880 253.51150 253.83819
 253.88588 253.67057 253.04127 251.99996 250.61665 248.78835 246.70804 244.55173
 242.35342 240.16812 237.99881 235.84850 233.71920 231.59689 229.63358 227.80127
 226.09497 224.57766 223.21835 222.00104 220.89374 219.86443 218.97912 218.13082
 217.38351 216.57420 215.68289 215.05759 214.51828 214.14690 213.26944 212.30595
 211.85652 211.39247 212.37212 214.58356 217.74770 221.93790 227.28645 231.80954
 235.68221 240.00458 244.47322 248.73924 252.47449 255.78931 258.96979 262.12988
 265.09586 267.79855 270.23502 272.43018 274.38220 276.10699 277.69321 279.16519
 280.50433 281.71625 282.86563 284.03525 285.17990 286.23145 287.20309 288.08832
 288.88583 289.61172 290.28894 291.15198
 366.78100 356.34450 345.78599 334.66149 323.07398 311.27748 299.15698 286.96947
 274.69097 262.59747 250.61596 239.92646 230.05795 221.17145 213.36295 206.37444
 200.21794 195.16544 191.75693 189.80843 188.85492 188.92842 189.77292 191.09041
 192.82491 194.92941 197.20190 199.57040 202.02489 204.51439 206.61189 208.46338
 210.09888 211.25337 211.49187 211.72937 211.67586 211.39036 211.03286 210.67235
 210.29885 210.01834 209.83584 209.70934 209.64683 209.98733 210.38283 210.78132
 211.58382 212.77131 214.03081 215.82331 217.76080 219.81330 221.91780 224.01029
 226.07979 228.17328 230.27978 232.39528 234.53377 236.71527 238.98076 241.36026
 243.99076 246.25125 248.26275 250.03725 251.46374 252.59624 253.42773 253.75323
 253.79973 253.58322 252.95272 251.91022 250.52571 248.69621 246.61470 244.45720
 242.25770 240.07119 237.90069 235.74919 233.61868 231.49518 229.53067 227.69717
 225.98967 224.47116 223.11066 221.89215 220.78365 219.75315 218.86664 218.01714
 217.26864 216.45813 215.56563 214.93912 214.39862 214.09523 213.37198 212.33054
 211.87378 211.36826 212.29352 214.54021 217.71062 221.89905 227.23222 231.81252
 235.67458 240.01320 244.48409 248.74474 252.48984 255.81915 259.00577 262.15771
 265.12439 267.83508 270.28552 272.48486 274.40344 276.05502 277.54813 278.94461
 280.23318 281.46338 282.70471 283.99887 285.18060 286.24097 287.22479 288.13031
 288.97198 289.75726 290.44327 291.31747
 366.78100 356.34477 345.78655 334.66232 323.07510 311.27887 299.15865 286.97142
 274.69319 262.59997 250.61874 239.92952 230.06129 221.17506 213.36684 206.37861
 200.22239 195.17016 191.76194 189.81371 188.86048 188.93426 189.77903 191.09681
 192.83158 194.93636 197.20913 199.57790 202.03268 204.52245 206.62023 208.47200
 210.10778 211.26255 211.50132 211.73910 211.68587 211.40065 211.04342 210.68319
 210.30997 210.02974 209.84752 209.72129 209.65907 209.99984 210.39561 210.79439
 211.59716 212.78494 214.04471 215.83749 217.77526 219.82803 221.93281 224.02558
 226.09536 228.18913 230.29590 232.41168 234.55045 236.73223 238.99800 241.37778
 244.00855 246.26932 248.28110 250.05587 251.48265 252.61542 253.44720 253.77297
 253.81974 253.60352 252.97329 251.93107 250.54684 248.71762 246.63639 244.47916
 242.27994 240.09371 237.92349 235.77226 233.64203 231.51881 229.55458 227.72136
 226.01413 224.49591 223.13568 221.91745 220.80923 219.77900 218.89278 218.04355
 217.29533 216.48510 215.59287 214.96665 214.42642 214.10962 213.35814 212.44386
 211.97501 211.33850 212.18216 214.50087 217.67520 221.87904 227.21739 231.77304
 235.64830 239.98195 244.45334 248.71291 252.45280 255.78355 258.97543 262.13815
 265.11005 267.83237 270.30005 272.51651 274.44354 276.09106 277.56766 278.97037
 280.28262 281.51163 282.68460 283.86224 285.00943 286.06207 287.03644 287.93082
 288.75748 289.55774 290.25684 291.14777
 366.78100 356.34521 345.78743 334.66364 323.07685 311.28107 299.16128 286.97449
 274.69671 262.60392 250.62314 239.93435 230.06656 221.18078 213.37299 206.38520
 200.22942 195.17763 191.76984 189.82206 188.86927 188.94348 189.78870 191.10691
 192.84212 194.94734 197.22055 199.58977 202.04498 204.53519 206.63341 208.48562
 210.12183 211.27705 211.51626 211.75447 211.70169 211.41690 211.06011 210.70033
 210.32754 210.04775 209.86597 209.74018 209.67839 210.01961 210.41582 210.81504
 211.61825 212.80646 214.06668 215.85989 217.79810 219.85132 221.95653 224.04974
 226.11996 228.21417 230.32138 232.43760 234.57681 236.75902 239.02524 241.40545
 244.03667 246.29788 248.31009 250.08531 251.51252 252.64573 253.47795 253.80416
 253.85137 253.63559 253.00580 251.96401 250.58023 248.75144 246.67065 244.51387
 242.31508 240.12930 237.95951 235.80872 233.67894 231.55615 229.59236 227.75958
 226.05279 224.53500 223.17522 221.95743 220.84964 219.81986 218.93407 218.08528
 217.33750 216.52771 215.63593 215.01014 214.47035 214.13554 213.34241 212.54315
 212.08485 211.31348 212.03259 214.44449 217.66541 221.89293 227.22887 231.78325
 235.63173 239.95120 244.40593 248.64420 252.36765 255.70554 258.91873 262.09470
 265.06058 267.76956 270.22455 272.43225 274.34442 275.99142 277.50690 278.97784
 280.36700 281.64578 282.81476 283.93250 285.06360 286.11542 287.08923 287.99228
 288.82776 289.62396 290.31952 291.20590
 366.78100 356.34452 345.78603 334.66155 323.07407 311.27758 299.15710 286.96962
 274.69113 262.59765 250.61617 239.92668 230.05820 221.17172 213.36323 206.37475
 200.21827 195.16578 191.75730 189.80882 188.85533 188.92885 189.77337 191.09088
 192.82540 194.92992 197.20243 199.57095 202.02547 204.51498 206.61250 208.46402
 210.09953 211.25405 211.49257 211.73008 211.67660 211.39112 211.03363 210.67315
 210.29967 210.01918 209.83670 209.71022 209.64773 209.98825 210.38377 210.78228
 211.58480 212.77232 214.03183 215.82435 217.76187 219.81438 221.91890 224.01142
 226.08093 228.17445 230.28097 232.39648 234.53500 236.71652 238.98203 241.36155
 243.99207 246.25258 248.26410 250.03862 251.46513 252.59765 253.42917 253.75468
 253.80120 253.58472 252.95423 251.91175 250.52727 248.69778 246.61630 244.45882
 242.25933 240.07285 237.90237 235.75088 233.62040 231.49692 229.53243 227.69895
 225.99147 224.47298 223.11250 221.89402 220.78553 219.75505 218.86857 218.01908
 217.27060 216.46012 215.56763 214.94115 214.40067 214.10768 213.40932 212.58311
 212.13022 211.29727 211.89362 214.34541 217.64487 221.90735 227.24547 231.83876
 235.65489 239.96310 244.39969 248.61414 252.33188 255.68689 258.92783 262.11047
 265.07077 267.76407 270.19730 272.35257 274.20111 275.79214 277.30527 278.82535
 280.28162 281.62378 282.85498 284.10028 285.27420 286.32797 287.31522 288.22754
 289.10690 289.90298 290.59839 291.48465
 366.78100 356.34382 345.78464 334.65945 323.07127 311.27409 299.15291 286.96473
 274.68554 262.59136 250.60918 239.91900 230.04982 221.16263 213.35345 206.36427
 200.20709 195.15391 191.74472 189.79554 188.84136 188.91418 189.75799 191.07481
 192.80863 194.91245 197.18427 199.55208 202.00590 204.49472 206.59154 208.44236
 210.07717 211.23099 211.46881 211.70563 211.65145 211.36526 211.00708 210.64590
 210.27172 209.99054 209.80735 209.68017 209.61699 209.95681 210.35163 210.74944
 211.55126 212.73808 213.99690 215.78872 217.72553 219.77735 221.88117 223.97299
 226.04181 228.13462 230.24044 232.35526 234.49308 236.67390 238.93871 241.31753
 243.94735 246.20717 248.21798 249.99180 251.41762 252.54944 253.38026 253.70507
 253.75089 253.53371 252.90253 251.85935 250.47416 248.64398 246.56180 244.40362
 242.20344 240.01625 237.84507 235.69289 233.56171 231.43753 229.47234 227.63816
 225.92998 224.41080 223.04962 221.83043 220.72125 219.69007 218.80289 217.95271
 217.20352 216.39234 215.49916 214.87198 214.33080 214.07896 213.47209 212.64992
 212.15924 211.25998 211.79927 214.23949 217.58241 221.86813 227.22433 231.86136
 235.67113 239.98038 244.41025 248.60895 252.32381 255.68738 258.94623 262.13345
 265.09360 267.77988 270.19351 272.34183 274.09464 275.59674 277.13068 278.69077
 280.16544 281.48129 282.81876 284.12399 285.30231 286.36481 287.35706 288.29831
 289.17383 289.95349 290.63458 291.50256
 366.78100 356.34430 345.78559 334.66089 323.07318 311.27648 299.15577 286.96807
 274.68936 262.59566 250.61395 239.92425 230.05554 221.16884 213.36013 206.37143
 200.21472 195.16202 191.75331 189.80461 188.85090 188.92420 189.76849 191.08579
 192.82008 194.92438 197.19667 199.56497 202.01926 204.50856 206.60585 208.45715
 210.09244 211.24674 211.48503 211.72233 211.66862 211.38292 211.02521 210.66451
 210.29080 210.01010 209.82739 209.70069 209.63798 209.97828 210.37357 210.77187
 211.57416 212.76146 214.02075 215.81305 217.75034 219.80264 221.90694 223.99923
 226.06853 228.16182 230.26812 232.38341 234.52171 236.70300 238.96830 241.34759
 243.97789 246.23818 248.24948 250.02377 251.45007 252.58236 253.41366 253.73895
 253.78525 253.56854 252.93784 251.89513 250.51043 248.68072 246.59902 244.44131
 242.24161 240.05490 237.88420 235.73249 233.60179 231.47808 229.51338 227.67967
 225.97197 224.45326 223.09256 221.87385 220.76515 219.73444 218.84774 217.99803
 217.24933 216.43862 215.54592 214.91921 214.37851 214.11307 213.47188 212.74005
 212.13348 211.20262 211.75838 214.15477 217.52592 221.81938 227.17943 231.84744
 235.67236 239.98492 244.41212 248.59074 252.30304 255.68004 258.96402 262.15625
 265.11438 267.79639 270.18375 272.25586 274.05923 275.51633 277.04214 278.59848
 279.94092 281.32669 282.74673 284.06375 285.24811 286.31683 287.36108 288.33603
 289.21289 289.99374 290.67587 291.54517
 366.78100 356.34475 345.78651 334.66226 323.07502 311.27877 299.15852 286.97128
 274.69303 262.59979 250.61854 239.92929 230.06105 221.17480 213.36656 206.37831
 200.22207 195.16982 191.76157 189.81333 188.86008 188.93384 189.77859 191.09634
 192.83110 194.93585 197.20861 199.57736 202.03211 204.52187 206.61962 208.47138
 210.10713 211.26188 211.50064 211.73839 211.68515 211.39990 211.04266 210.68241
 210.30916 210.02892 209.84667 209.72043 209.65818 209.99893 210.39469 210.79344
 211.59620 212.78395 214.04370 215.83646 217.77421 219.82697 221.93172 224.02447
 226.09423 228.18798 230.29474 232.41049 234.54924 236.73100 238.99675 241.37651
 244.00726 246.26802 248.27977 250.05452 251.48128 252.61403 253.44579 253.77154
 253.81829 253.60205 252.97180 251.92956 250.54531 248.71606 246.63482 244.47757
 242.27833 240.09208 237.92183 235.77059 233.64034 231.51710 229.55285 227.71960
 226.01236 224.49411 223.13387 221.91562 220.80738 219.77713 218.89088 218.04164
 217.29339 216.48315 215.59090 214.96465 214.42441 214.14429 213.47099 212.78961
 212.23921 211.21275 211.70862 214.09459 217.48163 221.78178 227.15514 231.83839
 235.67256 239.98659 244.41008 248.57855 252.28098 255.65556 258.95108 262.16190
 265.13037 267.82086 270.21710 272.24033 274.01038 275.44037 276.96017 278.48218
 279.82205 281.13452 282.43430 283.77139 284.97409 286.08432 287.26080 288.36331
 289.35492 290.23792 291.00931 291.99234
 366.78100 356.34229 345.78158 334.65487 323.06516 311.26645 299.14374 286.95403
 274.67332 262.57761 250.59391 239.90220 230.03149 221.14278 213.33207 206.34136
 200.18265 195.12794 191.71723 189.76652 188.81081 188.88210 189.72439 191.03968
 192.77197 194.87426 197.14455 199.51084 201.96314 204.45043 206.54572 208.39501
 210.02830 211.18059 211.41688 211.65217 211.59646 211.30875 210.94904 210.58633
 210.21062 209.92791 209.74320 209.61449 209.54978 209.88807 210.28137 210.67766
 211.47795 212.66324 213.92053 215.71082 217.64611 219.69640 221.79869 223.88898
 225.95627 228.04756 230.15185 232.26514 234.40143 236.58072 238.84401 241.22130
 243.84960 246.10789 248.11718 249.88947 251.31376 252.44405 253.27334 253.59663
 253.64092 253.42221 252.78950 251.74479 250.35808 248.52637 246.44266 244.28295
 242.08124 239.89253 237.71982 235.56612 233.43341 231.30770 229.34099 227.50528
 225.79557 224.27486 222.91215 221.69144 220.58073 219.54802 218.65931 217.80760
 217.05689 216.24418 215.34947 214.72076 214.17805 214.03879 213.65146 212.72188
 212.36450 211.42017 211.76733 214.05342 217.45346 221.73872 227.10489 231.77858
 235.62592 239.93745 244.35916 248.50615 252.19572 255.57796 258.90457 262.15320
 265.14902 267.84634 270.22430 272.25241 273.93649 275.36469 276.86807 278.39920
 279.80530 281.13126 282.37042 283.69629 284.94757 286.20306 287.37442 288.43558
 289.38998 290.23987 290.98233 291.92850
 366.78100 356.34177 345.78053 334.65330 323.06307 311.26384 299.14060 286.95037
 274.66914 262.57291 250.58867 239.89644 230.02521 221.13598 213.32474 206.33351
 200.17428 195.11905 191.70781 189.75658 188.80035 188.87112 189.71288 191.02765
 192.75942 194.86119 197.13095 199.49672 201.94849 204.43526 206.53002 208.37879
 210.01156 211.16333 211.39909 211.63386 211.57763 211.28940 210.92916 210.56593
 210.18970 209.90647 209.72123 209.59200 209.52677 209.86454 210.25730 210.65307
 211.45284 212.63761 213.89437 215.68414 217.61891 219.66868 221.77044 223.86021
 225.92698 228.01775 230.12151 232.23428 234.37005 236.54882 238.81158 241.18835
 243.81612 246.07389 248.08265 249.85442 251.27819 252.40796 253.23672 253.55949
 253.60326 253.38403 252.75079 251.70556 250.31833 248.48610 246.40186 244.24163
 242.03940 239.85017 237.67693 235.52270 233.38947 231.26324 229.29600 227.45977
 225.74954 224.22831 222.86507 221.64384 220.53261 219.49938 218.61014 217.75791
 217.00668 216.19345 215.29821 214.66898 214.12575 214.02629 213.70753 212.80617
 212.24937 211.65215 212.03806 214.08395 217.39267 221.65817 227.04256 231.69009
 235.56929 239.88271 244.30446 248.43141 252.10303 255.50693 258.88611 262.17053
 265.18982 267.89319 270.26050 272.29492 273.89169 275.31900 276.85724 278.41739
 279.89749 281.28067 282.84070 284.32849 285.85828 287.21176 288.44659 289.56528
 290.57141 291.46738 292.25006 293.24753
 366.78100 356.34466 345.78631 334.66197 323.07463 311.27828 299.15794 286.97059
 274.69225 262.59891 250.61756 239.92822 230.05988 221.17353 213.36519 206.37685
 200.22050 195.16816 191.75982 189.81147 188.85813 188.93178 189.77644 191.09410
 192.82875 194.93341 197.20607 199.57472 202.02938 204.51904 206.61669 208.46835
 210.10401 211.25866 211.49732 211.73497 211.68163 211.39629 211.03894 210.67860
 210.30526 210.02491 209.84257 209.71623 209.65388 209.99454 210.39020 210.78885
 211.59151 212.77916 214.03882 215.83148 217.76913 219.82179 221.92645 224.01910
 226.08876 228.18242 230.28907 232.40473 234.54339 236.72504 238.99070 241.37035
 244.00101 246.26167 248.27332 250.04798 251.47464 252.60729 253.43895 253.76461
 253.81126 253.59492 252.96458 251.92223 250.53789 248.70854 246.62720 244.46986
 242.27051 240.08417 237.91383 235.76248 233.63214 231.50880 229.54445 227.71111
 226.00377 224.48542 223.12508 221.90673 220.79839 219.76805 218.88170 218.03236
 217.28402 216.47367 215.58133 214.95499 214.41464 214.17865 213.59523 212.96207
 212.23486 211.62863 212.14125 214.17792 217.41293 221.63234 227.04939 231.69072
 235.56149 239.87375 244.28427 248.39221 252.03423 255.42059 258.78317 262.09021
 265.16388 267.89389 270.26776 272.22504 273.69980 275.04630 276.61496 278.19586
 279.93854 281.72885 283.35593 284.98703 286.41901 287.68594 288.84186 289.88901
 290.83081 291.66949 292.40213 293.33582
 366.78100 356.34626 345.78953 334.66679 323.08105 311.28631 299.16758 286.98184
 274.70510 262.61336 250.63363 239.94589 230.07915 221.19442 213.38768 206.40094
 200.24620 195.19547 191.78873 189.84199 188.89025 188.96552 189.81178 191.13104
 192.86731 194.97357 197.24783 199.61809 202.07436 204.56562 206.66488 208.51814
 210.15541 211.31167 211.55193 211.79120 211.73946 211.45572 211.09998 210.74125
 210.36951 210.09077 209.91003 209.78530 209.72456 210.06682 210.46408 210.86435
 211.66861 212.85787 214.11914 215.91340 217.85266 219.90692 222.01319 224.10745
 226.17871 228.27397 230.38224 232.49950 234.63976 236.82303 239.09029 241.47155
 244.10381 246.36608 248.37934 250.15560 251.58386 252.71813 253.55139 253.87865
 253.92692 253.71218 253.08344 252.04270 250.65997 248.83223 246.75249 244.59675
 242.39902 240.21428 238.04554 235.89581 233.76707 231.64533 229.68259 227.85086
 226.14512 224.62838 223.26964 222.05291 220.94617 219.91743 219.03270 218.18496
 217.43822 216.62948 215.73875 215.11401 214.57527 214.28716 213.58954 213.02681
 212.29718 211.52853 212.05215 214.19102 217.42944 221.59013 227.05380 231.70889
 235.57683 239.87518 244.23955 248.32332 251.98987 255.40598 258.76749 262.06061
 265.12265 267.84183 270.19339 272.03821 273.42651 274.76013 276.44876 278.19879
 280.20822 282.17551 283.96326 285.53302 286.89154 288.09348 289.19003 290.18347
 291.07693 291.87256 292.56763 293.45340
 366.78100 356.34706 345.79111 334.66917 323.08423 311.29029 299.17234 286.98740
 274.71146 262.62052 250.64157 239.95463 230.08869 221.20474 213.39880 206.41286
 200.25892 195.20897 191.80303 189.85709 188.90614 188.98220 189.82926 191.14932
 192.88637 194.99343 197.26849 199.63955 202.09660 204.58866 206.68872 208.54277
 210.18083 211.33789 211.57895 211.81900 211.76806 211.48512 211.13018 210.77223
 210.40129 210.12335 209.94340 209.81946 209.75952 210.10258 210.50063 210.90169
 211.70675 212.89680 214.15886 215.95392 217.89398 219.94903 222.05609 224.15115
 226.22321 228.31926 230.42832 232.54638 234.68743 236.87149 239.13955 241.52161
 244.15466 246.41772 248.43178 250.20884 251.63789 252.77295 253.60701 253.93506
 253.98412 253.77018 253.14224 252.10229 250.72035 248.89341 246.81446 244.65952
 242.46258 240.27864 238.11069 235.96175 233.83381 231.71287 229.75092 227.91998
 226.21504 224.69909 223.34115 222.12521 221.01927 219.99132 219.10738 218.26044
 217.51450 216.70655 215.81661 215.19267 214.65472 214.34305 213.59174 213.09901
 212.40567 211.39674 211.87112 214.17769 217.45769 221.57137 227.00728 231.68497
 235.56487 239.87172 244.24669 248.35771 252.05618 255.49179 258.86090 262.15341
 265.22446 267.96243 270.30157 272.08484 273.35678 274.49942 276.48273 278.19034
 280.31677 282.34271 284.09583 285.63519 286.96738 288.14603 289.22137 290.19556
 291.07172 291.85196 292.53354 293.40216
 366.78100 356.34810 345.79319 334.67229 323.08838 311.29548 299.17857 286.99467
 274.71976 262.62986 250.65195 239.96605 230.10114 221.21824 213.41333 206.42843
 200.27552 195.22662 191.82172 189.87681 188.92691 189.00400 189.85210 191.17319
 192.91129 195.01938 197.29548 199.66757 202.12567 204.61876 206.71986 208.57495
 210.21405 211.37214 211.61424 211.85534 211.80543 211.52353 211.16962 210.81272
 210.44281 210.16591 209.98700 209.86410 209.80519 210.14929 210.54838 210.95048
 211.75657 212.94767 214.21076 216.00686 217.94796 220.00405 222.11215 224.20824
 226.28134 228.37843 230.48853 232.60762 234.74972 236.93481 239.20391 241.58700
 244.22110 246.48519 248.50029 250.27838 251.70848 252.84458 253.67967 254.00877
 254.05886 253.84596 253.21905 252.18015 250.79924 248.97334 246.89543 244.74153
 242.54562 240.36272 238.19581 236.04791 233.92100 231.80110 229.84020 228.01029
 226.30639 224.79148 223.43458 222.21967 221.11477 220.08786 219.20496 218.35905
 217.61415 216.80724 215.91834 215.29543 214.75853 214.40625 213.57719 213.17259
 212.61729 211.43146 211.65157 214.01678 217.38043 221.54120 226.92947 231.61256
 235.49559 239.79936 244.16801 248.28793 252.02238 255.51653 258.92795 262.25073
 265.35791 268.11133 270.39960 272.09244 273.21939 274.29648 276.40323 278.23642
 280.39410 282.36053 284.06219 285.55637 286.84943 287.99347 289.03723 289.98279
 290.83322 291.59055 292.25214 293.09525
 366.78100 356.34721 345.79142 334.66963 323.08484 311.29105 299.17326 286.98847
 274.71268 262.62189 250.64310 239.95631 230.09052 221.20673 213.40094 206.41515
 200.26136 195.21157 191.80578 189.85999 188.90920 188.98541 189.83262 191.15283
 192.89004 194.99725 197.27246 199.64367 202.10088 204.59309 206.69330 208.54751
 210.18572 211.34293 211.58414 211.82435 211.77356 211.49077 211.13599 210.77820
 210.40741 210.12962 209.94983 209.82604 209.76625 210.10946 210.50767 210.90888
 211.71409 212.90430 214.16651 215.96172 217.90193 219.95714 222.06435 224.15956
 226.23177 228.32798 230.43719 232.55540 234.69661 236.88082 239.14903 241.53124
 244.16445 246.42766 248.44187 250.21908 251.64829 252.78350 253.61771 253.94592
 253.99513 253.78134 253.15355 252.11376 250.73197 248.90518 246.82639 244.67160
 242.47481 240.29102 238.12323 235.97444 233.84665 231.72586 229.76407 227.93328
 226.22849 224.71270 223.35491 222.13912 221.03333 220.00554 219.12175 218.27496
 217.52917 216.72138 215.83159 215.20780 214.67001 214.39444 213.65253 213.11649
 212.76605 211.62955 211.55576 213.88051 217.27711 221.49655 226.85715 231.52975
 235.41313 239.70952 244.06863 248.18396 251.91902 255.49100 258.99130 262.38434
 265.57440 268.37988 270.69080 272.35083 273.43909 274.46729 276.35297 278.39374
 280.93845 283.17642 285.11304 286.81351 288.28513 289.58713 290.77502 291.85117
 292.81903 293.68094 294.43387 295.39340
 366.78100 356.34476 345.78653 334.66229 323.07505 311.27882 299.15858 286.97134
 274.69310 262.59987 250.61863 239.92939 230.06116 221.17492 213.36668 206.37845
 200.22221 195.16997 191.76174 189.81350 188.86026 188.93402 189.77879 191.09655
 192.83131 194.93608 197.20884 199.57760 202.03237 204.52213 206.61989 208.47166
 210.10742 211.26218 211.50094 211.73871 211.68547 211.40023 211.04300 210.68276
 210.30952 210.02929 209.84705 209.72081 209.65858 209.99934 210.39510 210.79386
 211.59663 212.78439 214.04415 215.83692 217.77468 219.82744 221.93221 224.02497
 226.09473 228.18850 230.29526 232.41102 234.54978 236.73155 238.99731 241.37707
 244.00784 246.26860 248.28036 250.05513 251.48189 252.61465 253.44642 253.77218
 253.81894 253.60271 252.97247 251.93023 250.54599 248.71676 246.63552 244.47828
 242.27905 240.09281 237.92257 235.77134 233.64110 231.51786 229.55363 227.72039
 226.01315 224.49491 223.13468 221.91644 220.80820 219.77797 218.89173 218.04249
 217.29426 216.48402 215.59178 214.96555 214.42531 214.28719 213.78699 212.94585
 212.72343 212.06689 211.83621 213.68567 217.10228 221.44409 226.75012 231.46489
 235.34058 239.61299 243.91338 247.96980 251.72003 255.33405 258.91434 262.40210
 265.68396 268.63776 271.13638 272.98444 274.19351 275.12677 276.35916 278.49652
 280.79633 283.27600 285.42175 287.30588 288.93643 290.37906 291.69525 292.88760
 293.95999 294.91498 295.74921 296.81238
 366.78100 356.34372 345.78443 334.65915 323.07086 311.27358 299.15230 286.96401
 274.68473 262.59045 250.60816 239.91788 230.04859 221.16131 213.35203 206.36274
 200.20546 195.15218 191.74289 189.79361 188.83932 188.91204 189.75576 191.07247
 192.80619 194.90990 197.18162 199.54934 202.00305 204.49177 206.58849 208.43920
 210.07392 211.22763 211.46535 211.70207 211.64778 211.36150 211.00321 210.64193
 210.26765 209.98636 209.80308 209.67580 209.61251 209.95223 210.34694 210.74466
 211.54638 212.73309 213.99181 215.78353 217.72024 219.77196 221.87567 223.96739
 226.03611 228.12882 230.23454 232.34925 234.48697 236.66769 238.93240 241.31112
 243.94084 246.20055 248.21127 249.98498 251.41070 252.54242 253.37313 253.69785
 253.74356 253.52628 252.89500 251.85171 250.46643 248.63615 246.55386 244.39558
 242.19529 240.00801 237.83673 235.68444 233.55316 231.42888 229.46359 227.62931
 225.92102 224.40174 223.04046 221.82117 220.71189 219.68060 218.79332 217.94304
 217.19375 216.38247 215.48919 214.86190 214.32062 214.22057 213.87962 212.95711
 212.39818 212.18069 212.30859 213.86722 217.07481 221.45062 226.62759 231.41672
 235.26794 239.52750 243.79153 247.81433 251.54156 255.13539 258.68451 262.13223
 265.38110 268.32355 270.87082 272.91946 274.48163 275.78119 277.21555 278.73654
 280.55197 282.41498 284.14209 285.89462 287.41132 288.75320 289.97745 291.08655
 292.08408 292.97235 293.74835 294.73724
 366.78100 356.34366 345.78433 334.65899 323.07066 311.27332 299.15199 286.96365
 274.68432 262.58998 250.60765 239.91731 230.04798 221.16064 213.35130 206.36197
 200.20463 195.15130 191.74196 189.79263 188.83829 188.91096 189.75462 191.07129
 192.80495 194.90862 197.18028 199.54794 202.00161 204.49027 206.58694 208.43760
 210.07227 211.22593 211.46360 211.70026 211.64593 211.35959 211.00125 210.63992
 210.26558 209.98425 209.80091 209.67358 209.61024 209.94991 210.34457 210.74224
 211.54390 212.73057 213.98923 215.78089 217.71756 219.76922 221.87289 223.96455
 226.03322 228.12588 230.23155 232.34621 234.48388 236.66454 238.92921 241.30787
 243.93753 246.19720 248.20786 249.98153 251.40719 252.53886 253.36952 253.69419
 253.73985 253.52252 252.89118 251.84785 250.46251 248.63217 246.54984 244.39150
 242.19117 240.00383 237.83250 235.68016 233.54883 231.42449 229.45916 227.62482
 225.91648 224.39715 223.03581 221.81648 220.70714 219.67581 218.78847 217.93814
 217.18880 216.37747 215.48413 214.85680 214.31546 214.20256 213.89961 213.20311
 212.09653 211.74411 212.31833 214.06709 217.17677 221.46567 226.69183 231.43463
 235.30374 239.55290 243.81647 247.84744 251.56979 255.14320 258.65942 262.04822
 265.21225 268.03699 270.46432 272.49908 274.16794 275.67239 277.35089 279.11710
 280.74109 282.39859 283.98788 285.39078 286.72650 287.95047 289.06717 290.07880
 290.98868 291.79889 292.50671 293.40872
 366.78100 356.34365 345.78431 334.65896 323.07062 311.27327 299.15193 286.96358
 274.68423 262.58989 250.60754 239.91720 230.04785 221.16050 213.35116 206.36181
 200.20447 195.15112 191.74178 189.79243 188.83808 188.91074 189.75439 191.07105
 192.80470 194.90836 197.18001 199.54766 202.00132 204.48997 206.58663 208.43728
 210.07194 211.22559 211.46324 211.69990 211.64555 211.35921 211.00086 210.63951
 210.26517 209.98382 209.80048 209.67313 209.60979 209.94944 210.34409 210.74175
 211.54340 212.73006 213.98871 215.78037 217.71702 219.76867 221.87233 223.96398
 226.03264 228.12529 230.23095 232.34560 234.48325 236.66391 238.92856 241.30722
 243.93687 246.19652 248.20718 249.98083 251.40649 252.53814 253.36880 253.69345
 253.73910 253.52176 252.89041 251.84707 250.46172 248.63138 246.54903 244.39068
 242.19034 240.00299 237.83165 235.67930 233.54795 231.42361 229.45826 227.62392
 225.91557 224.39623 223.03488 221.81553 220.70619 219.67484 218.78750 217.93715
 217.18781 216.37646 215.48311 214.85577 214.31442 214.19417 213.90428 213.46910
 212.06413 211.25040 211.95134 214.06787 217.29231 221.53291 226.78423 231.49783
 235.37039 239.61066 243.87933 247.91896 251.65286 255.24405 258.77158 262.15854
 265.32230 268.08801 270.39838 272.33759 273.93112 275.39252 277.15527 279.21338
 281.13632 282.73639 284.13409 285.44495 286.65817 287.85037 288.94580 289.93817
 290.83072 291.62552 292.31985 293.20468
 366.78100 356.34272 345.78244 334.65616 323.06688 311.26859 299.14631 286.95703
 274.67675 262.58147 250.59819 239.90691 230.03663 221.14835 213.33806 206.34778
 200.18950 195.13522 191.72494 189.77466 188.81938 188.89110 189.73381 191.04953
 192.78225 194.88497 197.15569 199.52241 201.97513 204.46285 206.55857 208.40828
 210.04200 211.19472 211.43144 211.66716 211.61188 211.32460 210.96532 210.60304
 210.22775 209.94547 209.76119 209.63291 209.56863 209.90735 210.30107 210.69779
 211.49851 212.68422 213.94194 215.73266 217.66838 219.71910 221.82182 223.91254
 225.98026 228.07198 230.17669 232.29041 234.42713 236.60685 238.87057 241.24829
 243.87701 246.13573 248.14544 249.91816 251.34288 252.47360 253.30332 253.62704
 253.67176 253.45348 252.82120 251.77691 250.39063 248.55935 246.47607 244.31679
 242.11551 239.92723 237.75495 235.60167 233.46938 231.34410 229.37782 227.54254
 225.83326 224.31298 222.95070 221.73042 220.62014 219.58785 218.69957 217.84829
 217.09801 216.28573 215.39145 214.76317 214.22089 214.16020 213.99081 213.47844
 212.34651 211.17355 211.63257 213.90611 217.27234 221.53596 226.78973 231.50143
 235.37015 239.61179 243.87498 247.90175 251.61758 255.21634 258.77414 262.20068
 265.41977 268.21594 270.50641 272.42746 274.02734 275.46545 277.17795 279.16507
 281.18475 282.93961 284.27682 285.56866 286.80743 287.99979 289.08762 290.07312
 290.95947 291.74878 292.43829 293.31699
 366.78100 356.34086 345.77871 334.65057 323.05942 311.25928 299.13513 286.94399
 274.66184 262.56470 250.57955 239.88641 230.01427 221.12412 213.31198 206.31983
 200.15969 195.10354 191.69140 189.73925 188.78211 188.85196 189.69282 191.00668
 192.73753 194.83839 197.10724 199.47210 201.92295 204.40881 206.50266 208.35052
 209.98237 211.13323 211.36809 211.60194 211.54480 211.25565 210.89451 210.53036
 210.15322 209.86907 209.68293 209.55278 209.48664 209.82350 210.21535 210.61021
 211.40906 212.59292 213.84877 215.63763 217.57148 219.62034 221.72119 223.81005
 225.87591 227.96576 230.06862 232.18047 234.31533 236.49318 238.75504 241.13089
 243.75775 246.01460 248.02246 249.79332 251.21617 252.34503 253.17288 253.49474
 253.53759 253.31745 252.68330 251.63716 250.24901 248.41587 246.33073 244.16958
 241.96644 239.77629 237.60215 235.44700 233.31286 231.18571 229.21757 227.38042
 225.66928 224.14714 222.78299 221.56085 220.44870 219.41456 218.52441 217.67127
 216.91912 216.10498 215.20883 214.57869 214.03455 214.09718 214.14560 213.29063
 212.53589 211.51248 211.64905 213.73691 217.12306 221.45200 226.73099 231.43927
 235.31848 239.57101 243.83484 247.85046 251.53821 255.13391 258.71152 262.16498
 265.42371 268.27390 270.60165 272.54822 274.18634 275.71512 277.45154 279.39828
 281.34103 282.99878 284.50323 285.90039 287.23801 288.42651 289.51080 290.49313
 291.37662 292.16336 292.85065 293.72650
 366.78100 356.34051 345.77801 334.64952 323.05802 311.25753 299.13303 286.94154
 274.65904 262.56155 250.57605 239.88256 230.01007 221.11957 213.30708 206.31458
 200.15409 195.09759 191.68510 189.73260 188.77511 188.84461 189.68512 190.99862
 192.72913 194.82964 197.09814 199.46265 201.91315 204.39866 206.49216 208.33967
 209.97117 211.12168 211.35618 211.58969 211.53220 211.24270 210.88121 210.51671
 210.13922 209.85472 209.66823 209.53773 209.47124 209.80774 210.19925 210.59375
 211.39226 212.57577 213.83127 215.61978 217.55328 219.60179 221.70229 223.79080
 225.85630 227.94581 230.04831 232.15982 234.29433 236.47183 238.73334 241.10884
 243.73535 245.99185 247.99936 249.76986 251.19237 252.32087 253.14838 253.46988
 253.51239 253.29190 252.65740 251.61091 250.22241 248.38892 246.30342 244.14193
 241.93843 239.74794 237.57344 235.41795 233.28346 231.15596 229.18747 227.34997
 225.63848 224.11598 222.75149 221.52899 220.41650 219.38200 218.49151 217.63802
 216.88552 216.07103 215.17453 214.54404 213.99954 214.09431 214.20616 213.24799
 212.44626 211.72949 211.83824 213.69470 217.01131 221.35945 226.64232 231.36702
 235.25833 239.52075 243.79022 247.81331 251.50648 255.10884 258.68433 262.12769
 265.40906 268.30273 270.64389 272.56790 274.17447 275.72794 277.52563 279.48306
 281.34384 283.01328 284.55341 285.94928 287.25714 288.42169 289.48419 290.44672
 291.31241 292.08331 292.75677 293.61499
 366.78100 356.34245 345.78191 334.65536 323.06582 311.26727 299.14473 286.95518
 274.67463 262.57909 250.59554 239.90400 230.03345 221.14491 213.33436 206.34381
 200.18527 195.13072 191.72018 189.76963 188.81409 188.88554 189.72799 191.04345
 192.77590 194.87836 197.14881 199.51527 201.96772 204.45517 206.55063 208.40008
 210.03354 211.18599 211.42245 211.65790 211.60235 211.31481 210.95526 210.59272
 210.21717 209.93463 209.75008 209.62153 209.55699 209.89544 210.28890 210.68535
 211.48581 212.67126 213.92871 215.71917 217.65462 219.70508 221.80753 223.89799
 225.96544 228.05689 230.16135 232.27480 234.41126 236.59071 238.85417 241.23162
 243.86007 246.11853 248.12798 249.90044 251.32489 252.45534 253.28480 253.60825
 253.65271 253.43416 252.80162 251.75707 250.37052 248.53898 246.45543 244.29589
 242.09434 239.90580 237.73325 235.57970 233.44716 231.32161 229.35507 227.51952
 225.80998 224.28943 222.92688 221.70634 220.59579 219.56325 218.67470 217.82316
 217.07261 216.26006 215.36552 214.73697 214.19443 214.19221 214.13387 213.46581
 212.27823 211.66257 212.05383 213.82629 216.97763 221.27367 226.53613 231.26884
 235.16481 239.43188 243.70619 247.74951 251.48085 255.12933 258.71881 262.13794
 265.39880 268.30408 270.65897 272.54684 274.05035 275.57431 277.44516 279.42346
 281.21811 282.88727 284.44693 285.85269 287.15836 288.31622 289.37262 290.32965
 291.19037 291.95688 292.62646 293.47977
 366.78100 356.34476 345.78652 334.66228 323.07504 311.27881 299.15857 286.97133
 274.69309 262.59985 250.61861 239.92937 230.06113 221.17489 213.36666 206.37842
 200.22218 195.16994 191.76170 189.81346 188.86022 188.93398 189.77874 191.09651
 192.83127 194.93603 197.20879 199.57755 202.03231 204.52207 206.61983 208.47159
 210.10736 211.26212 211.50088 211.73864 211.68540 211.40016 211.04292 210.68268
 210.30944 210.02921 209.84697 209.72073 209.65849 209.99925 210.39501 210.79377
 211.59653 212.78429 214.04405 215.83682 217.77458 219.82734 221.93210 224.02486
 226.09462 228.18838 230.29514 232.41090 234.54967 236.73143 238.99719 241.37695
 244.00771 246.26847 248.28023 250.05499 251.48175 252.61452 253.44628 253.77204
 253.81880 253.60256 252.97232 251.93008 250.54584 248.71660 246.63537 244.47813
 242.27889 240.09265 237.92241 235.77117 233.64093 231.51769 229.55345 227.72022
 226.01298 224.49474 223.13450 221.91626 220.80802 219.77778 218.89154 218.04230
 217.29407 216.48383 215.59159 214.96535 214.42511 214.31630 214.06001 213.64774
 212.32376 211.53615 212.12424 213.97015 217.02043 221.24312 226.46744 231.17102
 235.05621 239.31577 243.57716 247.62616 251.41586 255.13979 258.76758 262.19666
 265.43570 268.33389 270.72241 272.61304 274.07056 275.52533 277.36420 279.35709
 281.17120 282.91623 284.52023 286.03134 287.36334 288.54181 289.61700 290.59103
 291.46707 292.24719 292.92871 293.79718
 366.78100 356.34461 345.78621 334.66182 323.07442 311.27803 299.15763 286.97024
 274.69185 262.59845 250.61706 239.92766 230.05927 221.17287 213.36448 206.37609
 200.21969 195.16730 191.75890 189.81051 188.85712 188.93072 189.77533 191.09293
 192.82754 194.93214 197.20475 199.57336 202.02796 204.51757 206.61517 208.46678
 210.10238 211.25699 211.49560 211.73320 211.67981 211.39441 211.03702 210.67662
 210.30323 210.02284 209.84044 209.71405 209.65165 209.99226 210.38787 210.78647
 211.58908 212.77668 214.03629 215.82889 217.76650 219.81911 221.92371 224.01632
 226.08592 228.17953 230.28613 232.40174 234.54035 236.72195 238.98756 241.36716
 243.99777 246.25837 248.26998 250.04459 251.47119 252.60380 253.43540 253.76101
 253.80762 253.59122 252.96083 251.91843 250.53404 248.70464 246.62325 244.46586
 242.26646 240.08007 237.90967 235.75828 233.62788 231.50449 229.54010 227.70670
 225.99931 224.48091 223.12052 221.90212 220.79373 219.76334 218.87694 218.02755
 217.27915 216.46876 215.57636 214.94997 214.40958 214.33656 214.12456 213.60352
 212.51865 211.52249 212.04045 214.01228 217.06784 221.25125 226.46919 231.12512
 234.98285 239.20474 243.43526 247.47881 251.31827 255.10292 258.76974 262.21844
 265.46194 268.37851 270.77921 272.70438 274.20117 275.63553 277.38489 279.34003
 281.32513 283.16537 284.88858 286.45193 287.80487 289.00189 290.09399 291.08334
 291.97318 292.76556 293.45779 294.33994
 366.78100 356.34343 345.78386 334.65830 323.06973 311.27216 299.15059 286.96202
 274.68246 262.58789 250.60532 239.91475 230.04518 221.15762 213.34805 206.35848
 200.20091 195.14734 191.73778 189.78821 188.83364 188.90607 189.74951 191.06594
 192.79937 194.90280 197.17423 199.54167 201.99510 204.48353 206.57996 208.43039
 210.06483 211.21826 211.45569 211.69212 211.63755 211.35099 210.99242 210.63085
 210.25628 209.97471 209.79115 209.66358 209.60001 209.93944 210.33387 210.73131
 211.53274 212.71917 213.97760 215.76903 217.70547 219.75690 221.86033 223.95176
 226.02020 228.11263 230.21806 232.33249 234.46992 236.65036 238.91479 241.29322
 243.92265 246.18208 248.19252 249.96595 251.39138 252.52281 253.35324 253.67768
 253.72311 253.50554 252.87397 251.83040 250.44484 248.61427 246.53170 244.37313
 242.17256 239.98500 237.81343 235.66086 233.52929 231.40472 229.43916 227.60459
 225.89602 224.37645 223.01489 221.79532 220.68575 219.65418 218.76661 217.91605
 217.16648 216.35491 215.46134 214.83377 214.29221 214.31335 214.23363 213.51491
 212.64568 211.60532 211.90691 213.89334 217.03400 221.24947 226.51242 231.12856
 234.95888 239.14899 243.35532 247.39008 251.25478 255.07280 258.75803 262.20624
 265.43359 268.31183 270.74771 272.73444 274.28427 275.75089 277.55911 279.49875
 281.52042 283.46225 285.29327 286.90103 288.29242 289.52344 290.64655 291.66400
 292.57910 293.39398 294.10587 295.01309
 366.78100 356.34389 345.78478 334.65968 323.07157 311.27446 299.15335 286.96525
 274.68614 262.59203 250.60992 239.91982 230.05071 221.16360 213.35449 206.36539
 200.20828 195.15517 191.74606 189.79696 188.84285 188.91574 189.75963 191.07653
 192.81042 194.91431 197.18620 199.55410 202.00799 204.49688 206.59377 208.44466
 210.07956 211.23345 211.47134 211.70823 211.65413 211.36802 211.00991 210.64880
 210.27470 209.99359 209.81048 209.68337 209.62027 209.96016 210.35505 210.75294
 211.55484 212.74173 214.00062 215.79251 217.72941 219.78130 221.88519 223.97708
 226.04598 228.13887 230.24476 232.35965 234.49754 236.67844 238.94333 241.32222
 243.95211 246.21201 248.22290 249.99679 251.42268 252.55458 253.38547 253.71036
 253.75625 253.53915 252.90804 251.86493 250.47982 248.64972 246.56761 244.40950
 242.20939 240.02229 237.85118 235.69907 233.56796 231.44386 229.47875 227.64464
 225.93653 224.41743 223.05632 221.83721 220.72810 219.69699 218.80989 217.95978
 217.21067 216.39956 215.50646 214.87935 214.33824 214.35561 214.25949 213.48663
 212.67461 211.70728 211.85172 213.74051 216.97781 221.24461 226.52965 231.14125
 234.96220 239.14195 243.34056 247.37709 251.24982 255.08594 258.78812 262.22324
 265.42746 268.27362 270.69022 272.67215 274.18500 275.62872 277.53268 279.70172
 281.82712 283.75833 285.53351 287.09225 288.44119 289.63467 290.72354 291.70996
 292.59717 293.38721 294.07736 294.95691
 366.78100 356.34434 345.78568 334.66103 323.07337 311.27671 299.15605 286.96840
 274.68974 262.59608 250.61442 239.92477 230.05611 221.16945 213.36079 206.37214
 200.21548 195.16282 191.75416 189.80551 188.85185 188.92519 189.76953 191.08688
 192.82122 194.92556 197.19790 199.56624 202.02059 204.50993 206.60727 208.45861
 210.09396 211.24830 211.48664 211.72398 211.67033 211.38467 211.02701 210.66635
 210.29270 210.01204 209.82938 209.70272 209.64007 209.98041 210.37575 210.77409
 211.57644 212.76378 214.02312 215.81546 217.75280 219.80515 221.90949 224.00183
 226.07117 228.16452 230.27086 232.38620 234.52454 236.70589 238.97123 241.35057
 243.98091 246.24126 248.25260 250.02694 251.45328 252.58563 253.41697 253.74231
 253.78865 253.57200 252.94134 251.89868 250.51402 248.68436 246.60271 244.44505
 242.24539 240.05873 237.88808 235.73642 233.60576 231.48210 229.51745 227.68379
 225.97613 224.45747 223.09682 221.87816 220.76950 219.73884 218.85219 218.00253
 217.25387 216.44321 215.55055 214.92390 214.38324 214.38458 214.28859 213.49721
 212.61664 211.78201 211.93982 213.70648 216.91841 221.22234 226.45247 231.10823
 234.93669 239.12202 243.31863 247.35901 251.23566 255.07664 258.79871 262.24786
 265.44229 268.31009 270.75455 272.70544 274.18497 275.53729 277.36667 279.43719
 281.51361 283.34384 284.96777 286.47003 287.77008 288.92032 289.96973 290.92041
 291.77545 292.53687 293.20203 294.04968
 366.78100 356.34364 345.78429 334.65893 323.07058 311.27322 299.15187 286.96351
 274.68416 262.58980 250.60745 239.91709 230.04774 221.16038 213.35103 206.36167
 200.20432 195.15096 191.74161 189.79225 188.83790 188.91054 189.75419 191.07083
 192.80448 194.90812 197.17977 199.54741 202.00106 204.48970 206.58635 208.43699
 210.07164 211.22528 211.46293 211.69957 211.64522 211.35886 211.00051 210.63915
 210.26480 209.98344 209.80009 209.67273 209.60938 209.94902 210.34367 210.74131
 211.54296 212.72960 213.98825 215.77989 217.71654 219.76818 221.87183 223.96347
 226.03212 228.12476 230.23041 232.34505 234.48270 236.66334 238.92798 241.30663
 243.93627 246.19592 248.20656 249.98021 251.40585 252.53750 253.36814 253.69279
 253.73843 253.52108 252.88972 251.84637 250.46101 248.63066 246.54830 244.38995
 242.18959 240.00224 237.83088 235.67853 233.54717 231.42282 229.45746 227.62311
 225.91475 224.39540 223.03404 221.81469 220.70533 219.67398 218.78662 217.93627
 217.18691 216.37556 215.48220 214.85485 214.31349 214.35426 214.37590 213.58904
 212.51779 211.73788 211.96642 213.67377 216.81953 221.12717 226.37245 231.05446
 234.88840 239.06403 243.25475 247.29837 251.17607 255.02560 258.76483 262.21924
 265.42392 268.31857 270.80252 272.83340 274.36752 275.69821 277.40958 279.34741
 281.20602 282.79059 284.11716 285.49176 286.77686 287.92841 288.97900 289.93079
 290.78677 291.54907 292.21500 293.06363
 366.78100 356.34349 345.78398 334.65848 323.06997 311.27246 299.15095 286.96245
 274.68294 262.58843 250.60592 239.91541 230.04591 221.15840 213.34889 206.35938
 200.20187 195.14837 191.73886 189.78935 188.83484 188.90734 189.75083 191.06732
 192.80081 194.90430 197.17580 199.54329 201.99678 204.48527 206.58177 208.43226
 210.06675 211.22024 211.45773 211.69423 211.63972 211.35321 210.99470 210.63319
 210.25869 209.97718 209.79367 209.66616 209.60266 209.94215 210.33664 210.73413
 211.53562 212.72212 213.98061 215.77210 217.70859 219.76009 221.86358 223.95507
 226.02356 228.11605 230.22155 232.33604 234.47353 236.65402 238.91852 241.29701
 243.92650 246.18599 248.19648 249.96998 251.39547 252.52696 253.35745 253.68194
 253.72744 253.50993 252.87842 251.83491 250.44941 248.61890 246.53639 244.37788
 242.17737 239.98987 237.81836 235.66585 233.53434 231.40984 229.44433 227.60982
 225.90131 224.38180 223.02030 221.80079 220.69128 219.65977 218.77226 217.92176
 217.17225 216.36074 215.46723 214.83973 214.29822 214.36211 214.43604 213.67322
 212.50002 211.70145 211.99748 213.69394 216.77237 221.05702 226.32034 230.99699
 234.83363 239.01039 243.20612 247.25990 251.14563 255.00795 258.74832 262.19577
 265.39008 268.28177 270.78775 272.86493 274.42648 275.79779 277.46207 279.33267
 281.12231 282.64502 284.01724 285.41074 286.71313 287.86545 288.91675 289.86914
 290.72574 291.48853 292.15488 293.00406
 366.78100 356.34389 345.78478 334.65967 323.07156 311.27445 299.15334 286.96523
 274.68612 262.59201 250.60990 239.91978 230.05067 221.16356 213.35445 206.36534
 200.20823 195.15512 191.74601 189.79690 188.84279 188.91568 189.75957 191.07646
 192.81035 194.91424 197.18613 199.55402 202.00791 204.49680 206.59369 208.44458
 210.07946 211.23335 211.47124 211.70813 211.65402 211.36791 211.00980 210.64869
 210.27458 209.99347 209.81036 209.68325 209.62014 209.96003 210.35492 210.75281
 211.55470 212.74159 214.00048 215.79237 217.72925 219.78114 221.88503 223.97692
 226.04581 228.13870 230.24459 232.35948 234.49737 236.67826 238.94315 241.32204
 243.95193 246.21182 248.22271 249.99660 251.42249 252.55438 253.38527 253.71016
 253.75605 253.53893 252.90782 251.86471 250.47960 248.64949 246.56738 244.40927
 242.20916 240.02205 237.85094 235.69883 233.56772 231.44361 229.47850 227.64439
 225.93628 224.41717 223.05606 221.83695 220.72784 219.69673 218.80961 217.95950
 217.21039 216.39928 215.50617 214.87906 214.33795 214.40855 214.47234 213.68132
 212.54901 211.70459 212.02074 213.76187 216.80824 221.05370 226.31555 230.97023
 234.80243 238.97372 243.17010 247.23787 251.15704 255.02818 258.75101 262.19266
 265.37674 268.26227 270.79065 272.86279 274.42426 275.78110 277.44861 279.26410
 280.92633 282.58615 284.21570 285.75317 287.08392 288.26129 289.33548 290.30859
 291.18381 291.96320 292.64407 293.51175
 366.78100 356.34443 345.78586 334.66129 323.07372 311.27715 299.15658 286.96901
 274.69044 262.59687 250.61530 239.92573 230.05717 221.17060 213.36203 206.37346
 200.21689 195.16432 191.75575 189.80718 188.85361 188.92704 189.77147 191.08890
 192.82333 194.92776 197.20019 199.56862 202.02305 204.51248 206.60991 208.46134
 210.09677 211.25120 211.48963 211.72707 211.67350 211.38793 211.03036 210.66979
 210.29622 210.01565 209.83308 209.70651 209.64394 209.98437 210.37980 210.77823
 211.58066 212.76809 214.02752 215.81995 217.75738 219.80981 221.91424 224.00667
 226.07610 228.16954 230.27597 232.39140 234.52983 236.71126 238.97669 241.35612
 243.98655 246.24698 248.25841 250.03284 251.45927 252.59170 253.42313 253.74856
 253.79499 253.57842 252.94785 251.90528 250.52071 248.69114 246.60957 244.45200
 242.25244 240.06587 237.89530 235.74373 233.61316 231.48959 229.52502 227.69145
 225.98388 224.46531 223.10474 221.88617 220.77760 219.74703 218.86046 218.01089
 217.26232 216.45175 215.55918 214.93261 214.39204 214.46584 214.50537 213.69588
 212.63846 211.69072 211.94229 213.75868 216.79301 221.04439 226.35599 230.96014
 234.77419 238.93622 243.13356 247.20558 251.13788 255.01860 258.73996 262.16684
 265.33676 268.21201 270.75433 272.89853 274.50662 275.79327 277.28897 279.03210
 280.96893 282.83020 284.64276 286.25284 287.64624 288.87903 290.00378 291.02271
 291.93915 292.75522 293.46811 294.37665
 366.78100 356.34577 345.78853 334.66530 323.07906 311.28383 299.16459 286.97836
 274.70112 262.60889 250.62865 239.94042 230.07318 221.18795 213.38071 206.39348
 200.23824 195.18701 191.77977 189.83254 188.88030 188.95507 189.80083 191.11960
 192.85536 194.96113 197.23489 199.60466 202.06042 204.55119 206.64995 208.50272
 210.13948 211.29525 211.53501 211.77378 211.72154 211.43731 211.08107 210.72184
 210.34961 210.07037 209.88914 209.76390 209.70267 210.04443 210.44120 210.84096
 211.64473 212.83349 214.09426 215.88802 217.82679 219.88055 221.98632 224.08008
 226.15085 228.24561 230.35338 232.47014 234.60991 236.79267 239.05944 241.44020
 244.07197 246.33373 248.34650 250.12226 251.55003 252.68379 253.51656 253.84332
 253.89109 253.67585 253.04662 252.00538 250.62215 248.79391 246.71368 244.55745
 242.35921 240.17398 238.00474 235.85451 233.72527 231.60304 229.63980 227.80757
 226.10133 224.58410 223.22486 222.00763 220.90039 219.87116 218.98592 218.13769
 217.39045 216.58122 215.68998 215.06475 214.52551 214.57106 214.50963 213.72522
 212.69095 211.66336 211.76564 213.75063 216.84070 220.95975 226.32951 230.92761
 234.71753 238.85941 243.05621 247.14482 251.09964 255.00856 258.74338 262.18176
 265.34201 268.21225 270.74167 272.87891 274.52722 275.88000 277.32999 279.00137
 281.22034 283.31430 285.12631 286.71738 288.09430 289.31253 290.42398 291.43088
 292.33649 293.14291 293.84741 294.74521
 366.78100 356.34559 345.78818 334.66477 323.07835 311.28294 299.16353 286.97712
 274.69971 262.60730 250.62688 239.93847 230.07106 221.18565 213.37824 206.39083
 200.23541 195.18400 191.77659 189.82918 188.87677 188.95136 189.79695 191.11553
 192.85112 194.95671 197.23030 199.59989 202.05548 204.54606 206.64465 208.49724
 210.13383 211.28942 211.52901 211.76760 211.71518 211.43077 211.07436 210.71495
 210.34254 210.06313 209.88171 209.75630 209.69489 210.03648 210.43307 210.83266
 211.63624 212.82483 214.08542 215.87901 217.81760 219.87119 221.97678 224.07036
 226.14095 228.23554 230.34313 232.45972 234.59931 236.78189 239.04848 241.42907
 244.06066 246.32225 248.33484 250.11042 251.53801 252.67160 253.50419 253.83078
 253.87837 253.66296 253.03354 251.99213 250.60872 248.78031 246.69990 244.54349
 242.34507 240.15966 237.99025 235.83984 233.71043 231.58802 229.62460 227.79219
 226.08578 224.56837 223.20896 221.99155 220.88414 219.85472 218.96931 218.12090
 217.37349 216.56408 215.67267 215.04725 214.50784 214.58372 214.57857 213.66278
 212.60767 211.73534 211.82713 213.68839 216.83282 221.04396 226.31596 230.93236
 234.72028 238.85822 243.03690 247.10863 251.07367 254.98973 258.71912 262.14822
 265.31979 268.23959 270.87100 273.04617 274.67755 275.99475 277.37677 279.22586
 281.36758 283.45352 285.26257 286.85101 288.22571 289.44193 290.55157 291.55682
 292.46094 293.26605 293.96936 294.86569
 366.78100 356.34394 345.78487 334.65981 323.07174 311.27468 299.15361 286.96555
 274.68648 262.59242 250.61035 239.92029 230.05122 221.16416 213.35509 206.36603
 200.20896 195.15590 191.74684 189.79777 188.84371 188.91664 189.76058 191.07751
 192.81145 194.91538 197.18732 199.55525 202.00919 204.49812 206.59506 208.44599
 210.08093 211.23486 211.47280 211.70974 211.65567 211.36961 211.01154 210.65048
 210.27641 209.99535 209.81228 209.68522 209.62215 209.96209 210.35702 210.75496
 211.55689 212.74383 214.00276 215.79470 217.73164 219.78357 221.88751 223.97944
 226.04838 228.14131 230.24725 232.36218 234.50012 236.68105 238.94599 241.32492
 243.95486 246.21479 248.22573 249.99966 251.42560 252.55754 253.38847 253.71341
 253.75934 253.54228 252.91121 251.86815 250.48308 248.65302 246.57095 244.41289
 242.21282 240.02576 237.85469 235.70263 233.57156 231.44750 229.48244 227.64837
 225.94031 224.42124 223.06018 221.84111 220.73205 219.70098 218.81392 217.96385
 217.21479 216.40372 215.51066 214.88359 214.34253 214.48465 214.72502 213.76436
 212.32938 211.48917 211.81955 213.73152 216.93713 221.16435 226.31433 230.95764
 234.73729 238.85725 243.02045 247.08875 251.04547 254.92397 258.63818 262.06757
 265.22314 268.12231 270.71841 272.93106 274.71625 276.21613 277.72089 279.27197
 280.79700 282.20465 283.47372 284.68912 285.90802 286.99939 287.99512 288.89719
 289.70847 290.43094 291.06207 291.86639
 366.78100 356.34540 345.78781 334.66421 323.07761 311.28202 299.16242 286.97582
 274.69823 262.60563 250.62503 239.93644 230.06884 221.18324 213.37564 206.38805
 200.23245 195.18085 191.77326 189.82566 188.87306 188.94747 189.79287 191.11127
 192.84668 194.95208 197.22548 199.59489 202.05029 204.54069 206.63910 208.49150
 210.12790 211.28331 211.52271 211.76111 211.70851 211.42392 211.06732 210.70772
 210.33513 210.05553 209.87393 209.74834 209.68674 210.02814 210.42455 210.82395
 211.62735 212.81576 214.07616 215.86956 217.80797 219.86137 221.96677 224.06018
 226.13058 228.22498 230.33238 232.44879 234.58819 236.77059 239.03700 241.41740
 244.04880 246.31021 248.32261 250.09801 251.52542 252.65882 253.49122 253.81763
 253.86503 253.64943 253.01984 251.97824 250.59464 248.76605 246.68545 244.52885
 242.33026 240.14466 237.97506 235.82446 233.69487 231.57227 229.60867 227.77608
 226.06948 224.55188 223.19229 221.97469 220.86709 219.83750 218.95190 218.10330
 217.35571 216.54611 215.65451 215.02892 214.48932 214.54889 214.67191 214.00969
 212.45735 211.22301 211.47778 213.45032 216.75497 221.04794 226.33421 230.84978
 234.71800 238.82066 242.99341 247.06709 251.03539 254.91434 258.62256 262.04553
 265.18726 268.07895 270.68469 272.92453 274.72760 276.22272 277.68036 279.23663
 280.76309 282.08289 283.11383 284.05029 284.87610 285.32831 286.13263 287.01767
 287.83127 288.55582 289.18875 289.99536
 366.78100 356.34686 345.79072 334.66858 323.08344 311.28930 299.17116 286.98601
 274.70987 262.61873 250.63959 239.95245 230.08631 221.20217 213.39603 206.40989
 200.25575 195.20561 191.79947 189.85332 188.90218 188.97804 189.82490 191.14476
 192.88162 194.98848 197.26334 199.63420 202.09106 204.58292 206.68278 208.53663
 210.17449 211.33135 211.57221 211.81207 211.76093 211.47779 211.12265 210.76451
 210.39337 210.11523 209.93509 209.81094 209.75080 210.09366 210.49152 210.89238
 211.69724 212.88710 214.14896 215.94382 217.88368 219.93854 222.04540 224.14026
 226.21211 228.30797 230.41683 232.53469 234.67555 236.85941 239.12727 241.50913
 244.14199 246.40485 248.41871 250.19557 251.62442 252.75928 253.59314 253.92100
 253.96986 253.75572 253.12758 252.08744 250.70530 248.87816 246.79902 244.64388
 242.44673 240.26259 238.09445 235.94531 233.81717 231.69603 229.73389 227.90275
 226.19761 224.68147 223.32333 222.10719 221.00104 219.97290 219.08876 218.24162
 217.49548 216.68734 215.79720 215.17306 214.63492 214.63940 214.63995 213.98221
 212.63367 211.20210 211.32831 213.35977 216.72021 221.03349 226.35904 230.86446
 234.73280 238.84254 243.02136 247.09933 251.06979 254.95084 258.65781 262.06198
 265.17755 268.04880 270.65707 272.93121 274.75171 276.22772 277.65820 279.15045
 280.65115 281.89581 282.79703 283.58893 284.54575 285.28302 285.86191 286.68442
 287.52155 288.26703 288.91827 289.74820
 366.78100 356.34584 345.78868 334.66552 323.07935 311.28419 299.16503 286.97887
 274.70171 262.60955 250.62938 239.94122 230.07406 221.18890 213.38174 206.39458
 200.23941 195.18825 191.78109 189.83393 188.88177 188.95661 189.80244 191.12128
 192.85712 194.96296 197.23680 199.60664 202.06247 204.55331 206.65215 208.50499
 210.14183 211.29767 211.53750 211.77634 211.72418 211.44002 211.08386 210.72470
 210.35253 210.07337 209.89221 209.76705 209.70589 210.04773 210.44456 210.84440
 211.64824 212.83708 214.09792 215.89176 217.83060 219.88443 221.99027 224.08411
 226.15495 228.24979 230.35763 232.47446 234.61430 236.79714 239.06398 241.44482
 244.07666 246.33849 248.35133 250.12717 251.55501 252.68885 253.52169 253.84852
 253.89636 253.68120 253.05204 252.01088 250.62772 248.79955 246.71939 244.56323
 242.36507 240.17991 238.01075 235.86058 233.73142 231.60926 229.64610 227.81394
 226.10778 224.59061 223.23145 222.01429 220.90713 219.87797 218.99281 218.14465
 217.39748 216.58832 215.69716 215.07200 214.53284 214.60347 214.76176 213.92041
 212.67345 211.16165 211.20609 213.29626 216.72409 221.06639 226.38506 230.88593
 234.75656 238.86880 243.04710 247.11917 251.08324 254.95801 258.65625 262.04208
 265.14093 268.00485 270.62735 272.94009 274.80240 276.29785 277.71515 279.15524
 280.54993 281.64160 282.38385 283.18497 284.08920 284.89590 285.48907 286.25055
 287.07635 287.82828 288.48517 289.32227
 366.78100 356.34581 345.78862 334.66543 323.07924 311.28405 299.16486 286.97867
 274.70148 262.60929 250.62910 239.94091 230.07372 221.18853 213.38134 206.39415
 200.23896 195.18777 191.78058 189.83339 188.88120 188.95601 189.80182 191.12063
 192.85644 194.96225 197.23606 199.60587 202.06168 204.55249 206.65130 208.50411
 210.14092 211.29673 211.53654 211.77535 211.72316 211.43897 211.08278 210.72359
 210.35140 210.07221 209.89102 209.76583 209.70464 210.04645 210.44326 210.84307
 211.64688 212.83569 214.09650 215.89031 217.82912 219.88293 221.98874 224.08255
 226.15336 228.24817 230.35598 232.47279 234.61260 236.79541 239.06222 241.44303
 244.07484 246.33665 248.34946 250.12527 251.55308 252.68689 253.51970 253.84651
 253.89432 253.67913 253.04994 252.00875 250.62556 248.79737 246.71718 244.56099
 242.36280 240.17761 238.00842 235.85823 233.72904 231.60685 229.64366 227.81147
 226.10528 224.58809 223.22890 222.01171 220.90452 219.87533 218.99014 218.14195
 217.39476 216.58557 215.69438 215.06919 214.53000 214.61357 214.80586 213.97668
 212.68069 211.09822 211.12495 213.27859 216.69754 220.99316 226.36867 230.88318
 234.75481 238.87114 243.05009 247.11748 251.07712 254.94577 258.63394 262.00363
 265.09122 267.95206 270.58813 272.93420 274.84085 276.36795 277.78210 279.18195
 280.50116 281.53931 282.19006 282.68771 283.30554 284.28751 285.24933 285.91727
 286.71896 287.45972 288.10681 288.93143
 366.78100 356.34734 345.79168 334.67003 323.08537 311.29171 299.17405 286.98939
 274.71374 262.62308 250.64442 239.95776 230.09211 221.20845 213.40279 206.41713
 200.26347 195.21382 191.80816 189.86250 188.91184 188.98818 189.83553 191.15587
 192.89321 195.00055 197.27590 199.64724 202.10458 204.59692 206.69726 208.55161
 210.18995 211.34729 211.58863 211.82897 211.77832 211.49566 211.14100 210.78334
 210.41268 210.13503 209.95537 209.83171 209.77205 210.11540 210.51374 210.91508
 211.72042 212.91076 214.17311 215.96845 217.90879 219.96413 222.07147 224.16682
 226.23916 228.33550 230.44484 232.56319 234.70453 236.88887 239.15721 241.53955
 244.17290 246.43624 248.45058 250.22792 251.65726 252.79261 253.62695 253.95529
 254.00463 253.79097 253.16332 252.12366 250.74200 248.91534 246.83669 244.68203
 242.48537 240.30171 238.13405 235.98540 233.85774 231.73708 229.77542 227.94476
 226.24011 224.72445 223.36679 222.15113 221.04548 220.01782 219.13416 218.28750
 217.54184 216.73419 215.84453 215.22087 214.68321 214.70113 214.74287 214.09409
 212.69365 211.01643 211.06087 213.27293 216.67316 220.90962 226.35718 230.88374
 234.75829 238.88158 243.06375 247.12865 251.08456 254.94583 258.62320 261.97845
 265.05539 267.91226 270.55554 272.92300 274.86206 276.40967 277.81082 279.16562
 280.40134 281.33786 281.86801 282.26196 282.97202 284.04733 285.04617 285.66000
 286.45218 287.19305 287.84024 288.66507
 366.78100 356.34835 345.79371 334.67306 323.08942 311.29677 299.18012 286.99648
 274.72183 262.63219 250.65454 239.96889 230.10425 221.22160 213.41696 206.43231
 200.27967 195.23102 191.82637 189.88173 188.93208 189.00944 189.85779 191.17914
 192.91750 195.02585 197.30221 199.67456 202.13291 204.62627 206.72762 208.58298
 210.22233 211.38068 211.62304 211.86439 211.81475 211.53310 211.17946 210.82281
 210.45316 210.17652 209.99787 209.87523 209.81658 210.16093 210.56029 210.96264
 211.76900 212.96035 214.22370 216.02006 217.96141 220.01777 222.12612 224.22247
 226.29583 228.39318 230.50354 232.62289 234.76525 236.95060 239.21995 241.60331
 244.23766 246.50202 248.51737 250.29572 251.72608 252.86243 253.69779 254.02714
 254.07749 253.86485 253.23820 252.19956 250.81891 248.99326 246.91562 244.76197
 242.56633 240.38368 238.21704 236.06939 233.94274 231.82310 229.86245 228.03281
 226.32916 224.81451 223.45787 222.24322 221.13858 220.11193 219.22928 218.38364
 217.63899 216.83235 215.94370 215.32105 214.78441 214.76236 214.71027 214.15846
 212.74178 210.94994 210.96046 213.23387 216.64717 220.83949 226.35487 230.89098
 234.76910 238.89987 243.08524 247.14600 251.09589 254.94595 258.61017 261.95114
 265.01852 267.87253 270.52124 272.90680 274.87866 276.45303 277.84528 279.15475
 280.31235 281.13318 281.49854 281.82349 282.70193 283.77316 284.78830 285.69058
 286.48679 287.21884 287.85834 288.67334
 366.78100 356.34845 345.79391 334.67336 323.08981 311.29726 299.18072 286.99717
 274.72262 262.63308 250.65553 239.96998 230.10543 221.22289 213.41834 206.43379
 200.28124 195.23270 191.82815 189.88360 188.93406 189.01151 189.85996 191.18141
 192.91987 195.02832 197.30477 199.67723 202.13568 204.62913 206.73058 208.58604
 210.22549 211.38394 211.62640 211.86785 211.81830 211.53675 211.18321 210.82666
 210.45711 210.18057 210.00202 209.87947 209.82092 210.16538 210.56483 210.96728
 211.77373 212.96519 214.22864 216.02509 217.96655 220.02300 222.13145 224.22790
 226.30136 228.39881 230.50926 232.62872 234.77117 236.95662 239.22607 241.60953
 244.24398 246.50843 248.52389 250.30234 251.73279 252.86924 253.70470 254.03415
 254.08460 253.87206 253.24551 252.20696 250.82641 249.00087 246.92332 244.76977
 242.57422 240.39168 238.22513 236.07758 233.95104 231.83149 229.87094 228.04139
 226.33785 224.82330 223.46675 222.25221 221.14766 220.12111 219.23856 218.39302
 217.64847 216.84192 215.95338 215.33083 214.79428 214.77776 214.73871 214.14500
 212.81250 210.92625 210.83743 213.16457 216.62051 220.78491 226.35109 230.90138
 234.77846 238.91827 243.10677 247.16338 251.10707 254.94452 258.59161 261.91849
 264.97806 267.82910 270.48239 272.88208 274.88138 276.48740 277.88184 279.16074
 280.26761 281.02191 281.30011 281.57126 282.31775 283.37637 284.37918 285.29138
 286.09720 286.83667 287.48505 288.31131
 366.78100 356.34840 345.79379 334.67319 323.08958 311.29698 299.18037 286.99677
 274.72216 262.63256 250.65495 239.96935 230.10474 221.22214 213.41753 206.43293
 200.28032 195.23172 191.82711 189.88251 188.93290 189.01030 189.85869 191.18009
 192.91848 195.02688 197.30327 199.67567 202.13406 204.62746 206.72885 208.58425
 210.22364 211.38204 211.62443 211.86583 211.81622 211.53462 211.18102 210.82441
 210.45481 210.17820 209.99960 209.87699 209.81839 210.16278 210.56218 210.96457
 211.77097 212.96236 214.22576 216.02215 217.96355 220.01994 222.12834 224.22473
 226.29813 228.39552 230.50592 232.62531 234.76771 236.95310 239.22250 241.60589
 244.24029 246.50468 248.52008 250.29847 251.72887 252.86526 253.70066 254.03005
 254.08045 253.86784 253.24124 252.20263 250.82203 248.99643 246.91882 244.76522
 242.56961 240.38701 238.22040 236.07280 233.94619 231.82659 229.86598 228.03638
 226.33277 224.81817 223.46156 222.24696 221.14235 220.11575 219.23314 218.38754
 217.64293 216.83633 215.94772 215.32512 214.78851 214.78232 214.76770 214.11449
 212.88445 210.94173 210.70883 213.07971 216.58917 220.73141 226.35097 230.90027
 234.78563 238.93428 243.12694 247.17963 251.11998 254.94666 258.57874 261.89264
 264.94467 267.79138 270.44156 272.84338 274.85806 276.49152 277.89511 279.14960
 280.22659 280.92978 281.21402 281.50839 282.08240 282.77216 283.70621 284.64066
 285.50980 286.26620 286.93536 287.78815
 366.78100 356.34854 345.79409 334.67363 323.09018 311.29772 299.18126 286.99781
 274.72335 262.63389 250.65644 239.97098 230.10653 221.22407 213.41961 206.43516
 200.28270 195.23424 191.82979 189.88533 188.93588 189.01342 189.86196 191.18351
 192.92205 195.03059 197.30714 199.67968 202.13823 204.63177 206.73331 208.58886
 210.22840 211.38694 211.62949 211.87103 211.82158 211.54012 211.18666 210.83021
 210.46075 210.18429 210.00584 209.88338 209.82493 210.16947 210.56901 210.97156
 211.77810 212.96964 214.23319 216.02973 217.97128 220.02782 222.13636 224.23291
 226.30645 228.40399 230.51454 232.63408 234.77663 236.96217 239.23171 241.61526
 244.24980 246.51434 248.52989 250.30843 251.73898 252.87552 253.71106 254.04061
 254.09115 253.87869 253.25224 252.21378 250.83333 249.00787 246.93041 244.77696
 242.58150 240.39904 238.23259 236.08513 233.95868 231.83922 229.87876 228.04931
 226.34585 224.83139 223.47494 222.26048 221.15603 220.12957 219.24711 218.40166
 217.65720 216.85074 215.96229 215.33983 214.80338 214.79373 214.77094 214.09944
 212.95821 210.99722 210.66139 213.01079 216.54407 220.66464 226.34795 230.87852
 234.78438 238.94255 243.13837 247.18629 251.12683 254.94843 258.57187 261.87698
 264.92426 267.76355 270.40359 272.80154 274.82288 276.47415 277.88031 279.10364
 280.17383 280.81436 281.06152 281.27527 281.84338 282.61121 283.56073 284.45651
 285.30029 286.04095 286.68210 287.50735
 366.78100 356.34873 345.79446 334.67419 323.09091 311.29864 299.18237 286.99910
 274.72483 262.63556 250.65828 239.97301 230.10874 221.22647 213.42220 206.43793
 200.28565 195.23738 191.83311 189.88884 188.93957 189.01730 189.86602 191.18775
 192.92648 195.03521 197.31194 199.68467 202.14339 204.63712 206.73885 208.59458
 210.23431 211.39304 211.63577 211.87749 211.82822 211.54695 211.19368 210.83741
 210.46814 210.19186 210.01359 209.89132 209.83305 210.17778 210.57751 210.98023
 211.78696 212.97869 214.24242 216.03915 217.98088 220.03760 222.14633 224.24306
 226.31679 228.41452 230.52525 232.64497 234.78770 236.97343 239.24316 241.62689
 244.26162 246.52634 248.54207 250.32080 251.75153 252.88826 253.72399 254.05372
 254.10444 253.89217 253.26590 252.22763 250.84736 249.02209 246.94481 244.79154
 242.59627 240.41400 238.24773 236.10046 233.97418 231.85491 229.89464 228.06537
 226.36210 224.84783 223.49155 222.27728 221.17301 220.14674 219.26447 218.41920
 217.67492 216.86865 215.98038 215.35811 214.82184 214.80876 214.77785 214.08426
 213.02490 211.02740 210.59724 212.97150 216.52119 220.61566 226.31697 230.85385
 234.76953 238.93732 243.13591 247.18509 251.12985 254.94656 258.56271 261.86472
 264.90967 267.74240 270.37192 272.75589 274.77188 276.43655 277.83325 279.03088
 280.10159 280.70117 280.88199 281.10904 281.73868 282.49155 283.43253 284.31573
 285.13986 285.88232 286.52234 287.34464
 366.78100 356.34899 345.79498 334.67498 323.09197 311.29996 299.18395 287.00095
 274.72694 262.63793 250.66092 239.97591 230.11191 221.22990 213.42589 206.44188
 200.28988 195.24187 191.83786 189.89385 188.94484 189.02284 189.87183 191.19382
 192.93281 195.04181 197.31880 199.69179 202.15078 204.64477 206.74677 208.60276
 210.24275 211.40174 211.64474 211.88673 211.83772 211.55671 211.20370 210.84770
 210.47869 210.20268 210.02467 209.90266 209.84466 210.18965 210.58964 210.99263
 211.79963 212.99162 214.25561 216.05260 217.99459 220.05159 222.16058 224.25757
 226.33156 228.42956 230.54055 232.66054 234.80353 236.98952 239.25952 241.64351
 244.27850 246.54349 248.55949 250.33848 251.76947 252.90646 253.74245 254.07245
 254.12344 253.91143 253.28542 252.24742 250.86741 249.04240 246.96539 244.81238
 242.61738 240.43537 238.26936 236.12235 233.99635 231.87734 229.91733 228.08832
 226.38531 224.87131 223.51530 222.30129 221.19728 220.17128 219.28927 218.44426
 217.70025 216.89424 216.00624 215.38423 214.84822 214.82996 214.78679 214.07137
 213.07011 211.02550 210.49625 212.91487 216.48907 220.57144 226.27637 230.85049
 234.75006 238.93069 243.13196 247.18910 251.13797 254.94896 258.55667 261.86151
 264.90497 267.72955 270.34137 272.69757 274.69830 276.36569 277.75720 278.94653
 279.97141 280.53406 280.75421 281.05734 281.68582 282.48032 283.41245 284.29776
 285.12076 285.87015 286.54550 287.41574
 366.78100 356.34926 345.79552 334.67579 323.09305 311.30131 299.18557 287.00283
 274.72910 262.64036 250.66362 239.97888 230.11515 221.23341 213.42967 206.44593
 200.29419 195.24646 191.84272 189.89898 188.95024 189.02850 189.87777 191.20003
 192.93929 195.04855 197.32582 199.69908 202.15834 204.65260 206.75486 208.61113
 210.25139 211.41065 211.65391 211.89617 211.84744 211.56670 211.21396 210.85822
 210.48949 210.21375 210.03601 209.91427 209.85653 210.20180 210.60206 211.00532
 211.81258 213.00484 214.26911 216.06637 218.00863 220.06589 222.17516 224.27242
 226.34668 228.44494 230.55620 232.67647 234.81973 237.00599 239.27625 241.66051
 244.29578 246.56104 248.57730 250.35656 251.78783 252.92509 253.76135 254.09161
 254.14287 253.93114 253.30540 252.26766 250.88792 249.06318 246.98645 244.83371
 242.63897 240.45723 238.29150 236.14476 234.01902 231.90028 229.94054 228.11181
 226.40907 224.89533 223.53959 222.32585 221.22212 220.19638 219.31464 218.46990
 217.72617 216.92043 216.03269 215.41095 214.87521 214.85153 214.79555 214.06264
 213.11061 211.02730 210.38315 212.85649 216.46165 220.54283 226.22719 230.84720
 234.72937 238.92188 243.12663 247.19209 251.14488 254.95294 258.55588 261.86636
 264.90686 267.71793 270.30402 272.62335 274.60141 276.26447 277.65863 278.85208
 279.83905 280.39767 280.66223 281.01263 281.64703 282.51901 283.46536 284.36145
 285.20319 285.96814 286.65253 287.52469
 366.78100 356.34936 345.79573 334.67609 323.09345 311.30182 299.18618 287.00355
 274.72991 262.64127 250.66464 239.98000 230.11636 221.23473 213.43109 206.44745
 200.29582 195.24818 191.84454 189.90091 188.95227 189.03064 189.88000 191.20236
 192.94173 195.05109 197.32845 199.70182 202.16118 204.65554 206.75791 208.61427
 210.25464 211.41400 211.65736 211.89973 211.85109 211.57045 211.21782 210.86218
 210.49354 210.21791 210.04027 209.91864 209.86100 210.20636 210.60673 211.01009
 211.81745 213.00982 214.27418 216.07154 218.01391 220.07127 222.18063 224.27800
 226.35236 228.45073 230.56209 232.68245 234.82582 237.01218 239.28254 241.66691
 244.30227 246.56763 248.58400 250.36336 251.79473 252.93209 253.76845 254.09882
 254.15018 253.93854 253.31291 252.27527 250.89563 249.07100 246.99436 244.84172
 242.64709 240.46545 238.29982 236.15318 234.02754 231.90891 229.94927 228.12063
 226.41800 224.90436 223.54872 222.33509 221.23145 220.20582 219.32418 218.47954
 217.73591 216.93027 216.04263 215.42100 214.88536 214.86404 214.81366 214.05292
 213.14180 211.02824 210.33398 212.81499 216.41145 220.51289 226.17918 230.84200
 234.70619 238.90736 243.11565 247.19043 251.14740 254.95625 258.55905 261.87784
 264.91656 267.71249 270.26932 272.54602 274.49429 276.14417 277.53583 278.73709
 279.69849 280.29010 280.56616 280.94464 281.62103 282.58334 283.55222 284.46289
 285.31870 286.11447 286.81409 287.70569
 366.78100 356.34928 345.79555 334.67583 323.09311 311.30138 299.18566 287.00294
 274.72921 262.64049 250.66376 239.97904 230.11532 221.23359 213.42987 206.44615
 200.29442 195.24670 191.84298 189.89925 188.95053 189.02881 189.87808 191.20036
 192.93964 195.04891 197.32619 199.69946 202.15874 204.65302 206.75529 208.61157
 210.25185 211.41112 211.65440 211.89668 211.84795 211.56723 211.21451 210.85878
 210.49006 210.21434 210.03661 209.91489 209.85717 210.20244 210.60272 211.00599
 211.81327 213.00555 214.26982 216.06710 218.00938 220.06665 222.17593 224.27321
 226.34748 228.44576 230.55704 232.67731 234.82059 237.00687 239.27714 241.66142
 244.29669 246.56197 248.57825 250.35752 251.78880 252.92608 253.76235 254.09263
 254.14391 253.93218 253.30646 252.26874 250.88901 249.06429 246.98757 244.83484
 242.64012 240.45839 238.29267 236.14595 234.02022 231.90150 229.94178 228.11305
 226.41033 224.89661 223.54088 222.32716 221.22344 220.19771 219.31599 218.47127
 217.72754 216.92182 216.03409 215.41237 214.87665 214.86568 214.83977 214.04150
 213.16528 211.04156 210.31885 212.77386 216.38496 220.49344 226.12561 230.81827
 234.67767 238.88637 243.10152 247.18680 251.15033 254.96387 258.57190 261.90036
 264.93713 267.71457 270.23828 272.46863 274.37869 276.00851 277.39188 278.59616
 279.55847 280.19913 280.48846 280.93518 281.70624 282.65500 283.62933 284.53992
 285.42706 286.23071 286.93274 287.82739
 366.78100 356.34901 345.79502 334.67503 323.09205 311.30006 299.18407 287.00108
 274.72709 262.63810 250.66112 239.97613 230.11214 221.23015 213.42616 206.44217
 200.29019 195.24220 191.83821 189.89422 188.94523 189.02324 189.87225 191.19427
 192.93328 195.04229 197.31930 199.69231 202.15132 204.64534 206.74735 208.60336
 210.24337 211.40238 211.64539 211.88741 211.83842 211.55743 211.20444 210.84845
 210.47946 210.20348 210.02549 209.90350 209.84551 210.19052 210.59053 210.99354
 211.80056 212.99257 214.25658 216.05359 217.99560 220.05261 222.16163 224.25864
 226.33265 228.43066 230.54167 232.66168 234.80470 236.99071 239.26072 241.64473
 244.27974 246.54475 248.56076 250.33978 251.77079 252.90780 253.74381 254.07382
 254.12483 253.91285 253.28686 252.24887 250.86888 249.04389 246.96690 244.81392
 242.61893 240.43694 238.27095 236.12396 233.99797 231.87898 229.91900 228.09001
 226.38702 224.87303 223.51704 222.30305 221.19907 220.17308 219.29109 218.44610
 217.70211 216.89612 216.00814 215.38615 214.85016 214.85577 214.86908 214.03531
 213.16765 211.07152 210.32788 212.72476 216.31938 220.44580 226.07668 230.78688
 234.64975 238.86606 243.08897 247.18286 251.15292 254.97220 258.58887 261.92810
 264.96274 267.71994 270.20612 272.38626 274.25394 275.85944 277.23618 278.44666
 279.43347 280.12607 280.47803 281.00485 281.78613 282.73880 283.71973 284.64639
 285.54440 286.35989 287.07233 287.98019
 366.78100 356.34866 345.79433 334.67399 323.09066 311.29832 299.18199 286.99865
 274.72432 262.63498 250.65765 239.97231 230.10798 221.22564 213.42131 206.43697
 200.28464 195.23630 191.83197 189.88763 188.93830 189.01596 189.86462 191.18629
 192.92495 195.03362 197.31028 199.68295 202.14161 204.63528 206.73694 208.59261
 210.23227 211.39094 211.63360 211.87527 211.82593 211.54460 211.19126 210.83493
 210.46559 210.18925 210.01092 209.88858 209.83025 210.17491 210.57458 210.97724
 211.78391 212.97557 214.23924 216.03590 217.97757 220.03423 222.14290 224.23956
 226.31323 228.41089 230.52156 232.64122 234.78389 236.96955 239.23921 241.62288
 244.25754 246.52221 248.53787 250.31654 251.74720 252.88387 253.71953 254.04920
 254.09986 253.88753 253.26119 252.22286 250.84252 249.01719 246.93985 244.78652
 242.59118 240.40885 238.24251 236.09517 233.96884 231.84950 229.88917 228.05983
 226.35650 224.84216 223.48583 222.27149 221.16716 220.14082 219.25849 218.41315
 217.66882 216.86248 215.97415 215.35181 214.81548 214.83907 214.89478 214.03281
 213.18257 211.09802 210.34612 212.65865 216.23775 220.39871 226.03294 230.75218
 234.62109 238.84515 243.07632 247.17651 251.15039 254.97438 258.60226 261.95462
 264.98773 267.72531 270.17563 272.30789 274.13043 275.70676 277.07953 278.29944
 279.29910 280.03149 280.48499 281.09570 281.91748 282.88284 283.86987 284.79639
 285.68271 286.46954 287.15686 288.03281
 366.78100 356.34844 345.79387 334.67331 323.08974 311.29718 299.18062 286.99705
 274.72249 262.63293 250.65536 239.96980 230.10523 221.22267 213.41811 206.43354
 200.28098 195.23242 191.82785 189.88329 188.93372 189.01116 189.85960 191.18103
 192.91947 195.02790 197.30434 199.67678 202.13521 204.62865 206.73009 208.58552
 210.22496 211.38339 211.62583 211.86727 211.81770 211.53614 211.18257 210.82601
 210.45645 210.17988 210.00132 209.87876 209.82019 210.16463 210.56406 210.96650
 211.77294 212.96437 214.22781 216.02425 217.96568 220.02212 222.13055 224.22699
 226.30043 228.39786 230.50830 232.62773 234.77017 236.95561 239.22504 241.60848
 244.24292 246.50735 248.52279 250.30122 251.73166 252.86810 253.70353 254.03297
 254.08340 253.87084 253.24428 252.20571 250.82515 248.99959 246.92202 244.76846
 242.57289 240.39033 238.22377 236.07620 233.94964 231.83008 229.86951 228.03995
 226.33638 224.82182 223.46526 222.25069 221.14613 220.11956 219.23700 218.39144
 217.64687 216.84031 215.95175 215.32918 214.79262 214.82666 214.90707 214.04686
 213.20470 211.12822 210.37076 212.60974 216.12354 220.32381 226.00110 230.71840
 234.59001 238.81947 243.05702 247.16228 251.14111 254.97433 258.61713 261.98669
 265.02277 267.74268 270.15237 272.22760 273.99722 275.54764 276.92444 278.14624
 279.14975 279.91977 280.46442 281.16650 282.16336 283.23795 284.24405 285.16107
 285.98697 286.73520 287.38885 288.22186
 366.78100 356.34871 345.79443 334.67414 323.09086 311.29857 299.18229 286.99900
 274.72471 262.63543 250.65814 239.97286 230.10857 221.22628 213.42200 206.43771
 200.28543 195.23714 191.83286 189.88857 188.93928 189.01700 189.86571 191.18743
 192.92614 195.03485 197.31157 199.68428 202.14300 204.63671 206.73843 208.59414
 210.23385 211.39257 211.63528 211.87700 211.82771 211.54643 211.19314 210.83685
 210.46757 210.19128 210.01300 209.89071 209.83242 210.17714 210.57685 210.97957
 211.78628 212.97800 214.24171 216.03842 217.98014 220.03685 222.14557 224.24228
 226.31599 228.41371 230.52442 232.64414 234.78685 236.97257 239.24228 241.62599
 244.26071 246.52542 248.54114 250.31985 251.75057 252.88728 253.72299 254.05271
 254.10342 253.89114 253.26485 252.22656 250.84628 249.02099 246.94371 244.79042
 242.59514 240.41285 238.24656 236.09928 233.97299 231.85371 229.89342 228.06413
 226.36085 224.84656 223.49028 222.27599 221.17171 220.14542 219.26313 218.41785
 217.67356 216.86728 215.97899 215.35671 214.82042 214.83806 214.87970 214.08173
 213.26405 211.14340 210.35736 212.48615 216.01646 220.31042 225.97316 230.67796
 234.55409 238.79129 243.03935 247.15123 251.13208 254.97441 258.63684 262.02893
 265.06418 267.75693 270.12149 272.14279 273.86633 275.39166 276.76495 277.98029
 279.01691 279.88962 280.62292 281.39651 282.29263 283.32367 284.31818 285.22391
 286.02402 286.75903 287.40112 288.21939
 366.78100 356.34900 345.79499 334.67499 323.09198 311.29998 299.18397 287.00097
 274.72696 262.63796 250.66095 239.97595 230.11194 221.22994 213.42594 206.44193
 200.28993 195.24192 191.83792 189.89391 188.94491 189.02290 189.87190 191.19389
 192.93289 195.04189 197.31888 199.69188 202.15087 204.64487 206.74686 208.60286
 210.24285 211.40185 211.64484 211.88684 211.83783 211.55683 211.20383 210.84782
 210.47882 210.20281 210.02481 209.90280 209.84480 210.18979 210.58979 210.99278
 211.79978 212.99178 214.25577 216.05277 217.99476 220.05176 222.16075 224.25775
 226.33174 228.42974 230.54073 232.66073 234.80372 236.98972 239.25972 241.64371
 244.27871 246.54370 248.55970 250.33869 251.76969 252.90668 253.74268 254.07267
 254.12367 253.91167 253.28566 252.24766 250.86765 249.04265 246.96564 244.81264
 242.61763 240.43563 238.26962 236.12262 233.99661 231.87761 229.91761 228.08860
 226.38560 224.87159 223.51559 222.30158 221.19758 220.17157 219.28957 218.44456
 217.70056 216.89456 216.00655 215.38455 214.84854 214.85184 214.85962 214.10051
 213.34526 211.17372 210.29607 212.37939 215.95804 220.29555 225.93584 230.63139
 234.51393 238.75873 243.01910 247.14349 251.13277 254.98462 258.65900 262.05939
 265.09290 267.76990 270.10068 272.06827 273.73599 275.22601 276.58472 277.81012
 278.90860 279.88947 280.75946 281.61472 282.51575 283.50415 284.49713 285.37820
 286.16330 286.89026 287.52530 288.33463
 366.78100 356.34839 345.79378 334.67317 323.08956 311.29695 299.18034 286.99673
 274.72212 262.63251 250.65489 239.96928 230.10467 221.22206 213.41745 206.43284
 200.28023 195.23162 191.82701 189.88240 188.93279 189.01018 189.85857 191.17996
 192.91835 195.02674 197.30313 199.67552 202.13391 204.62730 206.72868 208.58407
 210.22346 211.38185 211.62424 211.86563 211.81602 211.53441 211.18080 210.82419
 210.45458 210.17797 209.99936 209.87675 209.81814 210.16253 210.56192 210.96431
 211.77070 212.96208 214.22547 216.02186 217.96325 220.01964 222.12803 224.22442
 226.29781 228.39520 230.50559 232.62498 234.76737 236.95276 239.22215 241.60554
 244.23993 246.50432 248.51971 250.29810 251.72849 252.86487 253.70026 254.02965
 254.08004 253.86743 253.24082 252.20221 250.82160 248.99599 246.91838 244.76477
 242.56916 240.38655 238.21994 236.07233 233.94572 231.82611 229.86550 228.03589
 226.33227 224.81766 223.46105 222.24644 221.14183 220.11522 219.23261 218.38700
 217.64239 216.83578 215.94717 215.32456 214.78795 214.82301 214.90584 214.07903
 213.39708 211.21971 210.28290 212.25087 215.92899 220.35188 225.87872 230.57178
 234.45201 238.70892 242.98622 247.12131 251.10472 254.96892 258.68335 262.12708
 265.15948 267.78845 270.04645 271.95010 273.57727 275.04608 276.42401 277.70831
 278.87582 279.93262 280.89139 281.81815 282.77240 283.89789 284.91306 285.49731
 286.11026 286.83859 287.47485 288.28568
 366.78100 356.34748 345.79195 334.67043 323.08591 311.29238 299.17486 286.99034
 274.71481 262.62429 250.64577 239.95924 230.09372 221.21020 213.40467 206.41915
 200.26563 195.21610 191.81058 189.86506 188.91453 188.99101 189.83849 191.15896
 192.89644 195.00392 197.27939 199.65087 202.10835 204.60082 206.70130 208.55578
 210.19425 211.35173 211.59321 211.83368 211.78316 211.50064 211.14611 210.78859
 210.41807 210.14054 209.96102 209.83750 209.77798 210.12145 210.51993 210.92141
 211.72688 212.91736 214.17984 215.97531 217.91579 219.97127 222.07874 224.17422
 226.24670 228.34317 230.45265 232.57113 234.71260 236.89708 239.16556 241.54803
 244.18151 246.44499 248.45946 250.23694 251.66642 252.80189 253.63637 253.96485
 254.01432 253.80080 253.17328 252.13375 250.75223 248.92571 246.84718 244.69266
 242.49614 240.31261 238.14509 235.99657 233.86904 231.74852 229.78700 227.95647
 226.25195 224.73643 223.37890 222.16338 221.05786 220.03033 219.14681 218.30029
 217.55476 216.74724 215.85772 215.23419 214.69667 214.75131 214.87617 214.09166
 213.41032 211.23734 210.29893 212.16248 215.90340 220.42755 225.83080 230.52058
 234.39182 238.66467 242.96233 247.10260 251.07323 254.94411 258.70135 262.18692
 265.21338 267.78738 269.97369 271.82346 273.41040 274.85086 276.24106 277.55829
 278.74847 279.86737 280.93622 281.96030 282.93619 284.03757 285.14273 285.63898
 286.40094 287.07950 287.67227 288.42767
 366.78100 356.34656 345.79013 334.66769 323.08225 311.28782 299.16938 286.98394
 274.70750 262.61607 250.63663 239.94919 230.08276 221.19832 213.39188 206.40545
 200.25101 195.20057 191.79413 189.84770 188.89626 188.97182 189.81839 191.13795
 192.87451 194.98108 197.25564 199.62620 202.08276 204.57433 206.67389 208.52745
 210.16502 211.32158 211.56214 211.80171 211.75027 211.46683 211.11139 210.75296
 210.38152 210.10308 209.92265 209.79821 209.73777 210.08034 210.47790 210.87846
 211.68302 212.87259 214.13415 215.92871 217.86828 219.92284 222.02940 224.12397
 226.19553 228.29109 230.39965 232.51722 234.65778 236.84134 239.10891 241.49047
 244.12303 246.38560 248.39916 250.17572 251.60428 252.73885 253.57241 253.89997
 253.94854 253.73410 253.10566 252.06523 250.68279 248.85535 246.77591 244.62048
 242.42304 240.23860 238.07017 235.92073 233.79229 231.67086 229.70842 227.87698
 226.17154 224.65511 223.29667 222.08023 220.97380 219.94536 219.06092 218.21349
 217.46705 216.65861 215.76817 215.14374 214.60530 214.66656 214.80054 214.11276
 213.40901 211.23729 210.30873 212.11998 215.87706 220.46419 225.79385 230.47562
 234.34944 238.63901 242.95560 247.09886 251.05806 254.93019 258.71710 262.22537
 265.24274 267.77502 269.91031 271.71988 273.26672 274.67731 276.07520 277.42267
 278.62982 279.79346 280.97098 282.12073 283.15271 284.27673 285.33438 285.88852
 286.34763 286.75650 287.11365 287.56882
 354.97500 345.04800 334.58700 324.11500 313.32600 302.53700 291.65000 280.76700
 269.93100 259.19300 248.62200 238.61700 229.08700 220.35500 212.54000 205.53500
 199.46400 194.49300 191.14300 189.19000 188.08900 188.01400 188.72400 189.90600
 191.46900 193.38200 195.40300 197.55600 199.80700 202.06000 204.28800 206.47900
 208.55200 210.37800 212.02500 213.65900 214.99800 216.11800 217.17200 218.25900
 219.49400 220.64500 221.67900 222.61400 223.54500 224.98200 226.57100 228.19000
 229.79700 231.81100 233.86500 235.97200 238.24200 240.55300 242.89900 245.25300
 247.48800 249.53500 251.36600 252.84800 254.09800 255.16700 256.02700 256.25300
 256.09500 255.54300 253.93500 252.56600 251.38400 250.24500 249.05200 247.70100
 246.01600 243.99600 241.78400 239.39300 236.81300 234.22300 231.65800 229.14400
 226.74000 224.47300 222.33500 220.32500 218.44000 216.67700 214.96200 213.47200
 212.20000 211.10800 210.26000 209.63900 209.24400 209.03100 209.05800 209.33300
 209.78400 210.62600 211.33100 212.39100 213.62500 214.84668 217.72949 219.47640
 220.32566 220.86828 220.88710 220.27371 219.43733 218.84250 219.04934 220.86203
 222.60583 225.72206 229.03064 232.61777 236.12270 239.51333 242.70767 245.68587
 248.41061 250.90679 253.19353 254.91714 256.48655 257.94920 259.39966 260.69384
 261.81714 262.77997 263.71679 264.54570 265.26305 265.89772 266.47676 267.00133
 267.47312 267.89325 268.26027 268.72800
