|-------------------------------------------------------------------------|
|   File Name : in_temp.dat
|   Subject   : temperature profiles used for initial guess atmosphere
|   File Type : input of gmtr
|   Data Type : atmospherical data
|   Author/s  : WRF-Chem
|   Date      : Fri Jul 26 15:39:24 2024
|-------------------------------------------------------------------------|

 WRF-Chem temperature
#
 values of T (K)    (8f10.5)
#
 354.97500 345.04800 334.58700 324.11500 313.32600 302.53700 291.65000 280.76700
 269.93100 259.19300 248.62200 238.61700 229.08700 220.35500 212.54000 205.53500
 199.46400 194.49300 191.14300 189.19000 188.08900 188.01400 188.72400 189.90600
 191.46900 193.38200 195.40300 197.55600 199.80700 202.06000 204.28800 206.47900
 208.55200 210.37800 212.02500 213.65900 214.99800 216.11800 217.17200 218.25900
 219.49400 220.64500 221.67900 222.61400 223.54500 224.98200 226.57100 228.19000
 229.79700 231.81100 233.86500 235.97200 238.24200 240.55300 242.89900 245.25300
 247.48800 249.53500 251.36600 252.84800 254.09800 255.16700 256.02700 256.25300
 256.09500 255.54300 253.93500 252.56600 251.38400 250.24500 249.05200 247.70100
 246.01600 243.99600 241.78400 239.39300 236.81300 234.22300 231.65800 229.14400
 226.74000 224.47300 222.33500 220.32500 218.44000 216.67700 214.96200 213.47200
 212.20000 211.10800 210.26000 209.63900 209.24400 209.03100 209.05800 209.33300
 209.78400 210.62600 211.33100 212.39100 213.62500 214.84668 217.72949 219.47640
 220.32566 220.86828 220.88710 220.27371 219.43733 218.84250 219.04934 220.86203
 222.60583 225.72206 229.03064 232.61777 236.12270 239.51333 242.70767 245.68587
 248.41061 250.90679 253.19353 254.91714 256.48655 257.94920 259.39966 260.69384
 261.81714 262.77997 263.71679 264.54570 265.26305 265.89772 266.47676 267.00133
 267.47312 267.89325 268.26027 268.72800
 366.78100 356.33500 345.76700 334.63300 323.03600 311.23000 299.10000 286.90300
 274.61500 262.51200 250.52100 239.82200 229.94400 221.04800 213.23000 206.23200
 200.06600 195.00400 191.58600 189.62800 188.66500 188.72900 189.56400 190.87200
 192.59700 194.69200 196.95500 199.31400 201.75900 204.23900 206.32700 208.16900
 209.79500 210.94000 211.16900 211.39700 211.33400 211.03900 210.67200 210.30200
 209.91900 209.62900 209.43700 209.30100 209.22900 209.56000 209.94600 210.33500
 211.12800 212.30600 213.55600 215.33900 217.26700 219.31000 221.40500 223.48800
 225.54800 227.63200 229.72900 231.83500 233.96400 236.13600 238.39200 240.76200
 243.38300 245.63400 247.63600 249.40100 250.81800 251.94100 252.76300 253.07900
 253.11600 252.89000 252.25000 251.19800 249.80400 247.96500 245.87400 243.70700
 241.49800 239.30200 237.12200 234.96100 232.82100 230.68800 228.71400 226.87100
 225.15400 223.62600 222.25600 221.02800 219.91000 218.87000 217.97400 217.11500
 216.35700 215.53700 214.63500 213.99900 213.44900 212.85855 212.01316 212.61654
 214.26826 216.08686 218.14273 220.53346 223.40855 226.78828 231.49734 235.90155
 239.42278 243.28576 247.23140 251.11907 254.80144 258.23331 261.38913 264.27520
 266.89312 269.26852 271.44504 273.08845 274.58484 275.98591 277.39845 278.65879
 279.75272 280.69038 281.56708 282.34086 283.01050 283.60295 284.14348 284.63317
 285.07358 285.46577 285.80838 286.24500
 381.81900 372.39900 361.20600 349.77600 337.62200 324.85300 311.81000 298.35300
 284.86000 271.32400 258.56100 246.30400 236.08700 226.79600 218.44800 211.29000
 205.52200 200.89400 197.38100 194.84800 193.01500 192.31500 192.25000 192.43100
 192.91200 193.53700 194.13600 194.71200 195.26200 195.83100 196.39300 196.97600
 197.60400 198.14900 198.58400 199.05700 199.69500 200.37800 201.05400 201.70800
 202.31300 202.85700 203.35500 203.86200 204.56900 205.29700 206.02600 206.98700
 208.19300 209.44100 210.96900 212.57600 214.46200 216.51300 218.63000 220.85300
 223.34100 225.96200 228.73900 231.69700 234.70600 237.70600 240.69200 243.65700
 246.73700 249.69900 252.52100 255.06300 257.29000 259.23300 260.63300 261.68000
 262.46100 262.79800 262.69100 262.22400 261.06900 259.52500 257.70700 255.50700
 253.00100 250.30200 247.39800 244.45200 241.65400 239.05400 236.73300 234.59000
 232.59500 230.72500 228.83400 226.82600 224.66600 222.38700 220.10400 217.71500
 215.45900 213.06600 210.54600 208.09300 205.35400 202.08130 196.05959 200.71215
 209.01611 216.90438 223.84126 229.78593 235.00632 240.20838 245.98943 250.68668
 254.32982 257.93487 261.55666 264.96801 268.15192 271.06452 273.76717 276.25691
 278.57680 280.74479 282.77456 284.60533 286.27232 287.81705 289.31715 290.65561
 291.81734 292.81312 293.70701 294.49387 295.17482 295.77730 296.32696 296.82492
 297.27278 297.67160 298.02000 298.46400
 399.33000 389.90700 379.81300 368.66800 357.52200 345.30100 333.07400 320.22700
 307.21600 293.84800 280.37600 267.29600 254.61000 242.98700 232.15100 221.97700
 212.67200 204.28600 197.66900 192.82100 189.48600 187.45200 186.81400 187.08900
 187.78100 189.05400 190.64800 192.54200 194.63000 196.75200 198.67100 200.15800
 201.53500 202.48700 202.97500 203.34000 203.53900 203.49700 203.38500 203.24700
 203.00500 202.78600 202.60300 202.43700 202.42600 202.88800 203.42000 203.95100
 204.89500 205.99200 207.30100 208.95800 210.73800 213.10000 215.56400 218.18000
 220.96600 223.91800 226.96100 230.09200 233.29300 236.55700 239.95500 243.53700
 246.84500 249.39000 251.54200 253.47400 255.19500 256.48400 257.43100 258.05900
 258.21200 258.04000 257.58200 256.64300 255.23900 253.50700 251.40800 249.05600
 246.57600 243.99400 241.38900 238.83000 236.34400 233.98600 231.96900 230.11800
 228.42300 226.89900 225.54800 224.29700 223.10500 221.96500 220.95800 220.11300
 219.49000 218.92000 218.32500 217.88100 217.42300 216.96366 216.35568 216.80261
 217.73415 218.28582 218.64258 219.10077 220.44626 222.53987 226.38451 230.35736
 233.59734 237.39164 241.29814 245.22796 248.98002 252.51130 255.78595 258.80109
 261.54781 264.05210 266.34239 268.04198 269.58951 271.01303 272.35754 273.55718
 274.59842 275.49092 276.28989 276.99307 277.60161 278.14001 278.63122 279.07623
 279.47646 279.83287 280.14422 280.54100
 399.73800 389.78500 379.66200 368.15100 356.64100 344.35000 331.79200 318.88800
 305.72600 292.49300 279.20900 266.73800 254.69600 244.21100 234.45700 225.43300
 217.56900 210.45100 204.30000 199.30600 195.45800 192.57600 191.02700 190.38600
 190.23900 190.53400 191.16600 191.92500 192.79500 193.76600 194.73200 195.31200
 195.80000 196.05200 196.11500 196.11500 196.03900 195.72300 195.34000 194.98900
 194.75100 194.79200 195.13300 195.59800 196.50600 198.13600 199.85800 201.56600
 204.17900 206.82300 209.89300 213.28400 216.82800 220.60500 224.38700 228.20900
 232.03200 235.82500 239.56000 243.25800 246.84500 250.20100 253.70900 257.46800
 261.53000 264.22100 266.60100 268.68100 270.32900 271.74100 272.83600 273.47400
 273.89800 274.00200 273.75700 273.28800 272.37100 271.10000 269.58900 267.77900
 265.81600 263.72100 261.39300 258.91600 256.29800 253.42300 250.33100 247.11400
 243.83700 240.52900 237.24900 233.99900 230.72800 227.51500 224.25400 220.95200
 217.62700 213.65600 210.12100 206.78900 204.01000 201.99491 199.07309 198.76551
 199.40006 200.48994 201.46112 202.31912 203.45100 204.96110 207.47502 210.85391
 213.70530 217.29629 220.99574 224.72316 228.28753 231.64854 234.68024 237.40893
 239.70644 241.60899 243.46854 245.67368 247.68154 249.52395 251.24767 252.78566
 254.12057 255.26479 256.23740 257.09036 257.82852 258.48160 259.07744 259.61723
 260.10271 260.53504 260.91270 261.39400
 399.73800 389.78500 379.66200 368.15100 356.64100 344.35000 331.79200 318.88800
 305.72600 292.49300 279.20900 266.73800 254.69600 244.21100 234.45700 225.43300
 217.56900 210.45100 204.30000 199.30600 195.45800 192.57600 191.02700 190.38600
 190.23900 190.53400 191.16600 191.92500 192.79500 193.76600 194.73200 195.31200
 195.80000 196.05200 196.11500 196.11500 196.03900 195.72300 195.34000 194.98900
 194.75100 194.79200 195.13300 195.59800 196.50600 198.13600 199.85800 201.56600
 204.17900 206.82300 209.89300 213.28400 216.82800 220.60500 224.38700 228.20900
 232.03200 235.82500 239.56000 243.25800 246.84500 250.20100 253.70900 257.46800
 261.53000 264.22100 266.60100 268.68100 270.32900 271.74100 272.83600 273.47400
 273.89800 274.00200 273.75700 273.28800 272.37100 271.10000 269.58900 267.77900
 265.81600 263.72100 261.39300 258.91600 256.29800 253.42300 250.33100 247.11400
 243.83700 240.52900 237.24900 233.99900 230.72800 227.51500 224.25400 220.95200
 217.62700 213.65600 210.12100 206.78900 204.01000 201.99491 199.07309 198.76551
 199.40006 200.48994 201.46112 202.31912 203.45100 204.96110 207.47502 210.85391
 213.70530 217.29629 220.99574 224.72316 228.28753 231.64854 234.68024 237.40893
 239.70644 241.60899 243.46854 245.67368 247.68154 249.52395 251.24767 252.78566
 254.12057 255.26479 256.23740 257.09036 257.82852 258.48160 259.07744 259.61723
 260.10271 260.53504 260.91270 261.39400
 399.33000 389.90700 379.81300 368.66800 357.52200 345.30100 333.07400 320.22700
 307.21600 293.84800 280.37600 267.29600 254.61000 242.98700 232.15100 221.97700
 212.67200 204.28600 197.66900 192.82100 189.48600 187.45200 186.81400 187.08900
 187.78100 189.05400 190.64800 192.54200 194.63000 196.75200 198.67100 200.15800
 201.53500 202.48700 202.97500 203.34000 203.53900 203.49700 203.38500 203.24700
 203.00500 202.78600 202.60300 202.43700 202.42600 202.88800 203.42000 203.95100
 204.89500 205.99200 207.30100 208.95800 210.73800 213.10000 215.56400 218.18000
 220.96600 223.91800 226.96100 230.09200 233.29300 236.55700 239.95500 243.53700
 246.84500 249.39000 251.54200 253.47400 255.19500 256.48400 257.43100 258.05900
 258.21200 258.04000 257.58200 256.64300 255.23900 253.50700 251.40800 249.05600
 246.57600 243.99400 241.38900 238.83000 236.34400 233.98600 231.96900 230.11800
 228.42300 226.89900 225.54800 224.29700 223.10500 221.96500 220.95800 220.11300
 219.49000 218.92000 218.32500 217.88100 217.42300 216.96366 216.35568 216.80261
 217.73415 218.28582 218.64258 219.10077 220.44626 222.53987 226.38451 230.35736
 233.59734 237.39164 241.29814 245.22796 248.98002 252.51130 255.78595 258.80109
 261.54781 264.05210 266.34239 268.04198 269.58951 271.01303 272.35754 273.55718
 274.59842 275.49092 276.28989 276.99307 277.60161 278.14001 278.63122 279.07623
 279.47646 279.83287 280.14422 280.54100
 381.81900 372.39900 361.20600 349.77600 337.62200 324.85300 311.81000 298.35300
 284.86000 271.32400 258.56100 246.30400 236.08700 226.79600 218.44800 211.29000
 205.52200 200.89400 197.38100 194.84800 193.01500 192.31500 192.25000 192.43100
 192.91200 193.53700 194.13600 194.71200 195.26200 195.83100 196.39300 196.97600
 197.60400 198.14900 198.58400 199.05700 199.69500 200.37800 201.05400 201.70800
 202.31300 202.85700 203.35500 203.86200 204.56900 205.29700 206.02600 206.98700
 208.19300 209.44100 210.96900 212.57600 214.46200 216.51300 218.63000 220.85300
 223.34100 225.96200 228.73900 231.69700 234.70600 237.70600 240.69200 243.65700
 246.73700 249.69900 252.52100 255.06300 257.29000 259.23300 260.63300 261.68000
 262.46100 262.79800 262.69100 262.22400 261.06900 259.52500 257.70700 255.50700
 253.00100 250.30200 247.39800 244.45200 241.65400 239.05400 236.73300 234.59000
 232.59500 230.72500 228.83400 226.82600 224.66600 222.38700 220.10400 217.71500
 215.45900 213.06600 210.54600 208.09300 205.35400 202.08130 196.05959 200.71215
 209.01611 216.90438 223.84126 229.78593 235.00632 240.20838 245.98943 250.68668
 254.32982 257.93487 261.55666 264.96801 268.15192 271.06452 273.76717 276.25691
 278.57680 280.74479 282.77456 284.60533 286.27232 287.81705 289.31715 290.65561
 291.81734 292.81312 293.70701 294.49387 295.17482 295.77730 296.32696 296.82492
 297.27278 297.67160 298.02000 298.46400
 366.78100 356.32740 345.75180 334.61020 323.00560 311.19200 299.05440 286.84980
 274.55420 262.44360 250.44500 239.73840 229.85280 220.94920 213.12360 206.11800
 199.94440 194.87480 191.44920 189.48360 188.51300 188.56940 189.39680 190.69720
 192.41460 194.50200 196.75740 199.10880 201.54620 204.01860 206.09900 207.93340
 209.55180 210.68920 210.91060 211.13100 211.06040 210.75780 210.38320 210.00560
 209.61500 209.31740 209.11780 208.97420 208.89460 209.21800 209.59640 209.97780
 210.76321 211.93361 213.17601 214.95141 216.87181 218.90721 220.99461 223.07001
 225.12241 227.19881 229.28821 231.38661 233.50801 235.67241 237.92081 240.28321
 242.89661 245.14001 247.13441 248.89181 250.30121 251.41661 252.23101 252.53941
 252.56881 252.33521 251.68761 250.62801 249.22641 247.37981 245.28121 243.10661
 240.89001 238.68641 236.49881 234.33021 232.18261 230.04201 228.06041 226.20981
 224.48521 222.94961 221.57201 220.33641 219.21081 218.16321 217.25961 216.39301
 215.62741 214.79981 213.89021 213.24661 212.68901 212.54991 212.23059 213.29491
 215.21501 217.44690 218.78365 218.94449 220.13153 223.34700 228.34042 232.90173
 236.68600 240.51106 244.20245 247.69548 250.97873 253.75328 256.04752 258.35315
 261.51013 264.46652 266.70398 268.46970 270.22742 272.11755 273.93420 275.54282
 276.90817 278.22269 279.61783 280.97000 282.15591 283.20865 284.17426 285.05530
 285.85541 286.57544 287.21313 288.06409
 366.78100 356.32749 345.75199 334.61048 323.00598 311.19247 299.05497 286.85046
 274.55495 262.44445 250.44594 239.73944 229.85393 220.95043 213.12492 206.11941
 199.94591 194.87640 191.45090 189.48539 188.51489 188.57138 189.39887 190.69937
 192.41686 194.50436 196.75985 199.11134 201.54884 204.02133 206.10183 207.93632
 209.55482 210.69231 210.91380 211.13430 211.06379 210.76129 210.38678 210.00928
 209.61877 209.32126 209.12176 208.97825 208.89875 209.22224 209.60074 209.98223
 210.76772 211.93822 213.18071 214.95621 216.87670 218.91220 220.99969 223.07518
 225.12768 227.20417 229.29367 231.39216 233.51366 235.67815 237.92664 240.28914
 242.90263 245.14613 247.14062 248.89811 250.30761 251.42310 252.23760 252.54609
 252.57559 252.34208 251.69457 250.63507 249.23356 247.38706 245.28855 243.11405
 240.89754 238.69403 236.50653 234.33802 232.19052 230.05001 228.06851 226.21800
 224.49349 222.95799 221.58048 220.34498 219.21947 218.17197 217.26846 216.40195
 215.63645 214.80894 213.89944 213.25593 212.69843 212.58891 212.33800 213.41576
 215.27596 217.49161 218.94257 219.18629 220.29961 223.38928 228.27165 232.76582
 236.50478 240.32498 244.03831 247.53137 250.77002 253.50639 255.83185 258.21844
 261.35956 264.29337 266.54147 268.32507 270.07742 271.94916 273.76422 275.39429
 276.79907 278.15112 279.55139 280.90411 282.09192 283.14331 284.10992 284.98981
 285.78964 286.50943 287.14700 287.99857
 366.78100 356.32766 345.75232 334.61098 323.00664 311.19330 299.05596 286.85162
 274.55628 262.44594 250.44760 239.74126 229.85593 220.95259 213.12725 206.12191
 199.94857 194.87923 191.45389 189.48855 188.51821 188.57487 189.40253 190.70319
 192.42085 194.50851 196.76417 199.11583 201.55349 204.02615 206.10681 207.94147
 209.56013 210.69779 210.91945 211.14011 211.06978 210.76744 210.39310 210.01576
 209.62542 209.32808 209.12874 208.98540 208.90606 209.22972 209.60838 209.99004
 210.77570 211.94636 213.18902 214.96468 216.88534 218.92100 221.00866 223.08432
 225.13698 227.21364 229.30330 231.40196 233.52363 235.68829 237.93695 240.29961
 242.91327 245.15693 247.15159 248.90925 250.31891 251.43457 252.24923 252.55789
 252.58755 252.35421 251.70687 250.64753 249.24619 247.39985 245.30151 243.12717
 240.91083 238.70749 236.52015 234.35181 232.20448 230.06414 228.08280 226.23246
 224.50812 222.97278 221.59544 220.36010 219.23476 218.18742 217.28408 216.41774
 215.65240 214.82506 213.91572 213.27238 212.71504 212.63255 212.44414 213.54327
 215.33633 217.54784 219.07152 219.42722 220.48540 223.44359 228.20923 232.61446
 236.31879 240.14507 243.87231 247.35089 250.54306 253.25223 255.61613 258.08258
 261.20682 264.11740 266.37723 268.18384 269.93701 271.79248 273.60486 275.25528
 276.69794 278.08035 279.49283 280.84592 282.03259 283.08621 284.04987 284.93091
 285.73062 286.45090 287.08823 287.94055
 366.78100 356.32767 345.75233 334.61100 323.00666 311.19333 299.05599 286.85166
 274.55633 262.44599 250.44766 239.74132 229.85599 220.95265 213.12732 206.12199
 199.94865 194.87932 191.45398 189.48865 188.51832 188.57498 189.40265 190.70331
 192.42098 194.50864 196.76431 199.11598 201.55364 204.02631 206.10697 207.94164
 209.56030 210.69797 210.91964 211.14030 211.06997 210.76763 210.39330 210.01596
 209.62563 209.32830 209.12896 208.98563 208.90629 209.22996 209.60863 209.99029
 210.77596 211.94662 213.18929 214.96495 216.88562 218.92129 221.00895 223.08462
 225.13728 227.21395 229.30361 231.40228 233.52395 235.68861 237.93728 240.29994
 242.91361 245.15727 247.15194 248.90961 250.31927 251.43494 252.24960 252.55827
 252.58793 252.35460 251.70727 250.64793 249.24660 247.40026 245.30193 243.12760
 240.91126 238.70793 236.52059 234.35226 232.20492 230.06459 228.08326 226.23292
 224.50859 222.97325 221.59592 220.36058 219.23525 218.18792 217.28458 216.41825
 215.65291 214.82558 213.91624 213.27291 212.71558 212.66924 212.56477 213.66653
 215.39445 217.60556 219.19774 219.66110 220.68057 223.50853 228.15549 232.45816
 236.13303 239.96895 243.69870 247.15302 250.29933 252.98888 255.39674 257.94345
 261.05203 263.93875 266.21155 268.04434 269.80643 271.65158 273.45966 275.12805
 276.60620 278.01291 279.43915 280.79395 281.97934 283.03271 283.99768 284.87787
 285.67749 286.39734 287.03540 287.88873
 366.78100 356.32764 345.75227 334.61091 323.00655 311.19318 299.05582 286.85145
 274.55609 262.44573 250.44736 239.74100 229.85564 220.95227 213.12691 206.12154
 199.94818 194.87882 191.45345 189.48809 188.51773 188.57436 189.40200 190.70264
 192.42027 194.50791 196.76354 199.11518 201.55282 204.02545 206.10609 207.94073
 209.55936 210.69700 210.91863 211.13927 211.06891 210.76654 210.39218 210.01482
 209.62445 209.32709 209.12773 208.98436 208.90500 209.22863 209.60727 209.98891
 210.77454 211.94518 213.18782 214.96345 216.88409 218.91972 221.00736 223.08300
 225.13563 227.21227 229.30191 231.40054 233.52218 235.68682 237.93545 240.29809
 242.91172 245.15536 247.15000 248.90763 250.31727 251.43291 252.24754 252.55618
 252.58581 252.35245 251.70509 250.64572 249.24436 247.39800 245.29963 243.12527
 240.90890 238.70554 236.51818 234.34981 232.20245 230.06209 228.08072 226.23036
 224.50600 222.97063 221.59327 220.35790 219.23254 218.18518 217.28181 216.41545
 215.65009 214.82272 213.91336 213.26999 212.71263 212.70518 212.69128 213.78922
 215.44832 217.65970 219.33327 219.88791 220.88768 223.58542 228.10568 232.31778
 235.95369 239.78830 243.50768 246.93202 250.03804 252.71620 255.17169 257.79843
 260.89417 263.75778 266.04224 267.90491 269.68420 271.52676 273.33350 275.01483
 276.52502 277.94864 279.38998 280.74606 281.93188 282.98465 283.94949 284.82959
 285.62909 286.34906 286.98730 287.84134
 366.78100 356.32775 345.75249 334.61124 323.00699 311.19373 299.05648 286.85223
 274.55697 262.44672 250.44846 239.74221 229.85696 220.95370 213.12845 206.12320
 199.94994 194.88069 191.45544 189.49018 188.51993 188.57668 189.40442 190.70517
 192.42292 194.51066 196.76641 199.11815 201.55590 204.02865 206.10939 207.94414
 209.56289 210.70063 210.92238 211.14313 211.07287 210.77062 210.39637 210.01911
 209.62886 209.33161 209.13235 208.98910 208.90985 209.23359 209.61234 209.99408
 210.77983 211.95058 213.19332 214.96907 216.88982 218.92556 221.01331 223.08906
 225.14180 227.21855 229.30830 231.40704 233.52879 235.69354 237.94228 240.30503
 242.91877 245.16252 247.15727 248.91501 250.32476 251.44051 252.25525 252.56400
 252.59375 252.36049 251.71324 250.65399 249.25273 247.40648 245.30823 243.13397
 240.91772 238.71446 236.52721 234.35896 232.21170 230.07145 228.09020 226.23994
 224.51569 222.98044 221.60318 220.36793 219.24268 218.19542 217.29217 216.42592
 215.66066 214.83341 213.92416 213.28090 212.72365 212.74904 212.81161 213.91577
 215.50821 217.71257 219.46782 220.10727 221.10373 223.67027 228.05901 232.19658
 235.78703 239.60564 243.29976 246.68419 249.75488 252.43466 254.94456 257.64734
 260.73120 263.57483 265.86990 267.76553 269.56918 271.41858 273.22543 274.91882
 276.45490 277.89023 279.34314 280.70065 281.88641 282.93921 283.90396 284.78516
 285.58231 286.30368 286.94244 287.79736
 366.78100 356.32809 345.75317 334.61226 323.00835 311.19544 299.05852 286.85461
 274.55970 262.44979 250.45187 239.74596 229.86105 220.95814 213.13322 206.12831
 199.95540 194.88649 191.46157 189.49666 188.52675 188.58383 189.41192 190.71301
 192.43110 194.51918 196.77527 199.12736 201.56545 204.03853 206.11962 207.95471
 209.57380 210.71188 210.93397 211.15506 211.08515 210.78323 210.40932 210.03241
 209.64249 209.34558 209.14667 209.00376 208.92484 209.24893 209.62802 210.01011
 210.79619 211.96728 213.21037 214.98646 216.90754 218.94363 221.03172 223.10780
 225.16089 227.23798 229.32807 231.42715 233.54924 235.71433 237.96342 240.32650
 242.94059 245.18468 247.17977 248.93785 250.34794 251.46403 252.27912 252.58820
 252.61829 252.38538 251.73846 250.67955 249.27864 247.43273 245.33481 243.16090
 240.94499 238.74208 236.55516 234.38725 232.24034 230.10043 228.11951 226.26960
 224.54569 223.01078 221.63386 220.39895 219.27404 218.22712 217.32421 216.45830
 215.69339 214.86647 213.95756 213.31465 212.75774 212.80515 212.91873 214.04417
 215.58618 217.76729 219.59181 220.31511 221.31306 223.75945 228.01982 232.08844
 235.63901 239.43008 243.08340 246.41367 249.45076 252.14394 254.71574 257.48920
 260.56372 263.38846 265.69519 267.62711 269.46268 271.32590 273.13458 274.83612
 276.39319 277.83597 279.30023 280.65912 281.84415 282.89737 283.86230 284.74246
 285.54288 286.26230 286.90207 287.75836
 366.78100 356.32851 345.75403 334.61354 323.01005 311.19756 299.06108 286.85759
 274.56310 262.45361 250.45613 239.75064 229.86615 220.96366 213.13918 206.13469
 199.96220 194.89371 191.46923 189.50474 188.53525 188.59277 189.42128 190.72279
 192.44130 194.52982 196.78633 199.13884 201.57735 204.05087 206.13238 207.96789
 209.58740 210.72592 210.94843 211.16994 211.10045 210.79897 210.42548 210.04899
 209.65950 209.36302 209.16453 209.02204 208.94356 209.26807 209.64758 210.03009
 210.81661 211.98812 213.23163 215.00814 216.92966 218.96617 221.05468 223.13119
 225.18471 227.26222 229.35273 231.45224 233.57476 235.74027 237.98978 240.35330
 242.96781 245.21232 247.20783 248.96635 250.37686 251.49337 252.30888 252.61840
 252.64891 252.41642 251.76993 250.71145 249.31096 247.46547 245.36798 243.19450
 240.97901 238.77652 236.59004 234.42255 232.27606 230.13657 228.15609 226.30660
 224.58311 223.04862 221.67214 220.43765 219.31316 218.26667 217.36419 216.49870
 215.73421 214.90772 213.99924 213.35675 212.80026 212.86531 213.01965 214.17554
 215.67146 217.82516 219.70964 220.51222 221.50877 223.85590 227.99251 231.98947
 235.50888 239.26736 242.86717 246.12802 249.12817 251.84026 254.47699 257.31812
 260.38651 263.19604 265.51971 267.49500 269.36966 271.25027 273.05991 274.76431
 276.33835 277.78397 279.26364 280.62384 281.80942 282.86243 283.82697 284.70731
 285.50735 286.22849 286.86832 287.72601
 366.78100 356.32887 345.75474 334.61461 323.01148 311.19934 299.06321 286.86008
 274.56595 262.45682 250.45969 239.75456 229.87043 220.96829 213.14416 206.14003
 199.96790 194.89977 191.47564 189.51151 188.54238 188.60024 189.42911 190.73098
 192.44985 194.53872 196.79559 199.14846 201.58733 204.06119 206.14306 207.97893
 209.59880 210.73767 210.96054 211.18241 211.11328 210.81214 210.43901 210.06288
 209.67375 209.37762 209.17949 209.03736 208.95923 209.28409 209.66396 210.04683
 210.83370 212.00557 213.24944 215.02631 216.94818 218.98504 221.07391 223.15078
 225.20465 227.28252 229.37339 231.47326 233.59613 235.76199 238.01186 240.37573
 242.99060 245.23547 247.23134 248.99021 250.40108 251.51794 252.33381 252.64368
 252.67455 252.44242 251.79629 250.73816 249.33803 247.49289 245.39576 243.22263
 241.00750 238.80537 236.61924 234.45211 232.30598 230.16684 228.18671 226.33758
 224.61445 223.08032 221.70419 220.47006 219.34593 218.29980 217.39766 216.53253
 215.76840 214.94227 214.03414 213.39201 212.83588 212.92131 213.12314 214.30678
 215.75648 217.88531 219.82559 220.69966 221.70016 223.96106 227.97751 231.90324
 235.39372 239.11639 242.64679 245.82555 248.78845 251.52261 254.22382 257.13248
 260.20050 263.00394 265.35104 267.37402 269.29138 271.19147 273.00006 274.70261
 276.28949 277.73425 279.23160 280.59436 281.78043 282.83444 283.79822 284.67953
 285.47964 286.20117 286.84070 287.70099
 366.78100 356.32916 345.75531 334.61547 323.01263 311.20078 299.06494 286.86210
 274.56825 262.45941 250.46257 239.75773 229.87388 220.97204 213.14820 206.14435
 199.97251 194.90467 191.48082 189.51698 188.54814 188.60629 189.43545 190.73761
 192.45676 194.54592 196.80308 199.15623 201.59539 204.06955 206.15171 207.98786
 209.60802 210.74718 210.97033 211.19249 211.12365 210.82280 210.44996 210.07412
 209.68527 209.38943 209.19159 209.04974 208.97190 209.29706 209.67722 210.06037
 210.84753 212.01969 213.26384 215.04100 216.96316 219.00031 221.08947 223.16663
 225.22078 227.29894 229.39010 231.49025 233.61341 235.77957 238.02972 240.39388
 243.00904 245.25420 247.25035 249.00951 250.42067 251.53782 252.35398 252.66414
 252.69529 252.46345 251.81761 250.75976 249.35992 247.51508 245.41823 243.24539
 241.03055 238.82870 236.64286 234.47602 232.33018 230.19133 228.21149 226.36265
 224.63980 223.10596 221.73012 220.49627 219.37243 218.32659 217.42474 216.55990
 215.79606 214.97021 214.06237 213.42053 212.86469 212.97298 213.22882 214.43404
 215.84789 217.94826 219.94611 220.88342 221.89371 224.06404 227.96623 231.82144
 235.28363 238.97224 242.42543 245.51253 248.43398 251.18895 253.95711 256.93753
 260.01663 262.82068 265.19214 267.26151 269.22220 271.14572 272.95166 274.64816
 276.24371 277.69586 279.20041 280.56787 281.75488 282.80869 283.77454 284.65607
 285.45715 286.17865 286.82120 287.67978
 366.78100 356.32943 345.75586 334.61630 323.01373 311.20216 299.06659 286.86403
 274.57046 262.46189 250.46532 239.76076 229.87719 220.97562 213.15205 206.14849
 199.97692 194.90935 191.48578 189.52222 188.55365 188.61208 189.44151 190.74395
 192.46338 194.55281 196.81024 199.16368 201.60311 204.07754 206.15997 207.99641
 209.61684 210.75627 210.97970 211.20213 211.13357 210.83300 210.46043 210.08486
 209.69630 209.40073 209.20316 209.06159 208.98403 209.30946 209.68989 210.07332
 210.86076 212.03319 213.27762 215.05505 216.97749 219.01492 221.10435 223.18178
 225.23622 227.31465 229.40608 231.50651 233.62995 235.79638 238.04681 240.41124
 243.02668 245.27211 247.26854 249.02797 250.43940 251.55684 252.37327 252.68370
 252.71513 252.48357 251.83800 250.78043 249.38086 247.53630 245.43973 243.26716
 241.05259 238.85103 236.66546 234.49889 232.35332 230.21476 228.23519 226.38662
 224.66405 223.13049 221.75492 220.52135 219.39778 218.35222 217.45065 216.58608
 215.82251 214.99695 214.08938 213.44781 212.89224 213.02306 213.33209 214.55353
 215.95111 218.03271 220.06554 221.06354 222.07414 224.14864 227.95702 231.75713
 235.18547 238.82582 242.18431 245.17448 248.06300 250.85759 253.70555 256.75702
 259.84305 262.63821 265.02896 267.14941 269.16037 271.11221 272.91592 274.60345
 276.20856 277.66815 279.17633 280.54489 281.73193 282.78714 283.75385 284.63593
 285.43805 286.16125 286.80246 287.66376
 366.78100 356.32991 345.75681 334.61772 323.01562 311.20453 299.06943 286.86734
 274.57424 262.46615 250.47006 239.76596 229.88287 220.98177 213.15868 206.15558
 199.98449 194.91740 191.49430 189.53121 188.56311 188.62202 189.45192 190.75483
 192.47473 194.56464 196.82255 199.17645 201.61636 204.09126 206.17417 208.01107
 209.63198 210.77188 210.99579 211.21870 211.15060 210.85051 210.47841 210.10332
 209.71522 209.42013 209.22304 209.08194 209.00485 209.33075 209.71166 210.09556
 210.88347 212.05637 213.30128 215.07919 217.00209 219.04000 221.12990 223.20781
 225.26271 227.34162 229.43352 231.53443 233.65834 235.82524 238.07615 240.44105
 243.05696 245.30286 247.29977 249.05968 250.47158 251.58949 252.40639 252.71730
 252.74920 252.51811 251.87301 250.81592 249.41683 247.57273 245.47664 243.30454
 241.09045 238.88935 236.70426 234.53816 232.39307 230.25498 228.27588 226.42779
 224.70569 223.17260 221.79750 220.56441 219.44132 218.39622 217.49513 216.63103
 215.86794 215.04284 214.13575 213.49465 212.93956 213.08162 213.41724 214.67772
 216.07564 218.09993 220.20500 221.26367 222.22449 224.21877 227.92714 231.67171
 235.08208 238.68097 241.95638 244.85501 247.70995 250.54044 253.45894 256.56970
 259.65714 262.44495 264.86493 267.04681 269.11377 271.09586 272.89526 274.56912
 276.17896 277.64630 279.15616 280.52533 281.71393 282.76917 283.73621 284.61969
 285.42239 286.14603 286.78848 287.65082
 366.78100 356.33024 345.75748 334.61872 323.01696 311.20620 299.07144 286.86968
 274.57692 262.46916 250.47340 239.76964 229.88688 220.98612 213.16336 206.16060
 199.98984 194.92308 191.50032 189.53756 188.56980 188.62904 189.45928 190.76253
 192.48277 194.57301 196.83125 199.18549 201.62573 204.10097 206.18421 208.02145
 209.64269 210.78293 211.00717 211.23041 211.16265 210.86289 210.49113 210.11637
 209.72861 209.43385 209.23709 209.09633 209.01957 209.34581 209.72705 210.11129
 210.89953 212.07277 213.31801 215.09625 217.01949 219.05773 221.14797 223.22621
 225.28145 227.36069 229.45293 231.55417 233.67841 235.84565 238.09689 240.46213
 243.07837 245.32461 247.32185 249.08210 250.49434 251.61258 252.42982 252.74106
 252.77330 252.54254 251.89778 250.84102 249.44226 247.59850 245.50274 243.33098
 241.11722 238.91646 236.73170 234.56594 232.42118 230.28342 228.30466 226.45690
 224.73514 223.20238 221.82762 220.59486 219.47210 218.42734 217.52658 216.66282
 215.90006 215.07530 214.16854 213.52778 212.97302 213.13139 213.50558 214.79230
 216.21187 218.18872 220.32208 221.47336 222.34308 224.23914 227.90463 231.62372
 235.01140 238.56583 241.75131 244.53494 247.34038 250.20325 253.19641 256.37387
 259.47321 262.26355 264.71579 266.95734 269.07941 271.08984 272.88330 274.54141
 276.15363 277.62796 279.14041 280.50937 281.69907 282.75385 283.72266 284.60556
 285.41101 286.13425 286.77704 287.64120
 366.78100 356.33077 345.75855 334.62032 323.01909 311.20887 299.07464 286.87341
 274.58118 262.47396 250.47873 239.77550 229.89328 220.99305 213.17082 206.16860
 199.99837 194.93214 191.50992 189.54769 188.58046 188.64023 189.47101 190.77478
 192.49555 194.58633 196.84510 199.19987 201.64065 204.11642 206.20019 208.03796
 209.65974 210.80051 211.02528 211.24906 211.18183 210.88260 210.51138 210.13715
 209.74992 209.45570 209.25947 209.11924 209.04301 209.36979 209.75156 210.13633
 210.92511 212.09888 213.34465 215.12343 217.04720 219.08597 221.17675 223.25552
 225.31129 227.39106 229.48384 231.58561 233.71038 235.87816 238.12993 240.49570
 243.11248 245.35925 247.35702 249.11780 250.53057 251.64934 252.46711 252.77889
 252.81166 252.58143 251.93721 250.88098 249.48275 247.63953 245.54430 243.37307
 241.15984 238.95962 236.77539 234.61016 232.46594 230.32871 228.35048 226.50326
 224.78203 223.24980 221.87558 220.64335 219.52112 218.47689 217.57667 216.71344
 215.95121 215.12699 214.22076 213.58053 213.02631 213.18903 213.57350 214.91492
 216.35596 218.30806 220.38777 221.66142 222.44354 224.24373 227.92142 231.63518
 234.97557 238.46310 241.52730 244.17923 246.94370 249.85399 252.93489 256.18951
 259.30865 262.10358 264.58386 266.87988 269.05286 271.09171 272.87677 274.52014
 276.13010 277.61237 279.12772 280.49603 281.68640 282.74277 283.71185 284.59549
 285.39963 286.12473 286.76907 287.63235
 366.78100 356.33165 345.76030 334.62294 323.02259 311.21324 299.07989 286.87954
 274.58819 262.48183 250.48748 239.78513 229.90378 221.00443 213.18308 206.18172
 200.01237 194.94702 191.52567 189.56432 188.59797 188.65861 189.49026 190.79491
 192.51656 194.60821 196.86786 199.22350 201.66515 204.14180 206.22645 208.06510
 209.68775 210.82939 211.05504 211.27969 211.21334 210.91499 210.54464 210.17128
 209.78493 209.49158 209.29623 209.15688 209.08153 209.40917 209.79182 210.17747
 210.96712 212.14177 213.38842 215.16806 217.09271 219.13236 221.22401 223.30366
 225.36031 227.44095 229.53460 231.63725 233.76290 235.93155 238.18419 240.55084
 243.16849 245.41614 247.41479 249.17644 250.59008 251.70973 252.52838 252.84103
 252.87468 252.64533 252.00197 250.94662 249.54927 247.70692 245.61257 243.44222
 241.22986 239.03051 236.84716 234.68281 232.53946 230.40311 228.42575 226.57940
 224.85905 223.32770 221.95435 220.72300 219.60164 218.55829 217.65894 216.79659
 216.03524 215.21189 214.30653 213.66718 213.11383 213.26282 213.61484 215.03218
 216.51588 218.44478 220.44829 221.82266 222.54202 224.26576 227.96262 231.62917
 234.91620 238.31978 241.25705 243.80534 246.54865 249.51730 252.69066 256.02237
 259.16330 261.96533 264.47406 266.82074 269.04105 271.10345 272.87314 274.49448
 276.09842 277.58853 279.11331 280.48227 281.67218 282.73010 283.69873 284.58295
 285.38885 286.11530 286.76208 287.62781
 366.78100 356.33217 345.76134 334.62451 323.02468 311.21585 299.08302 286.88319
 274.59236 262.48653 250.49270 239.79087 229.91003 221.01120 213.19037 206.18954
 200.02071 194.95588 191.53505 189.57422 188.60839 188.66956 189.50173 190.80690
 192.52907 194.62124 196.88141 199.23758 201.67975 204.15692 206.24209 208.08126
 209.70443 210.84660 211.07276 211.29793 211.23210 210.93427 210.56444 210.19161
 209.80578 209.51295 209.31812 209.17929 209.10446 209.43263 209.81580 210.20197
 210.99214 212.16731 213.41448 215.19465 217.11982 219.15999 221.25216 223.33233
 225.38949 227.47066 229.56483 231.66800 233.79417 235.96334 238.21651 240.58368
 243.20185 245.45002 247.44919 249.21136 250.62553 251.74570 252.56487 252.87804
 252.91221 252.68338 252.04055 250.98572 249.58889 247.74706 245.65322 243.48339
 241.27156 239.07273 236.88990 234.72607 232.58324 230.44741 228.47058 226.62475
 224.90492 223.37409 222.00126 220.77043 219.64960 218.60677 217.70794 216.84611
 216.08528 215.26245 214.35762 213.71879 213.16595 213.31877 213.68187 215.11375
 216.64447 218.58475 220.52724 221.96190 222.72462 224.34167 227.99319 231.60895
 234.83276 238.14836 240.98013 243.45064 246.17085 249.18889 252.45079 255.85512
 259.01965 261.82794 264.36395 266.76294 269.03189 271.12143 272.88751 274.49106
 276.08521 277.56488 279.12054 280.49237 281.68494 282.74716 283.72156 284.61472
 285.43301 286.17389 286.84256 287.71457
 366.78100 356.33234 345.76169 334.62503 323.02537 311.21672 299.08406 286.88440
 274.59374 262.48809 250.49443 239.79277 229.91212 221.01346 213.19280 206.19215
 200.02349 194.95883 191.53817 189.57752 188.61186 188.67320 189.50555 190.81089
 192.53323 194.62558 196.88592 199.24226 201.68461 204.16195 206.24729 208.08663
 209.70998 210.85232 211.07866 211.30401 211.23835 210.94069 210.57104 210.19838
 209.81272 209.52006 209.32541 209.18675 209.11209 209.44044 209.82378 210.21012
 211.00047 212.17581 213.42315 215.20349 217.12884 219.16918 221.26152 223.34187
 225.39921 227.48055 229.57490 231.67824 233.80458 235.97393 238.22727 240.59461
 243.21295 245.46130 247.46064 249.22298 250.63733 251.75767 252.57701 252.89036
 252.92470 252.69604 252.05338 250.99873 249.60207 247.76041 245.66676 243.49710
 241.28544 239.08679 236.90413 234.74047 232.59782 230.46216 228.48550 226.63984
 224.92019 223.38953 222.01687 220.78622 219.66556 218.62290 217.72425 216.86259
 216.10193 215.27927 214.37462 213.73596 213.18330 213.35228 213.75369 215.21048
 216.80124 218.74377 220.60782 222.04710 222.94214 224.47830 228.01012 231.58575
 234.74130 237.96062 240.69128 243.08871 245.78862 248.86003 252.21019 255.68103
 258.86093 261.66980 264.23511 266.69540 269.01935 271.13895 272.91016 274.50085
 276.07156 277.57068 279.12949 280.50354 281.69855 282.76169 283.73749 284.63406
 285.45331 286.19553 286.86780 287.74176
 366.78100 356.33263 345.76227 334.62590 323.02654 311.21817 299.08580 286.88644
 274.59607 262.49070 250.49734 239.79597 229.91561 221.01724 213.19687 206.19651
 200.02814 194.96378 191.54341 189.58304 188.61768 188.67931 189.51195 190.81758
 192.54021 194.63285 196.89348 199.25011 201.69275 204.17038 206.25602 208.09565
 209.71928 210.86192 211.08855 211.31419 211.24882 210.95145 210.58209 210.20972
 209.82435 209.53199 209.33762 209.19926 209.12489 209.45352 209.83716 210.22379
 211.01443 212.19006 213.43769 215.21833 217.14396 219.18460 221.27723 223.35786
 225.41550 227.49713 229.59176 231.69540 233.82203 235.99167 238.24530 240.61293
 243.23157 245.48020 247.47984 249.24247 250.65710 251.77774 252.59737 252.91100
 252.94564 252.71727 252.07491 251.02054 249.62417 247.78281 245.68944 243.52008
 241.30871 239.11034 236.92798 234.76461 232.62225 230.48688 228.51051 226.66515
 224.94578 223.41541 222.04305 220.81268 219.69232 218.64995 217.75158 216.89022
 216.12985 215.30749 214.40312 213.76475 213.21239 213.38490 213.79251 215.34007
 217.02800 218.93880 220.69920 222.07919 223.09097 224.62189 228.01082 231.52597
 234.61452 237.72784 240.35092 242.68988 245.40149 248.54555 251.99167 255.53203
 258.72562 261.53995 264.13275 266.63522 268.99698 271.13107 272.89481 274.47998
 276.05972 277.56235 279.09644 280.46896 281.66104 282.72058 283.69168 284.57962
 285.38672 286.11523 286.76511 287.63525
 366.78100 356.33284 345.76267 334.62651 323.02735 311.21918 299.08702 286.88786
 274.59769 262.49253 250.49937 239.79820 229.91804 221.01987 213.19971 206.19955
 200.03138 194.96722 191.54706 189.58689 188.62173 188.68357 189.51640 190.82224
 192.54508 194.63791 196.89875 199.25559 201.69842 204.17626 206.26210 208.10193
 209.72577 210.86860 211.09544 211.32128 211.25611 210.95895 210.58979 210.21762
 209.83246 209.54030 209.34613 209.20797 209.13381 209.46264 209.84648 210.23332
 211.02415 212.19999 213.44783 215.22866 217.15450 219.19533 221.28817 223.36901
 225.42684 227.50868 229.60352 231.70735 233.83419 236.00403 238.25786 240.62570
 243.24454 245.49337 247.49321 249.25605 250.67088 251.79172 252.61156 252.92539
 252.96023 252.73207 252.08990 251.03574 249.63957 247.79841 245.70525 243.53608
 241.32492 239.12676 236.94459 234.78143 232.63927 230.50410 228.52794 226.68278
 224.96361 223.43345 222.06129 220.83112 219.71096 218.66880 217.77063 216.90947
 216.14930 215.32714 214.42298 213.78481 213.23265 213.41122 213.83310 215.46973
 217.22331 219.10991 220.82513 222.13747 223.21294 224.77132 228.02690 231.45496
 234.46222 237.46680 239.98796 242.29222 245.03441 248.25490 251.79292 255.40569
 258.62256 261.44547 264.05896 266.58716 268.97418 271.12057 272.86737 274.44580
 276.03278 277.55219 279.07590 280.44669 281.63684 282.69507 283.66739 284.55228
 285.35803 286.08478 286.72989 287.60117
 366.78100 356.33285 345.76271 334.62656 323.02741 311.21927 299.08712 286.88797
 274.59783 262.49268 250.49953 239.79839 229.91824 221.02009 213.19995 206.19980
 200.03166 194.96751 191.54736 189.58722 188.62207 188.68392 189.51678 190.82263
 192.54548 194.63834 196.89919 199.25604 201.69890 204.17675 206.26260 208.10246
 209.72631 210.86916 211.09602 211.32187 211.25672 210.95958 210.59043 210.21828
 209.83314 209.54099 209.34684 209.20870 209.13455 209.46341 209.84726 210.23411
 211.02497 212.20082 213.44867 215.22953 217.15538 219.19623 221.28909 223.36994
 225.42779 227.50965 229.60450 231.70835 233.83521 236.00506 238.25891 240.62677
 243.24562 245.49447 247.49433 249.25718 250.67203 251.79289 252.61274 252.92659
 252.96145 252.73330 252.09115 251.03701 249.64086 247.79972 245.70657 243.53742
 241.32628 239.12813 236.94598 234.78284 232.64069 230.50554 228.52940 226.68425
 224.96510 223.43496 222.06281 220.83266 219.71252 218.67037 217.77222 216.91108
 216.15093 215.32878 214.42464 213.78649 213.23434 213.42726 213.88304 215.58418
 217.40268 219.27138 220.95134 222.21613 223.33598 224.93808 228.08057 231.39799
 234.29820 237.16939 239.59280 241.89407 244.68817 247.98878 251.61186 255.28641
 258.52414 261.35794 263.99060 266.54486 268.95459 271.11441 272.84970 274.41757
 276.01694 277.53738 279.06219 280.43359 281.62534 282.68427 283.65527 284.54111
 285.34738 286.07458 286.72003 287.59308
 366.78100 356.33272 345.76244 334.62616 323.02688 311.21860 299.08632 286.88703
 274.59675 262.49147 250.49819 239.79691 229.91663 221.01835 213.19807 206.19779
 200.02951 194.96523 191.54495 189.58466 188.61938 188.68110 189.51382 190.81954
 192.54226 194.63498 196.89570 199.25242 201.69514 204.17286 206.25858 208.09829
 209.72201 210.86473 211.09145 211.31717 211.25189 210.95461 210.58533 210.21305
 209.82777 209.53549 209.34121 209.20292 209.12864 209.45736 209.84108 210.22780
 211.01852 212.19424 213.44196 215.22268 217.14840 219.18912 221.28184 223.36255
 225.42027 227.50199 229.59671 231.70043 233.82715 235.99687 238.25059 240.61831
 243.23703 245.48575 247.48547 249.24818 250.66290 251.78362 252.60334 252.91706
 252.95178 252.72350 252.08122 251.02694 249.63066 247.78938 245.69610 243.52681
 241.31553 239.11725 236.93497 234.77169 232.62941 230.49413 228.51785 226.67257
 224.95329 223.42301 222.05073 220.82044 219.70016 218.65788 217.75960 216.89832
 216.13804 215.31576 214.41148 213.77320 213.22092 213.43443 213.93889 215.68559
 217.57407 219.45146 221.08876 222.29697 223.45854 225.11391 228.14954 231.34491
 234.11928 236.82909 239.15862 241.48924 244.36015 247.74582 251.44707 255.17470
 258.43387 261.27655 263.92499 266.50049 268.92990 271.10236 272.83871 274.40140
 276.01990 277.52261 279.04581 280.41888 281.61166 282.67126 283.64297 284.52991
 285.33810 286.06384 286.71045 287.58469
 366.78100 356.33249 345.76198 334.62547 323.02597 311.21746 299.08495 286.88544
 274.59493 262.48942 250.49592 239.79441 229.91390 221.01539 213.19488 206.19437
 200.02587 194.96136 191.54085 189.58034 188.61483 188.67632 189.50882 190.81431
 192.53680 194.62929 196.88978 199.24627 201.68877 204.16626 206.25175 208.09124
 209.71473 210.85722 211.08372 211.30921 211.24370 210.94619 210.57668 210.20417
 209.81867 209.52616 209.33165 209.19314 209.11863 209.44712 209.83062 210.21711
 211.00760 212.18309 213.43058 215.21107 217.13657 219.17706 221.26955 223.35004
 225.40753 227.48902 229.58352 231.68701 233.81350 235.98299 238.23648 240.60397
 243.22247 245.47096 247.47045 249.23294 250.64743 251.76792 252.58742 252.90091
 252.93540 252.70689 252.06438 251.00987 249.61337 247.77186 245.67835 243.50884
 241.29733 239.09882 236.91632 234.75281 232.61030 230.47479 228.49828 226.65277
 224.93327 223.40276 222.03025 220.79974 219.67923 218.63672 217.73822 216.87671
 216.11620 215.29369 214.38918 213.75067 213.19817 213.43533 213.99565 215.77837
 217.74072 219.64171 221.23842 222.38179 223.58817 225.29999 228.21956 231.28979
 233.92450 236.45316 238.69279 241.08180 244.04909 247.52325 251.29623 255.06949
 258.34961 261.20651 263.87173 266.46021 268.90237 271.08658 272.82947 274.38895
 276.00623 277.51019 279.03394 280.40540 281.59833 282.65881 283.63040 284.51730
 285.32495 286.05209 286.69949 287.57367
 366.78100 356.33231 345.76162 334.62492 323.02523 311.21654 299.08385 286.88416
 274.59346 262.48777 250.49408 239.79239 229.91170 221.01301 213.19231 206.19162
 200.02293 194.95824 191.53755 189.57685 188.61116 188.67247 189.50478 190.81009
 192.53239 194.62470 196.88501 199.24132 201.68363 204.16093 206.24624 208.08555
 209.70886 210.85117 211.07748 211.30278 211.23709 210.93940 210.56971 210.19702
 209.81132 209.51863 209.32394 209.18525 209.11056 209.43886 209.82217 210.20848
 210.99879 212.17410 213.42140 215.20171 217.12702 219.16733 221.25964 223.33995
 225.39725 227.47856 229.57287 231.67618 233.80249 235.97179 238.22510 240.59241
 243.21072 245.45903 247.45833 249.22064 250.63495 251.75526 252.57457 252.88787
 252.92218 252.69349 252.05080 250.99611 249.59942 247.75772 245.66403 243.49434
 241.28265 239.08396 236.90126 234.73757 232.59488 230.45919 228.48250 226.63680
 224.91711 223.38642 222.01373 220.78304 219.66234 218.61965 217.72096 216.85927
 216.09858 215.27589 214.37119 213.73250 213.17981 213.43689 214.04427 215.87411
 217.90727 219.82851 221.39136 222.47108 223.73041 225.50830 228.29646 231.20786
 233.69464 236.05049 238.21114 240.67690 243.75191 247.31758 251.16081 254.97446
 258.27502 261.14755 263.82556 266.42065 268.86942 271.06100 272.81525 274.38058
 276.00699 277.49524 279.01730 280.39087 281.58414 282.64514 283.61813 284.50629
 285.31531 286.04260 286.68689 287.57269
 366.78100 356.33217 345.76134 334.62451 323.02469 311.21586 299.08303 286.88320
 274.59237 262.48654 250.49271 239.79089 229.91006 221.01123 213.19040 206.18957
 200.02074 194.95591 191.53508 189.57426 188.60843 188.66960 189.50177 190.80694
 192.52911 194.62128 196.88146 199.23763 201.67980 204.15697 206.24214 208.08131
 209.70448 210.84666 211.07283 211.29800 211.23217 210.93434 210.56451 210.19168
 209.80586 209.51303 209.31820 209.17937 209.10454 209.43271 209.81588 210.20205
 210.99223 212.16740 213.41457 215.19474 217.11991 219.16008 221.25225 223.33243
 225.38960 227.47077 229.56494 231.66811 233.79428 235.96345 238.21663 240.58380
 243.20197 245.45014 247.44931 249.21148 250.62565 251.74583 252.56500 252.87817
 252.91234 252.68351 252.04068 250.98585 249.58902 247.74720 245.65337 243.48354
 241.27171 239.07288 236.89005 234.72622 232.58340 230.44757 228.47074 226.62491
 224.90508 223.37425 222.00142 220.77060 219.64977 218.60694 217.70811 216.84628
 216.08545 215.26262 214.35779 213.71897 213.16614 213.43887 214.08325 215.97975
 218.07352 219.99513 221.53598 222.57927 223.90462 225.71538 228.36276 231.13997
 233.46706 235.61272 237.69279 240.26825 243.47752 247.14330 251.04794 254.88799
 258.20569 261.09518 263.78598 266.38397 268.83478 271.03558 272.80725 274.37790
 275.86038 277.52811 279.05893 280.41739 281.59894 282.65213 283.61801 284.50143
 285.30524 286.02850 286.67581 287.55246
 366.78100 356.33208 345.76116 334.62425 323.02433 311.21541 299.08249 286.88257
 274.59166 262.48574 250.49182 239.78990 229.90898 221.01007 213.18915 206.18823
 200.01931 194.95439 191.53348 189.57256 188.60664 188.66772 189.49980 190.80489
 192.52697 194.61905 196.87913 199.23521 201.67729 204.15438 206.23946 208.07854
 209.70162 210.84370 211.06979 211.29487 211.22895 210.93103 210.56111 210.18820
 209.80228 209.50936 209.31444 209.17552 209.10061 209.42869 209.81177 210.19785
 210.98793 212.16302 213.41010 215.19018 217.11526 219.15534 221.24743 223.32751
 225.38459 227.46567 229.55975 231.66284 233.78892 235.95800 238.21108 240.57816
 243.19625 245.44433 247.44341 249.20549 250.61957 251.73966 252.55874 252.87182
 252.90590 252.67698 252.03407 250.97915 249.58223 247.74031 245.64639 243.47647
 241.26456 239.06564 236.88272 234.71880 232.57588 230.43997 228.46305 226.61713
 224.89721 223.36629 221.99338 220.76246 219.64154 218.59862 217.69970 216.83779
 216.07687 215.25395 214.34903 213.71011 213.15720 213.44133 214.11266 216.10191
 218.22742 220.14551 221.68340 222.69406 224.06076 225.94769 228.46907 231.04787
 233.17621 235.12846 237.15901 239.88417 243.24518 246.99451 250.94466 254.80438
 258.13934 261.04874 263.75198 266.34833 268.79712 271.00272 272.78973 274.36987
 275.83200 277.49927 279.04370 280.40948 281.59518 282.64893 283.61560 284.50003
 285.30338 286.02988 286.67490 287.55518
 366.78100 356.33133 345.75965 334.62198 323.02131 311.21164 299.07796 286.87729
 274.58562 262.47895 250.48427 239.78160 229.89993 221.00026 213.17858 206.17691
 200.00724 194.94157 191.51989 189.55822 188.59155 188.65188 189.48320 190.78753
 192.50886 194.60019 196.85951 199.21484 201.65617 204.13249 206.21682 208.05515
 209.67748 210.81880 211.04413 211.26846 211.20179 210.90311 210.53244 210.15877
 209.77210 209.47842 209.28275 209.14308 209.06741 209.39473 209.77706 210.16239
 210.95172 212.12604 213.37237 215.15170 217.07603 219.11535 221.20668 223.28601
 225.34234 227.42266 229.51599 231.61832 233.74364 235.91197 238.16430 240.53063
 243.14795 245.39528 247.39361 249.15494 250.56826 251.68759 252.50592 252.81825
 252.85157 252.62190 251.97823 250.92256 249.52488 247.68221 245.58754 243.41687
 241.20419 239.00452 236.82085 234.65618 232.51250 230.37583 228.39816 226.55148
 224.83081 223.29914 221.92547 220.69379 219.57212 218.52845 217.62878 216.76610
 216.00443 215.18076 214.27509 213.63541 213.08174 213.40964 214.18436 216.17480
 218.42108 220.29251 221.79080 222.79167 224.25909 226.18474 228.55309 230.94936
 232.89293 234.61432 236.62711 239.54066 243.02650 246.86168 250.85992 254.73091
 258.07877 261.00604 263.71988 266.31174 268.75531 270.96130 272.76340 274.35852
 275.91302 277.47357 279.00635 280.37891 281.56967 282.62830 283.60086 284.49271
 285.30627 286.04138 286.69357 287.57544
 366.78100 356.33078 345.75855 334.62033 323.01911 311.20889 299.07466 286.87344
 274.58122 262.47400 250.47877 239.77555 229.89333 220.99311 213.17088 206.16866
 199.99844 194.93222 191.50999 189.54777 188.58055 188.64033 189.47110 190.77488
 192.49566 194.58644 196.84521 199.19999 201.64077 204.11655 206.20032 208.03810
 209.65988 210.80066 211.02543 211.24921 211.18199 210.88277 210.51154 210.13732
 209.75010 209.45588 209.25965 209.11943 209.04321 209.36999 209.75176 210.13654
 210.92532 212.09910 213.34487 215.12365 217.04743 219.08621 221.17698 223.25576
 225.31154 227.39132 229.48409 231.58587 233.71065 235.87843 238.13020 240.49598
 243.11276 245.35954 247.35731 249.11809 250.53087 251.64965 252.46742 252.77920
 252.81198 252.58176 251.93753 250.88131 249.48309 247.63987 245.54464 243.37342
 241.16020 238.95998 236.77575 234.61053 232.46631 230.32909 228.35086 226.50364
 224.78242 223.25020 221.87597 220.64375 219.52153 218.47731 217.57708 216.71386
 215.95164 215.12742 214.22119 213.58097 213.02675 213.38721 214.23882 216.27122
 218.58430 220.45114 221.92595 222.89508 224.37819 226.37477 228.60211 230.88300
 232.67578 234.15446 236.10315 239.18361 242.83212 246.75677 250.78677 254.65907
 258.01654 260.96320 263.68921 266.27744 268.71436 270.92444 272.74683 274.35718
 275.81085 277.49356 279.03159 280.39456 281.58029 282.63608 283.60635 284.49658
 285.31052 286.04614 286.69785 287.58017
 366.78100 356.33007 345.75713 334.61820 323.01626 311.20533 299.07039 286.86846
 274.57552 262.46759 250.47165 239.76772 229.88478 220.98385 213.16092 206.15798
 199.98705 194.92011 191.49718 189.53424 188.56631 188.62537 189.45544 190.75850
 192.47857 194.56863 196.82670 199.18076 201.62083 204.09590 206.17896 208.01603
 209.63709 210.77716 211.00122 211.22429 211.15635 210.85642 210.48448 210.10955
 209.72161 209.42668 209.22975 209.08881 209.01188 209.33794 209.71901 210.10307
 210.89114 212.06420 213.30927 215.08733 217.01040 219.04846 221.13853 223.21659
 225.27166 227.35073 229.44279 231.54386 233.66792 235.83499 238.08605 240.45112
 243.06718 245.31325 247.31031 249.07038 250.48244 251.60051 252.41758 252.72864
 252.76071 252.52977 251.88484 250.82790 249.42897 247.58503 245.48910 243.31716
 241.10323 238.90229 236.71736 234.55142 232.40649 230.26856 228.28962 226.44169
 224.71975 223.18682 221.81188 220.57895 219.45601 218.41108 217.51014 216.64621
 215.88327 215.05834 214.15141 213.51047 212.95554 213.35521 214.29950 216.38461
 218.69922 220.63257 222.05449 223.07245 224.45309 226.42920 228.65730 230.87665
 232.48044 233.70174 235.61172 238.83574 242.65401 246.67398 250.72533 254.59026
 257.95584 260.92371 263.66269 266.24493 268.67419 270.88611 272.72614 274.35165
 275.80936 277.48959 279.02527 280.38608 281.57120 282.62384 283.59421 284.48312
 285.29739 286.03101 286.68082 287.56564
 366.78100 356.32914 345.75529 334.61543 323.01258 311.20072 299.06487 286.86201
 274.56816 262.45930 250.46245 239.75759 229.87374 220.97188 213.14803 206.14417
 199.97231 194.90446 191.48060 189.51675 188.54789 188.60604 189.43518 190.73733
 192.45647 194.54562 196.80276 199.15591 201.59505 204.06919 206.15134 207.98748
 209.60763 210.74677 210.96992 211.19206 211.12321 210.82235 210.44950 210.07364
 209.68479 209.38893 209.19108 209.04922 208.97136 209.29651 209.67665 210.05980
 210.84694 212.01909 213.26323 215.04038 216.96252 218.99967 221.08881 223.16596
 225.22010 227.29824 229.38939 231.48953 233.61268 235.77882 238.02897 240.39311
 243.00826 245.25340 247.24955 249.00869 250.41984 251.53698 252.35313 252.66327
 252.69441 252.46256 251.81670 250.75885 249.35899 247.51414 245.41728 243.24443
 241.02957 238.82772 236.64186 234.47501 232.32915 230.19029 228.21044 226.36158
 224.63873 223.10487 221.72902 220.49516 219.37131 218.32545 217.42360 216.55874
 215.79489 214.96903 214.06118 213.41932 212.86346 213.31236 214.37291 216.48720
 218.82724 220.78716 222.13667 223.24843 224.60912 226.46223 228.69910 230.87656
 232.27029 233.23647 235.14240 238.52660 242.49066 246.59518 250.66818 254.52542
 257.89984 260.88867 263.64111 266.21677 268.63739 270.85062 272.70697 274.34793
 275.81503 277.47052 279.01114 280.37741 281.56320 282.61801 283.58752 284.47665
 285.28922 286.02530 286.67703 287.56302
 366.78100 356.32844 345.75387 334.61331 323.00975 311.19718 299.06062 286.85705
 274.56249 262.45293 250.45536 239.74980 229.86524 220.96267 213.13811 206.13354
 199.96098 194.89242 191.46785 189.50329 188.53373 188.59116 189.41960 190.72104
 192.43947 194.52791 196.78434 199.13678 201.57522 204.04865 206.13009 207.96553
 209.58496 210.72340 210.94584 211.16727 211.09771 210.79614 210.42258 210.04602
 209.65645 209.35989 209.16133 209.01876 208.94020 209.26463 209.64407 210.02651
 210.81294 211.98438 213.22782 215.00425 216.92569 218.96213 221.05056 223.12700
 225.18043 227.25787 229.34831 231.44774 233.57018 235.73562 237.98505 240.34849
 242.96293 245.20736 247.20280 248.96123 250.37167 251.48811 252.30354 252.61298
 252.64342 252.41085 251.76429 250.70572 249.30516 247.45960 245.36203 243.18847
 240.97291 238.77034 236.58378 234.41622 232.26965 230.13009 228.14952 226.29996
 224.57640 223.04183 221.66527 220.43071 219.30614 218.25958 217.35702 216.49145
 215.72689 214.90032 213.99176 213.34920 212.79263 213.28073 214.43393 216.59790
 218.97363 220.88823 222.21677 223.39224 224.80765 226.52458 228.73141 230.85600
 232.03777 232.78004 234.69272 238.24461 242.34918 246.52477 250.61151 254.45952
 257.84485 260.85504 263.62247 266.19278 268.60382 270.81863 272.68948 274.34052
 275.87439 277.45096 278.98441 280.35471 281.54355 282.60144 283.57492 284.46524
 285.27893 286.01779 286.66846 287.55826
 366.78100 356.32775 345.75251 334.61126 323.00701 311.19376 299.05652 286.85227
 274.55702 262.44677 250.44853 239.74228 229.85703 220.95378 213.12854 206.12329
 199.95004 194.88079 191.45555 189.49030 188.52005 188.57680 189.40456 190.70531
 192.42306 194.51081 196.76657 199.11832 201.55607 204.02882 206.10958 207.94433
 209.56308 210.70084 210.92259 211.14334 211.07309 210.77085 210.39660 210.01935
 209.62910 209.33186 209.13261 208.98936 208.91011 209.23387 209.61262 209.99437
 210.78012 211.95088 213.19363 214.96938 216.89013 218.92589 221.01364 223.08939
 225.14214 227.21890 229.30865 231.40740 233.52916 235.69391 237.94266 240.30541
 242.91917 245.16292 247.15767 248.91542 250.32518 251.44093 252.25568 252.56443
 252.59419 252.36094 251.71369 250.65444 249.25320 247.40695 245.30870 243.13445
 240.91821 238.71496 236.52771 234.35946 232.21222 230.07197 228.09072 226.24047
 224.51623 222.98098 221.60373 220.36849 219.24324 218.19599 217.29274 216.42650
 215.66125 214.83400 213.92475 213.28151 212.72426 213.25020 214.49281 216.72169
 219.09822 220.96922 222.30676 223.52907 224.98901 226.60747 228.76793 230.79347
 231.77293 232.35347 234.28313 237.98267 242.22141 246.45851 250.55630 254.39281
 257.79016 260.82611 263.60876 266.17416 268.57581 270.78937 272.67380 274.33191
 275.84491 277.44910 278.98672 280.35620 281.54504 282.60172 283.57272 284.46445
 285.28098 286.01627 286.66858 287.56052
 366.78100 356.32699 345.75097 334.60896 323.00395 311.18993 299.05192 286.84690
 274.55089 262.43988 250.44086 239.73385 229.84784 220.94382 213.11781 206.11179
 199.93778 194.86777 191.44175 189.47574 188.50473 188.56071 189.38770 190.68768
 192.40467 194.49166 196.74664 199.09763 201.53462 204.00660 206.08659 207.92057
 209.53856 210.67555 210.89653 211.11652 211.04551 210.74249 210.36748 209.98947
 209.59845 209.30044 209.10042 208.95641 208.87640 209.19938 209.57737 209.95836
 210.74334 211.91333 213.15531 214.93030 216.85029 218.88527 220.97226 223.04725
 225.09923 227.17522 229.26420 231.36219 233.48318 235.64716 237.89515 240.25714
 242.87012 245.11311 247.10709 248.86408 250.27307 251.38805 252.20204 252.51003
 252.53901 252.30500 251.65699 250.59697 249.19496 247.34794 245.24893 243.07392
 240.85690 238.65289 236.46488 234.29586 232.14785 230.00683 228.02482 226.17381
 224.44879 222.91278 221.53477 220.29875 219.17274 218.12472 217.22071 216.35370
 215.58768 214.75967 213.84966 213.20564 212.64763 213.21613 214.55923 216.84564
 219.19479 221.04904 222.38686 223.67197 225.15096 226.69385 228.80487 230.67784
 231.47227 231.95718 233.91460 237.75275 242.10762 246.39278 250.49771 254.33218
 257.74225 260.80078 263.59918 266.15985 268.55228 270.76703 272.65808 274.33072
 275.95609 277.41254 278.94128 280.31384 281.50342 282.56461 283.53671 284.43060
 285.24747 285.98642 286.64682 287.54144
 366.78100 356.32612 345.74924 334.60636 323.00048 311.18560 299.04672 286.84084
 274.54396 262.43208 250.43220 239.72432 229.83744 220.93256 213.10568 206.09880
 199.92392 194.85304 191.42616 189.45928 188.48740 188.54252 189.36864 190.66776
 192.38388 194.47000 196.72413 199.07425 201.51037 203.98149 206.06061 207.89373
 209.51085 210.64697 210.86709 211.08621 211.01433 210.71045 210.33457 209.95569
 209.56381 209.26493 209.06405 208.91917 208.83829 209.16041 209.53753 209.91765
 210.70177 211.87089 213.11201 214.88613 216.80525 218.83937 220.92549 222.99961
 225.05073 227.12585 229.21397 231.31109 233.43121 235.59433 237.84145 240.20257
 242.81469 245.05681 247.04993 248.80605 250.21417 251.32829 252.14141 252.44853
 252.47665 252.24177 251.59289 250.53201 249.12914 247.28126 245.18138 243.00550
 240.78762 238.58274 236.39386 234.22398 232.07510 229.93322 227.95034 226.09846
 224.37258 222.83570 221.45682 220.21994 219.09306 218.04418 217.13930 216.27142
 215.50454 214.67566 213.76478 213.11990 212.56102 213.17813 214.63609 216.97343
 219.27103 221.11197 222.45952 223.82864 225.30345 226.78145 228.85216 230.52434
 231.15665 231.59006 233.58151 237.54565 242.00244 246.33244 250.43213 254.26920
 257.69104 260.77444 263.59494 266.15829 268.54373 270.75772 272.65015 274.32474
 275.76361 277.46878 279.00046 280.36035 281.54422 282.59937 283.57098 284.46216
 285.28021 286.02020 286.68649 287.58481
 366.78100 356.32511 345.74722 334.60332 322.99643 311.18054 299.04065 286.83376
 274.53587 262.42297 250.42208 239.71319 229.82530 220.91941 213.09152 206.08362
 199.90773 194.83584 191.40795 189.44006 188.46716 188.52127 189.34638 190.64449
 192.35960 194.44471 196.69781 199.04692 201.48203 203.95214 206.03025 207.86236
 209.47846 210.61357 210.83268 211.05079 210.97790 210.67300 210.29611 209.91622
 209.52333 209.22344 209.02155 208.87565 208.79376 209.11487 209.49098 209.87009
 210.65320 211.82130 213.06141 214.83452 216.75263 218.78574 220.87084 222.94395
 224.99406 227.06817 229.15528 231.25139 233.37049 235.53260 237.77871 240.13882
 242.74993 244.99104 246.98314 248.73825 250.14536 251.25847 252.07058 252.37668
 252.40379 252.16790 251.51801 250.45612 249.05223 247.20333 245.10244 242.92555
 240.70666 238.50077 236.31088 234.13998 231.99009 229.84720 227.86331 226.01042
 224.28352 222.74563 221.36574 220.12785 218.99996 217.95007 217.04417 216.17528
 215.40739 214.57750 213.66561 213.01972 212.45982 213.13231 214.72113 217.11398
 219.33943 221.15686 222.54315 223.99525 225.44942 226.87280 228.90836 230.34654
 230.84447 231.25337 233.28790 237.35492 241.90030 246.26682 250.36545 254.19603
 257.63025 260.74179 263.58997 266.16360 268.54642 270.75543 272.64981 274.32370
 275.74548 277.45923 279.00784 280.37543 281.56271 282.61816 283.59091 284.48294
 285.29907 286.03787 286.69363 287.59552
 366.78100 356.32400 345.74499 334.59999 322.99199 311.17499 299.03398 286.82598
 274.52698 262.41298 250.41097 239.70097 229.81197 220.90496 213.07596 206.06696
 199.88996 194.81695 191.38795 189.41895 188.44494 188.49794 189.32194 190.61894
 192.33293 194.41693 196.66893 199.01693 201.45092 203.91992 205.99692 207.82791
 209.44291 210.57691 210.79491 211.01190 210.93790 210.63190 210.25390 209.87289
 209.47889 209.17789 208.97488 208.82788 208.74488 209.06488 209.43987 209.81787
 210.59987 211.76686 213.00586 214.77786 216.69486 218.72685 220.81085 222.88285
 224.93185 227.00484 229.09084 231.18584 233.30383 235.46483 237.70983 240.06883
 242.67882 244.91882 246.90982 248.66382 250.06981 251.18181 251.99281 252.29780
 252.32380 252.08680 251.43580 250.37279 248.96779 247.11779 245.01579 242.83778
 240.61778 238.41078 236.21977 234.04777 231.89677 229.75277 227.76776 225.91376
 224.18576 222.64675 221.26575 220.02675 218.89775 217.84674 216.93974 216.06974
 215.30074 214.46973 213.55673 212.90973 212.34872 213.08253 214.81622 217.25462
 219.39146 221.18842 222.63123 224.15344 225.59149 226.95625 228.94302 230.16835
 230.53127 230.92406 233.02026 237.20525 241.81526 246.20064 250.29793 254.12056
 257.56812 260.70682 263.58160 266.16919 268.55313 270.75931 272.65231 274.32544
 275.75269 277.45105 279.00201 280.37024 281.55743 282.61575 283.58768 284.47986
 285.29489 286.03217 286.68414 287.58514
 366.78100 356.32289 345.74277 334.59666 322.98755 311.16944 299.02732 286.81821
 274.51810 262.40299 250.39987 239.68876 229.79865 220.89054 213.06042 206.05031
 199.87220 194.79809 191.36797 189.39786 188.42275 188.47464 189.29752 190.59341
 192.30630 194.38919 196.64007 198.98696 201.41985 203.88774 205.96362 207.79351
 209.40740 210.54029 210.75717 210.97306 210.89795 210.59084 210.21172 209.82961
 209.43450 209.13239 208.92827 208.78016 208.69605 209.01494 209.38882 209.76571
 210.54660 211.71249 212.95037 214.72126 216.63715 218.66804 220.75092 222.82181
 224.86970 226.94159 229.02647 231.12036 233.23725 235.39714 237.64102 239.99891
 242.60780 244.84669 246.83657 248.58946 249.99435 251.10524 251.91512 252.21901
 252.24390 252.00579 251.35367 250.28956 248.88345 247.03234 244.92922 242.75011
 240.52900 238.32089 236.12877 233.95566 231.80355 229.65844 227.67232 225.81721
 224.08810 222.54799 221.16587 219.92576 218.79565 217.74353 216.83542 215.96431
 215.19420 214.36208 213.44797 212.79986 212.23775 213.03445 214.91672 217.39279
 219.43106 221.20970 222.71140 224.29520 225.73465 227.03967 228.95502 229.99786
 230.23257 230.61317 232.78197 237.07831 241.74016 246.13625 250.23735 254.04031
 257.50378 260.67419 263.57962 266.18384 268.57147 270.77524 272.66031 274.32822
 275.76523 277.44888 278.99167 280.35535 281.54227 282.59900 283.57138 284.46329
 285.28018 286.01700 286.66992 287.57434
 366.78100 356.32173 345.74046 334.59319 322.98292 311.16365 299.02038 286.81011
 274.50884 262.39257 250.38830 239.67603 229.78476 220.87549 213.04422 206.03295
 199.85368 194.77841 191.34714 189.37587 188.39960 188.45033 189.27206 190.56679
 192.27851 194.36024 196.60997 198.95570 201.38743 203.85416 205.92889 207.75762
 209.37035 210.50208 210.71781 210.93254 210.85627 210.54800 210.16773 209.78446
 209.38819 209.08492 208.87965 208.73038 208.64511 208.96284 209.33557 209.71130
 210.49103 211.65576 212.89249 214.66222 216.57695 218.60668 220.68841 222.75814
 224.80487 226.87560 228.95933 231.05206 233.16779 235.32652 237.56925 239.92598
 242.53371 244.77144 246.76017 248.51190 249.91563 251.02536 251.83409 252.13681
 252.16054 251.92127 251.26800 250.20273 248.79546 246.94319 244.83892 242.65865
 240.43638 238.22711 236.03384 233.85957 231.70630 229.56003 227.57276 225.71649
 223.98622 222.44495 221.06168 219.82041 218.68914 217.63587 216.72660 215.85433
 215.08306 214.24979 213.33452 212.68525 212.12198 212.98531 215.02502 217.52823
 219.46422 221.23053 222.78377 224.42375 225.87346 227.11932 228.95311 229.84064
 229.95305 230.31718 232.56779 236.97212 241.67258 246.07265 250.15747 253.95663
 257.44193 260.64807 263.58585 266.20984 268.60275 270.80191 272.67319 274.32675
 275.74542 277.44171 278.98834 280.35345 281.53784 282.59326 283.56296 284.45309
 285.26892 286.00644 286.65939 287.56552
 366.78100 356.32083 345.73866 334.59048 322.97931 311.15914 299.01497 286.80380
 274.50163 262.38445 250.37928 239.66611 229.77394 220.86377 213.03160 206.01942
 199.83925 194.76308 191.33091 189.35874 188.38157 188.43139 189.25222 190.54605
 192.25688 194.33771 196.58654 198.93136 201.36219 203.82802 205.90185 207.72968
 209.34151 210.47233 210.68716 210.90099 210.82382 210.51465 210.13348 209.74930
 209.35213 209.04796 208.84179 208.69162 208.60545 208.92227 209.29410 209.66893
 210.44776 211.61159 212.84741 214.61624 216.53007 218.55890 220.63973 222.70856
 224.75438 226.82421 228.90704 230.99887 233.11370 235.27153 237.51335 239.86918
 242.47601 244.71284 246.70067 248.45150 249.85432 250.96315 251.77098 252.07281
 252.09564 251.85547 251.20129 250.13512 248.72695 246.87378 244.76861 242.58744
 240.36426 238.15409 235.95992 233.78475 231.63058 229.48341 227.49523 225.63806
 223.90689 222.36472 220.98055 219.73838 218.60620 217.55203 216.64186 215.76869
 214.99652 214.16234 213.24617 212.59600 212.03183 212.95056 215.12119 217.67226
 219.50314 221.23203 222.83467 224.55287 226.02054 227.21240 228.94138 229.66125
 229.66959 230.04294 232.38841 236.87242 241.60358 246.00693 250.07671 253.87576
 257.38315 260.62466 263.59729 266.24161 268.63885 270.83173 272.68512 274.32007
 275.73239 277.43317 278.98019 280.34470 281.52884 282.58264 283.55264 284.44153
 285.25696 285.99515 286.64896 287.55704
 366.78100 356.32018 345.73737 334.58855 322.97674 311.15592 299.01111 286.79929
 274.49648 262.37866 250.37285 239.65903 229.76622 220.85540 213.02259 206.00977
 199.82896 194.75214 191.31933 189.34651 188.36870 188.41788 189.23807 190.53125
 192.24144 194.32162 196.56981 198.91399 201.34418 203.80936 205.88255 207.70973
 209.32092 210.45110 210.66529 210.87847 210.80066 210.49084 210.10903 209.72421
 209.32640 209.02158 208.81477 208.66395 208.57714 208.89332 209.26451 209.63869
 210.41688 211.58006 212.81525 214.58343 216.49662 218.52480 220.60499 222.67317
 224.71836 226.78754 228.86973 230.96091 233.07510 235.23228 237.47347 239.82865
 242.43484 244.67102 246.65821 248.40839 249.81058 250.91876 251.72595 252.02713
 252.04932 251.80850 251.15369 250.08687 248.67806 246.82424 244.71843 242.53661
 240.31280 238.10198 235.90717 233.73135 231.57654 229.42872 227.43991 225.58209
 223.85028 222.30746 220.92265 219.67983 218.54702 217.49220 216.58139 215.70757
 214.93476 214.09994 213.18313 212.53231 211.96750 212.93146 215.20894 217.80118
 219.57542 221.26674 222.83379 224.58382 226.15514 227.32697 228.96439 229.55611
 229.40065 229.73604 232.20465 236.78143 241.53764 245.94432 250.01494 253.80717
 257.32791 260.60074 263.60672 266.27328 268.67520 270.86197 272.69629 274.30902
 275.72946 277.42310 278.96896 280.33133 281.51492 282.56827 283.53714 284.42563
 285.24246 285.97980 286.63586 287.54388
 366.78100 356.31936 345.73571 334.58607 322.97343 311.15178 299.00614 286.79350
 274.48985 262.37121 250.36456 239.64992 229.75628 220.84463 213.01099 205.99735
 199.81570 194.73806 191.30442 189.33077 188.35213 188.40049 189.21984 190.51220
 192.22155 194.30091 196.54827 198.89162 201.32098 203.78534 205.85769 207.68405
 209.29441 210.42376 210.63712 210.84948 210.77083 210.46019 210.07754 209.69190
 209.29326 208.98761 208.77997 208.62833 208.54068 208.85604 209.22640 209.59975
 210.37711 211.53947 212.77382 214.54118 216.45353 218.48089 220.56025 222.62760
 224.67196 226.74032 228.82167 230.91203 233.02539 235.18174 237.42210 239.77646
 242.38181 244.61717 246.60352 248.35288 249.75424 250.86159 251.66795 251.96831
 251.98966 251.74802 251.09238 250.02473 248.61509 246.76045 244.65380 242.47116
 240.24651 238.03487 235.83923 233.66258 231.50694 229.35830 227.36865 225.51001
 223.77737 222.23372 220.84808 219.60444 218.47079 217.41515 216.50350 215.62886
 214.85522 214.01957 213.10193 212.45029 211.88464 212.90437 215.31360 217.92093
 219.62263 221.30988 222.95000 224.60986 226.04192 227.36380 229.04639 229.63480
 229.23917 229.30484 232.00974 236.72673 241.49609 245.90651 249.95827 253.73334
 257.26709 260.57318 263.61490 266.30649 268.71719 270.89978 272.71545 274.30627
 275.71436 277.40439 278.95166 280.31827 281.50421 282.55942 283.52945 284.41931
 285.23550 285.97263 286.62857 287.54205
 366.78100 356.31859 345.73418 334.58377 322.97036 311.14795 299.00154 286.78813
 274.48372 262.36430 250.35689 239.64148 229.74707 220.83466 213.00025 205.98584
 199.80343 194.72502 191.29061 189.31620 188.33679 188.38438 189.20297 190.49456
 192.20315 194.28173 196.52832 198.87091 201.29950 203.76309 205.83468 207.66027
 209.26986 210.39845 210.61104 210.82263 210.74322 210.43181 210.04840 209.66199
 209.26258 208.95616 208.74775 208.59534 208.50693 208.82152 209.19111 209.56370
 210.34029 211.50188 212.73547 214.50206 216.41365 218.44024 220.51883 222.58542
 224.62901 226.69659 228.77718 230.86677 232.97936 235.13495 237.37454 239.72813
 242.33272 244.56731 246.55290 248.30149 249.70208 250.80867 251.61426 251.91385
 251.93444 251.69202 251.03561 249.96720 248.55679 246.70138 244.59397 242.41056
 240.18515 237.97274 235.77633 233.59892 231.44251 229.29310 227.30269 225.44328
 223.70987 222.16545 220.77904 219.53463 218.40022 217.34381 216.43140 215.55599
 214.78158 213.94517 213.02676 212.37435 211.80794 212.88184 215.41904 218.04366
 219.65352 221.34756 223.02922 224.72606 226.10767 227.38637 228.94873 229.54041
 229.08017 229.02769 231.87128 236.66824 241.46674 245.87064 249.89278 253.65656
 257.20624 260.54590 263.62296 266.34137 268.76151 270.93961 272.73450 274.29590
 275.72589 277.39795 278.93707 280.30002 281.48404 282.53992 283.50897 284.39923
 285.21381 285.95309 286.60730 287.52344
 366.78100 356.31817 345.73334 334.58251 322.96868 311.14585 298.99902 286.78520
 274.48037 262.36054 250.35271 239.63688 229.74205 220.82922 212.99439 205.97956
 199.79673 194.71790 191.28307 189.30825 188.32842 188.37559 189.19376 190.48493
 192.19310 194.27127 196.51744 198.85961 201.28778 203.75095 205.82212 207.64730
 209.25647 210.38464 210.59681 210.80798 210.72815 210.41632 210.03249 209.64566
 209.24583 208.93900 208.73017 208.57735 208.48852 208.80269 209.17186 209.54403
 210.32020 211.48137 212.71454 214.48071 216.39188 218.41805 220.49622 222.56240
 224.60557 226.67274 228.75291 230.84208 232.95425 235.10942 237.34859 239.70176
 242.30593 244.54010 246.52527 248.27345 249.67362 250.77979 251.58496 251.88413
 251.90430 251.66147 251.00464 249.93581 248.52498 246.66915 244.56132 242.37750
 240.15167 237.93884 235.74201 233.56418 231.40735 229.25752 227.26669 225.40686
 223.67303 222.12820 220.74137 219.49655 218.36172 217.30489 216.39206 215.51623
 214.74140 213.90457 212.98574 212.33291 211.76608 212.87904 215.50851 218.16809
 219.70137 221.39772 223.03932 224.78856 226.31772 227.49136 228.74863 229.34000
 228.91251 228.84525 231.77092 236.61308 241.43236 245.82594 249.83032 253.59000
 257.15344 260.52173 263.63116 266.37485 268.80447 270.97836 272.75278 274.28766
 275.69254 277.38223 278.92813 280.29102 281.47452 282.53006 283.49863 284.38736
 285.20294 285.94272 286.59793 287.51636
 366.78100 356.31791 345.73282 334.58173 322.96764 311.14455 298.99746 286.78337
 274.47828 262.35819 250.35010 239.63401 229.73892 220.82583 212.99074 205.97565
 199.79256 194.71347 191.27838 189.30329 188.32320 188.37011 189.18802 190.47893
 192.18684 194.26475 196.51066 198.85257 201.28048 203.74339 205.81430 207.63921
 209.24812 210.37603 210.58794 210.79885 210.71876 210.40667 210.02258 209.63549
 209.23540 208.92831 208.71922 208.56613 208.47704 208.79095 209.15986 209.53177
 210.30768 211.46859 212.70150 214.46741 216.37832 218.40423 220.48214 222.54805
 224.59096 226.65787 228.73778 230.82669 232.93860 235.09351 237.33242 239.68533
 242.28924 244.52315 246.50806 248.25597 249.65588 250.76179 251.56670 251.86561
 251.88552 251.64243 250.98534 249.91625 248.50516 246.64907 244.54098 242.35689
 240.13080 237.91771 235.72062 233.54253 231.38544 229.23535 227.24426 225.38417
 223.65008 222.10499 220.71790 219.47281 218.33773 217.28064 216.36755 215.49146
 214.71637 213.87928 212.96019 212.30710 211.74001 212.88579 215.59282 218.28558
 219.76407 221.43521 223.07011 224.82632 226.47749 227.58806 228.59816 229.12349
 228.69208 228.68968 231.70123 236.56825 241.39291 245.77661 249.77437 253.52927
 257.10251 260.49692 263.63730 266.40518 268.84387 271.01260 272.76907 274.27625
 275.66888 277.36563 278.91434 280.27963 281.46402 282.51678 283.48596 284.37579
 285.18982 285.92978 286.58344 287.51019
 366.78100 356.31766 345.73232 334.58097 322.96663 311.14329 298.99595 286.78160
 274.47626 262.35592 250.34758 239.63123 229.73589 220.82255 212.98721 205.97186
 199.78852 194.70918 191.27384 189.29849 188.31815 188.36481 189.18247 190.47312
 192.18078 194.25844 196.50410 198.84575 201.27341 203.73607 205.80673 207.63138
 209.24004 210.36770 210.57936 210.79001 210.70967 210.39733 210.01299 209.62564
 209.22530 208.91796 208.70862 208.55527 208.46593 208.77959 209.14825 209.51990
 210.29556 211.45622 212.68888 214.45453 216.36519 218.39085 220.46851 222.53416
 224.57682 226.64348 228.72314 230.81179 232.92345 235.07811 237.31677 239.66942
 242.27308 244.50674 246.49140 248.23905 249.63871 250.74437 251.54903 251.84768
 251.86734 251.62400 250.96666 249.89731 248.48597 246.62963 244.52129 242.33694
 240.11060 237.89726 235.69992 233.52157 231.36423 229.21389 227.22255 225.36220
 223.62786 222.08252 220.69518 219.44983 218.31449 217.25715 216.34381 215.46746
 214.69212 213.85478 212.93544 212.28209 211.71475 212.89455 215.68192 218.39017
 219.83098 221.46693 223.13893 224.88838 226.54053 227.60826 228.53064 228.91629
 228.42177 228.54385 231.65761 236.52774 241.34697 245.72777 249.72337 253.47266
 257.05301 260.47037 263.63907 266.43100 268.87943 271.04434 272.78479 274.26788
 275.65707 277.34357 278.89313 280.26053 281.44720 282.50351 283.47244 284.36298
 285.17834 285.92038 286.57672 287.50079
 366.78100 356.31758 345.73216 334.58074 322.96632 311.14290 298.99549 286.78107
 274.47565 262.35523 250.34681 239.63039 229.73497 220.82155 212.98613 205.97071
 199.78729 194.70788 191.27246 189.29704 188.31662 188.36320 189.18078 190.47136
 192.17894 194.25652 196.50210 198.84368 201.27127 203.73385 205.80443 207.62901
 209.23759 210.36517 210.57675 210.78733 210.70691 210.39449 210.01008 209.62266
 209.22224 208.91482 208.70540 208.55198 208.46256 208.77614 209.14472 209.51630
 210.29188 211.45247 212.68505 214.45063 216.36121 218.38679 220.46437 222.52995
 224.57253 226.63911 228.71869 230.80727 232.91886 235.07344 237.31202 239.66460
 242.26818 244.50176 246.48634 248.23392 249.63350 250.73908 251.54366 251.84225
 251.86183 251.61841 250.96099 249.89157 248.48015 246.62373 244.51531 242.33089
 240.10447 237.89105 235.69364 233.51522 231.35780 229.20738 227.21596 225.35554
 223.62112 222.07570 220.68828 219.44286 218.30744 217.25003 216.33661 215.46019
 214.68477 213.84735 212.92793 212.27451 211.70709 212.91406 215.76566 218.48436
 219.90347 221.51396 223.21646 224.95721 226.54750 227.58701 228.50227 228.71606
 228.14140 228.41008 231.63037 236.49081 241.29689 245.67880 249.67497 253.42188
 257.00830 260.44299 263.63678 266.45001 268.90887 271.06937 272.79575 274.25546
 275.63196 277.32681 278.87946 280.24576 281.43304 282.48871 283.45825 284.34763
 285.16434 285.90588 286.56305 287.48627
 366.78100 356.31778 345.73255 334.58133 322.96711 311.14388 298.99666 286.78244
 274.47721 262.35699 250.34877 239.63254 229.73732 220.82410 212.98887 205.97365
 199.79042 194.71120 191.27598 189.30075 188.32053 188.36731 189.18508 190.47586
 192.18364 194.26141 196.50719 198.84897 201.27674 203.73952 205.81030 207.63507
 209.24385 210.37163 210.58340 210.79418 210.71396 210.40173 210.01751 209.63029
 209.23006 208.92284 208.71361 208.56039 208.47117 208.78494 209.15372 209.52550
 210.30127 211.46205 212.69483 214.46060 216.37138 218.39716 220.47493 222.54071
 224.58349 226.65026 228.73004 230.81882 232.93059 235.08537 237.32415 239.67692
 242.28070 244.51448 246.49925 248.24703 249.64680 250.75258 251.55736 251.85613
 251.87591 251.63269 250.97546 249.90624 248.49502 246.63879 244.53057 242.34635
 240.12012 237.90690 235.70968 233.53145 231.37423 229.22401 227.23278 225.37256
 223.63834 222.09311 220.70589 219.46067 218.32544 217.26822 216.35499 215.47877
 214.70355 213.86632 212.94710 212.29388 211.72665 212.94922 215.83768 218.56856
 219.98888 221.57529 223.28668 225.01756 226.52940 227.56087 228.48055 228.52383
 227.88147 228.29532 231.60553 236.44945 241.24338 245.62863 249.62946 253.37830
 256.96854 260.41550 263.62900 266.46106 268.92834 271.08768 272.80173 274.24417
 275.61880 277.30597 278.85803 280.22672 281.41516 282.47208 283.44281 284.33401
 285.14957 285.89200 286.55026 287.47775
 366.78100 356.31816 345.73332 334.58248 322.96863 311.14579 298.99895 286.78511
 274.48027 262.36043 250.35259 239.63674 229.74190 220.82906 212.99422 205.97938
 199.79654 194.71770 191.28286 189.30801 188.32817 188.37533 189.19349 190.48465
 192.19281 194.27097 196.51712 198.85928 201.28744 203.75060 205.82176 207.64692
 209.25608 210.38423 210.59639 210.80755 210.72771 210.41587 210.03203 209.64519
 209.24534 208.93850 208.72966 208.57682 208.48798 208.80214 209.17130 209.54346
 210.31961 211.48077 212.71393 214.48009 216.39125 218.41741 220.49557 222.56172
 224.60488 226.67204 228.75220 230.84136 232.95352 235.10868 237.34783 239.70099
 242.30515 244.53931 246.52447 248.27263 249.67279 250.77894 251.58410 251.88326
 251.90342 251.66058 251.00374 249.93490 248.52406 246.66821 244.56037 242.37653
 240.15069 237.93785 235.74101 233.56317 231.40632 229.25648 227.26564 225.40580
 223.67196 222.12712 220.74028 219.49543 218.36059 217.30375 216.39091 215.51507
 214.74023 213.90339 212.98454 212.33170 211.76486 212.99486 215.90089 218.64053
 220.08597 221.64632 223.35170 225.07077 226.50188 227.53159 228.45041 228.34383
 227.65387 228.20073 231.57533 236.40138 241.18599 245.57680 249.58804 253.34177
 256.93414 260.38898 263.61676 266.46460 268.93973 271.09576 272.80026 274.23093
 275.59610 277.28992 278.84409 280.21191 281.39999 282.45612 283.42654 284.31671
 285.13193 285.87622 286.53223 287.46274
 366.78100 356.31866 345.73431 334.58397 322.97062 311.14828 299.00193 286.78859
 274.48425 262.36490 250.35756 239.64221 229.74787 220.83552 213.00118 205.98684
 199.80449 194.72615 191.29180 189.31746 188.33812 188.38577 189.20443 190.49608
 192.20474 194.28339 196.53005 198.87271 201.30136 203.76502 205.83667 207.66233
 209.27198 210.40064 210.61330 210.82495 210.74561 210.43426 210.05092 209.66457
 209.26523 208.95889 208.75054 208.59820 208.50985 208.82451 209.19416 209.56682
 210.34348 211.50513 212.73879 214.50544 216.41710 218.44375 220.52241 222.58907
 224.63272 226.70038 228.78103 230.87069 232.98335 235.13900 237.37866 239.73231
 242.33697 244.57162 246.55728 248.30594 249.70659 250.81325 251.61890 251.91856
 251.93921 251.69687 251.04053 249.97218 248.56184 246.70649 244.59915 242.41580
 240.19046 237.97812 235.78177 233.60443 231.44808 229.29874 227.30839 225.44905
 223.71571 222.17136 220.78502 219.54067 218.40633 217.34998 216.43764 215.56230
 214.78795 213.95161 213.03326 212.38092 211.81458 213.04723 215.95950 218.70189
 220.18715 221.72882 223.42175 225.11816 226.47446 227.49719 228.40555 228.17828
 227.45894 228.12486 231.54166 236.34486 241.12325 245.52538 249.55124 253.31131
 256.90393 260.36230 263.60074 266.46140 268.94250 271.09543 272.79575 274.21967
 275.58237 277.27054 278.82434 280.19406 281.38443 282.44144 283.41174 284.30481
 285.12027 285.86316 286.52008 287.45416
 366.78100 356.31928 345.73555 334.58583 322.97310 311.15138 299.00565 286.79293
 274.48920 262.37048 250.36375 239.64903 229.75530 220.84358 213.00985 205.99613
 199.81440 194.73668 191.30295 189.32923 188.35051 188.39878 189.21806 190.51033
 192.21961 194.29888 196.54616 198.88943 201.31871 203.78298 205.85526 207.68153
 209.29181 210.42108 210.63436 210.84663 210.76791 210.45718 210.07446 209.68874
 209.29001 208.98429 208.77656 208.62484 208.53711 208.85239 209.22266 209.59594
 210.37321 211.53549 212.76976 214.53704 216.44931 218.47659 220.55586 222.62314
 224.66741 226.73569 228.81697 230.90724 233.02052 235.17679 237.41707 239.77134
 242.37662 244.61189 246.59817 248.34744 249.74872 250.85599 251.66227 251.96254
 251.98382 251.74209 251.08637 250.01864 248.60892 246.75419 244.64747 242.46475
 240.24002 238.02830 235.83257 233.65585 231.50012 229.35140 227.36167 225.50295
 223.77022 222.22650 220.84077 219.59705 218.46332 217.40760 216.49587 215.62115
 214.84742 214.01170 213.09398 212.44225 211.87653 213.10657 216.01263 218.75537
 220.28392 221.82372 223.50073 225.16132 226.45134 227.46104 228.34209 228.02431
 227.29454 228.06105 231.50259 236.28142 241.05727 245.47536 249.51953 253.28812
 256.87869 260.33612 263.58090 266.45236 268.93787 271.08743 272.78525 274.20621
 275.56497 277.25836 278.81424 280.18433 281.37280 282.43060 283.40228 284.29266
 285.10840 285.85046 286.50903 287.44275
 366.78100 356.31997 345.73693 334.58790 322.97587 311.15484 299.00980 286.79777
 274.49474 262.37670 250.37067 239.65664 229.76361 220.85257 213.01954 206.00651
 199.82547 194.74844 191.31541 189.34237 188.36434 188.41331 189.23328 190.52624
 192.23621 194.31618 196.56414 198.90811 201.33808 203.80305 205.87601 207.70298
 209.31395 210.44391 210.65788 210.87085 210.79282 210.48278 210.10075 209.71572
 209.31768 209.01265 208.80562 208.65458 208.56755 208.88352 209.25449 209.62845
 210.40642 211.56939 212.80435 214.57232 216.48529 218.51326 220.59322 222.66119
 224.70616 226.77512 228.85709 230.94806 233.06203 235.21899 237.45996 239.81493
 242.42089 244.65686 246.64383 248.39380 249.79576 250.90373 251.71070 252.01166
 252.03363 251.79260 251.13756 250.07053 248.66150 246.80747 244.70143 242.51940
 240.29537 238.08433 235.88930 233.71327 231.55824 229.41020 227.42117 225.56314
 223.83110 222.28807 220.90304 219.66001 218.52697 217.47194 216.56091 215.68687
 214.91384 214.07881 213.16178 212.51074 211.94571 213.17017 216.06310 218.79868
 220.37944 221.92905 223.58937 225.19490 226.43518 227.43060 228.26942 227.87273
 227.14166 228.00853 231.46609 236.21303 240.98763 245.42471 249.49071 253.27173
 256.86032 260.31308 263.55991 266.43912 268.92715 271.07053 272.76630 274.18860
 275.55063 277.24500 278.80164 280.17221 281.36270 282.42105 283.39319 284.28479
 285.10242 285.84201 286.50162 287.43854
 366.78100 356.32053 345.73806 334.58959 322.97812 311.15765 299.01318 286.80171
 274.49924 262.38177 250.37630 239.66283 229.77036 220.85989 213.02742 206.01495
 199.83447 194.75800 191.32553 189.35306 188.37559 188.42512 189.24565 190.53918
 192.24971 194.33024 196.57877 198.92330 201.35383 203.81936 205.89289 207.72042
 209.33195 210.46248 210.67701 210.89054 210.81307 210.50360 210.12213 209.73766
 209.34019 209.03572 208.82925 208.67878 208.59231 208.90884 209.28037 209.65490
 210.43342 211.59695 212.83248 214.60101 216.51454 218.54307 220.62360 222.69213
 224.73766 226.80719 228.88972 230.98125 233.09578 235.25331 237.49484 239.85037
 242.45690 244.69343 246.68096 248.43149 249.83402 250.94255 251.75008 252.05161
 252.07414 251.83367 251.17920 250.11273 248.70426 246.85079 244.74532 242.56385
 240.34037 238.12990 235.93543 233.75996 231.60549 229.45802 227.46955 225.61208
 223.88061 222.33814 220.95367 219.71120 218.57873 217.52426 216.61379 215.74032
 214.96785 214.13338 213.21691 212.56644 212.00197 213.22746 216.12282 218.82201
 220.47365 222.04933 223.67532 225.23651 226.42209 227.40202 228.19305 227.71938
 227.00227 227.96500 231.42207 236.13896 240.91484 245.37352 249.46843 253.26663
 256.85217 260.29495 263.53818 266.42059 268.90805 271.04349 272.73749 274.16525
 275.53464 277.23175 278.79105 280.16336 281.35519 282.41599 283.38904 284.28214
 285.09711 285.83859 286.49481 287.43152
 366.78100 356.32155 345.74010 334.59265 322.98220 311.16275 299.01930 286.80885
 274.50740 262.39095 250.38650 239.67405 229.78260 220.87315 213.04170 206.03026
 199.85081 194.77536 191.34391 189.37246 188.39601 188.44656 189.26811 190.56266
 192.27421 194.35576 196.60531 198.95086 201.38241 203.84896 205.92351 207.75206
 209.36461 210.49616 210.71171 210.92626 210.84981 210.54136 210.16091 209.77746
 209.38101 209.07756 208.87211 208.72266 208.63722 208.95477 209.32732 209.70287
 210.48242 211.64697 212.88352 214.65307 216.56762 218.59717 220.67872 222.74827
 224.79482 226.86537 228.94892 231.04147 233.15702 235.31557 237.55812 239.91467
 242.52222 244.75977 246.74832 248.49987 249.90342 251.01297 251.82152 252.12407
 252.14762 251.90818 251.25473 250.18928 248.78183 246.92938 244.82493 242.64448
 240.42203 238.21258 236.01913 233.84468 231.69123 229.54478 227.55733 225.70088
 223.97043 222.42898 221.04553 219.80408 218.67263 217.61918 216.70973 215.83728
 215.06583 214.23238 213.31693 212.66748 212.10403 213.30795 216.15231 218.86722
 220.54477 222.17360 223.77594 225.26735 226.43581 227.38461 228.09869 227.59552
 226.88728 227.90051 231.37521 236.06555 240.83981 245.32655 249.45724 253.27094
 256.84814 260.27747 263.51382 266.39789 268.88321 271.00925 272.70151 274.13654
 275.52176 277.22183 278.78259 280.15637 281.34930 282.41080 283.38452 284.27689
 285.09390 285.83310 286.48996 287.42877
 366.78100 356.32248 345.74197 334.59545 322.98594 311.16742 299.02491 286.81539
 274.51488 262.39936 250.39585 239.68433 229.79382 220.88530 213.05479 206.04427
 199.86576 194.79124 191.36073 189.39021 188.41470 188.46618 189.28867 190.58415
 192.29664 194.37912 196.62960 198.97609 201.40857 203.87606 205.95154 207.78103
 209.39451 210.52700 210.74348 210.95897 210.88345 210.57594 210.19642 209.81391
 209.41839 209.11588 208.91136 208.76285 208.67833 208.99682 209.37030 209.74679
 210.52727 211.69275 212.93024 214.70072 216.61621 218.64669 220.72918 222.79966
 224.84715 226.91863 229.00312 231.09660 233.21309 235.37257 237.61606 239.97354
 242.58203 244.82051 246.81000 248.56248 249.96697 251.07745 251.88694 252.19042
 252.21491 251.97639 251.32387 250.25936 248.85284 247.00133 244.89781 242.71830
 240.49678 238.28827 236.09575 233.92224 231.76972 229.62421 227.63769 225.78218
 224.05266 222.51215 221.12963 219.88912 218.75860 217.70609 216.79757 215.92606
 215.15554 214.32302 213.40851 212.75999 212.19748 213.38434 216.18846 218.89552
 220.61957 222.28813 223.90926 225.32008 226.37689 227.33791 228.09569 227.44408
 226.69252 227.84500 231.32167 235.97826 240.76762 245.29147 249.45502 253.27904
 256.84671 260.26169 263.49109 266.37546 268.85672 270.97070 272.66061 274.10446
 275.50958 277.21432 278.77597 280.14966 281.34308 282.40555 283.37903 284.27188
 285.08688 285.82840 286.48441 287.42648
 366.78100 356.32344 345.74388 334.59832 322.98977 311.17221 299.03065 286.82209
 274.52253 262.40797 250.40541 239.69486 229.80530 220.89774 213.06818 206.05862
 199.88106 194.80750 191.37794 189.40839 188.43383 188.48627 189.30971 190.60615
 192.31959 194.40303 196.65448 199.00192 201.43536 203.90380 205.98024 207.81068
 209.42512 210.55857 210.77601 210.99245 210.91789 210.61133 210.23277 209.85121
 209.45665 209.15510 208.95154 208.80398 208.72042 209.03986 209.41430 209.79174
 210.57319 211.73963 212.97807 214.74951 216.66595 218.69739 220.78083 222.85228
 224.90072 226.97316 229.05860 231.15304 233.27048 235.43092 237.67536 240.03381
 242.64325 244.88269 246.87313 248.62657 250.03201 251.14345 251.95390 252.25834
 252.28378 252.04622 251.39466 250.33110 248.92554 247.07499 244.97243 242.79387
 240.57331 238.36575 236.17419 234.00163 231.85007 229.70552 227.71996 225.86540
 224.13684 222.59728 221.21572 219.97616 218.84661 217.79505 216.88749 216.01693
 215.24737 214.41581 213.50225 212.85470 212.29314 213.46208 216.22383 218.91737
 220.70622 222.35593 224.06042 225.46855 226.35725 227.25589 227.99539 227.45993
 226.63521 227.64159 231.23619 235.92943 240.71841 245.26871 249.45531 253.28978
 256.85031 260.25073 263.47144 266.35370 268.82730 270.92642 272.61240 274.06729
 275.49561 277.20541 278.76694 280.14182 281.33554 282.39883 283.37402 284.26660
 285.08325 285.82385 286.47925 287.42453
 366.78100 356.32437 345.74574 334.60111 322.99347 311.17684 299.03621 286.82858
 274.52995 262.41632 250.41468 239.70505 229.81642 220.90979 213.08116 206.07253
 199.89589 194.82326 191.39463 189.42600 188.45237 188.50574 189.33010 190.62747
 192.34184 194.42621 196.67858 199.02695 201.46131 203.93068 206.00805 207.83942
 209.45479 210.58916 210.80752 211.02489 210.95126 210.64563 210.26800 209.88737
 209.49373 209.19310 208.99047 208.84384 208.76121 209.08158 209.45694 209.83531
 210.61768 211.78505 213.02442 214.79679 216.71415 218.74652 220.83089 222.90326
 224.95263 227.02600 229.11236 231.20773 233.32610 235.48747 237.73284 240.09221
 242.70257 244.94294 246.93431 248.68868 250.09505 251.20742 252.01878 252.32415
 252.35052 252.11389 251.46326 250.40063 248.99599 247.14636 245.04473 242.86710
 240.64747 238.44084 236.25020 234.07857 231.92794 229.78431 227.79968 225.94605
 224.21841 222.67978 221.29915 220.06052 218.93189 217.88126 216.97462 216.10499
 215.33636 214.50573 213.59310 212.94647 212.38583 213.53778 216.25937 218.93814
 220.78946 222.44012 224.14085 225.58107 226.45822 227.22786 227.80035 227.41777
 226.64088 227.51495 231.17395 235.88765 240.66562 245.23694 249.45279 253.30536
 256.85959 260.24377 263.45306 266.33081 268.79532 270.87515 272.55414 274.02039
 275.47882 277.19366 278.75647 280.13181 281.32770 282.39053 283.36603 284.25784
 285.07474 285.81613 286.47110 287.41776
 366.78100 356.32514 345.74727 334.60341 322.99654 311.18068 299.04082 286.83395
 274.53609 262.42323 250.42236 239.71350 229.82563 220.91977 213.09191 206.08404
 199.90818 194.83631 191.40845 189.44059 188.46772 188.52186 189.34700 190.64513
 192.36027 194.44540 196.69854 199.04768 201.48281 203.95295 206.03108 207.86322
 209.47936 210.61449 210.83363 211.05177 210.97890 210.67404 210.29717 209.91731
 209.52445 209.22458 209.02272 208.87685 208.79499 209.11613 209.49226 209.87140
 210.65454 211.82267 213.06281 214.83594 216.75408 218.78722 220.87235 222.94549
 224.99562 227.06976 229.15690 231.25303 233.37217 235.53431 237.78044 240.14058
 242.75171 244.99285 246.98499 248.74012 250.14726 251.26040 252.07253 252.37867
 252.40580 252.16994 251.52008 250.45821 249.05435 247.20548 245.10462 242.92776
 240.70889 238.50303 236.31317 234.14230 231.99244 229.84957 227.86571 226.01285
 224.28598 222.74812 221.36825 220.13039 219.00253 217.95266 217.04680 216.17794
 215.41007 214.58021 213.66834 213.02248 212.46262 213.60478 216.30327 218.95555
 220.85570 222.55814 224.18765 225.63200 226.60165 227.24347 227.62080 227.33368
 226.62036 227.42795 231.11856 235.83406 240.60674 245.20560 249.45514 253.32581
 256.87128 260.23813 263.43466 266.30771 268.75970 270.81824 272.48761 273.96524
 275.45938 277.17972 278.74301 280.11917 281.31519 282.37805 283.35614 284.24860
 285.06442 285.80539 286.46091 287.40891
 366.78100 356.32584 345.74868 334.60552 322.99936 311.18420 299.04504 286.83888
 274.54172 262.42956 250.42940 239.72124 229.83408 220.92892 213.10176 206.09460
 199.91944 194.84828 191.42112 189.45396 188.48180 188.53664 189.36248 190.66132
 192.37716 194.46301 196.71685 199.06669 201.50253 203.97337 206.05221 207.88505
 209.50189 210.63773 210.85757 211.07641 211.00425 210.70009 210.32393 209.94477
 209.55261 209.25345 209.05229 208.90713 208.82597 209.14781 209.52465 209.90449
 210.68833 211.85717 213.09801 214.87185 216.79069 218.82453 220.91037 222.98421
 225.03505 227.10989 229.19773 231.29457 233.41441 235.57725 237.82409 240.18493
 242.79677 245.03861 247.03145 248.78729 250.19513 251.30897 252.12181 252.42865
 252.45649 252.22133 251.57217 250.51102 249.10786 247.25970 245.15954 242.98338
 240.76522 238.56006 236.37090 234.20074 232.05158 229.90942 227.92626 226.07410
 224.34794 222.81078 221.43162 220.19446 219.06730 218.01814 217.11298 216.24482
 215.47766 214.64850 213.73734 213.09218 212.53302 213.66786 216.34904 218.97189
 220.91829 222.67256 224.23120 225.66483 226.72940 227.28389 227.48140 227.21074
 226.55290 227.36134 231.06828 235.77847 240.55431 245.18199 249.46262 253.34700
 256.88254 260.23181 263.41687 266.28403 268.72287 270.75620 272.41623 273.90601
 275.43561 277.16248 278.72610 280.10291 281.29913 282.36353 283.34048 284.23303
 285.05069 285.79077 286.44550 287.39539
 366.78100 356.32660 345.75021 334.60781 323.00241 311.18801 299.04962 286.84422
 274.54782 262.43643 250.43703 239.72963 229.84324 220.93884 213.11244 206.10604
 199.93165 194.86125 191.43485 189.46846 188.49706 188.55266 189.37927 190.67887
 192.39547 194.48207 196.73668 199.08728 201.52388 203.99549 206.07509 207.90869
 209.52630 210.66290 210.88350 211.10310 211.03171 210.72831 210.35291 209.97452
 209.58312 209.28472 209.08433 208.93993 208.85953 209.18213 209.55974 209.94034
 210.72494 211.89455 213.13615 214.91075 216.83036 218.86496 220.95156 223.02616
 225.07777 227.15337 229.24197 231.33958 233.46018 235.62378 237.87139 240.23299
 242.84559 245.08819 247.08180 248.83840 250.24700 251.36161 252.17521 252.48281
 252.51142 252.27702 251.62862 250.56822 249.16583 247.31843 245.21903 243.04364
 240.82624 238.62184 236.43344 234.26405 232.11565 229.97425 227.99186 226.14046
 224.41506 222.87867 221.50027 220.26387 219.13747 218.08908 217.18468 216.31728
 215.55089 214.72249 213.81209 213.16770 212.60930 213.73354 216.38966 218.99519
 220.98282 222.75932 224.27393 225.71190 226.84209 227.33539 227.37498 227.05119
 226.43947 227.31062 231.02913 235.73021 240.51099 245.16351 249.47166 253.36935
 256.89572 260.22791 263.39975 266.25845 268.68085 270.68951 272.33804 273.83875
 275.40750 277.14182 278.70462 280.08243 281.27893 282.34375 283.32071 284.21494
 285.03180 285.77109 286.42584 287.37793
 366.78100 356.32737 345.75173 334.61010 323.00546 311.19183 299.05419 286.84956
 274.55392 262.44329 250.44465 239.73802 229.85238 220.94875 213.12311 206.11748
 199.94384 194.87421 191.44857 189.48294 188.51230 188.56867 189.39603 190.69640
 192.41376 194.50113 196.75649 199.10786 201.54522 204.01759 206.09795 207.93232
 209.55068 210.68805 210.90941 211.12978 211.05914 210.75651 210.38187 210.00424
 209.61360 209.31597 209.11633 208.97270 208.89306 209.21643 209.59479 209.97616
 210.76152 211.93189 213.17425 214.94962 216.86998 218.90535 220.99271 223.06808
 225.12044 227.19681 229.28617 231.38454 233.50590 235.67027 237.91863 240.28100
 242.89436 245.13773 247.13209 248.88946 250.29882 251.41419 252.22855 252.53692
 252.56628 252.33265 251.68501 250.62538 249.22374 247.37711 245.27847 243.10384
 240.88720 238.68357 236.49593 234.32730 232.17966 230.03903 228.05739 226.20676
 224.48212 222.94649 221.56885 220.33322 219.20758 218.15995 217.25631 216.38968
 215.62404 214.79641 213.88677 213.24314 212.68550 213.79852 216.42819 219.02243
 221.04773 222.81853 224.31718 225.77509 226.93941 227.39211 227.29425 226.86075
 226.29031 227.27032 231.00124 235.69394 240.47896 245.15036 249.48293 253.39192
 256.90869 260.22299 263.38058 266.23001 268.63312 270.61435 272.25098 273.76492
 275.37415 277.11411 278.67841 280.05646 281.25314 282.31802 283.29648 284.19046
 285.00555 285.74722 286.40170 287.35703
 366.78100 356.32803 345.75306 334.61209 323.00812 311.19515 299.05817 286.85420
 274.55923 262.44926 250.45129 239.74532 229.86035 220.95738 213.13241 206.12744
 199.95447 194.88549 191.46052 189.49555 188.52558 188.58261 189.41064 190.71167
 192.42970 194.51773 196.77376 199.12578 201.56381 204.03684 206.11787 207.95290
 209.57193 210.70996 210.93199 211.15302 211.08305 210.78108 210.40710 210.03013
 209.64016 209.34319 209.14422 209.00125 208.92228 209.24631 209.62534 210.00737
 210.79340 211.96442 213.20745 214.98348 216.90451 218.94054 221.02857 223.10460
 225.15763 227.23466 229.32469 231.42372 233.54574 235.71077 237.95980 240.32283
 242.93686 245.18089 247.17592 248.93395 250.34398 251.46001 252.27504 252.58406
 252.61409 252.38112 251.73415 250.67518 249.27421 247.42824 245.33027 243.15630
 240.94033 238.73735 236.55038 234.38241 232.23544 230.09547 228.11450 226.26453
 224.54056 223.00559 221.62862 220.39365 219.26867 218.22170 217.31873 216.45276
 215.68779 214.86082 213.95185 213.30888 212.75191 213.85793 216.47102 219.05287
 221.10107 222.86961 224.36729 225.84587 227.02019 227.44044 227.23143 226.65781
 226.11879 227.24025 230.98752 235.67039 240.45653 245.14133 249.49199 253.41028
 256.91760 260.21561 263.35919 266.19904 268.58359 270.53793 272.16278 273.69427
 275.33563 277.08063 278.64499 280.02200 281.21829 282.28558 283.26190 284.15677
 284.97275 285.71408 286.37015 287.32211
 366.78100 356.32862 345.75424 334.61387 323.01049 311.19811 299.06173 286.85836
 274.56398 262.45460 250.45722 239.75184 229.86747 220.96509 213.14071 206.13633
 199.96395 194.89558 191.47120 189.50682 188.53744 188.59507 189.42369 190.72531
 192.44393 194.53255 196.78918 199.14180 201.58042 204.05404 206.13567 207.97129
 209.59091 210.72953 210.95215 211.17378 211.10440 210.80302 210.42964 210.05327
 209.66389 209.36751 209.16913 209.02675 208.94838 209.27300 209.65262 210.03524
 210.82186 211.99349 213.23711 215.01373 216.93535 218.97198 221.06060 223.13722
 225.19084 227.26846 229.35909 231.45871 233.58133 235.74695 237.99658 240.36020
 242.97482 245.21944 247.21506 248.97369 250.38431 251.50093 252.31655 252.62617
 252.65680 252.42442 251.77804 250.71966 249.31929 247.47391 245.37653 243.20315
 240.98777 238.78540 236.59902 234.43164 232.28526 230.14589 228.16551 226.31613
 224.59275 223.05837 221.68200 220.44762 219.32324 218.27686 217.37449 216.50911
 215.74473 214.91835 214.00997 213.36760 212.81122 213.91331 216.51717 219.08638
 221.14439 222.91240 224.42671 225.91847 227.08638 227.48232 227.17761 226.45589
 225.93752 227.21556 230.98703 235.65707 240.44177 245.13405 249.49834 253.42346
 256.92139 260.20300 263.33377 266.16373 268.53244 270.46552 272.07932 273.61215
 275.29337 277.04401 278.60736 279.98367 281.17957 282.24631 283.22272 284.11810
 284.93375 285.67532 286.33054 287.28452
 366.78100 356.32920 345.75541 334.61561 323.01281 311.20101 299.06522 286.86242
 274.56862 262.45983 250.46303 239.75823 229.87443 220.97264 213.14884 206.14504
 199.97324 194.90545 191.48165 189.51785 188.54906 188.60726 189.43646 190.73866
 192.45787 194.54707 196.80427 199.15748 201.59668 204.07088 206.15308 207.98929
 209.60949 210.74869 210.97189 211.19410 211.12530 210.82450 210.45171 210.07591
 209.68711 209.39131 209.19352 209.05172 208.97392 209.29913 209.67933 210.06253
 210.84973 212.02194 213.26614 215.04334 216.96554 219.00275 221.09195 223.16915
 225.22336 227.30156 229.39276 231.49296 233.61617 235.78237 238.03257 240.39678
 243.01198 245.25718 247.25338 249.01259 250.42379 251.54099 252.35719 252.66740
 252.69860 252.46680 251.82101 250.76321 249.36341 247.51861 245.42182 243.24902
 241.03422 238.83243 236.64663 234.47983 232.33403 230.19524 228.21544 226.36664
 224.64384 223.11005 221.73425 220.50045 219.37666 218.33086 217.42906 216.56426
 215.80047 214.97467 214.06687 213.42508 212.86928 213.96753 216.56226 219.12303
 221.18309 222.94153 224.48553 225.99025 227.14674 227.52960 227.12967 226.25900
 225.75667 227.18936 230.99005 235.65181 240.43605 245.13040 249.50333 253.43205
 256.91983 260.18417 263.30161 266.12244 268.47656 270.39420 272.00070 273.53192
 275.24432 277.00009 278.56305 279.93823 281.13300 282.19830 283.17572 284.06921
 284.88586 285.62766 286.28445 287.23627
 366.78100 356.32975 345.75650 334.61725 323.01500 311.20375 299.06850 286.86625
 274.57300 262.46475 250.46850 239.76425 229.88101 220.97976 213.15651 206.15326
 199.98201 194.91476 191.49151 189.52826 188.56001 188.61876 189.44851 190.75126
 192.47101 194.56076 196.81851 199.17226 201.61201 204.08676 206.16951 208.00626
 209.62701 210.76676 210.99051 211.21326 211.14502 210.84477 210.47252 210.09727
 209.70902 209.41377 209.21652 209.07527 208.99802 209.32377 209.70452 210.08827
 210.87602 212.04877 213.29352 215.07127 216.99402 219.03177 221.12152 223.19927
 225.25402 227.33277 229.42452 231.52527 233.64903 235.81578 238.06653 240.43128
 243.04703 245.29278 247.28953 249.04928 250.46103 251.57878 252.39553 252.70628
 252.73803 252.50678 251.86153 250.80428 249.40503 247.56078 245.46453 243.29228
 241.07803 238.87678 236.69153 234.52528 232.38004 230.24179 228.26254 226.41429
 224.69204 223.15879 221.78354 220.55029 219.42704 218.38179 217.48054 216.61629
 215.85304 215.02779 214.12054 213.47929 212.92404 214.01921 216.60667 219.16364
 221.21588 222.96442 224.53664 226.05087 227.20999 227.59261 227.09026 226.06319
 225.57874 227.16119 230.98906 235.65494 240.44240 245.13329 249.50763 253.43416
 256.91040 260.15872 263.26379 266.07642 268.41791 270.32059 271.92538 273.47482
 275.18347 276.94098 278.50443 279.88107 281.07751 282.14072 283.11899 284.01263
 284.82874 285.57153 286.23022 287.17935
 366.78100 356.33026 345.75751 334.61877 323.01702 311.20628 299.07153 286.86979
 274.57705 262.46930 250.47356 239.76981 229.88707 220.98633 213.16358 206.16084
 199.99009 194.92335 191.50060 189.53786 188.57012 188.62937 189.45963 190.76288
 192.48314 194.57339 196.83165 199.18591 201.62616 204.10142 206.18467 208.02193
 209.64319 210.78344 211.00770 211.23095 211.16321 210.86346 210.49172 210.11698
 209.72923 209.43449 209.23774 209.09700 209.02025 209.34651 209.72777 210.11202
 210.90028 212.07353 213.31879 215.09705 217.02030 219.05856 221.14881 223.22707
 225.28232 227.36158 229.45384 231.55509 233.67935 235.84660 238.09786 240.46311
 243.07937 245.32563 247.32288 249.08314 250.49539 251.61365 252.43091 252.74216
 252.77442 252.54367 251.89893 250.84218 249.44344 247.59970 245.50395 243.33221
 241.11846 238.91772 236.73297 234.56723 232.42249 230.28474 228.30600 226.45825
 224.73651 223.20377 221.82902 220.59628 219.47353 218.42879 217.52804 216.66430
 215.90156 215.07681 214.17007 213.52932 212.97458 214.06725 216.64879 219.20677
 221.24820 222.97603 224.57794 226.11028 227.27386 227.65959 227.06839 225.87352
 225.39078 227.13362 230.99625 235.66504 240.45311 245.13364 249.50394 253.42839
 256.89420 260.12836 263.22305 266.02872 268.35980 270.25009 271.85559 273.42398
 275.12439 276.87680 278.43808 279.81357 281.00952 282.07343 283.05090 283.94559
 284.76144 285.50598 286.16400 287.11572
 366.78100 356.33090 345.75880 334.62071 323.01961 311.20951 299.07541 286.87431
 274.58222 262.47512 250.48002 239.77692 229.89482 220.99473 213.17263 206.17053
 200.00043 194.93433 191.51224 189.55014 188.58304 188.64294 189.47384 190.77775
 192.49865 194.58955 196.84845 199.20335 201.64426 204.12016 206.20406 208.04196
 209.66386 210.80477 211.02967 211.25357 211.18647 210.88737 210.51628 210.14218
 209.75508 209.46098 209.26488 209.12479 209.04869 209.37559 209.75749 210.14239
 210.93130 212.10520 213.35110 215.13000 217.05390 219.09281 221.18371 223.26261
 225.31851 227.39841 229.49132 231.59322 233.71812 235.88602 238.13792 240.50383
 243.12073 245.36763 247.36553 249.12643 250.53934 251.65824 252.47614 252.78804
 252.82094 252.59085 251.94675 250.89065 249.49255 247.64945 245.55436 243.38326
 241.17016 238.97006 236.78596 234.62087 232.47677 230.33967 228.36157 226.51447
 224.79338 223.26128 221.88718 220.65508 219.53298 218.48889 217.58879 216.72569
 215.96359 215.13949 214.23340 213.59330 213.03920 214.12082 216.67624 219.26149
 221.28093 222.98199 224.59576 226.14809 227.35966 227.76558 227.04483 225.67513
 225.22000 227.10884 230.98811 235.67729 240.47203 245.13998 249.50159 253.42119
 256.87402 260.09207 263.17755 265.97763 268.30038 270.18057 271.78766 273.37082
 275.05698 276.80542 278.36673 279.74176 280.93640 282.00101 282.97812 283.87225
 284.69125 285.43497 286.09348 287.04535
 366.78100 356.33145 345.75991 334.62236 323.02181 311.21227 299.07872 286.87817
 274.58663 262.48008 250.48553 239.78299 229.90144 221.00189 213.18035 206.17880
 200.00926 194.94371 191.52216 189.56062 188.59407 188.65452 189.48598 190.79043
 192.51188 194.60334 196.86279 199.21824 201.65970 204.13615 206.22060 208.05906
 209.68151 210.82296 211.04842 211.27287 211.20632 210.90778 210.53723 210.16368
 209.77714 209.48359 209.28804 209.14850 209.07295 209.40041 209.78286 210.16831
 210.95777 212.13222 213.37867 215.15813 217.08258 219.12203 221.21349 223.29294
 225.34939 227.42985 229.52330 231.62575 233.75121 235.91966 238.17211 240.53857
 243.15602 245.40347 247.40193 249.16338 250.57683 251.69629 252.51474 252.82720
 252.86065 252.63110 251.98756 250.93201 249.53446 247.69192 245.59737 243.42682
 241.21428 239.01473 236.83118 234.66664 232.52309 230.38654 228.40900 226.56245
 224.84190 223.31036 221.93681 220.70526 219.58372 218.54017 217.64062 216.77808
 216.01653 215.19298 214.28744 213.64789 213.09435 214.16815 216.70512 219.30878
 221.32481 222.97133 224.62682 226.17192 227.39906 227.88432 227.10777 225.41185
 224.89690 227.08913 231.04671 235.72302 240.50516 245.14622 249.48955 253.39835
 256.83981 260.04773 263.12860 265.92661 268.24619 270.12241 271.73129 273.32059
 274.98767 276.73047 278.29202 279.66513 280.86005 281.92310 282.89923 283.79602
 284.61218 285.35895 286.01773 286.96857
 366.78100 356.33160 345.76020 334.62280 323.02241 311.21301 299.07961 286.87921
 274.58781 262.48141 250.48702 239.78462 229.90322 221.00382 213.18242 206.18102
 200.01163 194.94623 191.52483 189.56343 188.59703 188.65763 189.48924 190.79384
 192.51544 194.60704 196.86664 199.22224 201.66385 204.14045 206.22505 208.06365
 209.68625 210.82785 211.05345 211.27806 211.21166 210.91326 210.54286 210.16946
 209.78306 209.48967 209.29427 209.15487 209.07947 209.40707 209.78967 210.17528
 210.96488 212.13948 213.38608 215.16568 217.09028 219.12989 221.22149 223.30109
 225.35769 227.43829 229.53189 231.63450 233.76010 235.92870 238.18130 240.54790
 243.16550 245.41310 247.41171 249.17331 250.58691 251.70651 252.52511 252.83771
 252.87132 252.64192 251.99852 250.94312 249.54572 247.70332 245.60893 243.43853
 241.22613 239.02673 236.84333 234.67893 232.53554 230.39914 228.42174 226.57534
 224.85494 223.32354 221.95015 220.71875 219.59735 218.55395 217.65455 216.79215
 216.03075 215.20736 214.30196 213.66256 213.10916 214.19452 216.75879 219.32524
 221.38441 222.98984 224.58247 226.19980 227.48785 227.97409 227.12686 225.31281
 224.74303 227.02600 231.05994 235.75166 240.52132 245.13734 249.46547 253.36678
 256.80203 260.00415 263.08142 265.87885 268.19696 270.07254 271.68417 273.27902
 274.91690 276.65237 278.21124 279.58411 280.77829 281.84097 282.81699 283.71228
 284.52942 285.27606 285.93597 286.88907
 366.78100 356.33182 345.76063 334.62345 323.02327 311.21408 299.08090 286.88072
 274.58953 262.48335 250.48917 239.78698 229.90580 221.00662 213.18543 206.18425
 200.01507 194.94988 191.52870 189.56752 188.60134 188.66215 189.49397 190.79879
 192.52060 194.61242 196.87224 199.22805 201.66987 204.14669 206.23150 208.07032
 209.69314 210.83495 211.06077 211.28559 211.21940 210.92122 210.55104 210.17785
 209.79167 209.49849 209.30330 209.16412 209.08894 209.41675 209.79957 210.18539
 210.97520 212.15002 213.39684 215.17665 217.10147 219.14129 221.23311 223.31292
 225.36974 227.45056 229.54437 231.64719 233.77301 235.94182 238.19464 240.56146
 243.17927 245.42709 247.42591 249.18772 250.60154 251.72136 252.54017 252.85299
 252.88681 252.65762 252.01444 250.95926 249.56207 247.71989 245.62571 243.45552
 241.24334 239.04416 236.86097 234.69679 232.55361 230.41742 228.44024 226.59406
 224.87388 223.34269 221.96951 220.73833 219.61714 218.57396 217.67478 216.81259
 216.05141 215.22823 214.32304 213.68386 213.13068 214.22348 216.80536 219.35567
 221.41214 223.02541 224.59888 226.25153 227.55389 227.98228 227.09326 225.30888
 224.70956 226.95018 231.02679 235.76041 240.53127 245.12929 249.44592 253.34201
 256.77063 259.96384 263.03574 265.83057 268.14816 270.02374 271.64087 273.24084
 274.84464 276.57208 278.12848 279.50061 280.69189 281.75415 282.73016 283.62570
 284.44458 285.19083 285.85101 286.80753
 366.78100 356.33220 345.76141 334.62461 323.02481 311.21602 299.08322 286.88342
 274.59263 262.48683 250.49303 239.79124 229.91044 221.01164 213.19085 206.19005
 200.02125 194.95646 191.53566 189.57486 188.60907 188.67027 189.50248 190.80768
 192.52988 194.62209 196.88229 199.23849 201.68070 204.15790 206.24310 208.08231
 209.70551 210.84771 211.07392 211.29912 211.23332 210.93553 210.56573 210.19293
 209.80714 209.51434 209.31954 209.18075 209.10595 209.43415 209.81736 210.20356
 210.99376 212.16897 213.41617 215.19637 217.12158 219.16178 221.25398 223.33419
 225.39139 227.47259 229.56680 231.67000 233.79621 235.96541 238.21861 240.58582
 243.20402 245.45222 247.45143 249.21363 250.62783 251.74804 252.56724 252.88044
 252.91465 252.68585 252.04305 250.98826 249.59146 247.74966 245.65587 243.48607
 241.27427 239.07548 236.89268 234.72888 232.58609 230.45029 228.47349 226.62770
 224.90790 223.37710 222.00431 220.77351 219.65271 218.60992 217.71112 216.84932
 216.08853 215.26573 214.36094 213.72214 213.16934 214.25969 216.83577 219.40166
 221.43782 223.05318 224.62920 226.28848 227.59218 227.98721 227.07179 225.31683
 224.69084 226.87134 230.98383 235.77229 240.54704 245.12674 249.43121 253.32109
 256.74136 259.92493 262.99103 265.78333 268.10056 269.97714 271.60135 273.20529
 274.77499 276.49301 278.04559 279.41431 280.60391 281.66486 282.63895 283.53320
 284.35126 285.09897 285.76193 286.71188
 366.78100 356.33259 345.76218 334.62576 323.02635 311.21794 299.08553 286.88612
 274.59571 262.49029 250.49688 239.79547 229.91506 221.01665 213.19624 206.19582
 200.02741 194.96300 191.54259 189.58218 188.61676 188.67835 189.51094 190.81653
 192.53912 194.63171 196.89229 199.24888 201.69147 204.16906 206.25465 208.09424
 209.71782 210.86041 211.08700 211.31259 211.24718 210.94977 210.58035 210.20794
 209.82253 209.53012 209.33571 209.19729 209.12288 209.45147 209.83506 210.22165
 211.01224 212.18782 213.43541 215.21600 217.14159 219.18218 221.27477 223.35535
 225.41294 227.49453 229.58912 231.69271 233.81929 235.98888 238.24247 240.61006
 243.22865 245.47724 247.47682 249.23941 250.65400 251.77459 252.59418 252.90777
 252.94235 252.71394 252.07153 251.01712 249.62071 247.77930 245.68588 243.51647
 241.30506 239.10665 236.92424 234.76082 232.61841 230.48300 228.50659 226.66118
 224.94177 223.41135 222.03894 220.80853 219.68812 218.64571 217.74730 216.88588
 216.12547 215.30306 214.39865 213.76024 213.20782 214.29353 216.85866 219.44182
 221.47223 223.08185 224.65329 226.30212 227.60229 228.01617 227.07097 225.30487
 224.66042 226.80135 230.95232 235.79393 240.56712 245.12442 249.41507 253.29909
 256.71234 259.88614 262.94778 265.73798 268.05490 269.93289 271.56494 273.17337
 274.73291 276.41885 277.95477 279.31763 280.50488 281.56329 282.53796 283.43253
 284.24973 284.99948 285.66382 286.61301
 366.78100 356.33294 345.76287 334.62681 323.02775 311.21969 299.08762 286.88856
 274.59850 262.49343 250.50037 239.79931 229.91925 221.02118 213.20112 206.20106
 200.03300 194.96893 191.54887 189.58881 188.62374 188.68568 189.51862 190.82456
 192.54749 194.64043 196.90137 199.25830 201.70124 204.17918 206.26512 208.10505
 209.72899 210.87193 211.09887 211.32480 211.25974 210.96268 210.59361 210.22155
 209.83649 209.54443 209.35036 209.21230 209.13824 209.46717 209.85111 210.23805
 211.02899 212.20492 213.45286 215.23380 217.15974 219.20067 221.29361 223.37455
 225.43248 227.51442 229.60936 231.71330 233.84023 236.01017 238.26411 240.63204
 243.25098 245.49992 247.49986 249.26279 250.67773 251.79867 252.61861 252.93254
 252.96748 252.73942 252.09735 251.04329 249.64723 247.80617 245.71310 243.54404
 241.33298 239.13491 236.95285 234.78979 232.64773 230.51266 228.53660 226.69154
 224.97247 223.44241 222.07035 220.84029 219.72022 218.67816 217.78010 216.91904
 216.15897 215.33691 214.43285 213.79478 213.24272 214.32454 216.88042 219.47316
 221.51512 223.11501 224.67082 226.29880 227.59908 228.05284 227.07741 225.28700
 224.62321 226.74176 230.93852 235.82043 240.58446 245.11971 249.39767 253.27681
 256.68372 259.84988 262.90881 265.69943 268.01828 269.89941 271.53601 273.14111
 274.73013 276.31662 277.84451 279.21375 280.40448 281.46558 282.44266 283.33716
 284.15900 284.90601 285.57214 286.51984
 366.78100 356.33329 345.76359 334.62788 323.02917 311.22146 299.08976 286.89105
 274.60134 262.49663 250.50393 239.80322 229.92351 221.02581 213.20610 206.20639
 200.03868 194.97498 191.55527 189.59556 188.63085 188.69315 189.52644 190.83273
 192.55603 194.64932 196.91061 199.26790 201.71120 204.18949 206.27578 208.11608
 209.74037 210.88366 211.11095 211.33725 211.27254 210.97583 210.60712 210.23542
 209.85071 209.55900 209.36530 209.22759 209.15388 209.48317 209.86747 210.25476
 211.04605 212.22234 213.47064 215.25193 217.17822 219.21952 221.31281 223.39410
 225.45239 227.53469 229.62998 231.73427 233.86156 236.03186 238.28615 240.65444
 243.27374 245.52303 247.52332 249.28661 250.70191 251.82320 252.64349 252.95778
 252.99308 252.76537 252.12366 251.06996 249.67425 247.83354 245.74083 243.57213
 241.36142 239.16371 236.98201 234.81930 232.67759 230.54288 228.56718 226.72247
 225.00376 223.47405 222.10235 220.87264 219.75293 218.71123 217.81352 216.95281
 216.19310 215.37140 214.46769 213.82998 213.27827 214.35555 216.90073 219.50142
 221.56505 223.15314 224.67928 226.27847 227.59628 228.08034 227.08153 225.27994
 224.58827 226.69141 230.93872 235.84624 240.59895 245.11545 249.38184 253.25609
 256.65744 259.81882 262.87457 265.66534 267.98868 269.87369 271.51251 273.10983
 274.69928 276.22778 277.74982 279.12259 280.31506 281.37741 282.35510 283.25327
 284.07428 284.82529 285.49362 286.43842
 366.78100 356.33368 345.76437 334.62905 323.03074 311.22342 299.09210 286.89379
 274.60447 262.50015 250.50784 239.80752 229.92821 221.03089 213.21157 206.21226
 200.04494 194.98163 191.56231 189.60299 188.63868 188.70136 189.53504 190.84173
 192.56541 194.65910 196.92078 199.27846 201.72215 204.20083 206.28751 208.12820
 209.75288 210.89657 211.12425 211.35093 211.28662 210.99030 210.62199 210.25067
 209.86635 209.57504 209.38172 209.24440 209.17109 209.50077 209.88546 210.27314
 211.06482 212.24151 213.49019 215.27188 217.19856 219.24024 221.33393 223.41561
 225.47429 227.55698 229.65266 231.75735 233.88503 236.05571 238.31040 240.67908
 243.29877 245.54845 247.54913 249.31282 250.72850 251.85018 252.67087 252.98555
 253.02124 252.79392 252.15260 251.09929 249.70397 247.86365 245.77134 243.60302
 241.39271 239.19539 237.01407 234.85176 232.71044 230.57613 228.60081 226.75649
 225.03818 223.50886 222.13754 220.90823 219.78891 218.74760 217.85028 216.98996
 216.23065 215.40933 214.50602 213.86870 213.31738 214.38701 216.91411 219.52592
 221.61458 223.19736 224.68423 226.24968 227.59398 228.09286 227.08055 225.28500
 224.56520 226.65106 230.94392 235.86992 240.61061 245.11269 249.36906 253.23749
 256.63629 259.79446 262.84619 265.63437 267.96121 269.84976 271.49005 273.08212
 274.63986 276.15814 277.67487 279.04425 280.23624 281.29636 282.27417 283.17093
 283.99197 284.74350 285.41003 286.35104
 366.78100 356.33406 345.76513 334.63019 323.03226 311.22532 299.09439 286.89645
 274.60752 262.50358 250.51165 239.81171 229.93277 221.03584 213.21690 206.21797
 200.05103 194.98810 191.56916 189.61023 188.64629 188.70936 189.54342 190.85048
 192.57455 194.66861 196.93068 199.28874 201.73281 204.21187 206.29894 208.14000
 209.76507 210.90913 211.13719 211.36426 211.30032 211.00439 210.63645 210.26552
 209.88158 209.59065 209.39771 209.26078 209.18784 209.51790 209.90297 210.29103
 211.08310 212.26016 213.50923 215.29129 217.21836 219.26042 221.35448 223.43655
 225.49561 227.57868 229.67474 231.77981 233.90787 236.07894 238.33400 240.70307
 243.32313 245.57319 247.57426 249.33832 250.75439 251.87645 252.69752 253.01258
 253.04865 252.82171 252.18078 251.12784 249.73290 247.89297 245.80103 243.63310
 241.42316 239.22623 237.04529 234.88336 232.74242 230.60849 228.63355 226.78961
 225.07168 223.54274 222.17181 220.94287 219.82394 218.78300 217.88607 217.02613
 216.26720 215.44626 214.54332 213.90639 213.35545 214.41743 216.92647 219.54602
 221.66234 223.24792 224.68959 226.22047 227.58311 228.08818 227.07671 225.29774
 224.55446 226.62151 230.95110 235.89456 240.62532 245.10971 249.35637 253.22414
 256.62048 259.77402 262.81970 265.60516 267.93564 269.82904 271.47269 273.05856
 274.59360 276.09021 277.60132 278.97061 280.16040 281.22086 282.19778 283.09570
 283.91550 284.66617 285.33328 286.26895
 366.78100 356.33442 345.76585 334.63127 323.03370 311.22712 299.09654 286.89897
 274.61039 262.50681 250.51524 239.81566 229.93709 221.04051 213.22193 206.22336
 200.05678 194.99421 191.57563 189.61705 188.65348 188.71690 189.55133 190.85875
 192.58317 194.67760 196.94002 199.29844 201.74287 204.22229 206.30972 208.15114
 209.77656 210.92099 211.14941 211.37684 211.31326 211.01768 210.65011 210.27953
 209.89596 209.60538 209.41280 209.27623 209.20365 209.53407 209.91950 210.30792
 211.10035 212.27777 213.52719 215.30962 217.23704 219.27947 221.37389 223.45631
 225.51574 227.59916 229.69559 231.80101 233.92943 236.10086 238.35628 240.72570
 243.34613 245.59655 247.59798 249.36240 250.77882 251.90125 252.72267 253.03810
 253.07452 252.84794 252.20737 251.15479 249.76021 247.92064 245.82906 243.66149
 241.45191 239.25533 237.07476 234.91318 232.77261 230.63903 228.66445 226.82088
 225.10330 223.57473 222.20415 220.97557 219.85700 218.81642 217.91984 217.06027
 216.30169 215.48112 214.57854 213.94196 213.39139 214.44701 216.94104 219.55725
 221.70927 223.30334 224.69579 226.19345 227.55971 228.06721 227.06778 225.31833
 224.55902 226.59860 230.95921 235.91930 240.64168 245.11121 249.34932 253.21092
 256.60516 259.75427 262.79501 265.57922 267.91382 269.81308 271.46069 273.03677
 274.54858 276.02881 277.53564 278.90390 280.09406 281.15411 282.13065 283.02676
 283.84955 284.59976 285.26608 286.19687
 366.78100 356.33477 345.76653 334.63230 323.03506 311.22883 299.09859 286.90136
 274.61313 262.50989 250.51866 239.81942 229.94119 221.04495 213.22672 206.22849
 200.06225 195.00002 191.58178 189.62355 188.66031 188.72408 189.55884 190.86661
 192.59138 194.68614 196.94891 199.30767 201.75244 204.23220 206.31997 208.16174
 209.78750 210.93227 211.16103 211.38880 211.32556 211.03033 210.66310 210.29286
 209.90963 209.61939 209.42716 209.29092 209.21869 209.54946 209.93522 210.32399
 211.11675 212.29452 213.54428 215.32705 217.25482 219.29758 221.39235 223.47511
 225.53488 227.61864 229.71541 231.82117 233.94994 236.12171 238.37747 240.74724
 243.36800 245.61877 247.62053 249.38530 250.80207 251.92483 252.74660 253.06236
 253.09913 252.87289 252.23266 251.18043 249.78619 247.94696 245.85572 243.68849
 241.47925 239.28302 237.10279 234.94155 232.80132 230.66808 228.69385 226.85061
 225.13338 223.60515 222.23491 221.00668 219.88844 218.84821 217.95197 217.09274
 216.33450 215.51427 214.61204 213.97580 213.42557 214.47603 216.95786 219.56427
 221.75380 223.36267 224.70679 226.16837 227.52403 228.03078 227.05051 225.34608
 224.57759 226.57709 230.97316 235.95941 240.65506 245.11241 249.34174 253.19991
 256.59198 259.73764 262.77304 265.55447 267.89316 269.79828 271.45035 273.01917
 274.50464 275.97141 277.47485 278.84225 280.03140 281.09286 282.06888 282.96475
 283.78665 284.53726 285.20663 286.12683
 366.78100 356.33510 345.76721 334.63331 323.03641 311.23051 299.10062 286.90372
 274.61582 262.51292 250.52203 239.82313 229.94523 221.04933 213.23144 206.23354
 200.06764 195.00574 191.58785 189.62995 188.66705 188.73115 189.56626 190.87436
 192.59946 194.69456 196.95767 199.31677 201.76187 204.24198 206.33008 208.17218
 209.79828 210.94339 211.17249 211.40059 211.33769 211.04280 210.67590 210.30600
 209.92310 209.63321 209.44131 209.30541 209.23351 209.56462 209.95072 210.33982
 211.13292 212.31103 213.56113 215.34423 217.27233 219.31544 221.41054 223.49364
 225.55375 227.63785 229.73495 231.84105 233.97016 236.14226 238.39836 240.76846
 243.38957 245.64067 247.64277 249.40787 250.82498 251.94808 252.77018 253.08628
 253.12339 252.89749 252.25759 251.20569 249.81180 247.97290 245.88200 243.71510
 241.50621 239.31031 237.13041 234.96951 232.82962 230.69672 228.72282 226.87993
 225.16303 223.63513 222.26523 221.03734 219.91944 218.87954 217.98364 217.12475
 216.36685 215.54695 214.64505 214.00916 213.45926 214.50443 216.97371 219.57002
 221.79228 223.42358 224.72871 226.14897 227.47812 227.97458 227.02077 225.37798
 224.62042 226.57356 230.98373 235.99518 240.66837 245.11081 249.34010 253.18835
 256.57837 259.72165 262.75043 265.52914 267.87430 269.78885 271.44641 273.01166
 274.48004 275.91766 277.41461 278.78091 279.96970 281.03000 282.00638 282.90369
 283.72476 284.47830 285.14340 286.05804
 366.78100 356.33535 345.76770 334.63405 323.03740 311.23175 299.10210 286.90545
 274.61780 262.51515 250.52451 239.82586 229.94821 221.05256 213.23491 206.23726
 200.07161 195.00996 191.59231 189.63466 188.67201 188.73636 189.57171 190.88006
 192.60541 194.70076 196.96411 199.32346 201.76882 204.24917 206.33752 208.17987
 209.80622 210.95157 211.18092 211.40927 211.34662 211.05197 210.68532 210.31567
 209.93302 209.64337 209.45172 209.31607 209.24442 209.57577 209.96213 210.35148
 211.14483 212.32318 213.57353 215.35688 217.28523 219.32858 221.42393 223.50728
 225.56763 227.65198 229.74933 231.85568 233.98503 236.15738 238.41373 240.78408
 243.40543 245.65679 247.65914 249.42449 250.84184 251.96519 252.78754 253.10389
 253.14124 252.91559 252.27594 251.22429 249.83064 247.99199 245.90134 243.73469
 241.52604 239.33039 237.15074 234.99010 232.85045 230.71780 228.74415 226.90150
 225.18485 223.65720 222.28755 221.05990 219.94225 218.90260 218.00695 217.14830
 216.39065 215.57100 214.66935 214.03370 213.48405 214.52817 216.99500 219.57211
 221.82375 223.48505 224.76207 226.13817 227.42189 227.89862 226.98080 225.40524
 224.67889 226.59497 230.98404 236.01872 240.69963 245.11455 249.32977 253.17586
 256.56198 259.70197 262.72424 265.50125 267.85736 269.78827 271.45157 273.01337
 274.46939 275.86673 277.35394 278.71997 279.90723 280.96854 281.94485 282.84109
 283.66284 284.41214 285.07816 285.97711
 366.78100 356.33544 345.76788 334.63432 323.03776 311.23221 299.10265 286.90609
 274.61853 262.51597 250.52541 239.82685 229.94929 221.05373 213.23617 206.23862
 200.07306 195.01150 191.59394 189.63638 188.67382 188.73826 189.57370 190.88214
 192.60758 194.70303 196.96647 199.32591 201.77135 204.25179 206.34023 208.18267
 209.80911 210.95455 211.18400 211.41244 211.34988 211.05532 210.68876 210.31920
 209.93664 209.64708 209.45552 209.31996 209.24841 209.57985 209.96629 210.35573
 211.14917 212.32761 213.57805 215.36149 217.28993 219.33337 221.42882 223.51226
 225.57270 227.65714 229.75458 231.86102 233.99046 236.16290 238.41934 240.78978
 243.41123 245.66267 247.66511 249.43055 250.84799 251.97143 252.79387 253.11031
 253.14775 252.92220 252.28264 251.23108 249.83752 247.99896 245.90840 243.74184
 241.53328 239.33772 237.15816 234.99761 232.85805 230.72549 228.75193 226.90937
 225.19281 223.66525 222.29569 221.06813 219.95057 218.91102 218.01546 217.15690
 216.39934 215.57978 214.67822 214.04266 213.49310 214.54385 217.02637 219.56587
 221.84563 223.55573 224.79860 226.12924 227.36398 227.80284 226.93005 225.44026
 224.74359 226.62257 230.98907 236.03648 240.73384 245.12444 249.32454 253.15704
 256.54211 259.67789 262.69177 265.46799 267.83835 269.78928 271.46036 273.01346
 274.45547 275.82092 277.29623 278.66016 279.84793 280.90744 281.88324 282.77875
 283.59995 284.34888 285.01181 285.89835
 366.78100 356.33596 345.76893 334.63589 323.03985 311.23482 299.10578 286.90974
 274.62271 262.52067 250.53063 239.83260 229.95556 221.06052 213.24349 206.24645
 200.08141 195.02038 191.60334 189.64630 188.68427 188.74923 189.58519 190.89416
 192.62012 194.71608 196.98005 199.34001 201.78597 204.26694 206.35590 208.19886
 209.82583 210.97179 211.20175 211.43072 211.36868 211.07464 210.70861 210.33957
 209.95753 209.66850 209.47746 209.34242 209.27139 209.60335 209.99031 210.38028
 211.17424 212.35320 213.60417 215.38813 217.31709 219.36106 221.45702 223.54098
 225.60195 227.68691 229.78487 231.89184 234.02180 236.19476 238.45173 240.82269
 243.44465 245.69662 247.69958 249.46554 250.88351 252.00747 252.83043 253.14740
 253.18536 252.96032 252.32129 251.27025 249.87721 248.03918 245.94914 243.78310
 241.57507 239.38003 237.20099 235.04096 232.90192 230.76988 228.79685 226.95481
 225.23877 223.71174 222.34270 221.11566 219.99863 218.95959 218.06455 217.20652
 216.44948 215.63044 214.72941 214.09437 213.54533 214.58160 217.02988 219.58148
 221.85454 223.60674 224.87392 226.13863 227.26477 227.67854 226.89314 225.48859
 224.79944 226.64352 231.00259 236.04195 240.75375 245.15829 249.33276 253.13780
 256.51691 259.64886 262.65561 265.43042 267.81418 269.78745 271.46692 273.00800
 274.43539 275.78366 277.24368 278.60373 279.79117 280.84955 281.82486 282.72049
 283.54041 284.28802 284.94940 285.82605
 366.78100 356.33640 345.76979 334.63719 323.04159 311.23698 299.10838 286.91277
 274.62617 262.52457 250.53496 239.83736 229.96076 221.06615 213.24955 206.25295
 200.08834 195.02774 191.61113 189.65453 188.69293 188.75832 189.59472 190.90412
 192.63051 194.72691 196.99131 199.35170 201.79810 204.27950 206.36889 208.21229
 209.83968 210.98608 211.21648 211.44587 211.38427 211.09067 210.72506 210.35646
 209.97486 209.68625 209.49565 209.36104 209.29044 209.62284 210.01023 210.40063
 211.19503 212.37442 213.62582 215.41022 217.33961 219.38401 221.48040 223.56480
 225.62620 227.71159 229.80999 231.91739 234.04778 236.22118 238.47858 240.84997
 243.47237 245.72476 247.72816 249.49456 250.91295 252.03735 252.86075 253.17814
 253.21654 252.99194 252.35333 251.30273 249.91013 248.07252 245.98292 243.81731
 241.60971 239.41511 237.23650 235.07690 232.93830 230.80669 228.83409 226.99249
 225.27688 223.75028 222.38167 221.15507 220.03847 218.99986 218.10526 217.24766
 216.49105 215.67245 214.77185 214.13724 213.58864 214.61496 217.03973 219.58932
 221.86427 223.66864 224.92378 226.12709 227.17850 227.56648 226.85950 225.53333
 224.84805 226.66895 231.01027 236.03926 240.77798 245.19768 249.34805 253.12306
 256.48965 259.61597 262.61490 265.38782 267.78607 269.78265 271.47107 272.99924
 274.41287 275.75452 277.19287 278.54843 279.73560 280.79428 281.76929 282.66510
 283.48419 284.22900 284.88635 285.75519
 366.78100 356.33673 345.77045 334.63818 323.04290 311.23863 299.11035 286.91508
 274.62881 262.52753 250.53826 239.84098 229.96471 221.07044 213.25416 206.25789
 200.09361 195.03334 191.61706 189.66079 188.69952 188.76524 189.60197 190.91169
 192.63842 194.73515 196.99987 199.36060 201.80732 204.28905 206.37877 208.22250
 209.85023 210.99695 211.22768 211.45740 211.39613 211.10286 210.73758 210.36931
 209.98803 209.69976 209.50948 209.37521 209.30494 209.63766 210.02539 210.41611
 211.21084 212.39057 213.64229 215.42702 217.35674 219.40147 221.49819 223.58292
 225.64465 227.73037 229.82910 231.93682 234.06755 236.24128 238.49900 240.87073
 243.49345 245.74618 247.74990 249.51663 250.93536 252.06008 252.88381 253.20153
 253.24026 253.01598 252.37771 251.32744 249.93516 248.09789 246.00861 243.84334
 241.63607 239.44179 237.26352 235.10424 232.96597 230.83469 228.86242 227.02115
 225.30587 223.77960 222.41132 221.18505 220.06878 219.03050 218.13623 217.27895
 216.52268 215.70440 214.80413 214.16986 213.62158 214.64127 217.05037 219.60231
 221.85735 223.71245 225.00386 226.13954 227.08725 227.43808 226.81641 225.56514
 224.90134 226.70621 231.00533 236.04375 240.81442 245.23531 249.36469 253.10942
 256.46066 259.57990 262.57166 265.34314 267.75601 269.77509 271.47244 272.99066
 274.39310 275.73190 277.14273 278.49304 279.67969 280.73837 281.71265 282.60693
 283.42529 284.17010 284.82574 285.68155
 366.78100 356.33696 345.77093 334.63889 323.04385 311.23981 299.11178 286.91674
 274.63070 262.52966 250.54063 239.84359 229.96755 221.07351 213.25748 206.26144
 200.09740 195.03736 191.62133 189.66529 188.70425 188.77022 189.60718 190.91714
 192.64410 194.74107 197.00603 199.36699 201.81395 204.29592 206.38588 208.22984
 209.85780 211.00477 211.23573 211.46569 211.40465 211.11162 210.74658 210.37854
 209.99751 209.70947 209.51943 209.38539 209.31536 209.64832 210.03628 210.42724
 211.22221 212.40217 213.65413 215.43909 217.36906 219.41402 221.51098 223.59595
 225.65791 227.74387 229.84283 231.95080 234.08176 236.25572 238.51368 240.88565
 243.50861 245.76157 247.76553 249.53250 250.95146 252.07642 252.90038 253.21835
 253.25731 253.03327 252.39524 251.34520 249.95316 248.11612 246.02709 243.86205
 241.65501 239.46097 237.28294 235.12390 232.98586 230.85482 228.88279 227.04175
 225.32671 223.80067 222.43264 221.20660 220.09056 219.05253 218.15849 217.30145
 216.54541 215.72738 214.82734 214.19330 213.64526 214.66151 217.06253 219.61259
 221.86601 223.73070 225.08720 226.15759 226.98633 227.31728 226.77525 225.57620
 224.94991 226.75079 231.00276 236.05235 240.85130 245.27377 249.38290 253.09724
 256.42880 259.53897 262.52280 265.29410 267.72177 269.76462 271.47186 272.97968
 274.36606 275.69998 277.09525 278.44226 279.62927 280.68704 281.66223 282.55405
 283.37262 284.11411 284.77060 285.61642
 366.78100 356.33709 345.77118 334.63928 323.04437 311.24046 299.11255 286.91764
 274.63173 262.53083 250.54192 239.84501 229.96910 221.07519 213.25928 206.26338
 200.09947 195.03956 191.62365 189.66774 188.70683 188.77293 189.61002 190.92011
 192.64720 194.74429 197.00938 199.37048 201.81757 204.29966 206.38975 208.23384
 209.86194 211.00903 211.24012 211.47021 211.40930 211.11639 210.75149 210.38358
 210.00267 209.71476 209.52485 209.39094 209.32104 209.65413 210.04222 210.43331
 211.22840 212.40849 213.66059 215.44568 217.37577 219.42086 221.51795 223.60304
 225.66514 227.75123 229.85032 231.95841 234.08950 236.26360 238.52169 240.89378
 243.51687 245.76996 247.77405 249.54115 250.96024 252.08533 252.90942 253.22751
 253.26660 253.04270 252.40479 251.35488 249.96297 248.12606 246.03715 243.87225
 241.66534 239.47143 237.29352 235.13461 232.99670 230.86580 228.89389 227.05298
 225.33807 223.81216 222.44426 221.21835 220.10244 219.06453 218.17062 217.31371
 216.55781 215.73990 214.83999 214.20608 213.65817 214.67433 217.07509 219.61685
 221.88707 223.74666 225.14745 226.16736 226.89786 227.21996 226.73270 225.56854
 224.98830 226.79616 231.00905 236.06264 240.88217 245.31140 249.40228 253.08633
 256.39880 259.49915 262.47589 265.24457 267.68335 269.74319 271.45596 272.95804
 274.34109 275.67380 277.04626 278.38867 279.57651 280.63419 281.60699 282.50183
 283.31705 284.05954 284.71408 285.55600
 366.78100 356.33730 345.77160 334.63989 323.04519 311.24149 299.11379 286.91908
 274.63338 262.53268 250.54398 239.84727 229.97157 221.07787 213.26217 206.26646
 200.10276 195.04306 191.62736 189.67165 188.71095 188.77725 189.61455 190.92484
 192.65214 194.74944 197.01474 199.37603 201.82333 204.30563 206.39593 208.24022
 209.86852 211.01582 211.24712 211.47741 211.41671 211.12401 210.75931 210.39161
 210.01090 209.72320 209.53350 209.39980 209.33009 209.66339 210.05169 210.44299
 211.23828 212.41858 213.67088 215.45618 217.38647 219.43177 221.52907 223.61437
 225.67666 227.76296 229.86226 231.97056 234.10185 236.27615 238.53445 240.90675
 243.53004 245.78334 247.78764 249.55494 250.97423 252.09953 252.92383 253.24213
 253.28142 253.05772 252.42002 251.37032 249.97862 248.14191 246.05321 243.88851
 241.68181 239.48810 237.31040 235.15170 233.01400 230.88329 228.91159 227.07089
 225.35619 223.83048 222.46278 221.23708 220.12138 219.08367 218.18997 217.33327
 216.57757 215.75986 214.86016 214.22646 213.67876 214.69246 217.08743 219.61606
 221.89813 223.76237 225.17676 226.16837 226.84021 227.15010 226.68959 225.55124
 225.01375 226.83879 231.02361 236.07393 240.91054 245.34459 249.42093 253.07822
 256.36896 259.45792 262.42654 265.19217 267.64172 269.72131 271.43866 272.92621
 274.29358 275.62473 276.99930 278.34064 279.52823 280.58594 281.55969 282.45175
 283.26801 284.00833 284.66110 285.49728
 366.78100 356.33775 345.77249 334.64124 323.04698 311.24373 299.11648 286.92222
 274.63697 262.53672 250.54846 239.85221 229.97695 221.08370 213.26845 206.27319
 200.10994 195.05068 191.63543 189.68018 188.71992 188.78667 189.62442 190.93516
 192.66291 194.76065 197.02640 199.38815 201.83589 204.31864 206.40939 208.25413
 209.88288 211.03062 211.26237 211.49312 211.43286 211.14061 210.77635 210.40910
 210.02885 209.74159 209.55234 209.41909 209.34983 209.68358 210.07232 210.46407
 211.25982 212.44056 213.69331 215.47905 217.40980 219.45555 221.55329 223.63904
 225.70179 227.78853 229.88828 231.99702 234.12877 236.30352 238.56226 240.93501
 243.55876 245.81250 247.81725 249.58499 251.00474 252.13049 252.95523 253.27398
 253.31372 253.09047 252.45322 251.40396 250.01271 248.17646 246.08820 243.92395
 241.71769 239.52444 237.34719 235.18893 233.05168 230.92142 228.95017 227.10992
 225.39566 223.87041 222.50316 221.27790 220.16265 219.12539 218.23214 217.37589
 216.62063 215.80338 214.90413 214.27087 213.72362 214.72635 217.09543 219.62219
 221.91583 223.77219 225.16464 226.13490 226.78813 227.11096 226.67255 225.53154
 225.01851 226.87764 231.04625 236.08470 240.93022 245.37389 249.43985 253.07356
 256.34854 259.42459 262.37943 265.13046 267.56995 269.63931 271.35239 272.85083
 274.23248 275.58517 276.94775 278.28622 279.47287 280.53070 281.50214 282.39420
 283.20999 283.95297 284.59903 285.44028
 366.78100 356.33825 345.77349 334.64274 323.04899 311.24624 299.11948 286.92573
 274.64098 262.54123 250.55347 239.85772 229.98297 221.09021 213.27546 206.28071
 200.11796 195.05920 191.64445 189.68970 188.72995 188.79719 189.63544 190.94669
 192.67493 194.77318 197.03943 199.40168 201.84992 204.33317 206.42442 208.26967
 209.89891 211.04716 211.27941 211.51065 211.45090 211.15915 210.79540 210.42864
 210.04889 209.76214 209.57339 209.44063 209.37188 209.70613 210.09537 210.48762
 211.28387 212.46512 213.71836 215.50461 217.43586 219.48211 221.58035 223.66660
 225.72985 227.81709 229.91734 232.02659 234.15884 236.33408 238.59333 240.96658
 243.59083 245.84507 247.85032 249.61857 251.03881 252.16506 252.99031 253.30956
 253.34980 253.12705 252.49030 251.44155 250.05079 248.21504 246.12729 243.96353
 241.75778 239.56503 237.38828 235.23052 233.09377 230.96402 228.99327 227.15351
 225.43976 223.91501 222.54825 221.32350 220.20875 219.17200 218.27924 217.42349
 216.66874 215.85199 214.95323 214.32048 213.77373 214.76027 217.09108 219.60956
 221.96370 223.79836 225.11183 226.06102 226.73210 227.07655 226.66612 225.54242
 225.02904 226.88547 231.06613 236.10078 240.94414 245.39220 249.46231 253.10049
 256.37308 259.43997 262.37991 265.11441 267.54260 269.59610 271.24600 272.66397
 274.08176 275.44809 276.87772 278.23465 279.42410 280.48114 281.45511 282.34738
 283.16281 283.90106 284.55356 285.39069
 366.78100 356.33838 345.77376 334.64313 323.04951 311.24689 299.12027 286.92665
 274.64202 262.54240 250.55478 239.85916 229.98453 221.09191 213.27729 206.28267
 200.12005 195.06142 191.64680 189.69218 188.73256 188.79994 189.63831 190.94969
 192.67807 194.77645 197.04283 199.40520 201.85358 204.33696 206.42834 208.27371
 209.90309 211.05147 211.28385 211.51523 211.45560 211.16398 210.80036 210.43374
 210.05412 209.76749 209.57887 209.44625 209.37763 209.71201 210.10138 210.49376
 211.29014 212.47152 213.72489 215.51127 217.44265 219.48903 221.58741 223.67378
 225.73716 227.82454 229.92492 232.03430 234.16667 236.34205 238.60143 240.97481
 243.59918 245.85356 247.85894 249.62732 251.04770 252.17407 252.99945 253.31883
 253.35921 253.13659 252.49996 251.45134 250.06072 248.22510 246.13748 243.97385
 241.76823 239.57561 237.39899 235.24136 233.10474 230.97512 229.00450 227.16488
 225.45125 223.92663 222.56001 221.33539 220.22077 219.18414 218.29152 217.43590
 216.68128 215.86466 214.96603 214.33341 213.78679 214.77556 217.11287 219.57927
 221.91292 223.71742 225.02426 226.01657 226.73120 227.07530 226.64598 225.62277
 225.03372 226.86490 231.02815 236.07477 240.92902 245.42816 249.50374 253.12050
 256.38110 259.43948 262.37326 265.10754 267.54239 269.60663 271.28973 272.69708
 274.03671 275.42328 276.76917 278.02094 279.17154 280.21851 281.18192 282.06238
 282.86948 283.60605 284.24948 285.06949
 366.78100 356.33818 345.77335 334.64253 323.04870 311.24588 299.11906 286.92523
 274.64041 262.54058 250.55276 239.85693 229.98211 221.08929 213.27446 206.27964
 200.11681 195.05799 191.64317 189.68834 188.72852 188.79569 189.63387 190.94504
 192.67322 194.77140 197.03757 199.39975 201.84792 204.33110 206.42228 208.26745
 209.89663 211.04480 211.27698 211.50816 211.44833 211.15651 210.79268 210.42586
 210.04603 209.75921 209.57039 209.43756 209.36874 209.70291 210.09209 210.48427
 211.28044 212.46162 213.71479 215.50097 217.43214 219.47832 221.57650 223.66267
 225.72585 227.81302 229.91320 232.02238 234.15455 236.32973 238.58890 240.96208
 243.58626 245.84043 247.84561 249.61378 251.03396 252.16013 252.98531 253.30449
 253.34466 253.12184 252.48501 251.43619 250.04537 248.20954 246.12172 243.95789
 241.75207 239.55924 237.38242 235.22460 233.08777 230.95795 228.98712 227.14730
 225.43348 223.90865 222.54183 221.31700 220.20218 219.16536 218.27253 217.41671
 216.66188 215.84506 214.94623 214.31341 213.76659 214.77197 217.16164 219.58887
 221.81406 223.60756 224.99025 226.02737 226.75591 227.06346 226.62383 225.64729
 225.02026 226.88274 231.03117 236.07478 240.82275 245.38611 249.46062 253.05846
 256.31662 259.36563 262.32214 265.07364 267.53900 269.66339 271.42218 272.85059
 274.18973 275.50119 276.72913 277.87921 279.02075 280.07330 281.05518 281.98871
 282.86111 283.63797 284.31665 285.18152
 366.78100 356.33820 345.77341 334.64261 323.04882 311.24602 299.11923 286.92543
 274.64064 262.54084 250.55305 239.85725 229.98246 221.08966 213.27487 206.28007
 200.11728 195.05848 191.64368 189.68889 188.72909 188.79630 189.63450 190.94571
 192.67391 194.77212 197.03832 199.40053 201.84873 204.33194 206.42314 208.26835
 209.89755 211.04576 211.27796 211.50916 211.44937 211.15757 210.79378 210.42698
 210.04719 209.76039 209.57160 209.43880 209.37001 209.70421 210.09342 210.48562
 211.28183 212.46303 213.71624 215.50244 217.43364 219.47985 221.57805 223.66426
 225.72746 227.81467 229.91487 232.02408 234.15628 236.33149 238.59069 240.96390
 243.58810 245.84231 247.84751 249.61572 251.03592 252.16212 252.98733 253.30653
 253.34674 253.12394 252.48715 251.43835 250.04756 248.21176 246.12397 243.96017
 241.75438 239.56158 237.38479 235.22699 233.09019 230.96040 228.98960 227.14981
 225.43601 223.91122 222.54442 221.31963 220.20483 219.16804 218.27524 217.41945
 216.66465 215.84786 214.94906 214.31627 213.76947 214.77806 217.16757 219.58768
 221.86263 223.65051 224.95770 225.99667 226.72791 226.99741 226.59746 225.54855
 225.16220 227.02074 231.09410 236.05896 240.84566 245.33899 249.44724 253.04449
 256.30499 259.35684 262.29001 265.01447 267.46234 269.60657 271.41064 272.93192
 274.29416 275.57379 276.76761 277.91922 279.05411 280.11142 281.10437 282.03848
 282.93268 283.73904 284.44345 285.34116
 366.78100 356.33858 345.77417 334.64375 323.05033 311.24792 299.12150 286.92808
 274.64367 262.54425 250.55683 239.86142 229.98700 221.09458 213.28017 206.28575
 200.12333 195.06492 191.65050 189.69609 188.73667 188.80425 189.64284 190.95442
 192.68300 194.78159 197.04817 199.41075 201.85934 204.34292 206.43450 208.28009
 209.90967 211.05825 211.29084 211.52242 211.46300 211.17159 210.80817 210.44175
 210.06234 209.77592 209.58750 209.45509 209.38667 209.72125 210.11084 210.50342
 211.30000 212.48159 213.73517 215.52175 217.45334 219.49992 221.59850 223.68509
 225.74867 227.83626 229.93684 232.04642 234.17901 236.35459 238.61417 240.98776
 243.61234 245.86692 247.87251 249.64109 251.06167 252.18826 253.01384 253.33342
 253.37401 253.15159 252.51517 251.46676 250.07634 248.24092 246.15351 243.99009
 241.78467 239.59226 237.41584 235.25842 233.12201 230.99259 229.02217 227.18276
 225.46934 223.94492 222.57851 221.35409 220.23968 219.20326 218.31084 217.45543
 216.70101 215.88459 214.98618 214.35376 213.80734 214.80263 217.15410 219.59386
 221.91899 223.70488 224.90770 225.93143 226.68880 226.94241 226.54218 225.52278
 225.28473 227.16739 231.15710 236.04897 240.81372 245.23027 249.41412 253.06804
 256.37473 259.39374 262.30002 264.97595 267.37592 269.47867 271.26709 272.81018
 274.21588 275.52634 276.74014 277.90472 279.07571 280.13440 281.11453 282.02298
 282.85388 283.63669 284.32056 285.19208
 366.78100 356.33867 345.77435 334.64402 323.05070 311.24837 299.12204 286.92872
 274.64439 262.54506 250.55774 239.86241 229.98809 221.09576 213.28143 206.28711
 200.12478 195.06645 191.65213 189.69780 188.73848 188.80615 189.64482 190.95650
 192.68517 194.78384 197.05052 199.41319 201.86187 204.34554 206.43721 208.28289
 209.91256 211.06123 211.29391 211.52558 211.46626 211.17493 210.81160 210.44528
 210.06595 209.77962 209.59130 209.45897 209.39065 209.72532 210.11499 210.50767
 211.30434 212.48601 213.73969 215.52636 217.45804 219.50471 221.60338 223.69006
 225.75373 227.84140 229.94208 232.05175 234.18443 236.36010 238.61977 240.99345
 243.61812 245.87279 247.87847 249.64714 251.06782 252.19449 253.02016 253.33984
 253.38051 253.15818 252.52186 251.47353 250.08321 248.24788 246.16055 243.99723
 241.79190 239.59957 237.42325 235.26592 233.12960 231.00027 229.02994 227.19062
 225.47729 223.95296 222.58664 221.36231 220.24799 219.21166 218.31933 217.46401
 216.70968 215.89335 214.99503 214.36270 213.81638 214.81125 217.16174 219.58054
 221.94824 223.71249 224.83745 225.88216 226.66769 226.90987 226.44951 225.49374
 225.40427 227.28377 231.19911 236.03038 240.79738 245.14461 249.37604 253.12041
 256.43411 259.42200 262.32330 264.96533 267.33279 269.41003 271.15271 272.67026
 274.09140 275.42639 276.67459 277.89206 279.07816 280.13950 281.12900 282.04333
 282.87747 283.66531 284.35355 285.23065
 366.78100 356.33850 345.77401 334.64351 323.05001 311.24751 299.12102 286.92752
 274.64302 262.54352 250.55603 239.86053 229.98603 221.09354 213.27904 206.28454
 200.12204 195.06355 191.64905 189.69455 188.73505 188.80256 189.64106 190.95256
 192.68106 194.77957 197.04607 199.40857 201.85708 204.34058 206.43208 208.27758
 209.90709 211.05559 211.28809 211.51959 211.46010 211.16860 210.80510 210.43861
 210.05911 209.77261 209.58411 209.45162 209.38312 209.71762 210.10712 210.49963
 211.29613 212.47763 213.73114 215.51764 217.44914 219.49564 221.59415 223.68065
 225.74415 227.83165 229.93216 232.04166 234.17416 236.34967 238.60917 240.98267
 243.60717 245.86168 247.86718 249.63568 251.05618 252.18269 253.00819 253.32769
 253.36819 253.14570 252.50920 251.46070 250.07021 248.23471 246.14721 243.98371
 241.77822 239.58572 237.40922 235.25172 233.11523 230.98573 229.01523 227.17574
 225.46224 223.93774 222.57124 221.34675 220.23225 219.19575 218.30325 217.44776
 216.69326 215.87676 214.97827 214.34577 213.79927 214.80969 217.20506 219.56139
 221.90025 223.63165 224.74443 225.84448 226.69360 226.85983 226.34453 225.60023
 225.43832 227.30887 231.19801 235.99329 240.76729 245.13153 249.37660 253.12451
 256.39349 259.43686 262.35272 264.97421 267.31967 269.38232 271.09299 272.56537
 273.96082 275.32306 276.59628 277.88733 279.07904 280.14908 281.14688 282.06769
 282.94040 283.71759 284.39651 285.26172
 366.78100 356.33927 345.77555 334.64582 323.05309 311.25137 299.12564 286.93291
 274.64918 262.55046 250.56373 239.86900 229.99528 221.10355 213.28982 206.29610
 200.13437 195.07664 191.66292 189.70919 188.75046 188.81874 189.65801 190.97028
 192.69955 194.79883 197.06610 199.42937 201.87865 204.36292 206.45519 208.30147
 209.93174 211.08101 211.31429 211.54656 211.48783 211.19711 210.83438 210.46865
 210.08992 209.80420 209.61647 209.48474 209.41702 209.75229 210.14256 210.53584
 211.33311 212.51538 213.76966 215.55693 217.48920 219.53648 221.63575 223.72302
 225.78729 227.87557 229.97684 232.08711 234.22039 236.39666 238.65693 241.03121
 243.65648 245.91175 247.91803 249.68730 251.10857 252.23585 253.06212 253.38239
 253.42366 253.20194 252.56621 251.51848 250.12876 248.29403 246.20730 244.04458
 241.83985 239.64812 237.47240 235.31567 233.17994 231.05122 229.08149 227.24276
 225.53003 224.00631 222.64058 221.41685 220.30313 219.26740 218.37567 217.52095
 216.76722 215.95149 215.05377 214.42204 213.87631 214.85472 217.19382 219.63466
 221.74605 223.43539 224.74768 225.87318 226.64598 226.74712 226.19876 225.80559
 225.61192 227.08650 231.20828 235.98083 240.76244 245.20297 249.34398 253.04620
 256.31741 259.43503 262.38776 265.00244 267.34369 269.39969 271.08456 272.53876
 273.90387 275.22562 276.53311 277.79276 278.97986 280.05875 281.09363 282.08218
 282.97128 283.76303 284.45468 285.33609
 366.78100 356.34016 345.77731 334.64847 323.05663 311.25579 299.13094 286.93910
 274.65626 262.55841 250.57257 239.87873 230.00588 221.11504 213.30220 206.30936
 200.14851 195.09167 191.67883 189.72598 188.76814 188.83730 189.67746 190.99061
 192.72077 194.82093 197.08908 199.45324 201.90340 204.38855 206.48171 208.32887
 209.96003 211.11018 211.34434 211.57750 211.51965 211.22981 210.86797 210.50313
 210.12528 209.84044 209.65360 209.52275 209.45591 209.79207 210.18322 210.57738
 211.37554 212.55870 213.81385 215.60201 217.53517 219.58332 221.68348 223.77164
 225.83680 227.92595 230.02811 232.13927 234.27342 236.45058 238.71174 241.08690
 243.71305 245.96921 247.97637 249.74652 251.16868 252.29684 253.12399 253.44515
 253.48731 253.26647 252.63162 251.58478 250.19594 248.36209 246.27625 244.11441
 241.91057 239.71972 237.54488 235.38904 233.25419 231.12635 229.15751 227.31966
 225.60782 224.08498 222.72014 221.49729 220.38445 219.34961 218.45876 217.60492
 216.85208 216.03724 215.14039 214.50955 213.96471 214.90698 217.17667 219.68130
 221.68303 223.37437 224.81674 225.87300 226.51459 226.65132 226.13321 225.88097
 225.75981 227.12389 231.27934 235.99927 240.76785 245.23717 249.35638 253.06050
 256.37387 259.51035 262.38251 264.96143 267.27307 269.34055 271.05347 272.51837
 273.88843 275.17899 276.50571 277.87177 279.09720 280.25720 281.42200 282.48132
 283.43405 284.28247 285.02362 285.96814
 366.78100 356.34004 345.77707 334.64811 323.05615 311.25519 299.13022 286.93826
 274.65530 262.55733 250.57137 239.87741 230.00445 221.11348 213.30052 206.30756
 200.14659 195.08963 191.67667 189.72371 188.76574 188.83478 189.67482 190.98785
 192.71789 194.81793 197.08597 199.45000 201.90004 204.38508 206.47811 208.32515
 209.95619 211.10623 211.34026 211.57330 211.51534 211.22537 210.86341 210.49845
 210.12049 209.83552 209.64856 209.51760 209.45063 209.78667 210.17771 210.57175
 211.36978 212.55282 213.80786 215.59589 217.52893 219.57697 221.67701 223.76504
 225.83008 227.91912 230.02115 232.13219 234.26623 236.44326 238.70430 241.07934
 243.70538 245.96141 247.96845 249.73849 251.16052 252.28856 253.11560 253.43664
 253.47867 253.25771 252.62275 251.57578 250.18682 248.35286 246.26690 244.10493
 241.90097 239.71001 237.53504 235.37908 233.24412 231.11616 229.14719 227.30923
 225.59727 224.07430 222.70934 221.48638 220.37342 219.33845 218.44749 217.59353
 216.84056 216.02560 215.12864 214.49768 213.95271 214.90857 217.21231 219.66263
 221.66879 223.40138 224.86362 225.80110 226.33292 226.53915 226.07301 225.88893
 225.81689 227.29117 231.35890 236.02339 240.76649 245.26740 249.40553 253.12654
 256.45261 259.51181 262.40982 264.87305 267.21600 269.26669 270.99060 272.45596
 273.82022 275.07516 276.55383 277.92499 279.16342 280.32831 281.43307 282.43390
 283.33405 284.13565 284.83588 285.72827
 366.78100 356.33985 345.77670 334.64756 323.05541 311.25426 299.12911 286.93697
 274.65382 262.55567 250.56952 239.87538 230.00223 221.11108 213.29793 206.30479
 200.14364 195.08649 191.67334 189.72020 188.76205 188.83090 189.67075 190.98361
 192.71346 194.81331 197.08116 199.44502 201.89487 204.37972 206.47257 208.31943
 209.95028 211.10013 211.33398 211.56684 211.50869 211.21854 210.85639 210.49125
 210.11310 209.82795 209.64080 209.50966 209.44251 209.77836 210.16921 210.56307
 211.36092 212.54377 213.79862 215.58648 217.51933 219.56718 221.66703 223.75489
 225.81974 227.90859 230.01044 232.12130 234.25515 236.43200 238.69285 241.06771
 243.69356 245.94941 247.95626 249.72612 251.14797 252.27582 253.10267 253.42353
 253.46538 253.24423 252.60908 251.56194 250.17279 248.33864 246.25249 244.09035
 241.88620 239.69505 237.51990 235.36376 233.22861 231.10046 229.13131 227.29317
 225.58102 224.05787 222.69272 221.46958 220.35643 219.32128 218.43013 217.57599
 216.82284 216.00769 215.11054 214.47940 213.93425 214.90465 217.23782 219.64746
 221.65878 223.38316 224.82803 225.75333 226.20255 226.33775 226.00816 225.80103
 225.81148 227.52036 231.43004 236.04688 240.77448 245.29544 249.44664 253.18858
 256.54709 259.63608 262.46335 264.80698 267.12714 269.20587 270.92224 272.38965
 273.75531 275.07712 276.58652 277.96890 279.21225 280.37524 281.48343 282.48734
 283.39026 284.19431 284.89673 285.79187
 366.78100 356.34031 345.77761 334.64892 323.05722 311.25653 299.13183 286.94014
 274.65745 262.55975 250.57406 239.88036 230.00767 221.11697 213.30428 206.31159
 200.15089 195.09420 191.68150 189.72881 188.77111 188.84042 189.68073 190.99403
 192.72434 194.82464 197.09295 199.45725 201.90756 204.39286 206.48617 208.33348
 209.96478 211.11509 211.34939 211.58270 211.52500 211.23531 210.87362 210.50892
 210.13123 209.84653 209.65984 209.52914 209.46245 209.79876 210.19006 210.58437
 211.38267 212.56598 213.82128 215.60959 217.54290 219.59120 221.69151 223.77981
 225.84512 227.93442 230.03673 232.14804 234.28234 236.45965 238.72095 241.09626
 243.72256 245.97887 247.98618 249.75648 251.17879 252.30709 253.13440 253.45570
 253.49801 253.27731 252.64262 251.59593 250.20723 248.37354 246.28784 244.12615
 241.92245 239.73176 237.55707 235.40137 233.26668 231.13898 229.17029 227.33259
 225.62090 224.09821 222.73351 221.51082 220.39812 219.36343 218.47273 217.61904
 216.86635 216.05165 215.15496 214.52426 213.97957 214.93297 217.22937 219.65569
 221.64919 223.37912 224.77850 225.69090 226.11533 226.14284 225.81944 225.75566
 225.87453 227.72252 231.53474 236.08388 240.79907 245.33255 249.49500 253.25275
 256.64676 259.75031 262.55600 264.90823 267.07471 269.09769 270.78299 272.22443
 273.60776 275.06592 276.61288 278.00748 279.25659 280.41971 281.51724 282.51151
 283.40576 284.20209 284.89774 285.78427
 366.78100 356.34133 345.77967 334.65200 323.06134 311.26167 299.13801 286.94734
 274.66568 262.56901 250.58435 239.89168 230.02002 221.13035 213.31868 206.32702
 200.16735 195.11169 191.70002 189.74836 188.79169 188.86203 189.70336 191.01770
 192.74903 194.85036 197.11970 199.48503 201.93637 204.42270 206.51704 208.36537
 209.99771 211.14904 211.38438 211.61871 211.56205 211.27338 210.91271 210.54905
 210.17238 209.88872 209.70305 209.57339 209.50772 209.84506 210.23739 210.63273
 211.43206 212.61639 213.87273 215.66206 217.59640 219.64573 221.74707 223.83640
 225.90274 227.99307 230.09641 232.20874 234.34408 236.52241 238.78474 241.16108
 243.78841 246.04575 248.05408 249.82542 251.24875 252.37809 253.20642 253.52876
 253.57209 253.35242 252.71876 251.67309 250.28543 248.45276 246.36810 244.20743
 242.00477 239.81510 237.64144 235.48677 233.35311 231.22644 229.25877 227.42211
 225.71144 224.18978 222.82611 221.60445 220.49278 219.45912 218.56945 217.71679
 216.96512 216.15145 215.25579 214.62612 214.08246 214.99063 217.19609 219.69881
 221.59462 223.43861 224.81270 225.50974 225.98790 226.04425 225.57167 225.70601
 226.00302 227.88043 231.65424 236.15453 240.84891 245.38443 249.55782 253.32973
 256.73819 259.83517 262.62503 264.99530 267.11243 269.09058 270.74661 272.15125
 273.50998 275.05615 276.61877 278.02448 279.28830 280.47992 281.58664 282.58926
 283.49103 284.29404 284.99551 285.88950
 366.78100 356.34180 345.78061 334.65341 323.06322 311.26402 299.14083 286.95063
 274.66944 262.57324 250.58905 239.89685 230.02566 221.13646 213.32527 206.33407
 200.17488 195.11968 191.70848 189.75729 188.80109 188.87190 189.71370 191.02851
 192.76031 194.86212 197.13192 199.49773 201.94953 204.43634 206.53114 208.37995
 210.01275 211.16456 211.40036 211.63516 211.57897 211.29077 210.93058 210.56738
 210.19119 209.90799 209.72280 209.59360 209.52841 209.86621 210.25902 210.65482
 211.45463 212.63943 213.89624 215.68604 217.62084 219.67065 221.77245 223.86226
 225.92906 228.01987 230.12367 232.23648 234.37228 236.55109 238.81389 241.19070
 243.81850 246.07631 248.08511 249.85692 251.28072 252.41052 253.23933 253.56213
 253.60594 253.38674 252.75355 251.70835 250.32116 248.48896 246.40477 244.24457
 242.04238 239.85318 237.67999 235.52579 233.39260 231.26640 229.29920 227.46301
 225.75281 224.23162 222.86842 221.64723 220.53603 219.50284 218.61364 217.76145
 217.01025 216.19706 215.30186 214.67267 214.12947 215.01802 217.17799 219.73445
 221.54504 223.40805 224.81142 225.35130 225.83966 225.90244 225.38499 225.54245
 226.03387 228.00433 231.76486 236.24423 240.92615 245.46356 249.64290 253.42503
 256.83310 259.90689 262.64429 264.99304 267.11108 269.12451 270.81329 272.20718
 273.55182 275.02798 276.58688 277.98691 279.24020 280.41022 281.50668 282.50000
 283.39337 284.18893 284.88391 285.76956
 366.78100 356.34168 345.78037 334.65305 323.06274 311.26342 299.14010 286.94979
 274.66847 262.57216 250.58784 239.89553 230.02421 221.13489 213.32358 206.33226
 200.17295 195.11763 191.70631 189.75500 188.79868 188.86937 189.71105 191.02574
 192.75742 194.85910 197.12879 199.49447 201.94616 204.43284 206.52752 208.37621
 210.00889 211.16058 211.39626 211.63095 211.57463 211.28631 210.92600 210.56268
 210.18637 209.90305 209.71773 209.58842 209.52310 209.86079 210.25347 210.64916
 211.44884 212.63352 213.89021 215.67989 217.61458 219.66426 221.76594 223.85563
 225.92231 228.01300 230.11668 232.22937 234.36505 236.54373 238.80642 241.18310
 243.81079 246.06847 248.07715 249.84884 251.27252 252.40221 253.23089 253.55358
 253.59726 253.37794 252.74463 251.69931 250.31200 248.47968 246.39536 244.23505
 242.03273 239.84342 237.67010 235.51579 233.38247 231.25615 229.28884 227.45252
 225.74221 224.22089 222.85757 221.63626 220.52494 219.49163 218.60231 217.75000
 216.99868 216.18536 215.29005 214.66073 214.11742 215.01517 217.17838 219.74051
 221.57774 223.19524 224.73148 225.30093 225.72000 225.60277 225.25632 225.31561
 225.96140 228.08698 231.90114 236.35115 241.02431 245.56351 249.73941 253.52837
 256.93805 259.99265 262.68173 264.97314 267.05530 269.07635 270.81351 272.25510
 273.60632 275.01431 276.52039 277.90375 279.12616 280.23871 281.30438 282.28436
 283.16577 283.95068 284.63635 285.51013
 366.78100 356.34189 345.78079 334.65368 323.06357 311.26446 299.14136 286.95125
 274.67014 262.57403 250.58993 239.89782 230.02671 221.13761 213.32650 206.33539
 200.17628 195.12118 191.71007 189.75896 188.80286 188.87375 189.71564 191.03053
 192.76243 194.86432 197.13421 199.50010 201.95200 204.43889 206.53378 208.38268
 210.01557 211.16746 211.40335 211.63825 211.58214 211.29403 210.93392 210.57082
 210.19471 209.91160 209.72650 209.59739 209.53228 209.87017 210.26307 210.65896
 211.45885 212.64374 213.90064 215.69053 217.62542 219.67532 221.77721 223.86710
 225.93399 228.02489 230.12878 232.24167 234.37757 236.55646 238.81935 241.19624
 243.82414 246.08203 248.09092 249.86281 251.28671 252.41660 253.24549 253.56839
 253.61228 253.39317 252.76006 251.71496 250.32785 248.49574 246.41163 244.25153
 242.04942 239.86031 237.68721 235.53310 233.39999 231.27388 229.30678 227.47067
 225.76056 224.23945 222.87635 221.65524 220.54413 219.51103 218.62192 217.76981
 217.01870 216.20560 215.31049 214.68138 214.13828 215.03070 217.16650 219.72862
 221.69055 223.17958 224.63687 225.21802 225.58604 225.32346 225.06183 225.20360
 225.99892 228.16556 232.05061 236.48895 241.15039 245.67764 249.83652 253.62730
 257.03897 260.07962 262.74329 265.01364 267.05750 269.01227 270.74081 272.21771
 273.62405 274.99094 276.44720 277.82193 279.02527 280.12686 281.16266 282.13614
 283.01166 283.79135 284.47244 285.34045
 366.78100 356.34195 345.78091 334.65386 323.06382 311.26477 299.14173 286.95168
 274.67064 262.57459 250.59054 239.89850 230.02745 221.13841 213.32736 206.33632
 200.17727 195.12222 191.71118 189.76013 188.80409 188.87504 189.71700 191.03195
 192.76391 194.86586 197.13581 199.50177 201.95372 204.44068 206.53563 208.38459
 210.01754 211.16950 211.40545 211.64040 211.58436 211.29631 210.93627 210.57322
 210.19718 209.91413 209.72908 209.60004 209.53499 209.87295 210.26590 210.66186
 211.46181 212.64677 213.90372 215.69367 217.62863 219.67858 221.78054 223.87049
 225.93745 228.02840 230.13236 232.24531 234.38126 236.56022 238.82317 241.20013
 243.82808 246.08604 248.09499 249.86694 251.29090 252.42085 253.24981 253.57276
 253.61672 253.39767 252.76463 251.71958 250.33253 248.50049 246.41644 244.25640
 242.05435 239.86531 237.69226 235.53821 233.40517 231.27912 229.31208 227.47603
 225.76599 224.24494 222.88190 221.66085 220.54980 219.51676 218.62771 217.77567
 217.02462 216.21158 215.31653 214.68749 214.14444 215.03912 217.17046 219.70363
 221.73920 223.25974 224.52335 225.07874 225.43153 225.08650 224.85091 225.06494
 226.06937 228.28613 232.20506 236.64769 241.30431 245.80997 249.93503 253.72412
 257.13431 260.15421 262.79980 265.06912 267.09827 268.99951 270.67203 272.14261
 273.57449 274.98016 276.41824 277.79327 279.00735 280.10004 281.11005 282.05112
 282.91418 283.68271 284.35413 285.20972
 366.78100 356.34161 345.78022 334.65282 323.06243 311.26304 299.13965 286.94926
 274.66786 262.57147 250.58708 239.89469 230.02329 221.13390 213.32251 206.33112
 200.17173 195.11633 191.70494 189.75355 188.79716 188.86777 189.70937 191.02398
 192.75559 194.85720 197.12680 199.49241 201.94402 204.43063 206.52524 208.37384
 210.00645 211.15806 211.39367 211.62828 211.57188 211.28349 210.92310 210.55971
 210.18331 209.89992 209.71453 209.58514 209.51975 209.85735 210.24996 210.64557
 211.44518 212.62979 213.88639 215.67600 217.61061 219.66022 221.76182 223.85143
 225.91804 228.00865 230.11226 232.22486 234.36047 236.53908 238.80169 241.17830
 243.80590 246.06351 248.07212 249.84373 251.26734 252.39694 253.22555 253.54816
 253.59177 253.37237 252.73898 251.69359 250.30620 248.47381 246.38941 244.22902
 242.02663 239.83724 237.66385 235.50945 233.37606 231.24967 229.28228 227.44588
 225.73549 224.21410 222.85071 221.62932 220.51792 219.48453 218.59514 217.74275
 216.99136 216.17796 215.28257 214.65318 214.10979 215.02696 217.20621 219.66013
 221.77017 223.30254 224.37505 224.99667 225.28653 224.80109 224.66254 224.86302
 226.07823 228.42947 232.35208 236.82428 241.47101 245.95047 250.04428 253.82365
 257.22412 260.21826 262.85141 265.13129 267.15878 269.03055 270.65375 272.09982
 273.52374 274.93289 276.35962 277.73352 278.94666 280.03647 281.03845 281.95844
 282.81259 283.57321 284.23770 285.08450
 366.78100 356.34199 345.78099 334.65398 323.06398 311.26497 299.14196 286.95196
 274.67095 262.57495 250.59094 239.89893 230.02793 221.13892 213.32791 206.33691
 200.17790 195.12290 191.71189 189.76088 188.80488 188.87587 189.71787 191.03286
 192.76485 194.86685 197.13684 199.50284 201.95483 204.44182 206.53682 208.38581
 210.01881 211.17080 211.40679 211.64179 211.58578 211.29777 210.93777 210.57476
 210.19876 209.91575 209.73074 209.60174 209.53673 209.87473 210.26772 210.66371
 211.46371 212.64870 213.90570 215.69569 217.63068 219.68068 221.78267 223.87267
 225.93966 228.03065 230.13465 232.24764 234.38364 236.56263 238.82562 241.20262
 243.83061 246.08860 248.09760 249.86959 251.29359 252.42358 253.25257 253.57557
 253.61956 253.40056 252.76755 251.72254 250.33554 248.50353 246.41953 244.25952
 242.05751 239.86851 237.69550 235.54150 233.40849 231.28248 229.31548 227.47947
 225.76946 224.24846 222.88545 221.66445 220.55344 219.52043 218.63143 217.77942
 217.02842 216.21541 215.32040 214.69140 214.14839 215.05255 217.20958 219.66695
 221.74854 223.19383 224.25902 225.00739 225.11182 224.49730 224.43121 224.61215
 226.04099 228.54819 232.50752 237.03438 241.65105 246.08795 250.16335 253.92166
 257.30481 260.27533 262.89371 265.19031 267.23819 269.09079 270.66440 272.09094
 273.51425 274.88235 276.31329 277.68793 278.90198 279.99796 281.01694 281.96906
 282.82840 283.59366 284.26218 285.11411
 366.78100 356.34245 345.78190 334.65535 323.06580 311.26725 299.14470 286.95515
 274.67460 262.57905 250.59550 239.90394 230.03339 221.14484 213.33429 206.34374
 200.18519 195.13064 191.72009 189.76954 188.81399 188.88544 189.72789 191.04334
 192.77579 194.87824 197.14869 199.51514 201.96759 204.45504 206.55049 208.39994
 210.03339 211.18583 211.42228 211.65773 211.60218 211.31463 210.95508 210.59253
 210.21698 209.93443 209.74988 209.62133 209.55678 209.89523 210.28868 210.68513
 211.48558 212.67103 213.92848 215.71893 217.65438 219.70483 221.80728 223.89772
 225.96517 228.05662 230.16107 232.27452 234.41097 236.59042 238.85387 241.23132
 243.85977 246.11822 248.12767 249.90012 251.32457 252.45502 253.28447 253.60792
 253.65237 253.43382 252.80127 251.75672 250.37017 248.53861 246.45506 244.29551
 242.09396 239.90541 237.73286 235.57931 233.44676 231.32121 229.35466 227.51911
 225.80956 224.28901 222.92646 221.70591 220.59536 219.56281 218.67426 217.82271
 217.07216 216.25961 215.36506 214.73650 214.19395 215.08049 217.20638 219.68950
 221.69087 223.07880 224.20105 224.95169 224.94125 224.21965 224.14090 224.37703
 226.00627 228.68999 232.71696 237.25888 241.84976 246.24501 250.29338 254.02878
 257.39209 260.33383 262.92459 265.23315 267.32196 269.17490 270.71191 272.11649
 273.51245 274.85266 276.30148 277.67673 278.89603 280.00226 281.04831 282.01645
 282.88715 283.66254 284.33987 285.20309
 366.78100 356.34175 345.78050 334.65325 323.06300 311.26375 299.14049 286.95024
 274.66899 262.57274 250.58849 239.89624 230.02499 221.13574 213.32449 206.33324
 200.17398 195.11873 191.70748 189.75623 188.79998 188.87073 189.71248 191.02723
 192.75898 194.86073 197.13047 199.49622 201.94797 204.43472 206.52947 208.37822
 210.01097 211.16272 211.39847 211.63322 211.57696 211.28871 210.92846 210.56521
 210.18896 209.90571 209.72046 209.59121 209.52596 209.86371 210.25645 210.65220
 211.45195 212.63670 213.89345 215.68320 217.61795 219.66770 221.76945 223.85920
 225.92594 228.01669 230.12044 232.23319 234.36894 236.54769 238.81044 241.18719
 243.81494 246.07269 248.08143 249.85318 251.27693 252.40668 253.23543 253.55818
 253.60193 253.38268 252.74943 251.70418 250.31693 248.48467 246.40042 244.24017
 242.03792 239.84867 237.67542 235.52117 233.38792 231.26167 229.29442 227.45816
 225.74791 224.22666 222.86341 221.64216 220.53091 219.49766 218.60841 217.75616
 217.00491 216.19165 215.29640 214.66715 214.12390 215.05008 217.26503 219.63783
 221.72832 222.99707 224.11938 224.87137 224.74104 224.01056 223.77664 224.16600
 226.05913 228.81920 232.93663 237.48592 242.05594 246.41341 250.42328 254.13756
 257.47675 260.39502 262.97937 265.29300 267.40268 269.26871 270.77386 272.14459
 273.50891 274.83102 276.22134 277.59586 278.81433 279.92459 280.97748 281.94962
 282.82394 283.60254 284.28268 285.14948
 366.78100 356.34173 345.78047 334.65320 323.06293 311.26367 299.14040 286.95014
 274.66887 262.57260 250.58834 239.89607 230.02480 221.13554 213.32427 206.33300
 200.17374 195.11847 191.70720 189.75594 188.79967 188.87041 189.71214 191.02687
 192.75861 194.86034 197.13007 199.49581 201.94754 204.43427 206.52901 208.37774
 210.01048 211.16221 211.39794 211.63268 211.57641 211.28814 210.92788 210.56461
 210.18834 209.90508 209.71981 209.59054 209.52528 209.86301 210.25575 210.65148
 211.45121 212.63595 213.89268 215.68241 217.61715 219.66688 221.76861 223.85835
 225.92508 228.01582 230.11955 232.23228 234.36802 236.54675 238.80948 241.18622
 243.81395 246.07168 248.08042 249.85215 251.27588 252.40562 253.23435 253.55709
 253.60082 253.38155 252.74829 251.70302 250.31575 248.48349 246.39922 244.23895
 242.03669 239.84742 237.67416 235.51989 233.38662 231.26036 229.29309 227.45682
 225.74656 224.22529 222.86202 221.64076 220.52949 219.49623 218.60696 217.75469
 217.00343 216.19016 215.29489 214.66563 214.12236 215.05836 217.30707 219.61263
 221.73593 222.99315 224.17384 224.79738 224.49184 223.75914 223.53450 224.15717
 225.88049 229.01295 233.20171 237.72525 242.26759 246.57895 250.54904 254.24980
 257.55350 260.44473 263.05551 265.42606 267.52707 269.33734 270.82397 272.13858
 273.49689 274.78528 276.19766 277.58270 278.82819 280.01456 281.13113 282.14267
 283.05246 283.86261 284.57034 285.47226
 366.78100 356.34280 345.78260 334.65640 323.06721 311.26901 299.14681 286.95761
 274.67741 262.58221 250.59902 239.90782 230.03762 221.14942 213.33922 206.34902
 200.19083 195.13663 191.72643 189.77623 188.82103 188.89283 189.73563 191.05144
 192.78424 194.88704 197.15784 199.52464 201.97744 204.46525 206.56105 208.41085
 210.04465 211.19745 211.43425 211.67005 211.61486 211.32766 210.96846 210.60626
 210.23106 209.94886 209.76467 209.63647 209.57227 209.91107 210.30487 210.70167
 211.50248 212.68828 213.94608 215.73688 217.67268 219.72348 221.82628 223.91709
 225.98489 228.07669 230.18149 232.29529 234.43209 236.61190 238.87570 241.25350
 243.88230 246.14110 248.15090 249.92370 251.34851 252.47931 253.30911 253.63291
 253.67771 253.45951 252.82732 251.78312 250.39692 248.56572 246.48252 244.32332
 242.12213 239.93393 237.76173 235.60853 233.47633 231.35113 229.38493 227.54974
 225.84054 224.32034 222.95814 221.73794 220.62774 219.59555 218.70735 217.85615
 217.10595 216.29375 215.39955 214.77135 214.22916 215.11984 217.28735 219.65404
 221.68634 223.07449 224.22620 224.63150 224.23328 223.55460 223.36583 223.97638
 225.83354 229.13857 233.41570 237.95564 242.47737 246.75542 250.67786 254.38705
 257.68130 260.53049 263.14133 265.55261 267.67252 269.43912 270.86761 272.19189
 273.51755 274.80060 276.35297 277.77515 279.11649 280.37286 281.51913 282.55756
 283.49152 284.32321 285.04974 285.97565
 366.78100 356.34322 345.78344 334.65766 323.06888 311.27109 299.14931 286.96053
 274.68075 262.58597 250.60319 239.91241 230.04263 221.15485 213.34506 206.35528
 200.19750 195.14372 191.73394 189.78416 188.82938 188.90160 189.74482 191.06103
 192.79425 194.89747 197.16869 199.53591 201.98913 204.47735 206.57357 208.42379
 210.05800 211.21122 211.44844 211.68466 211.62988 211.34310 210.98432 210.62254
 210.24776 209.96597 209.78219 209.65441 209.59063 209.92985 210.32407 210.72129
 211.52251 212.70873 213.96694 215.75816 217.69438 219.74560 221.84882 223.94004
 226.00826 228.10048 230.20570 232.31991 234.45713 236.63735 238.90157 241.27979
 243.90901 246.16823 248.17845 249.95167 251.37688 252.50810 253.33832 253.66254
 253.70776 253.48998 252.85820 251.81442 250.42864 248.59785 246.51507 244.35629
 242.15551 239.96773 237.79595 235.64317 233.51139 231.38661 229.42082 227.58604
 225.87726 224.35748 222.99570 221.77592 220.66614 219.63436 218.74658 217.89579
 217.14601 216.33423 215.44045 214.81267 214.27089 215.14853 217.29781 219.65504
 221.67081 223.12273 224.19290 224.47672 223.99670 223.32045 223.12425 223.80540
 225.77611 229.23706 233.63576 238.20862 242.70598 246.94217 250.81418 254.51022
 257.78918 260.61530 263.23007 265.68964 267.88156 269.61652 270.92761 272.18427
 273.47327 274.88620 276.43408 277.92114 279.31982 280.56436 281.69980 282.72842
 283.65356 284.47742 285.19711 286.11429
 366.78100 356.34314 345.78329 334.65743 323.06858 311.27072 299.14886 286.96001
 274.68015 262.58529 250.60244 239.91158 230.04173 221.15387 213.34401 206.35416
 200.19630 195.14244 191.73259 189.78273 188.82788 188.90002 189.74316 191.05931
 192.79245 194.89560 197.16674 199.53388 201.98703 204.47517 206.57131 208.42146
 210.05560 211.20875 211.44589 211.68203 211.62718 211.34032 210.98147 210.61961
 210.24475 209.96290 209.77904 209.65118 209.58733 209.92647 210.32062 210.71776
 211.51890 212.70505 213.96319 215.75433 217.69048 219.74162 221.84477 223.93591
 226.00405 228.09620 230.20134 232.31549 234.45263 236.63277 238.89692 241.27506
 243.90420 246.16335 248.17349 249.94664 251.37178 252.50292 253.33307 253.65721
 253.70236 253.48450 252.85264 251.80879 250.42293 248.59207 246.50922 244.35036
 242.14951 239.96165 237.78979 235.63694 233.50508 231.38022 229.41437 227.57951
 225.87066 224.35080 222.98894 221.76909 220.65923 219.62738 218.73952 217.88866
 217.13881 216.32695 215.43309 214.80524 214.26338 215.15854 217.35660 219.61807
 221.67082 223.25157 224.21941 224.28539 223.75999 223.10992 222.89276 223.61386
 225.63908 229.31815 233.82951 238.43118 242.93495 247.13596 250.95741 254.60342
 257.86893 260.69348 263.29968 265.81717 268.09839 269.89700 271.11893 272.16309
 273.65494 275.16034 276.77316 278.39355 279.79587 281.03656 282.16852 283.19397
 284.11627 284.93756 285.65503 286.56937
 366.78100 356.34405 345.78511 334.66016 323.07221 311.27527 299.15432 286.96637
 274.68743 262.59348 250.61153 239.92159 230.05264 221.16569 213.35675 206.36780
 200.21085 195.15791 191.74896 189.80001 188.84606 188.91912 189.76317 191.08022
 192.81428 194.91833 197.19038 199.55844 202.01249 204.50154 206.59860 208.44965
 210.08470 211.23876 211.47681 211.71386 211.65992 211.37397 211.01602 210.65508
 210.28113 210.00018 209.81724 209.69029 209.62734 209.96740 210.36245 210.76050
 211.56256 212.74961 214.00866 215.80072 217.73777 219.78982 221.89388 223.98593
 226.05498 228.14803 230.25409 232.36914 234.50719 236.68825 238.95330 241.33235
 243.96241 246.22246 248.23351 250.00757 251.43362 252.56567 253.39673 253.72178
 253.76783 253.55089 252.91994 251.87699 250.49205 248.66210 246.58015 244.42221
 242.22226 240.03531 237.86437 235.71242 233.58147 231.45753 229.49258 227.65863
 225.95069 224.43174 223.07079 221.85185 220.74290 219.71195 218.82500 217.97506
 217.22611 216.41516 215.52222 214.89527 214.35432 215.20830 217.33760 219.64590
 221.59805 223.31491 224.18265 224.09117 223.57945 222.90434 222.62135 223.36255
 225.56567 229.43274 234.00969 238.62985 243.11375 247.27271 251.10803 254.75516
 258.00125 260.80957 263.40488 265.94910 268.27390 270.24084 271.55014 272.41003
 273.80981 275.51196 277.17300 278.75247 280.11935 281.32867 282.43204 283.43158
 284.33057 285.13110 285.83044 286.72168
 366.78100 356.34421 345.78542 334.66063 323.07284 311.27605 299.15526 286.96747
 274.68869 262.59490 250.61311 239.92332 230.05453 221.16774 213.35895 206.37016
 200.21337 195.16058 191.75179 189.80300 188.84921 188.92242 189.76664 191.08385
 192.81806 194.92227 197.19448 199.56269 202.01690 204.50611 206.60332 208.45453
 210.08974 211.24395 211.48216 211.71937 211.66559 211.37980 211.02201 210.66122
 210.28743 210.00664 209.82385 209.69706 209.63427 209.97448 210.36969 210.76790
 211.57011 212.75732 214.01654 215.80875 217.74596 219.79817 221.90238 223.99459
 226.06380 228.15701 230.26322 232.37843 234.51664 236.69785 238.96306 241.34227
 243.97249 246.23270 248.24391 250.01812 251.44433 252.57654 253.40775 253.73296
 253.77917 253.56238 252.93159 251.88880 250.50401 248.67422 246.59244 244.43465
 242.23486 240.04807 237.87728 235.72549 233.59470 231.47091 229.50612 227.67233
 225.96454 224.44575 223.08496 221.86617 220.75739 219.72660 218.83981 217.99002
 217.24123 216.43044 215.53765 214.91086 214.37007 215.21359 217.30363 219.68762
 221.50475 223.18539 224.08728 223.90985 223.38834 222.67604 222.27640 223.28473
 225.55161 229.56628 234.21198 238.83412 243.29526 247.43794 251.25354 254.91670
 258.15463 260.94894 263.56091 266.10687 268.46173 270.36078 271.71921 272.59323
 273.85092 275.27667 276.80621 278.25888 279.59421 280.77563 281.85349 282.82996
 283.70819 284.49023 285.17343 286.04410
 366.78100 356.34393 345.78486 334.65979 323.07172 311.27465 299.15358 286.96551
 274.68644 262.59237 250.61030 239.92023 230.05116 221.16409 213.35502 206.36594
 200.20887 195.15580 191.74673 189.79766 188.84359 188.91652 189.76045 191.07738
 192.81131 194.91524 197.18717 199.55510 202.00903 204.49796 206.59489 208.44582
 210.08075 211.23468 211.47261 211.70954 211.65547 211.36940 211.01133 210.65026
 210.27619 209.99512 209.81205 209.68497 209.62190 209.96183 210.35676 210.75469
 211.55662 212.74355 214.00248 215.79441 217.73134 219.78327 221.88720 223.97913
 226.04806 228.14099 230.24692 232.36185 234.49978 236.68071 238.94564 241.32457
 243.95450 246.21443 248.22536 249.99929 251.42522 252.55715 253.38808 253.71300
 253.75893 253.54186 252.91079 251.86772 250.48265 248.65258 246.57051 244.41244
 242.21237 240.02530 237.85423 235.70216 233.57109 231.44702 229.48195 227.64788
 225.93981 224.42074 223.05967 221.84060 220.73153 219.70046 218.81339 217.96332
 217.21425 216.40318 215.51011 214.88304 214.34196 215.19815 217.28687 219.71194
 221.46468 222.96278 223.96970 223.76624 223.18623 222.33357 221.89543 223.20073
 225.53169 229.67374 234.41833 239.04268 243.46939 247.59372 251.41449 255.05144
 258.27460 261.07181 263.69019 266.26407 268.61261 270.51999 271.94412 272.84158
 273.92032 275.08853 276.07306 277.21588 278.43793 279.62915 280.71762 281.70367
 282.59055 283.38031 284.07022 284.94943
 366.78100 356.34428 345.78556 334.66084 323.07312 311.27640 299.15568 286.96796
 274.68924 262.59552 250.61380 239.92408 230.05536 221.16864 213.35992 206.37120
 200.21448 195.16176 191.75304 189.80432 188.85060 188.92388 189.76816 191.08544
 192.81972 194.92400 197.19628 199.56456 202.01884 204.50812 206.60540 208.45667
 210.09195 211.24623 211.48451 211.72179 211.66807 211.38235 211.02463 210.66391
 210.29019 210.00947 209.82675 209.70003 209.63731 209.97759 210.37287 210.77115
 211.57343 212.76071 214.01999 215.81227 217.74955 219.80183 221.90611 223.99839
 226.06767 228.16095 230.26723 232.38251 234.52079 236.70207 238.96735 241.34663
 243.97691 246.23719 248.24847 250.02275 251.44903 252.58131 253.41259 253.73787
 253.78415 253.56743 252.93671 251.89399 250.50927 248.67955 246.59783 244.44011
 242.24039 240.05367 237.88295 235.73123 233.60051 231.47679 229.51207 227.67835
 225.97063 224.45191 223.09119 221.87247 220.76374 219.73302 218.84630 217.99658
 217.24786 216.43714 215.54442 214.91770 214.37698 215.21585 217.24667 219.75764
 221.45032 222.72020 223.88795 223.66739 222.93733 221.96422 221.49408 223.05457
 225.54092 229.78828 234.61075 239.26965 243.65523 247.74834 251.55989 255.17444
 258.39090 261.20602 263.84216 266.42365 268.78647 270.71262 271.97583 272.99701
 274.15109 275.10965 275.92767 276.95236 277.80869 278.72089 279.70984 280.60574
 281.41153 282.12906 282.75589 283.55472
 366.78100 356.34432 345.78565 334.66097 323.07330 311.27662 299.15595 286.96827
 274.68959 262.59592 250.61424 239.92457 230.05589 221.16922 213.36054 206.37186
 200.21519 195.16251 191.75384 189.80516 188.85148 188.92481 189.76913 191.08646
 192.82078 194.92511 197.19743 199.56575 202.02008 204.50940 206.60673 208.45805
 210.09338 211.24770 211.48602 211.72335 211.66967 211.38400 211.02632 210.66565
 210.29197 210.01129 209.82862 209.70194 209.63927 209.97959 210.37492 210.77324
 211.57556 212.76289 214.02221 215.81454 217.75186 219.80418 221.90851 224.00083
 226.07016 228.16348 230.26981 232.38513 234.52345 236.70478 238.97010 241.34943
 243.97975 246.24008 248.25140 250.02572 251.45205 252.58437 253.41570 253.74102
 253.78735 253.57067 252.93999 251.89732 250.51264 248.68297 246.60129 244.44361
 242.24394 240.05726 237.88659 235.73491 233.60424 231.48056 229.51588 227.68221
 225.97453 224.45586 223.09518 221.87651 220.76783 219.73715 218.85048 218.00080
 217.25213 216.44145 215.54878 214.92210 214.38142 215.21899 217.21922 219.77567
 221.53629 222.67056 223.80704 223.48766 222.68118 221.65233 221.21275 222.87070
 225.54146 229.90540 234.79013 239.50766 243.87915 247.90697 251.69350 255.30676
 258.53259 261.35706 264.00681 266.56683 268.89740 270.80652 272.16473 273.03168
 274.37222 275.26529 276.04675 276.87817 277.75845 278.37604 279.04678 279.87527
 280.66342 281.36526 281.97839 282.75977
 366.78100 356.34322 345.78344 334.65766 323.06889 311.27111 299.14933 286.96055
 274.68077 262.58599 250.60321 239.91243 230.04266 221.15488 213.34510 206.35532
 200.19754 195.14376 191.73398 189.78421 188.82943 188.90165 189.74487 191.06109
 192.79431 194.89753 197.16875 199.53598 201.98920 204.47742 206.57364 208.42386
 210.05808 211.21130 211.44853 211.68475 211.62997 211.34319 210.98441 210.62263
 210.24785 209.96607 209.78230 209.65452 209.59074 209.92996 210.32418 210.72140
 211.52262 212.70885 213.96707 215.75829 217.69451 219.74573 221.84895 223.94017
 226.00839 228.10062 230.20584 232.32006 234.45728 236.63750 238.90172 241.27994
 243.90917 246.16839 248.17861 249.95183 251.37705 252.50827 253.33849 253.66271
 253.70794 253.49016 252.85838 251.81460 250.42882 248.59804 246.51526 244.35649
 242.15571 239.96793 237.79615 235.64337 233.51159 231.38681 229.42103 227.58626
 225.87748 224.35770 222.99592 221.77614 220.66636 219.63458 218.74681 217.89603
 217.14625 216.33447 215.44069 214.81291 214.27113 215.16455 217.27534 219.69713
 221.66051 222.83011 223.66479 223.30618 222.43019 221.34869 221.05745 222.79956
 225.70949 230.07835 234.96117 239.71927 244.13963 248.03903 251.80188 255.46747
 258.68240 261.49683 264.14249 266.70389 269.02539 270.91049 272.20850 273.21918
 274.52722 275.46579 276.25287 276.93427 277.81653 278.38449 278.86484 279.38553
 280.02643 280.70605 281.30008 282.05710
 366.78100 356.34267 345.78233 334.65600 323.06667 311.26834 299.14600 286.95667
 274.67634 262.58100 250.59767 239.90634 230.03601 221.14767 213.33734 206.34701
 200.18867 195.13434 191.72401 189.77368 188.81834 188.89001 189.73268 191.04834
 192.78101 194.88368 197.15435 199.52101 201.97368 204.46135 206.55701 208.40668
 210.04035 211.19302 211.42968 211.66535 211.61002 211.32268 210.96335 210.60102
 210.22569 209.94335 209.75902 209.63069 209.56635 209.90502 210.29869 210.69536
 211.49602 212.68169 213.93936 215.73002 217.66569 219.71636 221.81903 223.90969
 225.97736 228.06903 230.17369 232.28736 234.42403 236.60370 238.86736 241.24503
 243.87370 246.13236 248.14203 249.91470 251.33937 252.47003 253.29970 253.62337
 253.66803 253.44970 252.81737 251.77304 250.38670 248.55537 246.47204 244.31270
 242.11137 239.92304 237.75071 235.59737 233.46504 231.33971 229.37337 227.53804
 225.82871 224.30838 222.94604 221.72571 220.61538 219.58304 218.69471 217.84338
 217.09304 216.28071 215.38638 214.75805 214.21571 215.13850 217.31866 219.65060
 221.69432 222.92404 223.55923 223.17859 222.19012 221.01312 220.82439 222.71205
 225.79066 230.23309 235.13614 239.90077 244.35223 248.21402 251.92336 255.58253
 258.79425 261.61661 264.26254 266.83389 269.14935 270.99286 272.31778 273.32663
 274.69955 275.67026 276.48294 277.18524 277.87735 278.48914 278.87482 279.24933
 279.73108 280.26837 280.84491 281.60748
 366.78100 356.34292 345.78284 334.65676 323.06768 311.26960 299.14752 286.95844
 274.67835 262.58327 250.60019 239.90911 230.03903 221.15095 213.34087 206.35079
 200.19271 195.13863 191.72855 189.77847 188.82339 188.89531 189.73823 191.05415
 192.78706 194.88998 197.16090 199.52782 201.98074 204.46866 206.56458 208.41450
 210.04842 211.20134 211.43826 211.67418 211.61910 211.33202 210.97294 210.61086
 210.23577 209.95369 209.76961 209.64153 209.57745 209.91637 210.31029 210.70721
 211.50813 212.69405 213.95197 215.74289 217.67881 219.72973 221.83265 223.92356
 225.99148 228.08340 230.18832 232.30224 234.43916 236.61908 238.88300 241.26092
 243.88984 246.14876 248.15868 249.93160 251.35652 252.48744 253.31736 253.64127
 253.68619 253.46811 252.83603 251.79195 250.40587 248.57479 246.49171 244.33263
 242.13155 239.94347 237.77139 235.61831 233.48623 231.36115 229.39507 227.55998
 225.85090 224.33082 222.96874 221.74866 220.63858 219.60650 218.71842 217.86734
 217.11726 216.30518 215.41110 214.78302 214.24094 215.15616 217.31847 219.64632
 221.67703 222.91681 223.49403 223.09727 221.97852 220.66664 220.51256 222.62250
 225.86157 230.37381 235.31122 240.09114 244.53595 248.44012 252.02849 255.68555
 258.90503 261.74121 264.38623 266.94351 269.21191 271.03397 272.30298 273.55270
 274.84821 275.90912 276.76187 277.44852 277.99719 278.52521 278.92697 279.25488
 279.64557 280.04565 280.59161 281.36597
 366.78100 356.34331 345.78362 334.65793 323.06924 311.27155 299.14987 286.96118
 274.68149 262.58680 250.60411 239.91342 230.04373 221.15604 213.34635 206.35666
 200.19897 195.14529 191.73560 189.78591 188.83122 188.90353 189.74684 191.06315
 192.79646 194.89977 197.17108 199.53839 201.99171 204.48002 206.57633 208.42664
 210.06095 211.21426 211.45157 211.68788 211.63319 211.34650 210.98781 210.62613
 210.25144 209.96975 209.78606 209.65837 209.59468 209.93399 210.32830 210.72561
 211.52692 212.71323 213.97155 215.76286 217.69917 219.75048 221.85379 223.94510
 226.01341 228.10572 230.21103 232.32534 234.46265 236.64297 238.90728 241.28559
 243.91490 246.17421 248.18452 249.95783 251.38314 252.51445 253.34476 253.66907
 253.71439 253.49670 252.86501 251.82132 250.43563 248.60494 246.52225 244.36356
 242.16287 239.97518 237.80349 235.65080 233.51912 231.39443 229.42874 227.59405
 225.88536 224.36567 223.00398 221.78429 220.67460 219.64291 218.75522 217.90454
 217.15485 216.34316 215.44947 214.82178 214.28009 215.18114 217.30998 219.64571
 221.65445 222.87201 223.41879 223.02071 221.85080 220.35831 220.12239 222.52594
 225.93114 230.50667 235.49226 240.28487 244.71942 248.66922 252.17429 255.75981
 259.01437 261.85687 264.49121 267.02966 269.28165 271.04486 272.35306 273.70880
 275.02747 276.13770 277.03220 277.74115 278.23981 278.65344 279.08905 279.41486
 279.68839 280.00381 280.52261 281.30396
 366.78100 356.34361 345.78423 334.65884 323.07046 311.27307 299.15169 286.96330
 274.68392 262.58953 250.60714 239.91676 230.04737 221.15999 213.35060 206.36122
 200.20383 195.15044 191.74106 189.79167 188.83729 188.90990 189.75352 191.07013
 192.80375 194.90736 197.17897 199.54659 202.00020 204.48882 206.58543 208.43605
 210.07066 211.22428 211.46189 211.69850 211.64412 211.35773 210.99935 210.63796
 210.26358 209.98219 209.79880 209.67142 209.60803 209.94765 210.34226 210.73988
 211.54149 212.72811 213.98672 215.77833 217.71495 219.76656 221.87018 223.96179
 226.03041 228.12302 230.22864 232.34325 234.48086 236.66148 238.92609 241.30471
 243.93432 246.19394 248.20455 249.97816 251.40378 252.53539 253.36601 253.69062
 253.73624 253.51885 252.88747 251.84408 250.45869 248.62831 246.54592 244.38754
 242.18715 239.99977 237.82838 235.67600 233.54461 231.42022 229.45484 227.62045
 225.91207 224.39268 223.03130 221.81191 220.70252 219.67114 218.78375 217.93337
 217.18398 216.37260 215.47921 214.85183 214.31044 215.20155 217.30688 219.63957
 221.63322 222.84457 223.31602 222.91919 221.70906 219.92697 219.84872 222.47838
 225.97658 230.64438 235.66899 240.46738 244.89328 248.87164 252.39897 255.83176
 259.09058 261.94611 264.57315 267.09647 269.32736 271.06860 272.39993 273.84946
 275.21060 276.34418 277.28738 278.04050 278.56714 278.94025 279.33017 279.70508
 279.94437 280.17224 280.64554 281.41916
 366.78100 356.34388 345.78477 334.65965 323.07154 311.27442 299.15331 286.96519
 274.68608 262.59196 250.60985 239.91973 230.05062 221.16350 213.35439 206.36527
 200.20816 195.15504 191.74593 189.79681 188.84270 188.91558 189.75947 191.07635
 192.81024 194.91412 197.18601 199.55389 202.00778 204.49666 206.59355 208.44443
 210.07932 211.23320 211.47109 211.70797 211.65386 211.36774 211.00963 210.64851
 210.27440 209.99328 209.81017 209.68305 209.61994 209.95982 210.35471 210.75259
 211.55448 212.74136 214.00025 215.79213 217.72902 219.78090 221.88479 223.97667
 226.04556 228.13844 230.24433 232.35921 234.49710 236.67798 238.94287 241.32175
 243.95164 246.21152 248.22241 249.99629 251.42218 252.55406 253.38495 253.70983
 253.75572 253.53860 252.90749 251.86437 250.47926 248.64914 246.56703 244.40891
 242.20880 240.02168 237.85056 235.69845 233.56733 231.44322 229.47810 227.64399
 225.93587 224.41676 223.05564 221.83653 220.72741 219.69630 218.80918 217.95907
 217.20995 216.39884 215.50572 214.87861 214.33749 215.22038 217.30630 219.63498
 221.59898 222.83821 223.22327 222.76436 221.56059 219.62169 219.52815 222.33839
 226.04709 230.80482 235.83472 240.64177 245.06784 249.07210 252.66216 255.97581
 259.14221 262.01389 264.63239 267.12564 269.31223 270.99747 272.48096 274.04596
 275.42038 276.57040 277.52249 278.29730 278.86621 279.29120 279.63293 279.98630
 280.32242 280.61322 280.98557 281.72348
 366.78100 356.34417 345.78533 334.66050 323.07266 311.27583 299.15499 286.96716
 274.68832 262.59449 250.61266 239.92282 230.05399 221.16715 213.35832 206.36948
 200.21265 195.15981 191.75098 189.80215 188.84831 188.92148 189.76564 191.08281
 192.81697 194.92114 197.19330 199.56147 202.01564 204.50480 206.60197 208.45313
 210.08830 211.24246 211.48063 211.71779 211.66396 211.37813 211.02029 210.65946
 210.28562 210.00479 209.82195 209.69512 209.63228 209.97245 210.36762 210.76578
 211.56795 212.75511 214.01428 215.80644 217.74361 219.79577 221.89994 223.99211
 226.06127 228.15444 230.26060 232.37577 234.51393 236.69510 238.96026 241.33943
 243.96960 246.22976 248.24093 250.01509 251.44126 252.57342 253.40459 253.72975
 253.77592 253.55909 252.92825 251.88542 250.50058 248.67075 246.58891 244.43108
 242.23124 240.04441 237.87357 235.72174 233.59091 231.46707 229.50224 227.66840
 225.96057 224.44173 223.08090 221.86206 220.75323 219.72240 218.83556 217.98573
 217.23689 216.42606 215.53322 214.90639 214.36555 215.23892 217.30235 219.63187
 221.55827 222.82591 223.15741 222.57135 221.35277 219.39752 219.25687 222.19331
 226.09787 230.94856 235.98997 240.80490 245.23491 249.27377 252.90903 256.20001
 259.20837 262.04135 264.65598 267.11908 269.26154 270.90494 272.59393 274.24518
 275.64569 276.77811 277.72394 278.53113 279.15512 279.63177 280.02664 280.35583
 280.75726 281.04935 281.36975 282.04239
 366.78100 356.34435 345.78570 334.66105 323.07341 311.27676 299.15611 286.96846
 274.68981 262.59616 250.61451 239.92487 230.05622 221.16957 213.36092 206.37227
 200.21562 195.16297 191.75433 189.80568 188.85203 188.92538 189.76973 191.08708
 192.82143 194.92579 197.19814 199.56649 202.02084 204.51019 206.60754 208.45889
 210.09424 211.24860 211.48695 211.72430 211.67065 211.38500 211.02735 210.66670
 210.29306 210.01241 209.82976 209.70311 209.64046 209.98081 210.37616 210.77452
 211.57687 212.76422 214.02357 215.81592 217.75327 219.80562 221.90998 224.00233
 226.07168 228.16503 230.27138 232.38673 234.52508 236.70644 238.97179 241.35114
 243.98149 246.24184 248.25319 250.02754 251.45390 252.58625 253.41760 253.74295
 253.78930 253.57265 252.94200 251.89936 250.51471 248.68506 246.60341 244.44576
 242.24611 240.05946 237.88881 235.73717 233.60652 231.48287 229.51822 227.68457
 225.97692 224.45827 223.09763 221.87898 220.77033 219.73968 218.85303 218.00338
 217.25473 216.44409 215.55144 214.92479 214.38414 215.25098 217.29897 219.62927
 221.52316 222.79813 223.10864 222.39429 221.09358 219.18312 219.02045 222.06392
 226.15857 231.08640 236.13051 240.95486 245.38911 249.45396 253.13570 256.42841
 259.34949 262.05588 264.68518 267.10760 269.19366 270.98389 272.73395 274.43747
 275.82990 276.96552 277.91498 278.73203 279.37439 279.85190 280.23947 280.56235
 280.90002 281.29724 281.61957 282.17944
 366.78100 356.34451 345.78603 334.66154 323.07405 311.27756 299.15708 286.96959
 274.69110 262.59761 250.61613 239.92664 230.05815 221.17166 213.36318 206.37469
 200.21820 195.16572 191.75723 189.80874 188.85525 188.92877 189.77328 191.09079
 192.82530 194.92982 197.20233 199.57084 202.02536 204.51487 206.61238 208.46389
 210.09941 211.25392 211.49243 211.72994 211.67646 211.39097 211.03348 210.67299
 210.29951 210.01902 209.83653 209.71005 209.64756 209.98807 210.38358 210.78210
 211.58461 212.77212 214.03163 215.82415 217.76166 219.81417 221.91869 224.01120
 226.08071 228.17422 230.28074 232.39625 234.53476 236.71627 238.98179 241.36130
 243.99181 246.25232 248.26384 250.03835 251.46486 252.59738 253.42889 253.75440
 253.80091 253.58443 252.95394 251.91145 250.52696 248.69748 246.61599 244.45850
 242.25901 240.07253 237.90204 235.75055 233.62007 231.49658 229.53209 227.69860
 225.99112 224.47263 223.11214 221.89365 220.78517 219.75468 218.86819 218.01871
 217.27022 216.45973 215.56724 214.94076 214.40027 215.26251 217.29967 219.62242
 221.49602 222.75591 223.07228 222.23743 220.81575 218.96124 218.78459 221.94832
 226.22946 231.23056 236.26624 241.09105 245.52216 249.60736 253.32437 256.62543
 259.53085 262.20724 264.80515 267.13757 269.19073 271.10529 272.89212 274.58890
 275.94754 277.06540 278.02942 278.86130 279.50952 279.99738 280.39050 280.71219
 280.99860 281.38953 281.72687 282.27563
 366.78100 356.34465 345.78630 334.66196 323.07461 311.27826 299.15791 286.97056
 274.69222 262.59887 250.61752 239.92817 230.05982 221.17348 213.36513 206.37678
 200.22043 195.16808 191.75974 189.81139 188.85804 188.93169 189.77634 191.09400
 192.82865 194.93330 197.20595 199.57460 202.02926 204.51891 206.61656 208.46821
 210.10386 211.25852 211.49717 211.73482 211.68147 211.39612 211.03878 210.67843
 210.30508 210.02473 209.84238 209.71604 209.65369 209.99434 210.38999 210.78864
 211.59130 212.77895 214.03860 215.83125 217.76890 219.82156 221.92621 224.01886
 226.08851 228.18216 230.28882 232.40447 234.54312 236.72477 238.99042 241.37008
 244.00073 246.26138 248.27303 250.04768 251.47434 252.60699 253.43864 253.76429
 253.81094 253.59460 252.96425 251.92190 250.53755 248.70820 246.62686 244.46951
 242.27016 240.08381 237.91346 235.76212 233.63177 231.50842 229.54407 227.71072
 226.00338 224.48503 223.12468 221.90633 220.79798 219.76764 218.88129 218.03194
 217.28359 216.47324 215.58090 214.95455 214.41420 215.27165 217.29745 219.61584
 221.47147 222.71255 223.00986 222.09090 220.59364 218.70137 218.50861 221.85631
 226.31097 231.40025 236.42441 241.22714 245.63628 249.73619 253.48911 256.79221
 259.70572 262.39990 264.93619 267.24176 269.30597 271.20679 272.92264 274.45493
 275.90457 277.12729 278.13776 278.95880 279.57294 280.03598 280.40784 280.71658
 281.05496 281.40192 281.72678 282.29999
 354.97500 345.04800 334.58700 324.11500 313.32600 302.53700 291.65000 280.76700
 269.93100 259.19300 248.62200 238.61700 229.08700 220.35500 212.54000 205.53500
 199.46400 194.49300 191.14300 189.19000 188.08900 188.01400 188.72400 189.90600
 191.46900 193.38200 195.40300 197.55600 199.80700 202.06000 204.28800 206.47900
 208.55200 210.37800 212.02500 213.65900 214.99800 216.11800 217.17200 218.25900
 219.49400 220.64500 221.67900 222.61400 223.54500 224.98200 226.57100 228.19000
 229.79700 231.81100 233.86500 235.97200 238.24200 240.55300 242.89900 245.25300
 247.48800 249.53500 251.36600 252.84800 254.09800 255.16700 256.02700 256.25300
 256.09500 255.54300 253.93500 252.56600 251.38400 250.24500 249.05200 247.70100
 246.01600 243.99600 241.78400 239.39300 236.81300 234.22300 231.65800 229.14400
 226.74000 224.47300 222.33500 220.32500 218.44000 216.67700 214.96200 213.47200
 212.20000 211.10800 210.26000 209.63900 209.24400 209.03100 209.05800 209.33300
 209.78400 210.62600 211.33100 212.39100 213.62500 214.84668 217.72949 219.47640
 220.32566 220.86828 220.88710 220.27371 219.43733 218.84250 219.04934 220.86203
 222.60583 225.72206 229.03064 232.61777 236.12270 239.51333 242.70767 245.68587
 248.41061 250.90679 253.19353 254.91714 256.48655 257.94920 259.39966 260.69384
 261.81714 262.77997 263.71679 264.54570 265.26305 265.89772 266.47676 267.00133
 267.47312 267.89325 268.26027 268.72800
