|-------------------------------------------------------------------------|
|   File Name : in_temp.dat
|   Subject   : temperature profiles used for initial guess atmosphere
|   File Type : input of gmtr
|   Data Type : atmospherical data
|   Author/s  : WRF-Chem
|   Date      : Fri Jul 26 15:39:24 2024
|-------------------------------------------------------------------------|

 WRF-Chem temperature
#
 values of T (K)    (8f10.5)
#
 354.97500 345.04800 334.58700 324.11500 313.32600 302.53700 291.65000 280.76700
 269.93100 259.19300 248.62200 238.61700 229.08700 220.35500 212.54000 205.53500
 199.46400 194.49300 191.14300 189.19000 188.08900 188.01400 188.72400 189.90600
 191.46900 193.38200 195.40300 197.55600 199.80700 202.06000 204.28800 206.47900
 208.55200 210.37800 212.02500 213.65900 214.99800 216.11800 217.17200 218.25900
 219.49400 220.64500 221.67900 222.61400 223.54500 224.98200 226.57100 228.19000
 229.79700 231.81100 233.86500 235.97200 238.24200 240.55300 242.89900 245.25300
 247.48800 249.53500 251.36600 252.84800 254.09800 255.16700 256.02700 256.25300
 256.09500 255.54300 253.93500 252.56600 251.38400 250.24500 249.05200 247.70100
 246.01600 243.99600 241.78400 239.39300 236.81300 234.22300 231.65800 229.14400
 226.74000 224.47300 222.33500 220.32500 218.44000 216.67700 214.96200 213.47200
 212.20000 211.10800 210.26000 209.63900 209.24400 209.03100 209.05800 209.33300
 209.78400 210.62600 211.33100 212.39100 213.62500 214.84668 217.72949 219.47640
 220.32566 220.86828 220.88710 220.27371 219.43733 218.84250 219.04934 220.86203
 222.60583 225.72206 229.03064 232.61777 236.12270 239.51333 242.70767 245.68587
 248.41061 250.90679 253.19353 254.91714 256.48655 257.94920 259.39966 260.69384
 261.81714 262.77997 263.71679 264.54570 265.26305 265.89772 266.47676 267.00133
 267.47312 267.89325 268.26027 268.72800
 366.78100 356.33500 345.76700 334.63300 323.03600 311.23000 299.10000 286.90300
 274.61500 262.51200 250.52100 239.82200 229.94400 221.04800 213.23000 206.23200
 200.06600 195.00400 191.58600 189.62800 188.66500 188.72900 189.56400 190.87200
 192.59700 194.69200 196.95500 199.31400 201.75900 204.23900 206.32700 208.16900
 209.79500 210.94000 211.16900 211.39700 211.33400 211.03900 210.67200 210.30200
 209.91900 209.62900 209.43700 209.30100 209.22900 209.56000 209.94600 210.33500
 211.12800 212.30600 213.55600 215.33900 217.26700 219.31000 221.40500 223.48800
 225.54800 227.63200 229.72900 231.83500 233.96400 236.13600 238.39200 240.76200
 243.38300 245.63400 247.63600 249.40100 250.81800 251.94100 252.76300 253.07900
 253.11600 252.89000 252.25000 251.19800 249.80400 247.96500 245.87400 243.70700
 241.49800 239.30200 237.12200 234.96100 232.82100 230.68800 228.71400 226.87100
 225.15400 223.62600 222.25600 221.02800 219.91000 218.87000 217.97400 217.11500
 216.35700 215.53700 214.63500 213.99900 213.44900 212.85855 212.01316 212.61654
 214.26826 216.08686 218.14273 220.53346 223.40855 226.78828 231.49734 235.90155
 239.42278 243.28576 247.23140 251.11907 254.80144 258.23331 261.38913 264.27520
 266.89312 269.26852 271.44504 273.08845 274.58484 275.98591 277.39845 278.65879
 279.75272 280.69038 281.56708 282.34086 283.01050 283.60295 284.14348 284.63317
 285.07358 285.46577 285.80838 286.24500
 381.81900 372.39900 361.20600 349.77600 337.62200 324.85300 311.81000 298.35300
 284.86000 271.32400 258.56100 246.30400 236.08700 226.79600 218.44800 211.29000
 205.52200 200.89400 197.38100 194.84800 193.01500 192.31500 192.25000 192.43100
 192.91200 193.53700 194.13600 194.71200 195.26200 195.83100 196.39300 196.97600
 197.60400 198.14900 198.58400 199.05700 199.69500 200.37800 201.05400 201.70800
 202.31300 202.85700 203.35500 203.86200 204.56900 205.29700 206.02600 206.98700
 208.19300 209.44100 210.96900 212.57600 214.46200 216.51300 218.63000 220.85300
 223.34100 225.96200 228.73900 231.69700 234.70600 237.70600 240.69200 243.65700
 246.73700 249.69900 252.52100 255.06300 257.29000 259.23300 260.63300 261.68000
 262.46100 262.79800 262.69100 262.22400 261.06900 259.52500 257.70700 255.50700
 253.00100 250.30200 247.39800 244.45200 241.65400 239.05400 236.73300 234.59000
 232.59500 230.72500 228.83400 226.82600 224.66600 222.38700 220.10400 217.71500
 215.45900 213.06600 210.54600 208.09300 205.35400 202.08130 196.05959 200.71215
 209.01611 216.90438 223.84126 229.78593 235.00632 240.20838 245.98943 250.68668
 254.32982 257.93487 261.55666 264.96801 268.15192 271.06452 273.76717 276.25691
 278.57680 280.74479 282.77456 284.60533 286.27232 287.81705 289.31715 290.65561
 291.81734 292.81312 293.70701 294.49387 295.17482 295.77730 296.32696 296.82492
 297.27278 297.67160 298.02000 298.46400
 399.33000 389.90700 379.81300 368.66800 357.52200 345.30100 333.07400 320.22700
 307.21600 293.84800 280.37600 267.29600 254.61000 242.98700 232.15100 221.97700
 212.67200 204.28600 197.66900 192.82100 189.48600 187.45200 186.81400 187.08900
 187.78100 189.05400 190.64800 192.54200 194.63000 196.75200 198.67100 200.15800
 201.53500 202.48700 202.97500 203.34000 203.53900 203.49700 203.38500 203.24700
 203.00500 202.78600 202.60300 202.43700 202.42600 202.88800 203.42000 203.95100
 204.89500 205.99200 207.30100 208.95800 210.73800 213.10000 215.56400 218.18000
 220.96600 223.91800 226.96100 230.09200 233.29300 236.55700 239.95500 243.53700
 246.84500 249.39000 251.54200 253.47400 255.19500 256.48400 257.43100 258.05900
 258.21200 258.04000 257.58200 256.64300 255.23900 253.50700 251.40800 249.05600
 246.57600 243.99400 241.38900 238.83000 236.34400 233.98600 231.96900 230.11800
 228.42300 226.89900 225.54800 224.29700 223.10500 221.96500 220.95800 220.11300
 219.49000 218.92000 218.32500 217.88100 217.42300 216.96366 216.35568 216.80261
 217.73415 218.28582 218.64258 219.10077 220.44626 222.53987 226.38451 230.35736
 233.59734 237.39164 241.29814 245.22796 248.98002 252.51130 255.78595 258.80109
 261.54781 264.05210 266.34239 268.04198 269.58951 271.01303 272.35754 273.55718
 274.59842 275.49092 276.28989 276.99307 277.60161 278.14001 278.63122 279.07623
 279.47646 279.83287 280.14422 280.54100
 399.73800 389.78500 379.66200 368.15100 356.64100 344.35000 331.79200 318.88800
 305.72600 292.49300 279.20900 266.73800 254.69600 244.21100 234.45700 225.43300
 217.56900 210.45100 204.30000 199.30600 195.45800 192.57600 191.02700 190.38600
 190.23900 190.53400 191.16600 191.92500 192.79500 193.76600 194.73200 195.31200
 195.80000 196.05200 196.11500 196.11500 196.03900 195.72300 195.34000 194.98900
 194.75100 194.79200 195.13300 195.59800 196.50600 198.13600 199.85800 201.56600
 204.17900 206.82300 209.89300 213.28400 216.82800 220.60500 224.38700 228.20900
 232.03200 235.82500 239.56000 243.25800 246.84500 250.20100 253.70900 257.46800
 261.53000 264.22100 266.60100 268.68100 270.32900 271.74100 272.83600 273.47400
 273.89800 274.00200 273.75700 273.28800 272.37100 271.10000 269.58900 267.77900
 265.81600 263.72100 261.39300 258.91600 256.29800 253.42300 250.33100 247.11400
 243.83700 240.52900 237.24900 233.99900 230.72800 227.51500 224.25400 220.95200
 217.62700 213.65600 210.12100 206.78900 204.01000 201.99491 199.07309 198.76551
 199.40006 200.48994 201.46112 202.31912 203.45100 204.96110 207.47502 210.85391
 213.70530 217.29629 220.99574 224.72316 228.28753 231.64854 234.68024 237.40893
 239.70644 241.60899 243.46854 245.67368 247.68154 249.52395 251.24767 252.78566
 254.12057 255.26479 256.23740 257.09036 257.82852 258.48160 259.07744 259.61723
 260.10271 260.53504 260.91270 261.39400
 399.73800 389.78500 379.66200 368.15100 356.64100 344.35000 331.79200 318.88800
 305.72600 292.49300 279.20900 266.73800 254.69600 244.21100 234.45700 225.43300
 217.56900 210.45100 204.30000 199.30600 195.45800 192.57600 191.02700 190.38600
 190.23900 190.53400 191.16600 191.92500 192.79500 193.76600 194.73200 195.31200
 195.80000 196.05200 196.11500 196.11500 196.03900 195.72300 195.34000 194.98900
 194.75100 194.79200 195.13300 195.59800 196.50600 198.13600 199.85800 201.56600
 204.17900 206.82300 209.89300 213.28400 216.82800 220.60500 224.38700 228.20900
 232.03200 235.82500 239.56000 243.25800 246.84500 250.20100 253.70900 257.46800
 261.53000 264.22100 266.60100 268.68100 270.32900 271.74100 272.83600 273.47400
 273.89800 274.00200 273.75700 273.28800 272.37100 271.10000 269.58900 267.77900
 265.81600 263.72100 261.39300 258.91600 256.29800 253.42300 250.33100 247.11400
 243.83700 240.52900 237.24900 233.99900 230.72800 227.51500 224.25400 220.95200
 217.62700 213.65600 210.12100 206.78900 204.01000 201.99491 199.07309 198.76551
 199.40006 200.48994 201.46112 202.31912 203.45100 204.96110 207.47502 210.85391
 213.70530 217.29629 220.99574 224.72316 228.28753 231.64854 234.68024 237.40893
 239.70644 241.60899 243.46854 245.67368 247.68154 249.52395 251.24767 252.78566
 254.12057 255.26479 256.23740 257.09036 257.82852 258.48160 259.07744 259.61723
 260.10271 260.53504 260.91270 261.39400
 399.33000 389.90700 379.81300 368.66800 357.52200 345.30100 333.07400 320.22700
 307.21600 293.84800 280.37600 267.29600 254.61000 242.98700 232.15100 221.97700
 212.67200 204.28600 197.66900 192.82100 189.48600 187.45200 186.81400 187.08900
 187.78100 189.05400 190.64800 192.54200 194.63000 196.75200 198.67100 200.15800
 201.53500 202.48700 202.97500 203.34000 203.53900 203.49700 203.38500 203.24700
 203.00500 202.78600 202.60300 202.43700 202.42600 202.88800 203.42000 203.95100
 204.89500 205.99200 207.30100 208.95800 210.73800 213.10000 215.56400 218.18000
 220.96600 223.91800 226.96100 230.09200 233.29300 236.55700 239.95500 243.53700
 246.84500 249.39000 251.54200 253.47400 255.19500 256.48400 257.43100 258.05900
 258.21200 258.04000 257.58200 256.64300 255.23900 253.50700 251.40800 249.05600
 246.57600 243.99400 241.38900 238.83000 236.34400 233.98600 231.96900 230.11800
 228.42300 226.89900 225.54800 224.29700 223.10500 221.96500 220.95800 220.11300
 219.49000 218.92000 218.32500 217.88100 217.42300 216.96366 216.35568 216.80261
 217.73415 218.28582 218.64258 219.10077 220.44626 222.53987 226.38451 230.35736
 233.59734 237.39164 241.29814 245.22796 248.98002 252.51130 255.78595 258.80109
 261.54781 264.05210 266.34239 268.04198 269.58951 271.01303 272.35754 273.55718
 274.59842 275.49092 276.28989 276.99307 277.60161 278.14001 278.63122 279.07623
 279.47646 279.83287 280.14422 280.54100
 381.81900 372.39900 361.20600 349.77600 337.62200 324.85300 311.81000 298.35300
 284.86000 271.32400 258.56100 246.30400 236.08700 226.79600 218.44800 211.29000
 205.52200 200.89400 197.38100 194.84800 193.01500 192.31500 192.25000 192.43100
 192.91200 193.53700 194.13600 194.71200 195.26200 195.83100 196.39300 196.97600
 197.60400 198.14900 198.58400 199.05700 199.69500 200.37800 201.05400 201.70800
 202.31300 202.85700 203.35500 203.86200 204.56900 205.29700 206.02600 206.98700
 208.19300 209.44100 210.96900 212.57600 214.46200 216.51300 218.63000 220.85300
 223.34100 225.96200 228.73900 231.69700 234.70600 237.70600 240.69200 243.65700
 246.73700 249.69900 252.52100 255.06300 257.29000 259.23300 260.63300 261.68000
 262.46100 262.79800 262.69100 262.22400 261.06900 259.52500 257.70700 255.50700
 253.00100 250.30200 247.39800 244.45200 241.65400 239.05400 236.73300 234.59000
 232.59500 230.72500 228.83400 226.82600 224.66600 222.38700 220.10400 217.71500
 215.45900 213.06600 210.54600 208.09300 205.35400 202.08130 196.05959 200.71215
 209.01611 216.90438 223.84126 229.78593 235.00632 240.20838 245.98943 250.68668
 254.32982 257.93487 261.55666 264.96801 268.15192 271.06452 273.76717 276.25691
 278.57680 280.74479 282.77456 284.60533 286.27232 287.81705 289.31715 290.65561
 291.81734 292.81312 293.70701 294.49387 295.17482 295.77730 296.32696 296.82492
 297.27278 297.67160 298.02000 298.46400
 366.78100 356.33554 345.76808 334.63462 323.03816 311.23270 299.10324 286.90678
 274.61932 262.51686 250.52641 239.82795 229.95049 221.05503 213.23757 206.24011
 200.07465 195.01319 191.59573 189.63827 188.67581 188.74035 189.57589 190.88443
 192.60997 194.70551 196.96905 199.32859 201.77413 204.25468 206.34322 208.18576
 209.81230 210.95784 211.18738 211.41592 211.35346 211.05900 210.69254 210.32308
 209.94062 209.65116 209.45970 209.32424 209.25278 209.58432 209.97086 210.36040
 211.15394 212.33249 213.58303 215.36657 217.29511 219.33865 221.43419 223.51773
 225.57827 227.66281 229.76035 231.86689 233.99643 236.16897 238.42551 240.79605
 243.41759 245.66913 247.67167 249.43721 250.85476 251.97830 252.80084 253.11738
 253.15492 252.92946 252.29000 251.23854 249.84508 248.00662 245.91616 243.74970
 241.54124 239.34578 237.16632 235.00586 232.86640 230.73394 228.76048 226.91803
 225.20157 223.67411 222.30465 221.07719 219.95973 218.92027 218.02481 217.16635
 216.40889 215.58943 214.68797 214.05251 213.50305 213.00291 211.82385 211.58003
 212.27910 214.16736 216.03473 216.96721 218.77802 222.84592 228.81256 233.83287
 237.65216 241.37032 245.09930 248.93071 252.85390 256.02313 258.59085 261.10779
 263.94363 266.64609 269.01950 271.06351 272.92490 274.69788 276.34024 277.99234
 279.69037 281.32700 282.82175 284.17685 285.35800 286.40549 287.36417 288.23544
 289.02600 289.73343 290.35910 291.19119
 366.78100 356.33303 345.76306 334.62710 323.02813 311.22016 299.08819 286.88923
 274.59926 262.49429 250.50132 239.80036 229.92039 221.02242 213.20245 206.20249
 200.03452 194.97055 191.55058 189.59062 188.62565 188.68768 189.52071 190.82675
 192.54978 194.64281 196.90384 199.26088 201.70391 204.18194 206.26797 208.10801
 209.73204 210.87507 211.10210 211.32814 211.26317 210.96620 210.59723 210.22526
 209.84030 209.54833 209.35436 209.21639 209.14243 209.47146 209.85549 210.24252
 211.03356 212.20959 213.45762 215.23865 217.16469 219.20572 221.29875 223.37978
 225.43782 227.51985 229.61488 231.71891 233.84595 236.01598 238.27001 240.63804
 243.25708 245.50611 247.50614 249.26917 250.68421 251.80524 252.62527 252.93930
 252.97433 252.74637 252.10440 251.05043 249.65446 247.81350 245.72053 243.55156
 241.34059 239.14263 236.96066 234.79769 232.65572 230.52076 228.54479 226.69982
 224.98085 223.45089 222.07892 220.84895 219.72898 218.68702 217.78905 216.92808
 216.16811 215.34615 214.44218 213.80421 213.25224 212.87747 211.99341 211.72366
 212.37601 214.25504 216.04359 217.00548 218.69031 222.75446 228.76300 233.75471
 237.56734 241.29694 245.05243 248.89690 252.80312 255.93141 258.46503 260.98874
 263.79843 266.50891 268.91928 270.96423 272.80402 274.55655 276.20285 277.86386
 279.57053 281.21542 282.71637 284.07321 285.25305 286.30148 287.26065 288.13312
 288.92325 289.63211 290.25885 291.08936
 366.78100 356.33086 345.75873 334.62059 323.01945 311.20932 299.07518 286.87405
 274.58191 262.47477 250.47964 239.77650 229.89436 220.99423 213.17209 206.16996
 199.99982 194.93368 191.51155 189.54941 188.58227 188.64214 189.47300 190.77687
 192.49773 194.58859 196.84746 199.20232 201.64318 204.11905 206.20291 208.04077
 209.66264 210.80350 211.02837 211.25223 211.18509 210.88596 210.51482 210.14068
 209.75355 209.45941 209.26328 209.12314 209.04700 209.37387 209.75573 210.14059
 210.92946 212.10332 213.34918 215.12805 217.05191 219.09078 221.18164 223.26050
 225.31637 227.39623 229.48909 231.59096 233.71582 235.88369 238.13555 240.50141
 243.11828 245.36514 247.36300 249.12387 250.53673 251.65560 252.47346 252.78532
 252.81819 252.58805 251.94391 250.88778 249.48964 247.64650 245.55137 243.38023
 241.16710 238.96696 236.78282 234.61769 232.47355 230.33641 228.35828 226.51114
 224.79001 223.25787 221.88373 220.65160 219.52946 218.48532 217.58519 216.72205
 215.95992 215.13578 214.22964 213.58951 213.03537 212.76822 212.13763 211.87132
 212.48228 214.33342 216.04947 217.04678 218.63268 222.68265 228.71805 233.67421
 237.47641 241.21890 245.00183 248.85870 252.74211 255.83345 258.34229 260.87512
 263.65399 266.37067 268.81506 270.85965 272.67883 274.41403 276.06622 277.73746
 279.45544 281.10632 282.61349 283.97134 285.15359 286.20007 287.16165 288.03271
 288.82544 289.53452 290.16010 290.99561
 366.78100 356.32902 345.75504 334.61506 323.01208 311.20010 299.06412 286.86114
 274.56716 262.45818 250.46120 239.75621 229.87223 220.97025 213.14627 206.14229
 199.97031 194.90233 191.47835 189.51437 188.54539 188.60341 189.43243 190.73445
 192.45347 194.54249 196.79951 199.15253 201.59155 204.06557 206.14759 207.98361
 209.60362 210.74264 210.96566 211.18768 211.11870 210.81772 210.44474 210.06876
 209.67978 209.38380 209.18582 209.04384 208.96586 209.29088 209.67090 210.05392
 210.84094 212.01296 213.25698 215.03400 216.95602 218.99303 221.08205 223.15907
 225.21309 227.29111 229.38213 231.48215 233.60517 235.77119 238.02121 240.38523
 243.00025 245.24527 247.24129 249.00031 250.41133 251.52835 252.34437 252.65439
 252.68541 252.45343 251.80744 250.74946 249.34948 247.50450 245.40752 243.23454
 241.01956 238.81758 236.63160 234.46462 232.31864 230.17966 228.19968 226.35070
 224.62772 223.09374 221.71776 220.48378 219.35980 218.31382 217.41184 216.54685
 215.78287 214.95689 214.04891 213.40693 212.85095 212.67409 212.25641 212.03070
 212.58643 214.40329 216.07281 217.09320 218.58841 222.63185 228.67140 233.59036
 237.38094 241.13800 244.94861 248.81599 252.67143 255.73070 258.22330 260.76672
 263.51047 266.22580 268.70044 270.74500 272.54877 274.27249 275.93408 277.62003
 279.34793 281.00320 282.51752 283.87540 285.05746 286.10583 287.06592 287.94000
 288.73032 289.44244 290.06775 290.90378
 366.78100 356.32738 345.75176 334.61013 323.00551 311.19189 299.05427 286.84965
 274.55403 262.44340 250.44478 239.73816 229.85254 220.94892 213.12330 206.11767
 199.94405 194.87443 191.44881 189.48319 188.51257 188.56894 189.39632 190.69670
 192.41408 194.50146 196.75684 199.10821 201.54559 204.01797 206.09835 207.93273
 209.55111 210.68848 210.90986 211.13024 211.05962 210.75700 210.38237 210.00475
 209.61413 209.31651 209.11689 208.97327 208.89364 209.21702 209.59540 209.97678
 210.76216 211.93254 213.17491 214.95029 216.87067 218.90605 220.99343 223.06881
 225.12118 227.19756 229.28694 231.38532 233.50670 235.67108 237.91945 240.28183
 242.89521 245.13859 247.13297 248.89035 250.29972 251.41510 252.22948 252.53786
 252.56724 252.33361 251.68599 250.62637 249.22475 247.37813 245.27951 243.10488
 240.88826 238.68464 236.49702 234.32840 232.18078 230.04015 228.05853 226.20791
 224.48329 222.94767 221.57005 220.33442 219.20880 218.16118 217.25756 216.39094
 215.62532 214.79769 213.88807 213.24445 212.68683 212.58949 212.35948 212.18790
 212.69315 214.47269 216.11330 217.13666 218.55634 222.59979 228.62132 233.50723
 237.28848 241.05862 244.89548 248.76993 252.59042 255.62100 258.10434 260.65958
 263.36475 266.07224 268.57166 270.62015 272.41779 274.13785 275.80850 277.51001
 279.24481 280.90729 282.42593 283.78494 284.96744 286.01718 286.97723 287.85071
 288.64471 289.35373 289.98056 290.81882
 366.78100 356.32589 345.74878 334.60567 322.99956 311.18446 299.04535 286.83924
 274.54213 262.43002 250.42991 239.72180 229.83469 220.92959 213.10248 206.09537
 199.92026 194.84915 191.42204 189.45493 188.48282 188.53771 189.36361 190.66250
 192.37839 194.46428 196.71817 199.06806 201.50395 203.97484 206.05373 207.88663
 209.50352 210.63941 210.85930 211.07819 211.00608 210.70197 210.32586 209.94676
 209.55465 209.25554 209.05443 208.90932 208.82821 209.15010 209.52699 209.90688
 210.69078 211.85967 213.10056 214.87445 216.79334 218.82723 220.91312 222.98701
 225.03791 227.11280 229.20069 231.29758 233.41747 235.58036 237.82725 240.18814
 242.80003 245.04193 247.03482 248.79071 250.19860 251.31249 252.12538 252.43227
 252.46016 252.22506 251.57595 250.51484 249.11173 247.26362 245.16351 242.98740
 240.76929 238.56418 236.37508 234.20497 232.05586 229.91375 227.93064 226.07853
 224.35242 222.81531 221.43620 220.19910 219.07199 218.02288 217.11777 216.24966
 215.48255 214.65344 213.74233 213.09723 212.53812 212.51247 212.45174 212.33705
 212.80519 214.54724 216.16510 217.16661 218.54373 222.58330 228.56921 233.42992
 237.20255 240.98427 244.84300 248.71976 252.49817 255.50360 257.98557 260.55206
 263.21600 265.90796 268.42758 270.48151 272.28442 274.01205 275.69431 277.40918
 279.14819 280.81738 282.34055 283.69928 284.88239 285.93048 286.89285 287.76730
 288.55859 289.27185 289.89798 290.73685
 366.78100 356.32461 345.74621 334.60182 322.99442 311.17803 299.03764 286.83024
 274.53185 262.41845 250.41706 239.70767 229.81927 220.91288 213.08448 206.07609
 199.89970 194.82730 191.39891 189.43052 188.45712 188.51073 189.33533 190.63294
 192.34755 194.43215 196.68476 199.03336 201.46797 203.93758 206.01518 207.84679
 209.46239 210.59700 210.81561 211.03321 210.95982 210.65442 210.27703 209.89664
 209.50324 209.20285 209.00045 208.85406 208.77167 209.09227 209.46788 209.84649
 210.62909 211.79670 213.03630 214.80891 216.72652 218.75912 220.84373 222.91633
 224.96594 227.03955 229.12615 231.22176 233.34036 235.50197 237.74758 240.10718
 242.71779 244.95839 246.95000 248.70461 250.11121 251.22382 252.03542 252.34103
 252.36764 252.13124 251.48085 250.41846 249.01406 247.16467 245.06327 242.88588
 240.66649 238.46009 236.26970 234.09830 231.94791 229.80452 227.82012 225.96673
 224.23933 222.70094 221.32055 220.08215 218.95376 217.90336 216.99697 216.12758
 215.35918 214.52879 213.61639 212.97000 212.40961 212.44597 212.53175 212.48003
 212.92294 214.63240 216.21991 217.18219 218.55885 222.58179 228.51663 233.35646
 237.12241 240.91458 244.79158 248.66672 252.39499 255.37831 257.86765 260.44611
 263.06662 265.73544 268.26590 270.32532 272.14316 273.89218 275.59317 277.31946
 279.06192 280.73495 282.25977 283.61969 284.80286 285.85172 286.81329 287.68896
 288.48038 289.19330 289.82211 290.66263
 366.78100 356.32357 345.74415 334.59872 322.99030 311.17287 299.03144 286.82302
 274.52359 262.40916 250.40674 239.69631 229.80689 220.89946 213.07003 206.06061
 199.88318 194.80975 191.38033 189.41090 188.43648 188.48905 189.31262 190.60920
 192.32277 194.40635 196.65792 199.00549 201.43907 203.90764 205.98421 207.81479
 209.42936 210.56294 210.78051 210.99708 210.92266 210.61623 210.23780 209.85638
 209.46195 209.16053 208.95710 208.80967 208.72625 209.04582 209.42040 209.79797
 210.57954 211.74612 212.98469 214.75626 216.67284 218.70441 220.78799 222.85956
 224.90813 226.98071 229.06628 231.16085 233.27843 235.43900 237.68358 240.04215
 242.65172 244.89130 246.88187 248.63545 250.04102 251.15259 251.96317 252.26774
 252.29331 252.05589 251.40446 250.34104 248.93561 247.08518 244.98276 242.80433
 240.58390 238.37648 236.18505 234.01263 231.86120 229.71677 227.73135 225.87692
 224.14850 222.60907 221.22764 219.98822 218.85879 217.80736 216.89994 216.02951
 215.26009 214.42866 213.51523 212.86781 212.30638 212.39302 212.59763 212.61641
 213.04892 214.72563 216.27573 217.19711 218.59975 222.59248 228.47116 233.28503
 237.04326 240.84589 244.74002 248.61151 252.28040 255.24214 257.74753 260.33975
 262.91837 265.55869 268.09177 270.15826 271.99814 273.77478 275.49506 277.23514
 278.98093 280.65952 282.18918 283.55118 284.73358 285.78397 286.74454 287.62259
 288.41431 289.12805 289.75726 290.60016
 366.78100 356.32277 345.74255 334.59632 322.98709 311.16886 299.02664 286.81741
 274.51718 262.40195 250.39873 239.68750 229.79727 220.88905 213.05882 206.04859
 199.87036 194.79614 191.36591 189.39568 188.42045 188.47223 189.29500 190.59077
 192.30355 194.38632 196.63709 198.98386 201.41664 203.88441 205.96018 207.78995
 209.40373 210.53650 210.75327 210.96905 210.89382 210.58659 210.20736 209.82514
 209.42991 209.12768 208.92345 208.77523 208.69100 209.00977 209.38355 209.76032
 210.54109 211.70686 212.94464 214.71541 216.63118 218.66195 220.74473 222.81550
 224.86327 226.93505 229.01982 231.11359 233.23036 235.39014 237.63391 239.99168
 242.60045 244.83923 246.82900 248.58177 249.98655 251.09732 251.90709 252.21086
 252.23564 251.99741 251.34518 250.28095 248.87473 247.02350 244.92027 242.74105
 240.51982 238.31159 236.11936 233.94614 231.79391 229.64868 227.66245 225.80723
 224.07800 222.53777 221.15555 219.91532 218.78509 217.73286 216.82464 215.95341
 215.18318 214.35095 213.43673 212.78850 212.22627 212.35303 212.65248 212.74513
 213.17999 214.83020 216.32828 217.21307 218.66748 222.60739 228.42636 233.21332
 236.96350 240.77733 244.68877 248.55534 252.15514 255.09381 257.62177 260.22995
 262.77002 265.37784 267.90851 269.98520 271.85687 273.66415 275.40326 277.15369
 278.90765 280.59137 282.12488 283.48746 284.67126 285.72198 286.68454 287.56180
 288.35550 289.07001 289.70004 290.54541
 366.78100 356.32230 345.74159 334.59489 322.98518 311.16648 299.02377 286.81407
 274.51336 262.39766 250.39396 239.68225 229.79155 220.88284 213.05214 206.04143
 199.86273 194.78802 191.35732 189.38662 188.41091 188.46221 189.28450 190.57980
 192.29209 194.37439 196.62469 198.97098 201.40328 203.87057 205.94587 207.77516
 209.38846 210.52075 210.73705 210.95235 210.87664 210.56894 210.18923 209.80653
 209.41082 209.10812 208.90341 208.75471 208.67001 208.98830 209.36160 209.73789
 210.51819 211.68348 212.92078 214.69107 216.60637 218.63667 220.71896 222.78926
 224.83655 226.90785 228.99214 231.08544 233.20174 235.36103 237.60433 239.96162
 242.56992 244.80821 246.79751 248.54980 249.95410 251.06440 251.87369 252.17699
 252.20128 251.96258 251.30987 250.24517 248.83846 246.98676 244.88306 242.70335
 240.48165 238.27294 236.08024 233.90653 231.75383 229.60812 227.62142 225.76572
 224.03601 222.49531 221.11260 219.87190 218.74119 217.68849 216.77978 215.90808
 215.13738 214.30467 213.38997 212.74126 212.17856 212.33119 212.69179 212.87062
 213.31622 214.92856 216.40482 217.24986 218.72141 222.62859 228.39639 233.14441
 236.88072 240.70593 244.63542 248.49438 252.01707 254.93059 257.48663 260.11307
 262.61935 265.19376 267.71768 269.81088 271.72473 273.56943 275.32025 277.07114
 278.83426 280.52914 282.07013 283.43408 284.61707 285.66907 286.63287 287.51129
 288.30627 289.02203 289.65213 290.49939
 366.78100 356.32199 345.74099 334.59398 322.98397 311.16497 299.02196 286.81195
 274.51095 262.39494 250.39093 239.67893 229.78792 220.87891 213.04791 206.03690
 199.85790 194.78289 191.35188 189.38088 188.40487 188.45586 189.27786 190.57285
 192.28484 194.36684 196.61683 198.96282 201.39482 203.86181 205.93680 207.76580
 209.37879 210.51078 210.72678 210.94177 210.86576 210.55776 210.17775 209.79474
 209.39874 209.09573 208.89073 208.74172 208.65671 208.97471 209.34770 209.72369
 210.50369 211.66868 212.90567 214.67567 216.59066 218.62065 220.70265 222.77264
 224.81963 226.89063 228.97462 231.06761 233.18361 235.34260 237.58559 239.94259
 242.55058 244.78857 246.77757 248.52956 249.93356 251.04355 251.85254 252.15554
 252.17953 251.94052 251.28752 250.22251 248.81550 246.96350 244.85949 242.67948
 240.45748 238.24847 236.05546 233.88146 231.72845 229.58244 227.59544 225.73943
 224.00942 222.46842 221.08541 219.84440 218.71340 217.66039 216.75139 215.87938
 215.10837 214.27537 213.36036 212.71135 212.14835 212.32104 212.72908 212.97021
 213.46272 215.05917 216.46159 217.29425 218.83501 222.65388 228.34944 233.06181
 236.79144 240.63216 244.58125 248.42761 251.86563 254.75006 257.33884 259.98697
 262.46741 265.00888 267.52353 269.64136 271.60727 273.49673 275.25754 277.00070
 278.76306 280.47427 282.01782 283.38196 284.56543 285.61780 286.58194 287.46146
 288.25735 288.97141 289.60593 290.45032
 366.78100 356.32187 345.74074 334.59361 322.98347 311.16434 299.02121 286.81108
 274.50995 262.39382 250.38968 239.67755 229.78642 220.87729 213.04616 206.03503
 199.85590 194.78076 191.34963 189.37850 188.40237 188.45324 189.27511 190.56998
 192.28184 194.36371 196.61358 198.95945 201.39132 203.85819 205.93305 207.76192
 209.37479 210.50666 210.72253 210.93740 210.86127 210.55313 210.17300 209.78987
 209.39374 209.09061 208.88548 208.73635 208.65121 208.96908 209.34195 209.71782
 210.49769 211.66256 212.89942 214.66929 216.58416 218.61403 220.69590 222.76577
 224.81264 226.88350 228.96737 231.06024 233.17611 235.33498 237.57785 239.93471
 242.54258 244.78045 246.76932 248.52119 249.92506 251.03493 251.84379 252.14666
 252.17053 251.93140 251.27827 250.21314 248.80601 246.95387 244.84974 242.66961
 240.44748 238.23835 236.04522 233.87108 231.71795 229.57182 227.58469 225.72856
 223.99843 222.45730 221.07416 219.83303 218.70190 217.64877 216.73964 215.86751
 215.09638 214.26324 213.34811 212.69898 212.13585 212.32224 212.76260 213.06555
 213.57797 215.20135 216.62163 217.32359 218.85889 222.67522 228.31873 232.99112
 236.70879 240.56064 244.52458 248.35201 251.70117 254.55858 257.18558 259.85965
 262.32449 264.83112 267.33154 269.47488 271.49506 273.43250 275.20361 276.93842
 278.69708 280.42200 281.96826 283.33249 284.51761 285.56976 286.53491 287.41428
 288.21130 288.92923 289.55936 290.41473
 366.78100 356.32204 345.74108 334.59412 322.98416 311.16520 299.02223 286.81227
 274.51131 262.39535 250.39139 239.67943 229.78847 220.87951 213.04855 206.03759
 199.85863 194.78366 191.35270 189.38174 188.40578 188.45682 189.27886 190.57390
 192.28594 194.36798 196.61802 198.96406 201.39609 203.86313 205.93817 207.76721
 209.38025 210.51229 210.72833 210.94337 210.86741 210.55945 210.17949 209.79652
 209.40056 209.09760 208.89264 208.74368 208.65872 208.97676 209.34980 209.72584
 210.50588 211.67092 212.90795 214.67799 216.59303 218.62307 220.70511 222.77515
 224.82219 226.89323 228.97727 231.07031 233.18634 235.34538 237.58842 239.94546
 242.55350 244.79154 246.78058 248.53262 249.93666 251.04670 251.85574 252.15877
 252.18281 251.94385 251.29089 250.22593 248.81897 246.96701 244.86305 242.68309
 240.46113 238.25217 236.05920 233.88524 231.73228 229.58632 227.59936 225.74340
 224.01344 222.47248 221.08952 219.84856 218.71760 217.66463 216.75567 215.88371
 215.11275 214.27979 213.36483 212.71587 212.15291 212.34009 212.78230 213.17979
 213.69080 215.26941 216.78871 217.44467 218.92957 222.68701 228.27173 232.90047
 236.60742 240.47595 244.45882 248.26970 251.53455 254.37041 257.03934 259.73993
 262.19434 264.66312 267.13934 269.30637 271.38052 273.37070 275.15149 276.87860
 278.63672 280.37305 281.91995 283.28592 284.47110 285.52426 286.48944 287.37003
 288.16785 288.88461 289.51730 290.37662
 366.78100 356.32235 345.74169 334.59504 322.98539 311.16673 299.02408 286.81442
 274.51377 262.39812 250.39446 239.68281 229.79216 220.88350 213.05285 206.04220
 199.86354 194.78889 191.35824 189.38758 188.41193 188.46327 189.28562 190.58097
 192.29331 194.37566 196.62601 198.97235 201.40470 203.87205 205.94739 207.77674
 209.39008 210.52243 210.73878 210.95412 210.87847 210.57082 210.19116 209.80851
 209.41286 209.11020 208.90555 208.75689 208.67224 208.99059 209.36393 209.74028
 210.52063 211.68597 212.92332 214.69367 216.60901 218.63936 220.72171 222.79205
 224.83940 226.91074 228.99509 231.08844 233.20478 235.36413 237.60748 239.96482
 242.57317 244.81152 246.80086 248.55321 249.95755 251.06790 251.87725 252.18059
 252.20494 251.96629 251.31363 250.24898 248.84233 246.99067 244.88702 242.70737
 240.48571 238.27706 236.08440 233.91075 231.75810 229.61244 227.62579 225.77014
 224.04048 222.49983 221.11718 219.87652 218.74587 217.69321 216.78456 215.91291
 215.14225 214.30960 213.39495 212.74629 212.18364 212.36707 212.80043 213.29002
 213.82973 215.32452 216.90028 217.56871 219.03171 222.68605 228.21893 232.80737
 236.51134 240.40340 244.40619 248.19865 251.37839 254.18585 256.89105 259.61499
 262.06146 264.49442 266.94553 269.13977 271.27411 273.32074 275.11658 276.83707
 278.58469 280.32312 281.87161 283.23764 284.42325 285.47681 286.44287 287.32455
 288.12277 288.84030 289.47366 290.33600
 366.78100 356.32271 345.74243 334.59614 322.98685 311.16857 299.02628 286.81700
 274.51671 262.40142 250.39814 239.68685 229.79656 220.88828 213.05799 206.04771
 199.86942 194.79513 191.36485 189.39456 188.41927 188.47099 189.29370 190.58941
 192.30213 194.38484 196.63556 198.98227 201.41498 203.88270 205.95841 207.78812
 209.40184 210.53455 210.75126 210.96698 210.89169 210.58441 210.20512 209.82283
 209.42755 209.12526 208.92097 208.77269 208.68840 209.00712 209.38083 209.75754
 210.53826 211.70397 212.94168 214.71240 216.62811 218.65882 220.74154 222.81225
 224.85997 226.93168 229.01639 231.11011 233.22682 235.38653 237.63025 239.98796
 242.59668 244.83539 246.82510 248.57782 249.98253 251.09324 251.90296 252.20667
 252.23138 251.99310 251.34081 250.27653 248.87024 247.01895 244.91567 242.73638
 240.51509 238.30681 236.11452 233.94123 231.78895 229.64366 227.65738 225.80209
 224.07280 222.53252 221.15023 219.90994 218.77966 217.72737 216.81909 215.94780
 215.17751 214.34523 213.43094 212.78265 212.22037 212.40022 212.82515 213.37016
 213.99030 215.40787 216.96964 217.68222 219.14256 222.68555 228.17563 232.73508
 236.43628 240.34764 244.36000 248.12326 251.20995 253.98187 256.72083 259.46854
 261.91473 264.32156 266.75342 268.98389 271.18329 273.29074 275.10501 276.81638
 278.54251 280.27316 281.82166 283.18790 284.37396 285.42767 286.39383 287.27612
 288.07669 288.79395 289.42816 290.28952
 366.78100 356.32296 345.74293 334.59689 322.98785 311.16982 299.02778 286.81874
 274.51871 262.40367 250.40063 239.68960 229.79956 220.89152 213.06149 206.05145
 199.87341 194.79938 191.36934 189.39930 188.42427 188.47623 189.29919 190.59516
 192.30812 194.39108 196.64205 198.98901 201.42197 203.88994 205.96590 207.79586
 209.40983 210.54279 210.75975 210.97572 210.90068 210.59364 210.21461 209.83257
 209.43753 209.13550 208.93146 208.78342 208.69939 209.01835 209.39231 209.76928
 210.55024 211.71620 212.95417 214.72513 216.64109 218.67206 220.75502 222.82598
 224.87395 226.94591 229.03087 231.12484 233.24180 235.40176 237.64573 240.00369
 242.61265 244.85162 246.84158 248.59454 249.99950 251.11047 251.92043 252.22439
 252.24936 252.01132 251.35928 250.29525 248.88921 247.03817 244.93514 242.75610
 240.53506 238.32703 236.13499 233.96195 231.80992 229.66488 227.67884 225.82381
 224.09477 222.55473 221.17270 219.93266 218.80262 217.75059 216.84255 215.97151
 215.20148 214.36944 213.45540 212.80737 212.24533 212.43018 212.86688 213.43074
 214.13965 215.50787 217.01678 217.80563 219.27077 222.69774 228.14735 232.68642
 236.37558 240.29633 244.30598 248.02974 251.02197 253.75938 256.53479 259.31036
 261.76569 264.15405 266.57022 268.83994 271.10046 273.26352 275.09412 276.79889
 278.49771 280.22885 281.77725 283.14401 284.33090 285.38474 286.35110 287.23279
 288.03296 288.75198 289.38516 290.25076
 366.78100 356.32313 345.74326 334.59739 322.98852 311.17065 299.02878 286.81991
 274.52004 262.40517 250.40230 239.69143 229.80156 220.89369 213.06382 206.05395
 199.87608 194.80221 191.37234 189.40247 188.42760 188.47973 189.30286 190.59899
 192.31212 194.39525 196.64638 198.99351 201.42664 203.89477 205.97090 207.80103
 209.41516 210.54829 210.76542 210.98155 210.90668 210.59981 210.22094 209.83907
 209.44420 209.14233 208.93846 208.79059 208.70672 209.02585 209.39998 209.77711
 210.55824 211.72437 212.96250 214.73363 216.64976 218.68089 220.76402 222.83515
 224.88328 226.95541 229.04054 231.13467 233.25180 235.41193 237.65606 240.01419
 242.62332 244.86245 246.85258 248.60571 250.01084 251.12197 251.93210 252.23623
 252.26136 252.02349 251.37162 250.30775 248.90187 247.05100 244.94813 242.76926
 240.54839 238.34052 236.14865 233.97578 231.82391 229.67904 227.69317 225.83830
 224.10943 222.56956 221.18769 219.94782 218.81795 217.76608 216.85821 215.98734
 215.21747 214.38560 213.47173 212.82386 212.26199 212.45731 212.91878 213.49382
 214.26622 215.59990 217.04703 217.94463 219.43596 222.72600 228.13539 232.64700
 236.31415 240.23866 244.23987 247.92220 250.82747 253.53348 256.34567 259.14990
 261.62027 263.99374 266.39557 268.70148 271.01794 273.23154 275.07571 276.77911
 278.47531 280.18472 281.73132 283.09747 284.28375 285.33795 286.30560 287.18698
 287.98764 288.70877 289.34122 290.20773
 366.78100 356.32344 345.74388 334.59833 322.98977 311.17221 299.03065 286.82210
 274.52254 262.40798 250.40542 239.69487 229.80531 220.89775 213.06819 206.05864
 199.88108 194.80752 191.37796 189.40841 188.43385 188.48629 189.30973 190.60618
 192.31962 194.40306 196.65450 199.00195 201.43539 203.90383 205.98027 207.81072
 209.42516 210.55860 210.77604 210.99249 210.91793 210.61137 210.23281 209.85125
 209.45670 209.15514 208.95158 208.80402 208.72047 209.03991 209.41435 209.79179
 210.57324 211.73968 212.97812 214.74956 216.66601 218.69745 220.78089 222.85233
 224.90078 226.97322 229.05866 231.15310 233.27055 235.43099 237.67543 240.03387
 242.64332 244.88276 246.87320 248.62664 250.03209 251.14353 251.95397 252.25841
 252.28386 252.04630 251.39474 250.33118 248.92562 247.07507 244.97251 242.79395
 240.57339 238.36584 236.17428 234.00172 231.85016 229.70561 227.72005 225.86549
 224.13693 222.59738 221.21582 219.97626 218.84670 217.79515 216.88759 216.01703
 215.24747 214.41592 213.50236 212.85480 212.29324 212.49265 212.96373 213.56241
 214.38939 215.68544 217.07156 218.09140 219.62869 222.76317 228.13141 232.59917
 236.24332 240.17117 244.16068 247.79955 250.62584 253.30380 256.14932 258.98318
 261.47565 263.84308 266.23526 268.57895 270.94507 273.19910 275.05484 276.76013
 278.47293 280.13873 281.68146 283.04907 284.23514 285.28906 286.25751 287.13947
 287.94089 288.66077 289.29663 290.16296
 366.78100 356.32408 345.74516 334.60024 322.99231 311.17539 299.03447 286.82655
 274.52763 262.41371 250.41179 239.70186 229.81294 220.90602 213.07710 206.06818
 199.89126 194.81834 191.38941 189.42049 188.44657 188.49965 189.32373 190.62081
 192.33489 194.41896 196.67104 199.01912 201.45320 203.92228 205.99936 207.83044
 209.44551 210.57959 210.79767 211.01475 210.94083 210.63491 210.25699 209.87606
 209.48214 209.18122 208.97830 208.83138 208.74846 209.06854 209.44361 209.82169
 210.60377 211.77085 213.00993 214.78201 216.69909 218.73116 220.81524 222.88732
 224.93640 227.00948 229.09556 231.19064 233.30871 235.46979 237.71487 240.07395
 242.68403 244.92411 246.91519 248.66926 250.07534 251.18742 251.99850 252.30358
 252.32966 252.09274 251.44181 250.37889 248.97397 247.12405 245.02213 242.84421
 240.62429 238.41736 236.22644 234.05452 231.90360 229.75968 227.77476 225.92084
 224.19291 222.65399 221.27307 220.03415 218.90523 217.85431 216.94739 216.07746
 215.30854 214.47762 213.56470 212.91778 212.35686 212.54608 212.99313 213.62544
 214.52588 215.78300 217.11722 218.24715 219.82118 222.79994 228.12274 232.53944
 236.16342 240.09497 244.06602 247.65332 250.40508 253.06114 255.93991 258.80551
 261.32928 263.70425 266.09903 268.48438 270.89413 273.18109 275.04871 276.74960
 278.47388 280.09192 281.63065 282.99783 284.18469 285.23969 286.20670 287.08893
 287.89105 288.60974 289.24579 290.11221
 366.78100 356.32498 345.74695 334.60293 322.99590 311.17988 299.03985 286.83283
 274.53480 262.42178 250.42075 239.71173 229.82370 220.91768 213.08965 206.08163
 199.90560 194.83358 191.40555 189.43753 188.46450 188.51848 189.34345 190.64143
 192.35640 194.44138 196.69435 199.04333 201.47831 203.94828 206.02626 207.85823
 209.47421 210.60918 210.82816 211.04613 210.97311 210.66808 210.29106 209.91103
 209.51801 209.21798 209.01596 208.86993 208.78791 209.10888 209.48486 209.86383
 210.64681 211.81478 213.05476 214.82773 216.74571 218.77868 220.86366 222.93663
 224.98661 227.06059 229.14756 231.24354 233.36251 235.52449 237.77046 240.13044
 242.74141 244.98239 246.97436 248.72934 250.13631 251.24929 252.06126 252.36724
 252.39421 252.15819 251.50816 250.44614 249.04211 247.19309 245.09206 242.91504
 240.69601 238.48999 236.29996 234.12894 231.97892 229.83589 227.85187 225.99884
 224.27182 222.73379 221.35377 220.11574 218.98772 217.93769 217.03167 216.16264
 215.39462 214.56459 213.65257 213.00654 212.44652 212.61456 213.01160 213.67816
 214.66721 215.89317 217.19299 218.41275 220.00574 222.84297 228.10513 232.47887
 236.08488 240.01678 243.95778 247.48111 250.16202 252.80374 255.71487 258.61310
 261.17542 263.57367 265.98602 268.41519 270.86108 273.17383 275.05435 276.74814
 278.46646 280.05997 281.59702 282.96591 284.15521 285.21170 286.18225 287.06912
 287.87943 288.60962 289.24695 290.11310
 366.78100 356.32609 345.74917 334.60626 323.00034 311.18543 299.04651 286.84060
 274.54369 262.43177 250.43186 239.72394 229.83703 220.93211 213.10520 206.09829
 199.92337 194.85246 191.42554 189.45863 188.48671 188.54180 189.36789 190.66697
 192.38306 194.46914 196.72323 199.07331 201.50940 203.98049 206.05957 207.89266
 209.50974 210.64583 210.86591 211.08500 211.01309 210.70917 210.33326 209.95434
 209.56243 209.26351 209.06260 208.91769 208.83677 209.15886 209.53594 209.91603
 210.70011 211.86920 213.11029 214.88437 216.80346 218.83754 220.92363 222.99771
 225.04880 227.12389 229.21197 231.30906 233.42914 235.59223 237.83931 240.20040
 242.81249 245.05457 247.04766 248.80374 250.21183 251.32591 252.13900 252.44609
 252.47417 252.23926 251.59034 250.52943 249.12651 247.27860 245.17869 243.00277
 240.78486 238.57994 236.39103 234.22111 232.07220 229.93029 227.94737 226.09546
 224.36954 222.83263 221.45371 220.21680 219.08989 218.04097 217.13606 216.26814
 215.50123 214.67231 213.76140 213.11649 212.55757 212.69527 213.02057 213.73064
 214.80067 216.00400 217.28754 218.57961 220.19243 222.91357 228.08537 232.43411
 236.01796 239.94206 243.83479 247.27870 249.89603 252.53030 255.47232 258.40408
 261.01352 263.45264 265.89624 268.37061 270.84644 273.17606 275.06827 276.75348
 278.46310 280.03323 281.56982 282.93991 284.12894 285.18680 286.15836 287.04645
 287.85770 288.58865 289.23026 290.09564
 366.78100 356.32737 345.75175 334.61012 323.00550 311.19187 299.05424 286.84962
 274.55399 262.44336 250.44474 239.73811 229.85249 220.94886 213.12323 206.11761
 199.94398 194.87436 191.44873 189.48310 188.51248 188.56885 189.39622 190.69660
 192.41397 194.50135 196.75672 199.10809 201.54547 204.01784 206.09822 207.93259
 209.55096 210.68834 210.90971 211.13009 211.05946 210.75683 210.38221 210.00458
 209.61395 209.31633 209.11670 208.97308 208.89345 209.21682 209.59520 209.97657
 210.76195 211.93232 213.17469 214.95007 216.87044 218.90581 220.99319 223.06856
 225.12094 227.19731 229.28668 231.38506 233.50643 235.67081 237.91918 240.28155
 242.89493 245.13830 247.13267 248.89005 250.29942 251.41480 252.22917 252.53754
 252.56692 252.33329 251.68567 250.62604 249.22441 247.37779 245.27916 243.10454
 240.88791 238.68428 236.49666 234.32803 232.18040 230.03978 228.05815 226.20753
 224.48290 222.94727 221.56965 220.33402 219.20840 218.16077 217.25714 216.39052
 215.62489 214.79726 213.88764 213.24401 212.68639 212.78596 213.02124 213.78362
 214.92245 216.11629 217.39302 218.73817 220.38731 223.01305 228.07224 232.41032
 235.96535 239.86981 243.69693 247.04520 249.60898 252.24069 255.21213 258.17859
 260.84433 263.33994 265.82736 268.34692 270.84692 273.18649 275.08990 276.76782
 278.47021 280.01144 281.54453 282.91339 284.10410 285.16211 286.13055 287.01920
 287.83319 288.56537 289.20740 290.07043
 366.78100 356.32877 345.75454 334.61432 323.01109 311.19886 299.06263 286.85941
 274.56518 262.45595 250.45872 239.75350 229.86927 220.96704 213.14281 206.13858
 199.96636 194.89813 191.47390 189.50967 188.54045 188.59822 189.42699 190.72876
 192.44754 194.53631 196.79308 199.14585 201.58463 204.05840 206.14017 207.97594
 209.59571 210.73449 210.95726 211.17903 211.10980 210.80858 210.43535 210.05912
 209.66989 209.37367 209.17544 209.03321 208.95498 209.27975 209.65953 210.04230
 210.82907 212.00084 213.24462 215.02139 216.94316 218.97993 221.06871 223.14548
 225.19925 227.27702 229.36780 231.46757 233.59034 235.75611 238.00588 240.36966
 242.98443 245.22920 247.22497 248.98375 250.39452 251.51129 252.32706 252.63684
 252.66761 252.43538 251.78915 250.73092 249.33070 247.48547 245.38824 243.21501
 240.99979 238.79756 236.61133 234.44410 232.29788 230.15865 228.17842 226.32919
 224.60596 223.07174 221.69551 220.46128 219.33705 218.29083 217.38860 216.52337
 215.75914 214.93292 214.02469 213.38246 212.82623 212.88298 213.01704 213.84117
 215.02892 216.22270 217.51051 218.89531 220.58052 223.12840 228.06937 232.40234
 235.92995 239.80449 243.55167 246.79088 249.30750 251.93774 254.93690 257.94040
 260.67145 263.23453 265.77402 268.33530 270.85349 273.19836 275.10956 276.78601
 278.48236 279.99661 281.52725 282.89706 284.08511 285.14127 286.11032 287.00128
 287.81201 288.54715 289.18768 290.04846
 366.78100 356.32982 345.75664 334.61746 323.01527 311.20409 299.06891 286.86673
 274.57355 262.46537 250.46918 239.76500 229.88182 220.98064 213.15746 206.15428
 199.98310 194.91591 191.49273 189.52955 188.56137 188.62019 189.45001 190.75282
 192.47264 194.56246 196.82028 199.17410 201.61392 204.08874 206.17155 208.00837
 209.62919 210.76901 210.99283 211.21565 211.14746 210.84728 210.47510 210.09992
 209.71174 209.41656 209.21938 209.07819 209.00101 209.32683 209.70765 210.09147
 210.87929 212.05211 213.29692 215.07474 216.99756 219.03538 221.12520 223.20302
 225.25783 227.33665 229.42847 231.52929 233.65311 235.81993 238.07075 240.43556
 243.05138 245.29720 247.29402 249.05384 250.46566 251.58347 252.40029 252.71111
 252.74293 252.51175 251.86657 250.80939 249.41020 247.56602 245.46984 243.29766
 241.08348 238.88230 236.69711 234.53093 232.38575 230.24757 228.26839 226.42021
 224.69803 223.16484 221.78966 220.55648 219.43330 218.38812 217.48694 216.62275
 215.85957 215.03439 214.12721 213.48603 212.93085 212.96223 213.03639 213.88924
 215.12021 216.33376 217.61452 219.04854 220.78850 223.23904 228.08153 232.40495
 235.90836 239.74538 243.40358 246.52855 249.00467 251.63489 254.65776 257.69858
 260.49973 263.13513 265.72705 268.32645 270.85901 273.20554 275.12582 276.80768
 278.50037 280.00632 281.51251 282.87421 284.05780 285.11282 286.08060 286.96976
 287.78336 288.51746 289.16049 290.01788
 366.78100 356.33081 345.75862 334.62043 323.01924 311.20905 299.07486 286.87367
 274.58148 262.47429 250.47910 239.77590 229.89371 220.99352 213.17133 206.16914
 199.99895 194.93276 191.51057 189.54838 188.58119 188.64100 189.47181 190.77562
 192.49643 194.58724 196.84605 199.20086 201.64167 204.11748 206.20129 208.03910
 209.66090 210.80171 211.02652 211.25033 211.18314 210.88395 210.51276 210.13857
 209.75138 209.45719 209.26100 209.12081 209.04462 209.37143 209.75324 210.13805
 210.92686 212.10067 213.34648 215.12529 217.04910 219.08791 221.17871 223.25752
 225.31333 227.39314 229.48595 231.58776 233.71257 235.88038 238.13219 240.49800
 243.11481 245.36162 247.35943 249.12024 250.53305 251.65186 252.46967 252.78148
 252.81429 252.58410 251.93991 250.88371 249.48552 247.64233 245.54714 243.37595
 241.16276 238.96257 236.77838 234.61319 232.46900 230.33181 228.35362 226.50643
 224.78524 223.25305 221.87886 220.64667 219.52448 218.48029 217.58010 216.71691
 215.95471 215.13052 214.22433 213.58414 213.02995 213.03763 213.05576 213.95183
 215.19977 216.42874 217.72667 219.18677 220.97087 223.36348 228.10040 232.40329
 235.89546 239.69618 243.26370 246.27513 248.71313 251.33871 254.37769 257.45203
 260.32303 263.03293 265.67944 268.31894 270.86664 273.21011 275.13184 276.81879
 278.51157 280.09653 281.46472 282.81708 284.00595 285.06219 286.03287 286.92123
 287.73660 288.47296 289.11517 289.96783
 366.78100 356.33163 345.76026 334.62289 323.02251 311.21314 299.07977 286.87940
 274.58803 262.48166 250.48728 239.78491 229.90354 221.00417 213.18280 206.18143
 200.01206 194.94668 191.52531 189.56394 188.59757 188.65820 189.48983 190.79445
 192.51608 194.60771 196.86734 199.22297 201.66460 204.14123 206.22585 208.06448
 209.68711 210.82874 211.05437 211.27900 211.21262 210.91425 210.54388 210.17051
 209.78414 209.49077 209.29540 209.15602 209.08065 209.40828 209.79091 210.17654
 210.96617 212.14079 213.38742 215.16705 217.09168 219.13131 221.22294 223.30257
 225.35919 227.43982 229.53345 231.63608 233.76171 235.93034 238.18297 240.54959
 243.16722 245.41485 247.41348 249.17511 250.58874 251.70836 252.52699 252.83962
 252.87325 252.64388 252.00051 250.94514 249.54776 247.70539 245.61102 243.44065
 241.22828 239.02891 236.84553 234.68116 232.53779 230.40142 228.42405 226.57768
 224.85731 223.32593 221.95256 220.72119 219.59982 218.55645 217.65708 216.79470
 216.03333 215.20996 214.30459 213.66522 213.11185 213.10411 213.08583 213.98390
 215.35161 216.50610 217.73392 219.31151 221.19713 223.48103 228.14590 232.43939
 235.90765 239.66582 243.13272 246.01811 248.40817 251.02809 254.08334 257.19266
 260.13852 262.93262 265.64178 268.32492 270.88373 273.21518 275.13046 276.81744
 278.50912 280.08130 281.43900 282.79114 283.97858 285.03412 285.99832 286.88379
 287.69565 288.42563 289.04651 289.87808
 366.78100 356.33198 345.76097 334.62395 323.02393 311.21491 299.08190 286.88188
 274.59086 262.48484 250.49083 239.78881 229.90779 221.00877 213.18776 206.18674
 200.01772 194.95270 191.53169 189.57067 188.60465 188.66564 189.49762 190.80260
 192.52458 194.61657 196.87655 199.23253 201.67451 204.15150 206.23648 208.07546
 209.69844 210.84043 211.06641 211.29139 211.22537 210.92736 210.55734 210.18432
 209.79831 209.50529 209.31027 209.17125 209.09624 209.42422 209.80720 210.19318
 210.98317 212.15815 213.40513 215.18511 217.11010 219.15008 221.24206 223.32204
 225.37903 227.46001 229.55399 231.65697 233.78296 235.95194 238.20492 240.57191
 243.18989 245.43787 247.43685 249.19884 250.61282 251.73280 252.55178 252.86477
 252.89875 252.66973 252.02671 250.97170 249.57468 247.73266 245.63864 243.46863
 241.25661 239.05759 236.87458 234.71056 232.56754 230.43152 228.45451 226.60849
 224.88847 223.35745 221.98444 220.75342 219.63240 218.58938 217.69037 216.82835
 216.06733 215.24431 214.33930 213.70028 213.14726 213.14627 213.14391 214.01335
 215.42494 216.63277 217.76709 219.37828 221.39894 223.72668 228.21634 232.47076
 235.91930 239.62981 242.98299 245.72858 248.06703 250.69707 253.78264 256.93936
 259.96930 262.85181 265.62134 268.34030 270.89743 273.20871 275.11392 276.80530
 278.50198 280.07117 281.43744 282.77774 283.95901 285.01035 285.97128 286.85333
 287.66785 288.39572 289.01410 289.83905
 366.78100 356.33262 345.76225 334.62587 323.02649 311.21811 299.08574 286.88636
 274.59598 262.49060 250.49723 239.79585 229.91547 221.01709 213.19672 206.19634
 200.02796 194.96358 191.54321 189.58283 188.61745 188.67907 189.51170 190.81732
 192.53994 194.63256 196.89319 199.24981 201.69243 204.17005 206.25568 208.09530
 209.71892 210.86155 211.08817 211.31379 211.24841 210.95104 210.58166 210.20928
 209.82390 209.53153 209.33715 209.19877 209.12439 209.45302 209.83664 210.22326
 211.01388 212.18951 213.43713 215.21775 217.14337 219.18400 221.27662 223.35724
 225.41486 227.49649 229.59111 231.69473 233.82135 235.99098 238.24460 240.61222
 243.23085 245.47947 247.47909 249.24171 250.65634 251.77696 252.59658 252.91020
 252.94483 252.71645 252.07407 251.01969 249.62332 247.78194 245.68856 243.51918
 241.30781 239.10943 236.92705 234.76367 232.62130 230.48592 228.50954 226.66416
 224.94479 223.41441 222.04203 220.81165 219.69128 218.64890 217.75052 216.88915
 216.12877 215.30639 214.40201 213.76364 213.21126 213.20160 213.17880 214.08620
 215.47325 216.72125 217.85507 219.46783 221.56105 223.96626 228.28099 232.49063
 235.91805 239.57890 242.81384 245.42064 247.72102 250.37920 253.50458 256.71249
 259.82217 262.78281 265.60431 268.34964 270.90347 273.19489 275.09204 276.78641
 278.48486 280.06140 281.41391 282.74921 283.92960 284.98016 285.93832 286.82196
 287.63480 288.36401 288.97910 289.79947
 366.78100 356.33357 345.76414 334.62871 323.03028 311.22285 299.09142 286.89299
 274.60356 262.49912 250.50669 239.80626 229.92683 221.02940 213.20997 206.21054
 200.04311 194.97968 191.56025 189.60082 188.63639 188.69896 189.53253 190.83910
 192.56267 194.65623 196.91780 199.27537 201.71894 204.19751 206.28408 208.12465
 209.74922 210.89279 211.12036 211.34693 211.28250 210.98607 210.61764 210.24621
 209.86178 209.57034 209.37691 209.23948 209.16605 209.49562 209.88019 210.26776
 211.05933 212.23590 213.48447 215.26604 217.19261 219.23418 221.32775 223.40932
 225.46789 227.55046 229.64602 231.75059 233.87816 236.04873 238.30330 240.67187
 243.29144 245.54101 247.54158 249.30515 250.72072 251.84229 252.66286 252.97743
 253.01300 252.78557 252.14413 251.09070 249.69527 247.85484 245.76241 243.59398
 241.38355 239.18612 237.00469 234.84226 232.70083 230.56640 228.59097 226.74654
 225.02811 223.49868 222.12724 220.89781 219.77838 218.73695 217.83952 216.97909
 216.21966 215.39823 214.49480 213.85737 213.30594 213.27257 213.19373 214.16953
 215.54170 216.76421 217.97699 219.60106 221.69156 224.16042 228.33122 232.50723
 235.91666 239.52580 242.64391 245.12415 247.39653 250.08234 253.24413 256.49539
 259.67459 262.70581 265.57721 268.35184 270.90460 273.17828 275.07153 276.76913
 278.46457 280.03439 281.40314 282.72226 283.89429 284.93762 285.89191 286.77405
 287.58536 288.31033 288.92523 289.73813
 366.78100 356.33450 345.76600 334.63151 323.03401 311.22751 299.09701 286.89951
 274.61102 262.50752 250.51602 239.81652 229.93802 221.04153 213.22303 206.22453
 200.05803 194.99553 191.57704 189.61854 188.65504 188.71854 189.55304 190.86055
 192.58505 194.67955 196.94205 199.30055 201.74506 204.22456 206.31206 208.15356
 209.77906 210.92357 211.15207 211.37957 211.31607 211.02057 210.65308 210.28258
 209.89908 209.60858 209.41608 209.27959 209.20709 209.53759 209.92309 210.31159
 211.10410 212.28160 213.53110 215.31360 217.24110 219.28361 221.37811 223.46061
 225.52011 227.60361 229.70012 231.80562 233.93412 236.10562 238.36112 240.73063
 243.35113 245.60163 247.60313 249.36763 250.78414 251.90664 252.72814 253.04364
 253.08014 252.85365 252.21315 251.16065 249.76615 247.92665 245.83516 243.66766
 241.45816 239.26166 237.08116 234.91967 232.77917 230.64567 228.67117 226.82767
 225.11018 223.58168 222.21118 220.98268 219.86418 218.82369 217.92719 217.06769
 216.30919 215.48869 214.58620 213.94970 213.39920 213.34402 213.21365 214.24091
 215.63759 216.79288 218.08966 219.74687 221.80849 224.32544 228.37517 232.52333
 235.91953 239.47438 242.47350 244.83052 247.08556 249.80052 252.99013 256.27502
 259.52280 262.62912 265.55194 268.35428 270.90344 273.15536 275.03815 276.73691
 278.42792 279.99298 281.43317 282.65359 283.82611 284.87552 285.83417 286.71652
 287.53253 288.25015 288.86230 289.67416
 366.78100 356.33547 345.76793 334.63440 323.03786 311.23233 299.10280 286.90626
 274.61873 262.51619 250.52566 239.82713 229.94959 221.05406 213.23652 206.23899
 200.07346 195.01192 191.59439 189.63686 188.67432 188.73879 189.57425 190.88272
 192.60819 194.70365 196.96712 199.32658 201.77205 204.25252 206.34098 208.18345
 209.80991 210.95538 211.18485 211.41331 211.35078 211.05624 210.68971 210.32018
 209.93764 209.64811 209.45657 209.32104 209.24951 209.58097 209.96744 210.35690
 211.15037 212.32884 213.57930 215.36277 217.29123 219.33470 221.43017 223.51363
 225.57410 227.65857 229.75603 231.86250 233.99196 236.16443 238.42090 240.79136
 243.41283 245.66429 247.66676 249.43223 250.84969 251.97316 252.79562 253.11209
 253.14956 252.92402 252.28449 251.23295 249.83942 248.00089 245.91035 243.74382
 241.53528 239.33975 237.16022 234.99968 232.86015 230.72761 228.75408 226.91155
 225.19501 223.66748 222.29794 221.07041 219.95288 218.91334 218.01781 217.15928
 216.40174 215.58221 214.68067 214.04514 213.49561 213.41992 213.24113 214.29547
 215.73528 216.86823 218.20670 219.84531 221.88861 224.47018 228.44218 232.56621
 235.93002 239.41493 242.30504 244.55092 246.78250 249.52080 252.73361 256.05777
 259.37946 262.55539 265.51959 268.34045 270.88022 273.10989 274.98752 276.69159
 278.37769 279.93558 281.36676 282.59860 283.77322 284.82132 285.77777 286.66223
 287.48596 288.19733 288.80832 289.61636
 366.78100 356.33586 345.76872 334.63559 323.03945 311.23431 299.10517 286.90904
 274.62190 262.51976 250.52962 239.83149 229.95435 221.05921 213.24207 206.24493
 200.07980 195.01866 191.60152 189.64438 188.68225 188.74711 189.58297 190.89183
 192.61770 194.71356 196.97742 199.33728 201.78315 204.26401 206.35287 208.19573
 209.82259 210.96846 211.19832 211.42718 211.36504 211.07091 210.70477 210.33563
 209.95349 209.66436 209.47322 209.33808 209.26694 209.59880 209.98567 210.37553
 211.16939 212.34825 213.59912 215.38298 217.31184 219.35570 221.45157 223.53543
 225.59629 227.68115 229.77901 231.88588 234.01574 236.18860 238.44546 240.81633
 243.43819 245.69005 247.69291 249.45878 250.87664 252.00050 252.82336 253.14023
 253.17809 252.95295 252.31381 251.26267 249.86954 248.03140 245.94126 243.77512
 241.56699 239.37185 237.19271 235.03257 232.89344 230.76130 228.78816 226.94602
 225.22988 223.70275 222.33361 221.10647 219.98933 218.95020 218.05506 217.19692
 216.43978 215.62065 214.71951 214.08437 213.53523 213.46674 213.30489 214.32201
 215.84634 216.96758 218.27625 219.94809 221.99951 224.62086 228.52592 232.61977
 235.94176 239.35014 242.12122 244.25897 246.47060 249.22900 252.47255 255.84686
 259.23904 262.45667 265.44321 268.27829 270.81754 273.03790 274.93671 276.66681
 278.34787 279.89603 281.26151 282.60730 283.78571 284.83066 285.78461 286.66531
 287.48651 288.18787 288.79562 289.59958
 366.78100 356.33559 345.76819 334.63478 323.03838 311.23297 299.10357 286.90716
 274.61976 262.51735 250.52695 239.82854 229.95113 221.05573 213.23832 206.24092
 200.07551 195.01411 191.59670 189.63930 188.67689 188.74149 189.57708 190.88567
 192.61127 194.70686 196.97046 199.33005 201.77565 204.25624 206.34484 208.18743
 209.81403 210.95962 211.18921 211.41781 211.35540 211.06100 210.69459 210.32519
 209.94278 209.65338 209.46197 209.32656 209.25516 209.58675 209.97335 210.36294
 211.15654 212.33513 213.58573 215.36932 217.29792 219.34151 221.43710 223.52070
 225.58129 227.66589 229.76348 231.87008 233.99967 236.17227 238.42886 240.79946
 243.42105 245.67264 247.67524 249.44083 250.85843 251.98202 252.80462 253.12121
 253.15881 252.93340 252.29400 251.24259 249.84918 248.01078 245.92037 243.75397
 241.54556 239.35016 237.17075 235.01035 232.87094 230.73854 228.76513 226.92272
 225.20632 223.67891 222.30951 221.08210 219.96470 218.92529 218.02989 217.17148
 216.41408 215.59467 214.69326 214.05786 213.50845 213.47041 213.38054 214.42145
 215.94260 216.94557 218.33745 220.13223 222.14665 224.72720 228.59535 232.65228
 235.91525 239.23193 241.88998 243.94539 246.17340 248.97675 252.26613 255.70058
 259.13281 262.37198 265.36951 268.19885 270.73157 272.94556 274.87668 276.64594
 278.33911 279.88605 281.23465 282.58255 283.76373 284.80688 285.75800 286.64459
 287.47894 288.17450 288.78027 289.58090
 366.78100 356.33584 345.76867 334.63551 323.03935 311.23418 299.10502 286.90886
 274.62170 262.51953 250.52937 239.83121 229.95404 221.05888 213.24172 206.24455
 200.07939 195.01823 191.60107 189.64390 188.68174 188.74658 189.58241 190.89125
 192.61709 194.71292 196.97676 199.33660 201.78244 204.26327 206.35211 208.19495
 209.82178 210.96762 211.19746 211.42629 211.36413 211.06997 210.70381 210.33464
 209.95248 209.66332 209.47215 209.33699 209.26583 209.59766 209.98450 210.37434
 211.16818 212.34701 213.59785 215.38169 217.31052 219.35436 221.45020 223.53403
 225.59487 227.67971 229.77755 231.88438 234.01422 236.18706 238.44389 240.81473
 243.43657 245.68840 247.69124 249.45708 250.87492 251.99875 252.82159 253.13843
 253.17626 252.95110 252.31194 251.26077 249.86761 248.02945 245.93929 243.77312
 241.56496 239.36980 237.19063 235.03047 232.89131 230.75914 228.78598 226.94382
 225.22766 223.70049 222.33133 221.10417 219.98700 218.94784 218.05268 217.19451
 216.43735 215.61819 214.71703 214.08186 213.53270 213.49597 213.40919 214.59407
 216.00737 216.95396 218.48090 220.28404 222.22166 224.76610 228.67593 232.61478
 235.84340 239.07614 241.65147 243.65988 245.90459 248.76361 252.10472 255.60272
 259.08054 262.35513 265.36319 268.18127 270.71454 272.92404 274.83258 276.53961
 278.16663 279.69614 281.12390 282.45026 283.62106 284.65848 285.60306 286.48065
 287.29672 287.98627 288.58908 289.37631
 366.78100 356.33738 345.77175 334.64013 323.04551 311.24189 299.11426 286.91964
 274.63402 262.53340 250.54477 239.84815 229.97253 221.07891 213.26328 206.26766
 200.10404 195.04442 191.62879 189.67317 188.71255 188.77892 189.61630 190.92668
 192.65406 194.75143 197.01681 199.37819 201.82557 204.30794 206.39832 208.24270
 209.87108 211.01845 211.24983 211.48021 211.41959 211.12696 210.76234 210.39472
 210.01409 209.72647 209.53685 209.40323 209.33360 209.66698 210.05536 210.44674
 211.24211 212.42249 213.67487 215.46025 217.39062 219.43600 221.53338 223.61876
 225.68113 227.76751 229.86689 231.97526 234.10664 236.28102 238.53940 240.91177
 243.53515 245.78853 247.79291 249.56028 250.97966 252.10504 252.92942 253.24779
 253.28717 253.06355 252.42593 251.37630 249.98468 248.14806 246.05943 243.89481
 241.68819 239.49457 237.31694 235.15832 233.02070 230.89008 228.91845 227.07783
 225.36321 223.83759 222.46996 221.24434 220.12872 219.09110 218.19747 217.34085
 216.58523 215.76760 214.86798 214.23436 213.68674 213.60420 213.40919 214.61523
 216.10417 217.17110 218.69095 220.38454 222.25912 224.82649 228.79068 232.54005
 235.73599 238.88075 241.39447 243.37979 245.61633 248.51888 251.93431 255.49480
 259.01370 262.31943 265.34558 268.16693 270.69556 272.89792 274.78726 276.46799
 278.07556 279.58060 280.97250 282.24432 283.38422 284.39203 285.28790 286.15454
 286.97162 287.67310 288.27899 289.06467
 366.78100 356.33883 345.77466 334.64449 323.05132 311.24915 299.12299 286.92982
 274.64565 262.54648 250.55931 239.86414 229.98997 221.09780 213.28363 206.28946
 200.12729 195.06913 191.65496 189.70079 188.74162 188.80945 189.64828 190.96011
 192.68894 194.78777 197.05460 199.41743 201.86627 204.35010 206.44193 208.28776
 209.91759 211.06642 211.29925 211.53108 211.47191 211.18074 210.81758 210.45141
 210.07224 209.78607 209.59790 209.46573 209.39756 209.73239 210.12222 210.51505
 211.31188 212.49372 213.74755 215.53438 217.46621 219.51304 221.61187 223.69870
 225.76253 227.85036 229.95119 232.06102 234.19386 236.36969 238.62952 241.00335
 243.62818 245.88301 247.88884 249.65767 251.07850 252.20533 253.03116 253.35100
 253.39183 253.16966 252.53349 251.48532 250.09515 248.25998 246.17281 244.00964
 241.80447 239.61230 237.43614 235.27897 233.14280 231.01363 229.04346 227.20429
 225.49112 223.96695 222.60078 221.37661 220.26244 219.22628 218.33411 217.47894
 216.72477 215.90860 215.01043 214.37826 213.83209 213.71802 213.44847 214.60748
 216.12178 217.37769 218.83731 220.47737 222.34518 224.95380 228.92308 232.46376
 235.68460 238.74287 241.18323 243.12415 245.34088 248.28999 251.78262 255.40659
 258.95999 262.29105 265.32806 268.14697 270.66211 272.82352 274.67758 276.36307
 277.97333 279.44492 280.76938 281.99405 283.16125 284.20770 285.16263 286.03857
 286.85062 287.55969 288.17151 288.96594
 366.78100 356.33809 345.77317 334.64226 323.04834 311.24543 299.11852 286.92460
 274.63969 262.53977 250.55186 239.85595 229.98103 221.08812 213.27320 206.27829
 200.11538 195.05646 191.64155 189.68663 188.72672 188.79381 189.63189 190.94298
 192.67106 194.76915 197.03524 199.39732 201.84541 204.32849 206.41958 208.26467
 209.89375 211.04184 211.27392 211.50501 211.44510 211.15318 210.78927 210.42235
 210.04244 209.75553 209.56661 209.43370 209.36478 209.69887 210.08796 210.48004
 211.27613 212.45721 213.71030 215.49639 217.42747 219.47356 221.57164 223.65773
 225.72082 227.80790 229.90799 232.01707 234.14916 236.32425 238.58333 240.95642
 243.58050 245.83459 247.83968 249.60776 251.02785 252.15393 252.97902 253.29811
 253.33819 253.11528 252.47836 251.42945 250.03854 248.20262 246.11471 243.95079
 241.74488 239.55197 237.37505 235.21714 233.08022 230.95031 228.97940 227.13948
 225.42557 223.90065 222.53374 221.30882 220.19391 219.15700 218.26408 217.40817
 216.65325 215.83634 214.93743 214.30451 213.75760 213.70413 213.58788 214.81888
 215.95325 217.25639 218.86153 220.53616 222.45280 225.09723 229.02322 232.38985
 235.67494 238.62193 240.99770 242.83299 245.01923 248.03912 251.64113 255.32065
 258.88950 262.23215 265.26404 268.06406 270.58005 272.75821 274.69897 276.47977
 278.08752 279.48517 280.71103 281.85233 282.98413 284.03287 284.99606 285.89096
 286.71793 287.47214 288.13193 288.97275
 366.78100 356.33741 345.77182 334.64022 323.04563 311.24204 299.11445 286.91986
 274.63426 262.53367 250.54508 239.84849 229.97290 221.07930 213.26371 206.26812
 200.10453 195.04494 191.62934 189.67375 188.71316 188.77957 189.61698 190.92738
 192.65479 194.75220 197.01761 199.37902 201.82643 204.30883 206.39924 208.24365
 209.87206 211.01947 211.25087 211.48128 211.42069 211.12810 210.76351 210.39591
 210.01532 209.72773 209.53814 209.40455 209.33495 209.66836 210.05677 210.44818
 211.24359 212.42399 213.67640 215.46181 217.39222 219.43763 221.53503 223.62044
 225.68285 227.76926 229.86867 231.97707 234.10848 236.28289 238.54130 240.91371
 243.53711 245.79052 247.79493 249.56234 250.98175 252.10715 252.93156 253.24997
 253.28938 253.06579 252.42820 251.37860 249.98701 248.15042 246.06183 243.89724
 241.69064 239.49705 237.31946 235.16087 233.02328 230.89268 228.92109 227.08050
 225.36591 223.84032 222.47272 221.24713 220.13154 219.09395 218.20036 217.34376
 216.58817 215.77058 214.87099 214.23740 213.68980 213.69821 213.79997 214.91730
 215.88484 217.15427 218.94121 220.73505 222.70677 225.28993 228.96193 232.49724
 235.46465 238.33533 240.66119 242.57030 244.83113 247.91606 251.54149 255.24522
 258.83859 262.17679 265.20087 268.05508 270.64246 272.91992 274.92206 276.64969
 278.07776 279.25650 280.41110 281.73895 282.95181 284.12646 285.29355 286.35086
 287.30176 288.14856 288.88831 289.83102
 366.78100 356.33780 345.77261 334.64141 323.04721 311.24402 299.11682 286.92262
 274.63742 262.53723 250.54903 239.85283 229.97764 221.08444 213.26924 206.27405
 200.11085 195.05165 191.63646 189.68126 188.72106 188.78786 189.62567 190.93647
 192.66427 194.76208 197.02788 199.38968 201.83749 204.32029 206.41109 208.25590
 209.88470 211.03250 211.26431 211.49511 211.43491 211.14271 210.77852 210.41132
 210.03112 209.74393 209.55473 209.42153 209.35234 209.68614 210.07494 210.46675
 211.26255 212.44335 213.69615 215.48196 217.41276 219.45856 221.55637 223.64217
 225.70497 227.79178 229.89158 232.00038 234.13219 236.30699 238.56579 240.93859
 243.56240 245.81620 247.82100 249.58881 251.00861 252.13441 252.95922 253.27802
 253.31782 253.09463 252.45743 251.40823 250.01703 248.18084 246.09264 243.92844
 241.72225 239.52905 237.35185 235.19366 233.05646 230.92626 228.95507 227.11487
 225.40067 223.87548 222.50828 221.28308 220.16788 219.13069 218.23749 217.38129
 216.62610 215.80890 214.90970 214.27651 213.72931 213.77141 213.96941 214.89192
 216.23378 217.45767 219.18582 221.08087 222.97513 225.33777 228.99879 232.41829
 235.29665 238.05331 240.29228 242.18657 244.60504 247.84929 251.51656 255.25708
 258.87540 262.21979 265.28824 268.15479 270.70956 272.87164 274.62991 275.97070
 277.10382 278.88867 280.82501 282.68060 284.28647 285.70724 287.00348 288.17776
 289.23392 290.17444 290.99603 292.04309
 366.78100 356.33547 345.76794 334.63441 323.03787 311.23234 299.10281 286.90628
 274.61875 262.51622 250.52568 239.82715 229.94962 221.05409 213.23656 206.23903
 200.07349 195.01196 191.59443 189.63690 188.67437 188.73884 189.57430 190.88277
 192.60824 194.70371 196.96718 199.32665 201.77211 204.25258 206.34105 208.18352
 209.80999 210.95546 211.18492 211.41339 211.35086 211.05633 210.68980 210.32027
 209.93773 209.64820 209.45667 209.32114 209.24961 209.58108 209.96754 210.35701
 211.15048 212.32895 213.57942 215.36289 217.29135 219.33482 221.43029 223.51376
 225.57423 227.65870 229.75616 231.86263 233.99210 236.16457 238.42104 240.79151
 243.41297 245.66444 247.66691 249.43238 250.84985 251.97332 252.79578 253.11225
 253.14972 252.92419 252.28466 251.23313 249.83959 248.00106 245.91053 243.74400
 241.53547 239.33994 237.16040 234.99987 232.86034 230.72781 228.75428 226.91175
 225.19521 223.66768 222.29815 221.07062 219.95309 218.91356 218.01802 217.15949
 216.40196 215.58243 214.68090 214.04537 213.49583 213.70300 214.18141 214.89189
 216.32692 217.59276 219.34789 221.29012 223.13379 225.29405 229.03223 232.35768
 235.10681 237.72127 239.92801 241.95044 244.46696 247.79633 251.59349 255.36740
 258.96646 262.24881 265.23785 267.95193 270.28815 272.18948 273.66592 274.93442
 276.76572 278.86023 280.96796 282.81870 284.42032 285.83737 287.13022 288.30145
 289.35483 290.29288 291.11234 292.15665
 366.78100 356.33390 345.76479 334.62969 323.03158 311.22448 299.09337 286.89527
 274.60616 262.50206 250.50995 239.80985 229.93074 221.03364 213.21453 206.21543
 200.04833 194.98522 191.56612 189.60701 188.64291 188.70580 189.53970 190.84659
 192.57049 194.66438 196.92628 199.28417 201.72807 204.20696 206.29386 208.13475
 209.75965 210.90355 211.13144 211.35834 211.29423 210.99813 210.63002 210.25892
 209.87481 209.58371 209.39060 209.25350 209.18039 209.51029 209.89518 210.28308
 211.07498 212.25187 213.50077 215.28266 217.20956 219.25145 221.34535 223.42724
 225.48614 227.56903 229.66493 231.76982 233.89772 236.06861 238.32351 240.69240
 243.31230 245.56220 247.56309 249.32699 250.74288 251.86478 252.68567 253.00057
 253.03646 252.80936 252.16825 251.11515 249.72004 247.87994 245.78783 243.61973
 241.40963 239.21252 237.03142 234.86931 232.72821 230.59410 228.61900 226.77489
 225.05679 223.52768 222.15658 220.92747 219.80837 218.76726 217.87016 217.01005
 216.25095 215.42985 214.52674 213.88964 213.33853 213.63029 214.31335 215.00832
 216.32130 217.55463 219.36464 221.33801 223.26358 225.46039 228.95334 232.35823
 234.97717 237.41248 239.51857 241.61780 244.17313 247.74794 251.60985 255.38687
 258.91278 262.09293 265.01529 267.66150 269.91788 271.82236 273.38815 274.77075
 276.18457 277.90854 279.58307 281.37381 282.92352 284.29465 285.54559 286.67883
 287.69809 288.60571 289.39862 290.40909
 366.78100 356.33564 345.76829 334.63493 323.03857 311.23322 299.10386 286.90750
 274.62015 262.51779 250.52743 239.82908 229.95172 221.05636 213.23901 206.24165
 200.07629 195.01494 191.59758 189.64022 188.67787 188.74251 189.57815 190.88680
 192.61244 194.70808 196.97173 199.33137 201.77701 204.25766 206.34630 208.18894
 209.81559 210.96123 211.19087 211.41952 211.35716 211.06280 210.69645 210.32709
 209.94473 209.65538 209.46402 209.32866 209.25731 209.58895 209.97559 210.36524
 211.15888 212.33752 213.58817 215.37181 217.30045 219.34410 221.43974 223.52338
 225.58403 227.66867 229.76631 231.87296 234.00260 236.17525 238.43189 240.80253
 243.42418 245.67582 247.67846 249.44411 250.86175 251.98539 252.80804 253.12468
 253.16232 252.93697 252.29761 251.24625 249.85290 248.01454 245.92418 243.75783
 241.54947 239.35411 237.17476 235.01440 232.87504 230.74269 228.76933 226.92697
 225.21062 223.68326 222.31390 221.08655 219.96919 218.92983 218.03448 217.17612
 216.41876 215.59941 214.69805 214.06269 213.51334 213.72525 214.26418 215.13531
 216.40460 217.58556 219.32648 221.30110 223.26982 225.52963 228.85733 232.36354
 234.88712 237.21422 239.20110 241.34467 244.06201 247.65112 251.58069 255.38751
 258.81995 262.02402 264.91788 267.53085 269.78809 271.67618 273.26660 274.68936
 276.17270 277.70700 279.25589 280.65952 281.97842 283.26602 284.44077 285.50500
 286.46219 287.31454 288.05914 289.00806
 366.78100 356.33709 345.77118 334.63927 323.04436 311.24045 299.11254 286.91763
 274.63172 262.53081 250.54190 239.84499 229.96908 221.07517 213.25926 206.26335
 200.09944 195.03953 191.62362 189.66771 188.70680 188.77289 189.60998 190.92007
 192.64716 194.74426 197.00935 199.37044 201.81753 204.29962 206.38971 208.23380
 209.86189 211.00898 211.24007 211.47016 211.40925 211.11634 210.75143 210.38352
 210.00261 209.71470 209.52479 209.39088 209.32097 209.65406 210.04215 210.43324
 211.22833 212.40842 213.66051 215.44560 217.37569 219.42078 221.51787 223.60296
 225.66505 227.75114 229.85023 231.95832 234.08941 236.26350 238.52159 240.89368
 243.51677 245.76986 247.77395 249.54104 250.96013 252.08522 252.90931 253.22740
 253.26649 253.04258 252.40467 251.35477 249.96286 248.12595 246.03704 243.87213
 241.66522 239.47131 237.29340 235.13449 232.99658 230.86567 228.89376 227.05285
 225.33794 223.81203 222.44412 221.21821 220.10230 219.06439 218.17048 217.31357
 216.55766 215.73975 214.83984 214.20593 213.65802 213.82388 214.26091 215.21547
 216.50769 217.73222 219.39972 221.27908 223.21124 225.49226 228.81914 232.30701
 234.74686 236.97043 238.88306 241.03616 243.90791 247.52876 251.48930 255.33549
 258.86368 262.00473 264.87714 267.52902 269.80618 271.68414 273.24402 274.61685
 276.10635 277.65259 279.20236 280.58890 281.81738 283.02350 284.18723 285.24149
 286.18967 287.03403 287.77167 288.71167
 366.78100 356.33557 345.76814 334.63471 323.03828 311.23285 299.10342 286.90699
 274.61956 262.51713 250.52670 239.82827 229.95084 221.05541 213.23798 206.24055
 200.07512 195.01369 191.59626 189.63883 188.67640 188.74097 189.57654 190.88511
 192.61068 194.70625 196.96982 199.32939 201.77496 204.25553 206.34410 208.18667
 209.81324 210.95881 211.18838 211.41695 211.35452 211.06009 210.69366 210.32423
 209.94180 209.65237 209.46094 209.32551 209.25408 209.58565 209.97222 210.36179
 211.15536 212.33393 213.58450 215.36807 217.29664 219.34021 221.43578 223.51935
 225.57992 227.66449 229.76206 231.86863 233.99820 236.17077 238.42734 240.79791
 243.41948 245.67105 247.67362 249.43919 250.85676 251.98033 252.80290 253.11947
 253.15704 252.93161 252.29218 251.24075 249.84732 248.00889 245.91846 243.75203
 241.54360 239.34817 237.16874 235.00831 232.86888 230.73645 228.76302 226.92059
 225.20416 223.67673 222.30730 221.07987 219.96244 218.92301 218.02758 217.16915
 216.41172 215.59229 214.69086 214.05543 213.50600 213.76964 214.40993 215.27023
 216.55472 217.76003 219.43631 221.27217 223.17711 225.48640 228.80331 232.29561
 234.63951 236.73036 238.57864 240.76157 243.74440 247.44203 251.39403 255.25504
 258.84290 262.03674 264.89423 267.52005 269.80597 271.66306 273.19250 274.58618
 276.02142 277.54175 279.09531 280.47968 281.68854 282.77335 283.84006 284.90021
 285.85370 286.70282 287.44458 288.38986
 366.78100 356.33430 345.76560 334.63090 323.03320 311.22650 299.09580 286.89810
 274.60940 262.50570 250.51400 239.81430 229.93560 221.03890 213.22020 206.22150
 200.05480 194.99210 191.57340 189.61470 188.65100 188.71430 189.54860 190.85590
 192.58020 194.67450 196.93680 199.29510 201.73940 204.21870 206.30600 208.14730
 209.77260 210.91690 211.14520 211.37250 211.30880 211.01310 210.64540 210.27471
 209.89101 209.60031 209.40761 209.27091 209.19821 209.52851 209.91381 210.30211
 211.09441 212.27171 213.52101 215.30331 217.23061 219.27291 221.36721 223.44951
 225.50881 227.59211 229.68841 231.79371 233.92201 236.09331 238.34861 240.71791
 243.33821 245.58851 247.58981 249.35411 250.77041 251.89271 252.71401 253.02931
 253.06561 252.83891 252.19821 251.14551 249.75081 247.91111 245.81941 243.65171
 241.44201 239.24531 237.06461 234.90291 232.76221 230.62851 228.65381 226.81011
 225.09241 223.56371 222.19301 220.96431 219.84561 218.80491 217.90821 217.04851
 216.28981 215.46911 214.56641 213.92971 213.37901 213.71797 214.52020 215.38673
 216.79860 218.00662 219.55351 221.30960 223.17404 225.52562 228.84651 232.24733
 234.54195 236.44954 238.22719 240.45770 243.53268 247.31181 251.29308 255.18298
 258.80521 262.03992 264.86600 267.50534 269.82394 271.70782 273.25824 274.67239
 276.05881 277.48755 278.95462 280.32071 281.51373 282.57504 283.55029 284.44543
 285.27246 286.09106 286.82697 287.76480
 366.78100 356.33311 345.76322 334.62734 323.02845 311.22056 299.08867 286.88978
 274.59990 262.49501 250.50212 239.80123 229.92134 221.02346 213.20357 206.20368
 200.03579 194.97190 191.55201 189.59213 188.62724 188.68935 189.52246 190.82857
 192.55169 194.64480 196.90591 199.26302 201.70613 204.18425 206.27036 208.11047
 209.73458 210.87769 211.10481 211.33092 211.26603 210.96914 210.60025 210.22837
 209.84348 209.55159 209.35770 209.21981 209.14592 209.47504 209.85915 210.24626
 211.03737 212.21348 213.46160 215.24271 217.16882 219.20993 221.30304 223.38416
 225.44227 227.52438 229.61949 231.72360 233.85072 236.02083 238.27494 240.64305
 243.26216 245.51128 247.51139 249.27450 250.68961 251.81072 252.63084 252.94495
 252.98006 252.75217 252.11028 251.05639 249.66051 247.81962 245.72673 243.55784
 241.34695 239.14907 236.96718 234.80429 232.66240 230.52751 228.55163 226.70674
 224.98785 223.45796 222.08607 220.85619 219.73630 218.69441 217.79652 216.93563
 216.17575 215.35386 214.44997 213.81208 213.26019 213.68567 214.69380 215.52493
 216.77493 217.96965 219.57445 221.37401 223.26080 225.57449 228.76428 232.20094
 234.30359 236.10214 237.85083 240.19681 243.40654 247.23953 251.24818 255.13470
 258.73462 261.94592 264.83130 267.48340 269.82657 271.75443 273.33383 274.74347
 276.10468 277.46271 278.89713 280.25882 281.45529 282.52927 283.55142 284.57928
 285.50375 286.32700 287.04617 287.96268
 366.78100 356.33284 345.76268 334.62652 323.02736 311.21920 299.08704 286.88788
 274.59772 262.49256 250.49940 239.79825 229.91809 221.01993 213.19977 206.19961
 200.03145 194.96729 191.54713 189.58697 188.62181 188.68365 189.51649 190.82233
 192.54517 194.63801 196.89885 199.25569 201.69853 204.17637 206.26221 208.10205
 209.72590 210.86874 211.09558 211.32142 211.25626 210.95910 210.58994 210.21778
 209.83262 209.54046 209.34630 209.20814 209.13398 209.46282 209.84666 210.23350
 211.02434 212.20018 213.44802 215.22886 217.15470 219.19555 221.28839 223.36923
 225.42707 227.50891 229.60375 231.70759 233.83443 236.00427 238.25811 240.62595
 243.24479 245.49363 247.49347 249.25631 250.67115 251.79199 252.61183 252.92567
 252.96051 252.73235 252.09020 251.03604 249.63988 247.79872 245.70556 243.53640
 241.32524 239.12708 236.94492 234.78176 232.63960 230.50444 228.52828 226.68312
 224.96396 223.43380 222.06164 220.83148 219.71132 218.66916 217.77100 216.90985
 216.14969 215.32753 214.42337 213.78521 213.23305 213.71259 214.83784 215.69298
 216.81435 218.12227 219.84863 221.67145 223.55377 225.71703 228.99211 232.06741
 234.01991 235.76781 237.60565 240.07452 243.32809 247.18156 251.22279 255.10710
 258.67410 261.84637 264.74530 267.38541 269.68222 271.56628 273.11801 274.49734
 275.81992 277.40091 279.02997 280.77502 282.37177 283.78448 285.07336 286.24100
 287.29114 288.22632 289.04327 290.08438
 366.78100 356.33290 345.76279 334.62669 323.02759 311.21949 299.08738 286.88828
 274.59818 262.49308 250.49997 239.79887 229.91877 221.02067 213.20056 206.20046
 200.03236 194.96826 191.54815 189.58805 188.62295 188.68485 189.51774 190.82364
 192.54654 194.63943 196.90033 199.25723 201.70013 204.17802 206.26392 208.10382
 209.72772 210.87061 211.09751 211.32341 211.25831 210.96120 210.59210 210.22000
 209.83490 209.54279 209.34869 209.21059 209.13649 209.46538 209.84928 210.23618
 211.02707 212.20297 213.45087 215.23177 217.15766 219.19856 221.29146 223.37236
 225.43025 227.51215 229.60705 231.71095 233.83784 236.00774 238.26164 240.62954
 243.24843 245.49733 247.49723 249.26013 250.67502 251.79592 252.61582 252.92971
 252.96461 252.73651 252.09441 251.04030 249.64420 247.80310 245.71000 243.54089
 241.32979 239.13169 236.94959 234.78648 232.64438 230.50928 228.53318 226.68807
 224.96897 223.43887 222.06677 220.83666 219.71656 218.67446 217.77635 216.91525
 216.15515 215.33305 214.42894 213.79084 213.23874 213.74117 214.92218 215.80167
 216.81265 218.14240 220.00758 221.87527 223.71992 225.82196 229.09070 232.08278
 233.95026 235.57964 237.34874 239.78757 243.12189 247.08081 251.15085 255.04063
 258.55313 261.71921 264.66513 267.18103 269.49265 271.31754 272.83746 274.23434
 275.60953 277.29321 278.94937 280.75555 282.32343 283.71060 284.97620 286.12274
 287.15393 288.07220 288.87439 289.89667
 366.78100 356.33280 345.76260 334.62640 323.02721 311.21901 299.08681 286.88761
 274.59741 262.49221 250.49901 239.79782 229.91762 221.01942 213.19922 206.19902
 200.03082 194.96662 191.54643 189.58623 188.62103 188.68283 189.51563 190.82143
 192.54423 194.63704 196.89784 199.25464 201.69744 204.17524 206.26104 208.10084
 209.72465 210.86745 211.09425 211.32005 211.25485 210.95765 210.58845 210.21626
 209.83106 209.53886 209.34466 209.20646 209.13226 209.46106 209.84486 210.23167
 211.02247 212.19827 213.44607 215.22687 217.15267 219.19347 221.28628 223.36708
 225.42488 227.50668 229.60148 231.70528 233.83208 236.00189 238.25569 240.62349
 243.24229 245.49109 247.49089 249.25369 250.66850 251.78930 252.60910 252.92290
 252.95770 252.72950 252.08730 251.03311 249.63691 247.79571 245.70251 243.53331
 241.32211 239.12391 236.94172 234.77852 232.63632 230.50112 228.52492 226.67972
 224.96052 223.43033 222.05813 220.82793 219.70773 218.66553 217.76733 216.90613
 216.14594 215.32374 214.41954 213.78134 213.22914 213.76297 215.02000 215.93651
 216.87973 218.15390 220.11099 222.02023 223.83676 225.91383 229.07922 232.01105
 233.72699 235.22339 236.96715 239.47261 242.93251 246.96997 251.08501 254.96931
 258.47375 261.59702 264.51056 267.10641 269.39890 271.15756 272.70337 274.15952
 275.63907 277.35104 278.96185 280.60382 282.11124 283.44489 284.66168 285.76398
 286.75537 287.63824 288.40948 289.39233
 366.78100 356.33330 345.76360 334.62790 323.02919 311.22149 299.08979 286.89109
 274.60139 262.49669 250.50399 239.80329 229.92358 221.02588 213.20618 206.20648
 200.03878 194.97508 191.55538 189.59568 188.63097 188.69327 189.52657 190.83287
 192.55617 194.64947 196.91077 199.26806 201.71136 204.18966 206.27596 208.11626
 209.74056 210.88386 211.11116 211.33745 211.27275 210.97605 210.60735 210.23565
 209.85095 209.55925 209.36555 209.22784 209.15414 209.48344 209.86774 210.25504
 211.04634 212.22264 213.47093 215.25223 217.17853 219.21983 221.31313 223.39443
 225.45273 227.53503 229.63032 231.73462 233.86192 236.03222 238.28652 240.65482
 243.27412 245.52342 247.52371 249.28701 250.70231 251.82361 252.64391 252.95821
 252.99351 252.76580 252.12410 251.07040 249.67470 247.83400 245.74130 243.57260
 241.36190 239.16419 236.98249 234.81979 232.67809 230.54339 228.56769 226.72299
 225.00429 223.47458 222.10288 220.87318 219.75348 218.71178 217.81408 216.95338
 216.19367 215.37197 214.46827 213.83057 213.27887 213.82274 215.10677 216.05266
 216.97667 218.27982 220.26286 222.16420 223.90405 225.92587 229.04657 231.89986
 233.52696 234.89565 236.54709 239.08521 242.59120 246.78740 250.98732 254.88472
 258.30521 261.43881 264.49146 267.13672 269.39868 271.14716 272.67981 274.13657
 275.57095 277.22266 278.67862 280.30853 281.78412 283.08963 284.28073 285.35977
 286.33026 287.19446 287.94943 288.91156
 366.78100 356.33377 345.76455 334.62932 323.03109 311.22387 299.09264 286.89441
 274.60518 262.50096 250.50873 239.80850 229.92928 221.03205 213.21282 206.21360
 200.04637 194.98314 191.56392 189.60469 188.64046 188.70323 189.53701 190.84378
 192.56755 194.66133 196.92310 199.28087 201.72465 204.20342 206.29019 208.13097
 209.75574 210.89951 211.12729 211.35406 211.28983 210.99360 210.62538 210.25415
 209.86992 209.57870 209.38547 209.24824 209.17502 209.50479 209.88956 210.27734
 211.06911 212.24588 213.49465 215.27643 217.20320 219.24497 221.33875 223.42052
 225.47929 227.56207 229.65784 231.76261 233.89039 236.06116 238.31593 240.68470
 243.30448 245.55425 247.55502 249.31880 250.73457 251.85634 252.67712 252.99189
 253.02766 252.80044 252.15921 251.10598 249.71075 247.87053 245.77830 243.61007
 241.39985 239.20262 237.02139 234.85917 232.71794 230.58371 228.60849 226.76426
 225.04603 223.51681 222.14558 220.91635 219.79712 218.75590 217.85867 216.99844
 216.23922 215.41799 214.51476 213.87754 213.32631 213.87077 215.15988 216.12953
 217.04871 218.37552 220.40067 222.29282 223.97842 225.94249 228.98178 231.70703
 233.27650 234.67455 236.37550 238.95935 242.44766 246.62125 250.88469 254.82133
 258.29169 261.41739 264.36505 267.03226 268.81494 271.21964 272.87375 274.42468
 275.64740 277.02173 278.18774 279.80652 281.30270 282.62646 283.83420 284.92831
 285.91235 286.78864 287.55417 288.52972
 366.78100 356.33386 345.76473 334.62959 323.03145 311.22431 299.09318 286.89504
 274.60590 262.50177 250.50963 239.80949 229.93035 221.03322 213.21408 206.21494
 200.04781 194.98467 191.56553 189.60639 188.64226 188.70512 189.53898 190.84584
 192.56971 194.66357 196.92543 199.28330 201.72716 204.20602 206.29288 208.13375
 209.75861 210.90247 211.13034 211.35720 211.29306 210.99692 210.62879 210.25765
 209.87351 209.58238 209.38924 209.25210 209.17896 209.50883 209.89369 210.28155
 211.07342 212.25028 213.49914 215.28100 217.20787 219.24973 221.34359 223.42545
 225.48432 227.56718 229.66304 231.76791 233.89577 236.06663 238.32149 240.69036
 243.31022 245.56008 247.56095 249.32481 250.74067 251.86253 252.68340 252.99826
 253.03412 252.80699 252.16585 251.11271 249.71757 247.87744 245.78530 243.61716
 241.40703 239.20989 237.02875 234.86661 232.72548 230.59134 228.61620 226.77206
 225.05393 223.52479 222.15365 220.92452 219.80538 218.76424 217.86710 217.00697
 216.24783 215.42669 214.52356 213.88642 213.33528 213.89003 215.20848 216.21846
 217.06979 218.35452 220.47525 222.40056 224.07732 225.99327 228.91859 231.53668
 233.00496 234.42360 236.26640 238.97163 242.59021 246.73457 250.94557 254.88808
 258.37543 261.45184 264.44418 267.06604 269.16949 271.04898 272.79224 274.34137
 275.71780 276.98657 278.40295 279.97223 281.48752 282.82816 284.05130 285.15936
 286.15598 287.04343 287.81873 288.80670
 366.78100 356.33236 345.76172 334.62508 323.02544 311.21680 299.08416 286.88452
 274.59387 262.48823 250.49459 239.79295 229.91231 221.01367 213.19303 206.19239
 200.02375 194.95911 191.53847 189.57783 188.61219 188.67355 189.50591 190.81127
 192.53362 194.62598 196.88634 199.24270 201.68506 204.16242 206.24778 208.08714
 209.71050 210.85286 211.07922 211.30458 211.23894 210.94130 210.57166 210.19902
 209.81337 209.52073 209.32609 209.18745 209.11281 209.44117 209.82453 210.21089
 211.00125 212.17661 213.42397 215.20433 217.12969 219.17005 221.26241 223.34277
 225.40012 227.48148 229.57584 231.67920 233.80556 235.97492 238.22828 240.59564
 243.21400 245.46236 247.46172 249.22408 250.63844 251.75880 252.57816 252.89151
 252.92587 252.69723 252.05459 250.99995 249.60331 247.76167 245.66803 243.49839
 241.28675 239.08811 236.90547 234.74183 232.59919 230.46355 228.48691 226.64126
 224.92162 223.39098 222.01834 220.78770 219.66706 218.62442 217.72578 216.86414
 216.10350 215.28086 214.37622 213.73758 213.18494 213.82178 215.32170 216.34467
 217.10857 218.23039 220.43689 222.40569 224.06639 225.98775 228.84532 231.43687
 232.78900 234.20477 236.16483 239.00569 242.72350 246.89909 251.06812 254.98367
 258.44656 261.61728 264.55130 267.14893 269.33505 271.17853 272.85867 274.38666
 275.82516 277.11771 278.29065 279.67679 281.07996 282.41574 283.63449 284.73856
 285.73157 286.61581 287.38831 288.37274
 366.78100 356.32936 345.75571 334.61607 323.01343 311.20179 299.06614 286.86350
 274.56986 262.46122 250.46457 239.75993 229.87629 220.97465 213.15100 206.14736
 199.97572 194.90807 191.48443 189.52079 188.55215 188.61050 189.43986 190.74222
 192.46158 194.55093 196.80829 199.16165 201.60101 204.07536 206.15772 207.99408
 209.61444 210.75379 210.97715 211.19951 211.13086 210.83022 210.45758 210.08194
 209.69329 209.39765 209.20001 209.05837 208.98072 209.30608 209.68644 210.06980
 210.85715 212.02951 213.27387 215.05122 216.97358 219.01094 221.10030 223.17765
 225.23201 227.31037 229.40173 231.50208 233.62544 235.79180 238.04216 240.40651
 243.02187 245.26723 247.26359 249.02294 250.43430 251.55166 252.36801 252.67837
 252.70973 252.47809 251.83244 250.77480 249.37516 247.53052 245.43387 243.26123
 241.04659 238.84495 236.65930 234.49266 232.34702 230.20837 228.22873 226.38009
 224.65745 223.12380 221.74816 220.51452 219.39088 218.34523 217.44359 216.57895
 215.81531 214.98966 214.08202 213.44038 212.88474 213.66974 215.50447 216.49438
 217.06927 218.12737 220.35252 222.28091 223.90596 225.87599 228.69290 231.16666
 232.60703 234.08405 236.06955 239.03244 242.78133 247.02197 251.19824 255.10985
 258.62708 261.80057 264.71677 267.37445 269.60464 271.45483 273.08032 274.56848
 275.97327 277.29944 278.50110 279.68484 280.86597 281.98447 283.16385 284.23227
 285.19321 286.04892 286.79648 287.74911
 366.78100 356.32762 345.75223 334.61085 323.00646 311.19308 299.05570 286.85131
 274.55593 262.44554 250.44716 239.74077 229.85539 220.95201 213.12662 206.12124
 199.94785 194.87847 191.45309 189.48770 188.51732 188.57393 189.40155 190.70216
 192.41978 194.50740 196.76301 199.11463 201.55224 204.02486 206.10548 207.94009
 209.55871 210.69632 210.91794 211.13856 211.06817 210.76579 210.39140 210.01402
 209.62363 209.32625 209.12687 208.98348 208.90410 209.22771 209.60633 209.98795
 210.77356 211.94418 213.18679 214.96241 216.88303 218.91864 221.00626 223.08187
 225.13449 227.21110 229.30072 231.39934 233.52095 235.68557 237.93418 240.29680
 242.91042 245.15403 247.14865 248.90626 250.31588 251.43149 252.24611 252.55473
 252.58434 252.35096 251.70357 250.64419 249.24281 247.39642 245.29804 243.12365
 240.90727 238.70389 236.51650 234.34812 232.20073 230.06035 228.07896 226.22858
 224.50420 222.96881 221.59143 220.35604 219.23066 218.18328 217.27989 216.41351
 215.64812 214.82074 213.91135 213.26797 212.71059 213.57191 215.59999 216.70598
 217.23837 218.34248 220.42813 222.21794 223.75688 225.72844 228.63953 230.65565
 232.31371 233.82817 235.78481 238.91714 242.75360 247.08366 251.28519 255.22176
 258.78110 261.96945 264.88989 267.56082 269.86841 271.75793 273.36020 274.81702
 276.20148 277.51443 278.73911 279.84595 280.86108 281.88687 282.86343 283.76166
 284.65796 285.47324 286.18546 287.09311
 366.78100 356.32640 345.74979 334.60719 323.00158 311.18698 299.04838 286.84277
 274.54617 262.43456 250.43496 239.72736 229.84075 220.93615 213.10954 206.10294
 199.92833 194.85773 191.43113 189.46452 188.49292 188.54831 189.37471 190.67411
 192.39050 194.47690 196.73129 199.08169 201.51809 203.98948 206.06888 207.90227
 209.51967 210.65607 210.87646 211.09586 211.02425 210.72065 210.34505 209.96644
 209.57484 209.27623 209.07563 208.93102 208.85042 209.17282 209.55021 209.93061
 210.71500 211.88440 213.12580 214.90019 216.81959 218.85398 220.94038 223.01478
 225.06617 227.14157 229.22996 231.32736 233.44776 235.61115 237.85855 240.21994
 242.83234 245.07474 247.06813 248.82453 250.23292 251.34732 252.16071 252.46811
 252.49651 252.26190 251.61330 250.55269 249.15009 247.30249 245.20288 243.02728
 240.80967 238.60507 236.41647 234.24686 232.09826 229.95665 227.97405 226.12245
 224.39684 222.86024 221.48163 220.24503 219.11843 218.06982 217.16522 216.29761
 215.53101 214.70240 213.79180 213.14720 212.58859 213.50468 215.66905 216.87801
 217.47028 218.70033 220.61661 222.29999 223.79308 225.72594 228.51038 230.18889
 231.84387 233.48744 235.60716 238.86618 242.79080 247.06288 251.27928 255.21690
 258.75647 261.94455 264.88962 267.58206 269.89972 271.76932 273.37979 274.87802
 276.28574 277.62927 278.87213 279.99313 280.93808 281.87869 282.82721 283.68588
 284.46524 285.18140 285.87503 286.77209
 366.78100 356.32423 345.74546 334.60070 322.99293 311.17616 299.03539 286.82762
 274.52886 262.41509 250.41332 239.70355 229.81478 220.90802 213.07925 206.07048
 199.89371 194.82095 191.39218 189.42341 188.44964 188.50287 189.32711 190.62434
 192.33857 194.42280 196.67503 199.02327 201.45750 203.92673 206.00396 207.83519
 209.45043 210.58466 210.80289 211.02012 210.94635 210.64059 210.26282 209.88205
 209.48828 209.18752 208.98475 208.83798 208.75521 209.07544 209.45068 209.82891
 210.61114 211.77837 213.01760 214.78984 216.70707 218.73930 220.82353 222.89576
 224.94500 227.01823 229.10446 231.19969 233.31792 235.47916 237.72439 240.08362
 242.69385 244.93408 246.92532 248.67955 250.08578 251.19801 252.00925 252.31448
 252.34071 252.10394 251.45317 250.39041 248.98564 247.13587 245.03410 242.85633
 240.63657 238.42980 236.23903 234.06726 231.91649 229.77273 227.78796 225.93419
 224.20642 222.66765 221.28689 220.04812 218.91935 217.86858 216.96182 216.09205
 215.32328 214.49251 213.57974 212.93298 212.37221 213.39363 215.80078 217.11723
 217.43805 218.49330 220.63782 222.35959 223.81970 225.71262 228.50249 230.03030
 231.51245 233.23924 235.39125 238.71364 242.77103 247.07419 251.31003 255.25514
 258.78995 261.95908 264.88815 267.54898 269.80966 271.63748 273.20609 274.68091
 276.11578 277.51028 278.77679 279.94656 281.05756 282.09305 283.04559 283.92587
 284.78333 285.58984 286.29440 287.19229
 366.78100 356.32557 345.74814 334.60471 322.99829 311.18286 299.04343 286.83700
 274.53957 262.42714 250.42671 239.71828 229.83086 220.92543 213.09800 206.09057
 199.91514 194.84371 191.41628 189.44886 188.47643 188.53100 189.35657 190.65514
 192.37071 194.45628 196.70985 199.05943 201.49500 203.96557 206.04414 207.87671
 209.49328 210.62885 210.84843 211.06700 210.99457 210.69014 210.31371 209.93428
 209.54185 209.24242 209.04100 208.89557 208.81414 209.13571 209.51228 209.89185
 210.67542 211.84400 213.08457 214.85814 216.77671 218.81028 220.89585 222.96942
 225.02000 227.09457 229.18214 231.27871 233.39828 235.56085 237.80742 240.16799
 242.77957 245.02114 247.01371 248.76928 250.17685 251.29042 252.10299 252.40957
 252.43714 252.20171 251.55228 250.49085 249.08742 247.23899 245.13856 242.96214
 240.74371 238.53828 236.34885 234.17842 232.02899 229.88656 227.90314 226.05071
 224.32428 222.78685 221.40742 220.16999 219.04256 217.99313 217.08771 216.21928
 215.45185 214.62242 213.71099 213.06556 212.50613 213.47311 215.75406 217.19695
 217.63390 218.86086 220.85524 222.39951 223.81912 225.65175 228.14052 229.79938
 231.13464 233.01082 235.50276 238.91751 242.94727 247.22295 251.45824 255.41422
 258.96512 262.15628 265.07065 267.67215 269.90347 271.72156 273.22855 274.50571
 275.79709 277.45139 279.01675 280.47235 281.93472 283.22852 284.40894 285.47830
 286.44009 287.29654 288.04474 288.99823
 366.78100 356.33313 345.76326 334.62739 323.02852 311.22066 299.08879 286.88992
 274.60005 262.49518 250.50231 239.80144 229.92157 221.02371 213.20384 206.20397
 200.03610 194.97223 191.55236 189.59249 188.62762 188.68975 189.52289 190.82902
 192.55215 194.64528 196.90641 199.26354 201.70667 204.18480 206.27093 208.11107
 209.73520 210.87833 211.10546 211.33159 211.26672 210.96985 210.60098 210.22912
 209.84425 209.55238 209.35851 209.22064 209.14677 209.47590 209.86003 210.24716
 211.03830 212.21443 213.46256 215.24369 217.16982 219.21095 221.30408 223.38521
 225.44334 227.52548 229.62061 231.72474 233.85187 236.02200 238.27613 240.64426
 243.26339 245.51253 247.51266 249.27579 250.69092 251.81205 252.63218 252.94631
 252.98144 252.75357 252.11171 251.05784 249.66197 247.82110 245.72823 243.55936
 241.34849 239.15062 236.96875 234.80589 232.66402 230.52915 228.55328 226.70841
 224.98954 223.45967 222.08780 220.85794 219.73807 218.69620 217.79833 216.93746
 216.17759 215.35572 214.45185 213.81398 213.26212 213.86703 215.46614 217.22177
 218.22545 219.56392 221.14832 222.45491 223.73576 225.49327 227.94003 229.13472
 230.55632 232.46335 235.11157 238.76727 242.96370 247.33981 251.64859 255.67773
 259.28653 262.53278 265.50125 268.17419 270.41202 272.19547 273.46375 274.59821
 276.66562 278.87848 280.94885 282.76682 284.34009 285.73206 287.00201 288.15250
 289.18723 290.10864 290.91360 291.93942
 366.78100 356.33944 345.77587 334.64631 323.05375 311.25218 299.12662 286.93406
 274.65049 262.55193 250.56537 239.87081 229.99724 221.10568 213.29212 206.29855
 200.13699 195.07943 191.66586 189.71230 188.75374 188.82217 189.66161 190.97405
 192.70348 194.80292 197.07036 199.43379 201.88323 204.36767 206.46011 208.30654
 209.93698 211.08642 211.31985 211.55229 211.49373 211.20316 210.84060 210.47504
 210.09647 209.81091 209.62335 209.49178 209.42422 209.75966 210.15010 210.54353
 211.34097 212.52341 213.77784 215.56528 217.49772 219.54515 221.64459 223.73203
 225.79646 227.88490 229.98634 232.09677 234.23021 236.40665 238.66708 241.04152
 243.66696 245.92240 247.92883 249.69827 251.11971 252.24714 253.07358 253.39402
 253.43545 253.21389 252.57833 251.53076 250.14120 248.30664 246.22007 244.05751
 241.85295 239.66138 237.48582 235.32926 233.19370 231.06513 229.09557 227.25701
 225.54444 224.02088 222.65532 221.43175 220.31819 219.28263 218.39106 217.53650
 216.78294 215.96737 215.06981 214.43825 213.89268 214.21950 215.17583 217.00735
 218.82353 220.24261 221.60440 222.72894 223.86255 225.53796 227.43137 228.66566
 229.85767 231.70280 234.42889 238.36089 242.71164 247.16750 251.51140 255.54941
 259.19409 262.48965 265.54034 268.31836 270.73254 272.59781 273.99722 275.32571
 277.25586 279.12375 281.10797 282.88916 284.43063 285.79443 287.03870 288.16592
 289.17975 290.08255 290.87122 291.87628
 366.78100 356.34031 345.77763 334.64894 323.05725 311.25657 299.13188 286.94019
 274.65751 262.55982 250.57413 239.88044 230.00776 221.11707 213.30438 206.31170
 200.15101 195.09432 191.68164 189.72895 188.77126 188.84058 189.68089 190.99420
 192.72452 194.82483 197.09314 199.45746 201.90777 204.39308 206.48639 208.33371
 209.96502 211.11533 211.34965 211.58296 211.52527 211.23559 210.87390 210.50921
 210.13153 209.84684 209.66015 209.52947 209.46278 209.79909 210.19041 210.58472
 211.38303 212.56634 213.82166 215.60997 217.54328 219.59160 221.69191 223.78022
 225.84554 227.93485 230.03716 232.14848 234.28279 236.46010 238.72142 241.09673
 243.72304 245.97936 247.98667 249.75698 251.17929 252.30761 253.13492 253.45623
 253.49855 253.27786 252.64317 251.59649 250.20780 248.37411 246.28843 244.12674
 241.92305 239.73237 237.55768 235.40199 233.26731 231.13962 229.17093 227.33325
 225.62156 224.09887 222.73418 221.51150 220.39881 219.36412 218.47344 217.61975
 216.86706 216.05238 215.15569 214.52500 213.98032 214.29070 215.11189 216.72971
 218.81775 220.49643 222.02646 223.14810 224.16353 225.55643 227.33350 228.32312
 229.59029 231.44191 234.30760 238.17897 242.54851 246.98216 251.28416 255.27080
 258.86160 262.11298 265.10092 267.79880 270.14990 272.16870 273.92474 275.50809
 276.97238 278.52634 280.07010 281.46454 282.77844 284.00833 285.13043 286.14697
 287.06125 287.87543 288.58664 289.49304
 366.78100 356.33656 345.77011 334.63767 323.04223 311.23779 299.10934 286.91390
 274.62746 262.52602 250.53657 239.83913 229.96269 221.06825 213.25180 206.25536
 200.09092 195.03048 191.61403 189.65759 188.69615 188.76170 189.59826 190.90782
 192.63438 194.73093 196.99549 199.35605 201.80261 204.28416 206.37372 208.21728
 209.84484 210.99139 211.22195 211.45151 211.39007 211.09662 210.73118 210.36274
 209.98129 209.69285 209.50241 209.36797 209.29752 209.63008 210.01764 210.40820
 211.20275 212.38231 213.63387 215.41843 217.34798 219.39254 221.48910 223.57365
 225.63521 227.72077 229.81933 231.92688 234.05744 236.23100 238.48856 240.86011
 243.48267 245.73523 247.73879 249.50534 250.92390 252.04846 252.87202 253.18957
 253.22813 253.00369 252.36524 251.31480 249.92236 248.08492 245.99547 243.83003
 241.62259 239.42815 237.24970 235.09026 232.95182 230.82038 228.84793 227.00649
 225.29105 223.76461 222.39616 221.16972 220.05328 219.01483 218.12039 217.26295
 216.50651 215.68806 214.78762 214.15318 213.60474 214.10678 215.31975 216.72470
 218.49754 220.19310 222.04143 223.40578 224.40884 225.66742 227.56407 228.17154
 229.39185 231.20244 234.13142 238.10353 242.54175 246.99098 251.30112 255.28183
 258.83759 262.04474 265.01126 267.71875 270.07861 272.03906 273.64252 275.13162
 276.72623 278.11539 279.46320 280.82028 282.02652 283.14078 284.23318 285.24188
 286.14911 286.95697 287.66272 288.56210
 366.78100 356.33326 345.76352 334.62778 323.02904 311.22130 299.08956 286.89082
 274.60108 262.49634 250.50360 239.80286 229.92312 221.02538 213.20564 206.20590
 200.03816 194.97442 191.55468 189.59494 188.63020 188.69247 189.52573 190.83199
 192.55525 194.64851 196.90977 199.26703 201.71029 204.18855 206.27481 208.11507
 209.73933 210.88259 211.10985 211.33611 211.27137 210.97463 210.60589 210.23415
 209.84941 209.55767 209.36393 209.22619 209.15245 209.48171 209.86597 210.25323
 211.04449 212.22075 213.46901 215.25027 217.17653 219.21779 221.31105 223.39231
 225.45057 227.53283 229.62809 231.73235 233.85961 236.02987 238.28414 240.65240
 243.27166 245.52092 247.52118 249.28444 250.69970 251.82096 252.64122 252.95548
 252.99074 252.76300 252.12126 251.06752 249.67178 247.83104 245.73830 243.56956
 241.35882 239.16108 236.97934 234.81660 232.67486 230.54012 228.56438 226.71964
 225.00090 223.47116 222.09942 220.86968 219.74994 218.70820 217.81046 216.94972
 216.18998 215.36824 214.46450 213.82676 213.27502 213.93753 215.51222 216.86725
 218.36874 220.04961 221.98000 223.44977 224.49356 225.76105 227.69635 228.21155
 229.21968 231.02777 234.00612 238.07722 242.54593 246.99858 251.30031 255.26175
 258.79776 261.99811 264.98715 267.72476 270.13644 272.16537 273.76587 275.11868
 276.58679 278.04785 279.33630 280.64978 281.84903 282.94189 284.00372 285.01752
 285.92932 286.74130 287.45062 288.35458
 366.78100 356.33401 345.76503 334.63004 323.03205 311.22506 299.09408 286.89609
 274.60710 262.50312 250.51113 239.81114 229.93215 221.03517 213.21618 206.21719
 200.05020 194.98722 191.56823 189.60924 188.64526 188.70827 189.54228 190.84929
 192.57331 194.66732 196.92933 199.28735 201.73136 204.21037 206.29738 208.13840
 209.76341 210.90742 211.13544 211.36245 211.29846 211.00247 210.63449 210.26350
 209.87951 209.58853 209.39554 209.25855 209.18556 209.51558 209.90059 210.28860
 211.08061 212.25763 213.50664 215.28865 217.21567 219.25768 221.35169 223.43370
 225.49272 227.57573 229.67174 231.77676 233.90477 236.07578 238.33079 240.69981
 243.31982 245.56983 247.57085 249.33486 250.75087 251.87288 252.69390 253.00891
 253.04492 252.81793 252.17695 251.12396 249.72897 247.88899 245.79700 243.62901
 241.41902 239.22204 237.04105 234.87906 232.73808 230.60409 228.62910 226.78511
 225.06713 223.53814 222.16715 220.93817 219.81918 218.77819 217.88120 217.02122
 216.26223 215.44124 214.53826 213.90127 213.35028 213.97266 215.46091 217.01421
 218.49910 220.20963 222.04784 223.42358 224.47462 225.78265 227.74765 228.02887
 228.99568 230.79324 233.83711 238.01894 242.51109 246.96434 251.25876 255.21271
 258.75320 261.96664 264.95767 267.68524 270.09570 272.15146 273.81149 275.17484
 276.61353 278.09271 279.42303 280.74963 281.93884 283.01306 284.02188 285.02060
 285.92822 286.73642 287.44247 288.34225
 366.78100 356.33569 345.76838 334.63507 323.03876 311.23345 299.10414 286.90783
 274.62052 262.51821 250.52791 239.82960 229.95229 221.05698 213.23967 206.24236
 200.07705 195.01574 191.59843 189.64112 188.67881 188.74350 189.57919 190.88788
 192.61357 194.70926 196.97295 199.33264 201.77833 204.25902 206.34772 208.19041
 209.81710 210.96279 211.19248 211.42117 211.35886 211.06455 210.69824 210.32893
 209.94662 209.65731 209.46600 209.33069 209.25938 209.59107 209.97776 210.36745
 211.16114 212.33984 213.59053 215.37422 217.30291 219.34660 221.44229 223.52598
 225.58667 227.67136 229.76905 231.87574 234.00543 236.17812 238.43481 240.80550
 243.42719 245.67888 247.68157 249.44726 250.86495 251.98865 252.81134 253.12803
 253.16572 252.94041 252.30110 251.24979 249.85648 248.01817 245.92786 243.76155
 241.55324 239.35793 237.17862 235.01831 232.87900 230.74669 228.77338 226.93107
 225.21477 223.68746 222.31815 221.09084 219.97353 218.93422 218.03891 217.18060
 216.42329 215.60398 214.70267 214.06736 213.51805 214.06200 215.36584 217.05101
 218.69757 220.46394 222.27495 223.54428 224.52036 225.80721 227.63503 227.73555
 228.69696 230.48143 233.65800 237.93248 242.45990 246.93069 251.23512 255.20352
 258.76477 261.98657 264.95938 267.65735 270.04080 272.08118 273.75763 275.15463
 276.58276 278.12442 279.53168 280.86200 282.04773 283.10757 284.08630 285.02292
 285.94547 286.76700 287.48468 288.39926
 366.78100 356.33529 345.76758 334.63387 323.03716 311.23145 299.10174 286.90503
 274.61732 262.51461 250.52390 239.82519 229.94749 221.05178 213.23407 206.23636
 200.07065 195.00894 191.59123 189.63352 188.67081 188.73510 189.57039 190.87868
 192.60397 194.69926 196.96255 199.32184 201.76713 204.24742 206.33571 208.17800
 209.80429 210.94958 211.17887 211.40716 211.34446 211.04975 210.68304 210.31333
 209.93062 209.64091 209.44920 209.31349 209.24178 209.57307 209.95936 210.34865
 211.14194 212.32023 213.57052 215.35381 217.28210 219.32539 221.42068 223.50397
 225.56426 227.64855 229.74584 231.85214 233.98143 236.15372 238.41001 240.78030
 243.40159 245.65288 247.65517 249.42046 250.83775 251.96104 252.78333 253.09962
 253.13691 252.91120 252.27149 251.21978 249.82607 247.98736 245.89665 243.72994
 241.52123 239.32552 237.14581 234.98511 232.84540 230.71269 228.73898 226.89627
 225.17956 223.65185 222.28214 221.05443 219.93672 218.89701 218.00130 217.14259
 216.38488 215.56517 214.66346 214.02775 213.47804 214.05374 215.42816 216.99313
 218.75473 220.66304 222.57307 223.75171 224.57896 225.81120 227.59088 227.50142
 228.43588 230.16310 233.49617 237.82178 242.38045 246.86711 251.17500 255.14600
 258.71921 261.95465 264.92987 267.62503 270.00024 272.03482 273.71866 275.14896
 276.60422 278.16022 279.62735 280.97638 282.16348 283.22452 284.20297 285.13858
 286.05017 286.86197 287.57114 288.47488
 366.78100 356.33332 345.76365 334.62797 323.02930 311.22162 299.08995 286.89127
 274.60160 262.49692 250.50425 239.80357 229.92390 221.02622 213.20654 206.20687
 200.03919 194.97552 191.55584 189.59617 188.63149 188.69382 189.52714 190.83347
 192.55679 194.65012 196.91144 199.26877 201.71209 204.19041 206.27674 208.11706
 209.74139 210.88471 211.11204 211.33836 211.27369 210.97701 210.60834 210.23666
 209.85199 209.56031 209.36663 209.22896 209.15528 209.48461 209.86893 210.25626
 211.04758 212.22391 213.47223 215.25356 217.17988 219.22121 221.31453 223.39585
 225.45418 227.53650 229.63183 231.73615 233.86348 236.03380 238.28813 240.65645
 243.27578 245.52510 247.52543 249.28875 250.70408 251.82540 252.64572 252.96005
 252.99537 252.76770 252.12602 251.07235 249.67667 247.83600 245.74332 243.57465
 241.36397 239.16630 236.98462 234.82194 232.68027 230.54559 228.56992 226.72524
 225.00657 223.47689 222.10522 220.87554 219.75587 218.71419 217.81652 216.95584
 216.19617 215.37449 214.47081 213.83314 213.28146 213.96756 215.59492 216.96440
 218.64763 220.76454 222.72670 223.86537 224.64099 225.86357 227.68378 227.41476
 228.25717 229.93993 233.39854 237.73198 242.30928 246.79568 251.08943 255.04823
 258.61749 261.85910 264.84256 267.54532 269.93829 272.01251 273.74600 275.24600
 276.73334 278.27313 279.76312 281.12103 282.30743 283.38260 284.38995 285.39502
 286.30457 287.11450 287.82202 288.72372
 366.78100 356.33186 345.76072 334.62358 323.02345 311.21431 299.08117 286.88103
 274.58989 262.48375 250.48961 239.78748 229.90634 221.00720 213.18606 206.18492
 200.01578 194.95065 191.52951 189.56837 188.60223 188.66309 189.49495 190.79981
 192.52168 194.61354 196.87340 199.22926 201.67112 204.14798 206.23284 208.07171
 209.69457 210.83643 211.06229 211.28715 211.22101 210.92287 210.55274 210.17960
 209.79346 209.50032 209.30518 209.16604 209.09090 209.41877 209.80163 210.18749
 210.97735 212.15221 213.39907 215.17894 217.10380 219.14366 221.23552 223.31538
 225.37224 227.45310 229.54697 231.64983 233.77569 235.94455 238.19741 240.56427
 243.18213 245.43000 247.42886 249.19072 250.60458 251.72444 252.54330 252.85616
 252.89003 252.66089 252.01775 250.96261 249.56547 247.72333 245.62919 243.45906
 241.24692 239.04778 236.86464 234.70050 232.55736 230.42123 228.44409 226.59795
 224.87781 223.34667 221.97353 220.74239 219.62126 218.57812 217.67898 216.81684
 216.05570 215.23256 214.32742 213.68829 213.13515 213.90016 215.70746 217.02766
 218.56908 220.80247 222.75981 223.92554 224.76642 226.00978 227.75006 227.39964
 228.12065 229.76561 233.31174 237.66743 242.26620 246.74878 251.03290 254.98691
 258.55530 261.79016 264.75681 267.44250 269.84021 271.96100 273.78979 275.37949
 276.89136 278.41641 279.89789 281.25784 282.44742 283.52417 284.53741 285.51263
 286.39676 287.18408 287.87186 288.74835
 366.78100 356.33217 345.76134 334.62450 323.02467 311.21584 299.08301 286.88317
 274.59234 262.48651 250.49268 239.79084 229.91001 221.01118 213.19035 206.18952
 200.02068 194.95585 191.53502 189.57419 188.60835 188.66952 189.50169 190.80686
 192.52903 194.62119 196.88136 199.23753 201.67970 204.15686 206.24203 208.08120
 209.70437 210.84653 211.07270 211.29787 211.23204 210.93421 210.56437 210.19154
 209.80571 209.51288 209.31804 209.17921 209.10438 209.43255 209.81571 210.20188
 210.99205 212.16722 213.41439 215.19455 217.11972 219.15989 221.25206 223.33222
 225.38939 227.47056 229.56473 231.66790 233.79406 235.96323 238.21640 240.58357
 243.20173 245.44990 247.44907 249.21124 250.62540 251.74557 252.56474 252.87791
 252.91208 252.68324 252.04041 250.98558 249.58875 247.74691 245.65308 243.48325
 241.27142 239.07258 236.88975 234.72592 232.58309 230.44726 228.47042 226.62459
 224.90476 223.37393 222.00109 220.77026 219.64943 218.60660 217.70777 216.84593
 216.08510 215.26227 214.35744 213.71860 213.16577 213.92261 215.71269 217.09105
 218.64740 220.90216 222.82066 224.00465 224.90768 226.14366 227.69780 227.27737
 227.91373 229.57518 233.21768 237.59088 242.22220 246.70300 250.98071 254.93561
 258.50769 261.73477 264.67755 267.34103 269.73318 271.87445 273.75867 275.41788
 276.97464 278.52655 280.01001 281.36633 282.55331 283.62030 284.61795 285.53848
 286.40768 287.18167 287.85782 288.71951
 366.78100 356.33327 345.76355 334.62782 323.02909 311.22137 299.08964 286.89091
 274.60119 262.49646 250.50373 239.80301 229.92328 221.02555 213.20582 206.20610
 200.03837 194.97464 191.55492 189.59519 188.63046 188.69274 189.52601 190.83228
 192.55556 194.64883 196.91010 199.26738 201.71065 204.18892 206.27520 208.11547
 209.73974 210.88302 211.11029 211.33656 211.27184 210.97511 210.60638 210.23466
 209.84993 209.55820 209.36447 209.22675 209.15302 209.48229 209.86657 210.25384
 211.04511 212.22139 213.46966 215.25093 217.17721 219.21848 221.31175 223.39303
 225.45130 227.53357 229.62885 231.73312 233.86039 236.03067 238.28494 240.65321
 243.27249 245.52176 247.52203 249.28531 250.70058 251.82185 252.64212 252.95640
 252.99167 252.76394 252.12222 251.06849 249.67276 247.83204 245.73931 243.57058
 241.35986 239.16213 236.98040 234.81768 232.67595 230.54122 228.56550 226.72077
 225.00204 223.47232 222.10059 220.87086 219.75114 218.70941 217.81168 216.95096
 216.19123 215.36950 214.46577 213.82805 213.27632 213.99350 215.69426 217.12381
 218.71649 220.94576 222.86049 224.06622 225.00429 226.22334 227.66225 227.18642
 227.66563 229.41971 233.16405 237.55943 242.18367 246.66182 250.93047 254.88669
 258.46561 261.69284 264.61896 267.26572 269.65445 271.80573 273.70645 275.40466
 277.00430 278.58136 280.09164 281.45734 282.64896 283.72177 284.72543 285.67618
 286.54156 287.31219 287.98541 288.84335
 366.78100 356.33331 345.76362 334.62793 323.02924 311.22154 299.08985 286.89116
 274.60147 262.49678 250.50409 239.80340 229.92371 221.02601 213.20632 206.20663
 200.03894 194.97525 191.55556 189.59587 188.63118 188.69348 189.52679 190.83310
 192.55641 194.64972 196.91103 199.26834 201.71165 204.18995 206.27626 208.11657
 209.74088 210.88419 211.11150 211.33781 211.27312 210.97642 210.60773 210.23604
 209.85135 209.55966 209.36597 209.22828 209.15459 209.48389 209.86820 210.25551
 211.04682 212.22313 213.47144 215.25275 217.17906 219.22036 221.31367 223.39498
 225.45329 227.53560 229.63091 231.73522 233.86253 236.03283 238.28714 240.65545
 243.27476 245.52407 247.52438 249.28769 250.70300 251.82430 252.64461 252.95892
 252.99423 252.76654 252.12485 251.07116 249.67547 247.83478 245.74208 243.57339
 241.36270 239.16501 236.98332 234.82063 232.67894 230.54425 228.56855 226.72386
 225.00517 223.47548 222.10379 220.87410 219.75441 218.71272 217.81502 216.95433
 216.19464 215.37295 214.46926 213.83157 213.27988 214.00714 215.73506 217.19571
 218.72713 220.84270 222.74947 224.03798 225.08560 226.30341 227.63045 227.34665
 227.61516 229.43213 233.13953 237.55873 242.16011 246.63428 250.89543 254.85948
 258.45428 261.68900 264.60519 267.23737 269.61966 271.77161 273.68130 275.40393
 277.02469 278.63583 280.16995 281.53955 282.74200 283.82574 284.86859 285.84094
 286.71545 287.49423 288.17453 289.04153
 366.78100 356.33484 345.76669 334.63253 323.03538 311.22922 299.09907 286.90191
 274.61376 262.51060 250.51945 239.82029 229.94214 221.04598 213.22783 206.22967
 200.06352 195.00136 191.58320 189.62505 188.66189 188.72574 189.56058 190.86843
 192.59327 194.68812 196.95096 199.30981 201.75465 204.23450 206.32234 208.16419
 209.79003 210.93488 211.16372 211.39157 211.32841 211.03325 210.66610 210.29594
 209.91279 209.62263 209.43048 209.29432 209.22217 209.55301 209.93886 210.32770
 211.12055 212.29839 213.54824 215.33108 217.25893 219.30177 221.39661 223.47946
 225.53930 227.62315 229.71999 231.82584 233.95468 236.12653 238.38237 240.75222
 243.37306 245.62391 247.62575 249.39060 250.80744 251.93029 252.75213 253.06797
 253.10482 252.87866 252.23851 251.18635 249.79220 247.95304 245.86189 243.69473
 241.48558 239.28942 237.10927 234.94811 232.80796 230.67480 228.70065 226.85749
 225.14034 223.61218 222.24202 221.01387 219.89571 218.85556 217.95940 217.10025
 216.34209 215.52194 214.61978 213.98363 213.43347 214.09598 215.69193 217.30099
 218.92168 220.84959 222.67665 224.03790 225.16168 226.34486 227.49313 227.42445
 227.57123 229.45087 233.12009 237.55925 242.15175 246.62447 250.88622 254.86781
 258.49258 261.74774 264.66296 267.28116 269.65311 271.79758 273.69803 275.39822
 277.04071 278.68896 280.24500 281.62582 282.84467 283.98712 285.07034 286.05170
 286.93430 287.72025 288.40686 289.28186
 366.78100 356.33767 345.77234 334.64101 323.04668 311.24334 299.11601 286.92168
 274.63635 262.53602 250.54769 239.85136 229.97603 221.08269 213.26736 206.27203
 200.10870 195.04937 191.63404 189.67871 188.71838 188.78505 189.62271 190.93338
 192.66105 194.75872 197.02439 199.38606 201.83373 204.31640 206.40706 208.25173
 209.88040 211.02807 211.25974 211.49041 211.43008 211.13775 210.77341 210.40608
 210.02575 209.73842 209.54909 209.41576 209.34643 209.68010 210.06877 210.46043
 211.25610 212.43677 213.68944 215.47511 217.40578 219.45145 221.54912 223.63478
 225.69745 227.78412 229.88379 231.99246 234.12413 236.29880 238.55747 240.93014
 243.55380 245.80747 247.81214 249.57981 250.99948 252.12515 252.94982 253.26849
 253.30815 253.08482 252.44749 251.39816 250.00683 248.17050 246.08217 243.91784
 241.71151 239.51817 237.34084 235.18251 233.04518 230.91485 228.94352 227.10319
 225.38886 223.86352 222.49619 221.27086 220.15553 219.11820 218.22487 217.36854
 216.61321 215.79587 214.89654 214.26321 213.71588 214.26012 215.60431 217.29831
 219.15752 221.02098 222.77182 224.09267 225.18022 226.31439 227.31335 227.25757
 227.40567 229.36177 233.07405 237.54927 242.14711 246.62624 250.89742 254.90709
 258.57950 261.87518 264.80447 267.43347 269.81125 271.96548 273.85400 275.51630
 277.10455 278.76184 280.31128 281.69449 282.93771 284.11581 285.19067 286.16440
 287.04019 287.82007 288.50134 289.36957
 366.78100 356.33749 345.77197 334.64046 323.04594 311.24243 299.11492 286.92040
 274.63489 262.53438 250.54586 239.84935 229.97383 221.08032 213.26481 206.26929
 200.10578 195.04626 191.63075 189.67524 188.71472 188.78121 189.61870 190.92918
 192.65667 194.75415 197.01964 199.38113 201.82861 204.31110 206.40158 208.24607
 209.87456 211.02204 211.25353 211.48402 211.42350 211.13099 210.76647 210.39896
 210.01845 209.73093 209.54142 209.40791 209.33839 209.67188 210.06036 210.45185
 211.24734 212.42782 213.68031 215.46579 217.39628 219.44177 221.53925 223.62474
 225.68723 227.77371 229.87320 231.98168 234.11317 236.28766 238.54614 240.91863
 243.54211 245.79560 247.80009 249.56757 250.98706 252.11255 252.93703 253.25552
 253.29500 253.07149 252.43398 251.38446 249.99295 248.15643 246.06792 243.90341
 241.69689 239.50338 237.32587 235.16735 233.02984 230.89932 228.92781 227.08730
 225.37278 223.84727 222.47975 221.25424 220.13873 219.10121 218.20770 217.35119
 216.59567 215.77816 214.87864 214.24513 213.69762 214.27138 215.66435 217.25233
 219.14255 221.15652 222.86502 224.08670 225.13737 226.29193 227.33051 227.08659
 227.22534 229.18759 232.97031 237.48610 242.07753 246.55193 250.82489 254.84964
 258.55264 261.89484 264.87018 267.53317 269.95517 272.16913 274.11075 275.77042
 277.28937 278.83109 280.37457 281.74982 282.96381 284.13538 285.25388 286.26715
 287.17847 287.98999 288.69894 289.60242
 366.78100 356.33580 345.76861 334.63541 323.03921 311.23402 299.10482 286.90862
 274.62142 262.51923 250.52903 239.83083 229.95364 221.05844 213.24124 206.24405
 200.07885 195.01765 191.60046 189.64326 188.68106 188.74587 189.58167 190.89047
 192.61627 194.71208 196.97588 199.33568 201.78149 204.26229 206.35109 208.19390
 209.82070 210.96650 211.19631 211.42511 211.36291 211.06872 210.70252 210.33332
 209.95112 209.66193 209.47073 209.33553 209.26434 209.59614 209.98294 210.37275
 211.16655 212.34535 213.59616 215.37996 217.30876 219.35257 221.44837 223.53217
 225.59297 227.67778 229.77558 231.88238 234.01219 236.18499 238.44179 240.81260
 243.43440 245.68620 247.68901 249.45481 250.87261 251.99642 252.81922 253.13602
 253.17382 252.94863 252.30943 251.25823 249.86504 248.02684 245.93664 243.77045
 241.56225 239.36705 237.18786 235.02766 232.88846 230.75627 228.78307 226.94087
 225.22467 223.69748 222.32828 221.10108 219.98389 218.94469 218.04949 217.19130
 216.43410 215.61490 214.71371 214.07851 213.52931 214.18834 215.76407 217.38383
 218.97884 221.07037 222.91760 224.12204 225.16476 226.36191 227.57672 226.93361
 227.04562 228.97832 232.84439 237.38907 241.95583 246.40509 250.66463 254.68341
 258.38379 261.73117 264.73428 267.44623 269.92947 272.21838 274.23740 275.94974
 277.47601 278.93707 280.41849 281.78162 282.97189 284.03790 285.03290 285.98245
 286.83646 287.59698 288.26135 289.10803
 366.78100 356.33527 345.76755 334.63382 323.03710 311.23137 299.10164 286.90492
 274.61719 262.51446 250.52374 239.82501 229.94729 221.05156 213.23383 206.23611
 200.07038 195.00865 191.59093 189.63320 188.67048 188.73475 189.57002 190.87830
 192.60357 194.69884 196.96212 199.32139 201.76667 204.24694 206.33521 208.17749
 209.80376 210.94904 211.17831 211.40658 211.34386 211.04913 210.68240 210.31268
 209.92995 209.64023 209.44850 209.31277 209.24105 209.57232 209.95859 210.34787
 211.14114 212.31942 213.56969 215.35296 217.28124 219.32451 221.41978 223.50306
 225.56333 227.64761 229.74488 231.85115 233.98043 236.15270 238.40898 240.77925
 243.40052 245.65180 247.65407 249.41934 250.83662 251.95989 252.78217 253.09844
 253.13571 252.90999 252.27026 251.21853 249.82481 247.98608 245.89536 243.72863
 241.51990 239.32418 237.14445 234.98372 232.84400 230.71127 228.73755 226.89482
 225.17809 223.65037 222.28064 221.05292 219.93519 218.89546 217.99974 217.14101
 216.38328 215.56356 214.66183 214.02611 213.47638 214.15932 215.77943 217.55385
 219.02560 221.02684 222.95868 224.19060 225.24478 226.43497 227.62416 226.95251
 227.08760 228.97093 232.78816 237.32181 241.85916 246.27908 250.53128 254.55621
 258.26208 261.61020 264.61346 267.33615 269.84784 272.16562 274.22012 275.98856
 277.56110 279.02155 280.45062 281.80588 282.99179 284.05060 285.02588 285.91882
 286.74091 287.48511 288.13522 288.96371
 366.78100 356.33526 345.76751 334.63377 323.03702 311.23128 299.10153 286.90479
 274.61704 262.51430 250.52355 239.82481 229.94706 221.05132 213.23357 206.23583
 200.07009 195.00834 191.59060 189.63285 188.67011 188.73436 189.56962 190.87787
 192.60313 194.69838 196.96164 199.32089 201.76615 204.24640 206.33466 208.17692
 209.80317 210.94843 211.17768 211.40594 211.34319 211.04845 210.68170 210.31196
 209.92921 209.63947 209.44772 209.31198 209.24023 209.57149 209.95775 210.34700
 211.14026 212.31851 213.56877 215.35202 217.28028 219.32353 221.41879 223.50204
 225.56230 227.64655 229.74381 231.85006 233.97932 236.15158 238.40783 240.77809
 243.39934 245.65060 247.65285 249.41811 250.83536 251.95862 252.78087 253.09713
 253.13438 252.90864 252.26889 251.21715 249.82341 247.98466 245.89392 243.72717
 241.51843 239.32268 237.14294 234.98219 232.84245 230.70970 228.73596 226.89321
 225.17647 223.64872 222.27898 221.05124 219.93349 218.89375 217.99800 217.13926
 216.38151 215.56177 214.66002 214.02428 213.47453 214.16177 215.78546 217.63663
 219.23145 221.05893 222.91045 224.18355 225.25922 226.44601 227.60648 227.03720
 227.10164 229.02676 232.78772 237.28482 241.78413 246.18719 250.43936 254.47624
 258.19855 261.55713 264.55728 267.27737 269.79547 272.12988 274.19095 275.96603
 277.57135 279.06418 280.46997 281.80099 282.98691 284.04245 285.01074 285.88797
 286.66592 287.35062 287.95718 288.73209
 366.78100 356.33556 345.76811 334.63467 323.03822 311.23278 299.10333 286.90689
 274.61944 262.51700 250.52655 239.82811 229.95066 221.05522 213.23777 206.24033
 200.07488 195.01344 191.59599 189.63855 188.67610 188.74066 189.57621 190.88477
 192.61032 194.70588 196.96943 199.32899 201.77454 204.25510 206.34365 208.18621
 209.81276 210.95832 211.18787 211.41643 211.35398 211.05954 210.69309 210.32365
 209.94120 209.65176 209.46031 209.32487 209.25342 209.58498 209.97153 210.36109
 211.15464 212.33320 213.58375 215.36731 217.29586 219.33942 221.43497 223.51853
 225.57908 227.66364 229.76119 231.86775 233.99730 236.16986 238.42641 240.79697
 243.41852 245.67008 247.67263 249.43819 250.85574 251.97930 252.80185 253.11841
 253.15596 252.93052 252.29107 251.23963 249.84618 248.00774 245.91729 243.75085
 241.54240 239.34696 237.16751 235.00707 232.86762 230.73518 228.76173 226.91929
 225.20284 223.67540 222.30595 221.07851 219.96106 218.92162 218.02617 217.16773
 216.41028 215.59084 214.68939 214.05395 213.50450 214.18520 215.79343 217.67355
 219.40817 221.12102 222.81956 224.11674 225.23033 226.44106 227.59335 227.08887
 227.06891 229.01833 232.77191 237.26114 241.74219 246.11720 250.36502 254.40613
 258.13733 261.50235 264.50882 267.23920 269.77176 272.11761 274.15054 275.90405
 277.52789 279.03265 280.43579 281.77112 282.95337 284.00647 284.97260 285.84326
 286.61389 287.28568 287.87863 288.66412
 366.78100 356.33640 345.76980 334.63719 323.04159 311.23699 299.10839 286.91279
 274.62618 262.52458 250.53498 239.83738 229.96077 221.06617 213.24957 206.25297
 200.08837 195.02776 191.61116 189.65456 188.69296 188.75836 189.59475 190.90415
 192.63055 194.72695 196.99135 199.35174 201.79814 204.27954 206.36894 208.21234
 209.83973 210.98613 211.21653 211.44593 211.38432 211.09072 210.72512 210.35652
 209.97492 209.68631 209.49571 209.36111 209.29051 209.62291 210.01030 210.40070
 211.19510 212.37450 213.62590 215.41029 217.33969 219.38409 221.48049 223.56488
 225.62628 227.71168 229.81008 231.91748 234.04787 236.22127 238.47867 240.85007
 243.47247 245.72486 247.72826 249.49466 250.91306 252.03746 252.86085 253.17825
 253.21665 252.99205 252.35345 251.30284 249.91024 248.07264 245.98304 243.81743
 241.60983 239.41523 237.23663 235.07703 232.93842 230.80682 228.83422 226.99262
 225.27702 223.75041 222.38181 221.15521 220.03861 219.00001 218.10540 217.24780
 216.49120 215.67260 214.77200 214.13739 213.58879 214.23822 215.77255 217.72067
 219.52539 221.16327 222.71649 224.01006 225.16064 226.43626 227.61697 227.17413
 227.10631 228.99597 232.77187 237.26462 241.70586 246.05666 250.30002 254.34721
 258.09232 261.46750 264.47757 267.21515 269.76379 272.12689 274.14514 275.87448
 277.49631 279.00433 280.38940 281.71970 282.90103 283.95255 284.91739 285.78564
 286.55753 287.22495 287.81894 288.60760
 366.78100 356.33789 345.77279 334.64168 323.04758 311.24447 299.11737 286.92326
 274.63816 262.53805 250.54995 239.85384 229.97874 221.08563 213.27053 206.27542
 200.11232 195.05321 191.63811 189.68300 188.72290 188.78979 189.62769 190.93858
 192.66648 194.76437 197.03026 199.39216 201.84005 204.32295 206.41384 208.25874
 209.88763 211.03553 211.26742 211.49832 211.43821 211.14611 210.78200 210.41490
 210.03479 209.74769 209.55858 209.42548 209.35637 209.69027 210.07916 210.47106
 211.26695 212.44785 213.70074 215.48663 217.41753 219.46342 221.56132 223.64721
 225.71011 227.79700 229.89690 232.00579 234.13769 236.31258 238.57148 240.94437
 243.56827 245.82216 247.82706 249.59495 251.01485 252.14074 252.96564 253.28453
 253.32443 253.10132 252.46421 251.41511 250.02400 248.18790 246.09979 243.93569
 241.72958 239.53648 237.35937 235.20127 233.06416 230.93406 228.96295 227.12285
 225.40874 223.88364 222.51653 221.29143 220.17632 219.13922 218.24611 217.39001
 216.63490 215.81780 214.91869 214.28558 213.73848 214.32483 215.71013 217.79283
 219.64775 221.20139 222.63527 223.89832 225.06389 226.40422 227.62694 227.23955
 227.16211 229.01292 232.77518 237.26526 241.66690 245.98798 250.22603 254.28050
 258.04086 261.43280 264.45773 267.20847 269.77325 272.15097 274.16476 275.88263
 277.49667 279.00317 280.36002 281.66083 282.83597 283.88559 284.85065 285.71988
 286.49728 287.17285 287.77206 288.56256
 366.78100 356.33937 345.77575 334.64612 323.05349 311.25186 299.12624 286.93361
 274.64998 262.55136 250.56473 239.87010 229.99647 221.10485 213.29122 206.29759
 200.13597 195.07834 191.66471 189.71109 188.75246 188.82083 189.66020 190.97258
 192.70195 194.80132 197.06870 199.43207 201.88144 204.36581 206.45819 208.30456
 209.93493 211.08431 211.31768 211.55005 211.49142 211.20080 210.83817 210.47254
 210.09392 209.80829 209.62066 209.48904 209.42141 209.75678 210.14715 210.54053
 211.33790 212.52027 213.77465 215.56202 217.49439 219.54176 221.64114 223.72851
 225.79288 227.88126 229.98263 232.09300 234.22637 236.40275 238.66312 241.03749
 243.66287 245.91824 247.92461 249.69399 251.11536 252.24273 253.06910 253.38948
 253.43085 253.20922 252.57360 251.52597 250.13634 248.30171 246.21509 244.05246
 241.84783 239.65621 237.48058 235.32395 233.18832 231.05970 229.09007 227.25144
 225.53882 224.01519 222.64956 221.42594 220.31231 219.27668 218.38505 217.53043
 216.77680 215.96117 215.06355 214.43192 213.88629 214.41154 215.65254 217.83765
 219.79889 221.24234 222.55450 223.78363 224.96332 226.36653 227.64191 227.33714
 227.20273 228.96292 232.76088 237.27965 241.63986 245.93117 250.15977 254.21718
 257.98889 261.39569 264.43845 267.20645 269.78909 272.17746 274.18848 275.89459
 277.49878 279.00137 280.34625 281.61682 282.78738 283.83719 284.80435 285.67853
 286.45963 287.14493 287.74585 288.54211
 366.78100 356.34002 345.77705 334.64807 323.05610 311.25512 299.13015 286.93817
 274.65519 262.55722 250.57124 239.87727 230.00429 221.11332 213.30034 206.30736
 200.14639 195.08941 191.67644 189.72346 188.76549 188.83451 189.67453 190.98756
 192.71758 194.81761 197.08563 199.44966 201.89968 204.38471 206.47773 208.32475
 209.95578 211.10580 211.33983 211.57285 211.51488 211.22490 210.86292 210.49795
 210.11997 209.83500 209.64802 209.51705 209.45007 209.78609 210.17712 210.57114
 211.36917 212.55219 213.80722 215.59524 217.52826 219.57629 221.67631 223.76434
 225.82936 227.91839 230.02041 232.13143 234.26546 236.44248 238.70351 241.07853
 243.70456 245.96058 247.96760 249.73763 251.15965 252.28768 253.11470 253.43573
 253.47775 253.25677 252.62180 251.57482 250.18585 248.35187 246.26590 244.10392
 241.89995 239.70897 237.53399 235.37802 233.24304 231.11507 229.14609 227.30812
 225.59614 224.07316 222.70819 221.48521 220.37224 219.33726 218.44629 217.59231
 216.83933 216.02436 215.12738 214.49641 213.95143 214.45583 215.64752 217.83978
 219.92491 221.32387 222.51251 223.64214 224.81067 226.28912 227.64714 227.45949
 227.26828 228.91718 232.75235 237.31544 241.64032 245.88620 250.10760 254.17065
 257.95404 261.37448 264.42950 267.21033 269.80762 272.20581 274.20981 275.90320
 277.49307 278.98709 280.33392 281.56854 282.72964 283.77271 284.72440 285.59393
 286.38712 287.09137 287.70074 288.50458
 366.78100 356.33925 345.77551 334.64576 323.05301 311.25127 299.12552 286.93278
 274.64903 262.55028 250.56354 239.86879 229.99504 221.10330 213.28955 206.29581
 200.13406 195.07631 191.66257 189.70882 188.75007 188.81833 189.65758 190.96984
 192.69909 194.79834 197.06560 199.42885 201.87810 204.36236 206.45461 208.30087
 209.93112 211.08037 211.31363 211.54588 211.48713 211.19639 210.83364 210.46790
 210.08915 209.80340 209.61566 209.48391 209.41616 209.75142 210.14167 210.53493
 211.33218 212.51443 213.76869 215.55594 217.48819 219.53545 221.63470 223.72196
 225.78621 227.87446 229.97572 232.08597 234.21922 236.39548 238.65573 241.02999
 243.65524 245.91049 247.91675 249.68600 251.10725 252.23451 253.06076 253.38102
 253.42227 253.20052 252.56478 251.51703 250.12728 248.29254 246.20579 244.04305
 241.83830 239.64655 237.47081 235.31406 233.17831 231.04957 229.07982 227.24108
 225.52833 224.00458 222.63884 221.41509 220.30134 219.26560 218.37385 217.51911
 216.76536 215.94961 215.05187 214.42012 213.87437 214.42561 215.72797 217.80566
 219.96277 221.45200 222.55354 223.54520 224.66263 226.17294 227.60001 227.53209
 227.31517 228.87723 232.74393 237.34549 241.64716 245.86615 250.07492 254.14180
 257.94424 261.38449 264.45047 267.23209 269.82275 272.21249 274.19397 275.87314
 277.46500 278.95776 280.31064 281.51715 282.66830 283.70984 284.66208 285.53070
 286.32877 287.03998 287.65530 288.45850
 366.78100 356.33850 345.77400 334.64350 323.05000 311.24750 299.12100 286.92750
 274.64300 262.54350 250.55600 239.86050 229.98600 221.09350 213.27900 206.28449
 200.12199 195.06349 191.64899 189.69449 188.73499 188.80249 189.64099 190.95249
 192.68099 194.77949 197.04599 199.40849 201.85699 204.34049 206.43199 208.27749
 209.90699 211.05549 211.28799 211.51949 211.45999 211.16849 210.80499 210.43849
 210.05899 209.77249 209.58399 209.45149 209.38298 209.71748 210.10698 210.49948
 211.29598 212.47748 213.73098 215.51748 217.44898 219.49548 221.59398 223.68048
 225.74398 227.83148 229.93198 232.04148 234.17398 236.34948 238.60898 240.98248
 243.60698 245.86148 247.86698 249.63548 251.05598 252.18248 253.00798 253.32748
 253.36798 253.14547 252.50897 251.46047 250.06997 248.23447 246.14697 243.98347
 241.77797 239.58547 237.40897 235.25147 233.11497 230.98547 229.01497 227.17547
 225.46197 223.93747 222.57097 221.34647 220.23197 219.19547 218.30297 217.44747
 216.69297 215.87647 214.97797 214.34547 213.79897 214.39560 215.80524 217.77673
 219.99002 221.52292 222.60704 223.56523 224.62129 226.06754 227.48901 227.51228
 227.30586 228.83194 232.73795 237.37628 241.66595 245.84576 250.04515 254.12347
 257.94638 261.40753 264.48315 267.25925 269.83319 272.19962 274.14288 275.80042
 277.40204 278.90567 280.26257 281.46573 282.61551 283.65839 284.61285 285.48550
 286.28241 287.00360 287.61899 288.42444
 366.78100 356.33982 345.77663 334.64745 323.05526 311.25408 299.12889 286.93671
 274.65352 262.55534 250.56915 239.87497 230.00178 221.11060 213.29741 206.30423
 200.14304 195.08586 191.67267 189.71949 188.76130 188.83012 189.66993 190.98275
 192.71256 194.81238 197.08019 199.44401 201.89382 204.37864 206.47145 208.31827
 209.94908 211.09890 211.33271 211.56553 211.50734 211.21716 210.85497 210.48979
 210.11160 209.82642 209.63923 209.50805 209.44087 209.77668 210.16750 210.56131
 211.35913 212.54194 213.79676 215.58457 217.51739 219.56520 221.66502 223.75283
 225.81765 227.90646 230.00828 232.11909 234.25291 236.42972 238.69054 241.06535
 243.69117 245.94698 247.95380 249.72361 251.14543 252.27324 253.10006 253.42087
 253.46269 253.24150 252.60632 251.55913 250.16995 248.33576 246.24958 244.08739
 241.88321 239.69202 237.51684 235.36065 233.22547 231.09728 229.12810 227.28991
 225.57773 224.05455 222.68936 221.46618 220.35299 219.31781 218.42662 217.57244
 216.81925 216.00407 215.10688 214.47570 213.93051 214.47142 215.74937 217.82898
 220.08424 221.49864 222.59416 223.60376 224.62125 225.99002 227.39305 227.50566
 227.31822 228.80539 232.73598 237.39796 241.67262 245.81007 249.99976 254.07558
 257.90118 261.37109 264.46719 267.26495 269.85236 272.21631 274.13898 275.76581
 277.35089 278.85327 280.20917 281.41980 282.57401 283.61774 284.57410 285.44839
 286.24588 286.96735 287.58356 288.39706
 366.78100 356.34258 345.78216 334.65573 323.06631 311.26789 299.14547 286.95605
 274.67563 262.58020 250.59678 239.90536 230.03494 221.14652 213.33609 206.34567
 200.18725 195.13283 191.72241 189.77199 188.81656 188.88814 189.73072 191.04630
 192.77888 194.88145 197.15203 199.51861 201.97119 204.45877 206.55435 208.40392
 210.03750 211.19008 211.42666 211.66224 211.60681 211.31939 210.95997 210.59755
 210.22213 209.93971 209.75528 209.62686 209.56244 209.90102 210.29460 210.69117
 211.49175 212.67733 213.93491 215.72549 217.66107 219.71164 221.81422 223.90480
 225.97238 228.06396 230.16853 232.28211 234.41869 236.59827 238.86185 241.23943
 243.86800 246.12658 248.13616 249.90874 251.33332 252.46389 253.29347 253.61705
 253.66163 253.44321 252.81079 251.76636 250.37994 248.54852 246.46510 244.30568
 242.10425 239.91583 237.74341 235.58999 233.45757 231.33214 229.36572 227.53030
 225.82088 224.30046 222.93804 221.71761 220.60719 219.57477 218.68635 217.83493
 217.08450 216.27208 215.37766 214.74924 214.20682 214.62190 215.60257 217.93443
 220.19965 221.49805 222.55199 223.51720 224.50652 225.88474 227.34843 227.61928
 227.45270 228.84239 232.75044 237.42798 241.68910 245.76302 249.91582 253.97617
 257.78574 261.25125 264.37955 267.23608 269.88107 272.28207 274.21994 275.82660
 277.36270 278.83255 280.17422 281.38467 282.53976 283.58511 284.54272 285.41785
 286.21567 286.93475 287.55505 288.37320
 366.78100 356.34453 345.78607 334.66160 323.07413 311.27766 299.15720 286.96973
 274.69126 262.59779 250.61633 239.92686 230.05839 221.17192 213.36346 206.37499
 200.21852 195.16605 191.75759 189.80912 188.85565 188.92918 189.77372 191.09125
 192.82578 194.93031 197.20285 199.57138 202.02591 204.51544 206.61298 208.46451
 210.10004 211.25457 211.49311 211.73064 211.67717 211.39170 211.03424 210.67377
 210.30030 210.01983 209.83737 209.71090 209.64843 209.98896 210.38450 210.78303
 211.58556 212.77309 214.03263 215.82516 217.76269 219.81522 221.91976 224.01229
 226.08182 228.17535 230.28189 232.39742 234.53595 236.71748 238.98302 241.36255
 243.99308 246.25361 248.26515 250.03968 251.46621 252.59874 253.43028 253.75581
 253.80234 253.58587 252.95541 251.91294 250.52847 248.69900 246.61754 244.46007
 242.26060 240.07413 237.90367 235.75220 233.62173 231.49826 229.53380 227.70033
 225.99286 224.47439 223.11393 221.89546 220.78699 219.75652 218.87006 218.02059
 217.27212 216.46165 215.56919 214.94272 214.40225 214.73186 215.51056 217.99162
 220.26202 221.60088 222.57576 223.34653 224.26765 225.69998 227.29086 227.77054
 227.65048 228.93468 232.78250 237.47401 241.73824 245.76315 249.85918 253.89021
 257.67557 261.12756 264.27307 267.17743 269.87943 272.32129 274.28796 275.89810
 277.40115 278.83551 280.15628 281.35962 282.51523 283.55997 284.51913 285.39563
 286.19281 286.91351 287.53702 288.35526
 366.78100 356.34475 345.78650 334.66224 323.07499 311.27874 299.15849 286.97124
 274.69298 262.59973 250.61848 239.92923 230.06098 221.17472 213.36647 206.37822
 200.22197 195.16972 191.76146 189.81321 188.85996 188.93371 189.77846 191.09620
 192.83095 194.93570 197.20845 199.57720 202.03194 204.52169 206.61944 208.47119
 210.10694 211.26168 211.50043 211.73818 211.68493 211.39968 211.04242 210.68217
 210.30892 210.02867 209.84641 209.72016 209.65791 209.99866 210.39441 210.79315
 211.59590 212.78365 214.04340 215.83615 217.77389 219.82664 221.93139 224.02414
 226.09389 228.18763 230.29438 232.41013 234.54888 236.73063 238.99637 241.37612
 244.00687 246.26762 248.27937 250.05411 251.48086 252.61361 253.44536 253.77111
 253.81785 253.60160 252.97135 251.92910 250.54485 248.71559 246.63434 244.47709
 242.27784 240.09159 237.92133 235.77008 233.63983 231.51658 229.55233 227.71907
 226.01182 224.49357 223.13332 221.91507 220.80681 219.77656 218.89031 218.04106
 217.29281 216.48255 215.59030 214.96405 214.42380 214.75365 215.53296 217.96104
 220.27786 221.73975 222.67961 223.23058 224.03185 225.46272 227.16060 227.82587
 227.78108 229.02435 232.82550 237.53334 241.82379 245.83372 249.86633 253.86182
 257.63013 261.06653 264.20200 267.11227 269.83203 272.27786 274.25708 275.89319
 277.40652 278.83081 280.13809 281.34180 282.50003 283.54617 284.50616 285.38400
 286.18335 286.90436 287.53320 288.35239
 366.78100 356.34416 345.78533 334.66049 323.07266 311.27582 299.15498 286.96715
 274.68831 262.59448 250.61264 239.92280 230.05397 221.16713 213.35830 206.36946
 200.21262 195.15979 191.75095 189.80212 188.84828 188.92144 189.76561 191.08277
 192.81694 194.92110 197.19326 199.56143 202.01559 204.50476 206.60192 208.45308
 210.08825 211.24241 211.48058 211.71774 211.66390 211.37807 211.02023 210.65940
 210.28556 210.00472 209.82189 209.69505 209.63222 209.97238 210.36755 210.76571
 211.56787 212.75504 214.01420 215.80637 217.74353 219.79569 221.89986 223.99202
 226.06119 228.15435 230.26051 232.37568 234.51384 236.69501 238.96017 241.33933
 243.96950 246.22966 248.24083 250.01499 251.44115 252.57332 253.40448 253.72965
 253.77581 253.55897 252.92814 251.88530 250.50047 248.67063 246.58879 244.43096
 242.23112 240.04429 237.87345 235.72161 233.59078 231.46694 229.50211 227.66827
 225.96043 224.44160 223.08076 221.86193 220.75309 219.72225 218.83542 217.98558
 217.23675 216.42591 215.53307 214.90624 214.36540 214.73541 215.60963 217.89130
 220.29395 221.82358 222.78366 223.21783 223.89313 225.24467 226.98068 227.76562
 227.80692 229.08531 232.87311 237.59862 241.92480 245.93201 249.91452 253.88025
 257.63248 261.05313 264.16501 267.05441 269.75977 272.17847 274.14636 275.81534
 277.36700 278.80582 280.11337 281.33109 282.49561 283.54382 284.50525 285.38425
 286.18668 286.91025 287.54236 288.36221
 366.78100 356.34381 345.78462 334.65942 323.07123 311.27404 299.15285 286.96466
 274.68546 262.59127 250.60908 239.91889 230.04969 221.16250 213.35331 206.36412
 200.20693 195.15373 191.74454 189.79535 188.84116 188.91397 189.75777 191.07458
 192.80839 194.91220 197.18400 199.55181 202.00562 204.49443 206.59124 208.44204
 210.07685 211.23066 211.46847 211.70528 211.65108 211.36489 211.00670 210.64551
 210.27132 209.99012 209.80693 209.67974 209.61655 209.95635 210.35116 210.74897
 211.55078 212.73759 213.99639 215.78820 217.72501 219.77682 221.88063 223.97243
 226.04124 228.13405 230.23986 232.35467 234.49247 236.67328 238.93809 241.31690
 243.94670 246.20651 248.21732 249.99113 251.41694 252.54874 253.37955 253.70436
 253.75017 253.53298 252.90178 251.85859 250.47340 248.64321 246.56101 244.40282
 242.20263 240.01544 237.84425 235.69205 233.56086 231.43667 229.47148 227.63729
 225.92909 224.40990 223.04871 221.82952 220.72033 219.68913 218.80194 217.95175
 217.20256 216.39136 215.49817 214.87098 214.32979 214.72954 215.67398 217.83543
 220.31641 221.85881 222.82985 223.24869 223.83943 225.07738 226.79770 227.65044
 227.77686 229.13037 232.92575 237.66302 242.02567 246.03259 249.97678 253.91341
 257.64688 261.04681 264.13242 266.99960 269.68576 272.07733 274.02258 275.71204
 277.30658 278.76740 280.07959 281.33264 282.50272 283.55176 284.51575 285.39645
 286.19888 286.92603 287.56049 288.38159
 366.78100 356.34389 345.78478 334.65967 323.07156 311.27445 299.15334 286.96524
 274.68613 262.59202 250.60991 239.91980 230.05069 221.16358 213.35447 206.36536
 200.20825 195.15514 191.74603 189.79692 188.84281 188.91571 189.75960 191.07649
 192.81038 194.91427 197.18616 199.55405 202.00794 204.49683 206.59372 208.44461
 210.07950 211.23339 211.47129 211.70818 211.65407 211.36796 211.00985 210.64874
 210.27463 209.99352 209.81041 209.68330 209.62019 209.96008 210.35497 210.75286
 211.55476 212.74165 214.00054 215.79243 217.72932 219.78121 221.88510 223.97699
 226.04588 228.13877 230.24466 232.35955 234.49744 236.67833 238.94323 241.32212
 243.95201 246.21190 248.22279 249.99668 251.42257 252.55446 253.38535 253.71024
 253.75613 253.53902 252.90791 251.86481 250.47970 248.64959 246.56748 244.40937
 242.20926 240.02215 237.85104 235.69893 233.56782 231.44371 229.47860 227.64449
 225.93638 224.41728 223.05617 221.83706 220.72795 219.69684 218.80973 217.95962
 217.21051 216.39940 215.50629 214.87918 214.33807 214.74628 215.71069 217.80656
 220.32016 221.89331 222.84906 223.27351 223.79872 224.93016 226.62242 227.52243
 227.73288 229.18030 232.99165 237.73268 242.12819 246.13730 250.04652 253.94432
 257.64920 261.02335 264.08850 266.94467 269.62357 272.00342 273.92682 275.61963
 277.24405 278.72849 280.04733 281.34561 282.52191 283.57077 284.53491 285.41678
 286.22250 286.94995 287.58588 288.40826
 366.78100 356.34419 345.78538 334.66057 323.07275 311.27594 299.15513 286.96732
 274.68851 262.59470 250.61289 239.92308 230.05426 221.16745 213.35864 206.36983
 200.21302 195.16021 191.75140 189.80259 188.84877 188.92196 189.76615 191.08334
 192.81753 194.92172 197.19391 199.56210 202.01628 204.50547 206.60266 208.45385
 210.08904 211.24323 211.48142 211.71861 211.66479 211.37898 211.02117 210.66036
 210.28655 210.00574 209.82293 209.69612 209.63330 209.97349 210.36868 210.76687
 211.56906 212.75625 214.01544 215.80763 217.74481 219.79700 221.90119 223.99338
 226.06257 228.15576 230.26195 232.37714 234.51532 236.69651 238.96170 241.34089
 243.97108 246.23127 248.24246 250.01665 251.44283 252.57502 253.40621 253.73140
 253.77759 253.56078 252.92997 251.88716 250.50234 248.67253 246.59072 244.43291
 242.23310 240.04629 237.87548 235.72367 233.59285 231.46904 229.50423 227.67042
 225.96261 224.44380 223.08299 221.86418 220.75536 219.72455 218.83774 217.98793
 217.23912 216.42831 215.53550 214.90869 214.36787 214.77409 215.73384 217.79340
 220.29851 221.93285 222.87100 223.29117 223.75444 224.77919 226.44264 227.38011
 227.68874 229.25269 233.07263 237.80865 242.22670 246.24004 250.12381 253.98151
 257.64761 260.98990 264.03528 266.88809 269.57071 271.94873 273.85544 275.54010
 277.18347 278.68481 280.02219 281.35815 282.54111 283.59412 284.56006 285.44403
 286.25180 286.98151 287.61859 288.44278
 366.78100 356.34446 345.78591 334.66137 323.07383 311.27729 299.15674 286.96920
 274.69066 262.59712 250.61557 239.92603 230.05749 221.17095 213.36240 206.37386
 200.21732 195.16478 191.75623 189.80769 188.85415 188.92761 189.77206 191.08952
 192.82398 194.92844 197.20089 199.56935 202.02381 204.51327 206.61072 208.46218
 210.09764 211.25210 211.49055 211.72801 211.67447 211.38893 211.03138 210.67084
 210.29730 210.01676 209.83421 209.70767 209.64513 209.98559 210.38104 210.77950
 211.58196 212.76941 214.02887 215.82133 217.75879 219.81124 221.91570 224.00816
 226.07762 228.17107 230.27753 232.39299 234.53145 236.71290 238.97836 241.35782
 243.98828 246.24873 248.26019 250.03465 251.46111 252.59356 253.42502 253.75048
 253.79694 253.58039 252.94985 251.90731 250.52277 248.69322 246.61168 244.45414
 242.25460 240.06805 237.89751 235.74597 233.61543 231.49188 229.52734 227.69380
 225.98626 224.46771 223.10717 221.88863 220.78009 219.74954 218.86300 218.01346
 217.26492 216.45437 215.56183 214.93529 214.39474 214.80099 215.76080 217.77910
 220.26770 221.97049 222.90056 223.28873 223.68213 224.62860 226.26721 227.23775
 227.63274 229.30795 233.16141 237.90416 242.35452 246.37657 250.22704 254.02730
 257.64038 260.94409 263.96960 266.82208 269.51077 271.88538 273.77921 275.46100
 277.11914 278.63510 280.02484 281.37445 282.56146 283.61789 284.58652 285.47232
 286.28192 287.01239 287.64987 288.47552
 366.78100 356.34455 345.78610 334.66165 323.07420 311.27775 299.15730 286.96985
 274.69140 262.59795 250.61650 239.92705 230.05860 221.17215 213.36370 206.37525
 200.21880 195.16635 191.75790 189.80945 188.85600 188.92955 189.77410 191.09165
 192.82620 194.93075 197.20330 199.57185 202.02640 204.51595 206.61350 208.46505
 210.10060 211.25515 211.49370 211.73125 211.67780 211.39235 211.03490 210.67445
 210.30100 210.02055 209.83810 209.71165 209.64920 209.98975 210.38530 210.78385
 211.58640 212.77395 214.03350 215.82605 217.76360 219.81615 221.92070 224.01325
 226.08280 228.17635 230.28290 232.39845 234.53700 236.71854 238.98409 241.36364
 243.99419 246.25474 248.26629 250.04084 251.46739 252.59994 253.43149 253.75704
 253.80359 253.58714 252.95669 251.91424 250.52979 248.70034 246.61889 244.46144
 242.26199 240.07554 237.90509 235.75364 233.62319 231.49974 229.53529 227.70184
 225.99439 224.47594 223.11549 221.89704 220.78859 219.75814 218.87169 218.02224
 217.27379 216.46334 215.57089 214.94444 214.40399 214.81940 215.80087 217.75798
 220.22617 222.00603 222.95537 223.29185 223.57909 224.40506 226.04848 227.06084
 227.63260 229.50652 233.30438 238.00087 242.47849 246.50685 250.31845 254.06262
 257.62323 260.88785 263.89398 266.74683 269.43881 271.80731 273.69363 275.37830
 277.05441 278.58826 280.03937 281.39737 282.58661 283.64481 284.61627 285.50601
 286.31879 287.05246 287.69452 288.53824
 366.78100 356.34447 345.78595 334.66142 323.07390 311.27737 299.15685 286.96932
 274.69080 262.59727 250.61575 239.92622 230.05770 221.17117 213.36265 206.37412
 200.21760 195.16507 191.75655 189.80802 188.85450 188.92797 189.77245 191.08992
 192.82440 194.92887 197.20135 199.56982 202.02430 204.51377 206.61125 208.46272
 210.09820 211.25267 211.49115 211.72862 211.67510 211.38957 211.03205 210.67152
 210.29800 210.01747 209.83495 209.70842 209.64590 209.98637 210.38185 210.78032
 211.58280 212.77027 214.02975 215.82222 217.75970 219.81217 221.91665 224.00912
 226.07860 228.17207 230.27855 232.39402 234.53250 236.71397 238.97945 241.35892
 243.98940 246.24987 248.26135 250.03582 251.46230 252.59477 253.42625 253.75172
 253.79820 253.58167 252.95115 251.90862 250.52410 248.69457 246.61305 244.45552
 242.25600 240.06947 237.89895 235.74742 233.61690 231.49337 229.52885 227.69532
 225.98780 224.46927 223.10875 221.89022 220.78170 219.75117 218.86465 218.01512
 217.26660 216.45607 215.56355 214.93702 214.39650 214.82925 215.85168 217.74088
 220.16470 222.02200 223.02802 223.32016 223.48721 224.17812 225.80835 226.86644
 227.63487 229.70622 233.45207 238.09993 242.59647 246.63193 250.41347 254.10571
 257.61523 260.83963 263.82486 266.67572 269.36661 271.72693 273.60953 275.30267
 276.99261 278.53738 280.06055 281.42935 282.62088 283.68127 284.65411 285.54446
 286.35837 287.09039 287.73428 288.58060
 366.78100 356.34436 345.78571 334.66107 323.07343 311.27678 299.15614 286.96850
 274.68985 262.59621 250.61457 239.92492 230.05628 221.16964 213.36099 206.37235
 200.21571 195.16306 191.75442 189.80578 188.85213 188.92549 189.76985 191.08721
 192.82156 194.92592 197.19828 199.56663 202.02099 204.51035 206.60770 208.45906
 210.09442 211.24877 211.48713 211.72449 211.67084 211.38520 211.02756 210.66691
 210.29327 210.01263 209.82998 209.70334 209.64070 209.98105 210.37641 210.77477
 211.57712 212.76448 214.02384 215.81619 217.75355 219.80591 221.91026 224.00262
 226.07198 228.16533 230.27169 232.38705 234.52540 236.70676 238.97212 241.35147
 243.98183 246.24219 248.25354 250.02790 251.45426 252.58662 253.41797 253.74333
 253.78969 253.57304 252.94240 251.89976 250.51511 248.68547 246.60383 244.44618
 242.24654 240.05990 237.88925 235.73761 233.60697 231.48332 229.51868 227.68504
 225.97739 224.45875 223.09811 221.87946 220.77082 219.74018 218.85353 218.00389
 217.25525 216.44460 215.55196 214.92532 214.38467 214.83649 215.90392 217.73436
 220.08965 222.01141 223.09065 223.35976 223.41679 223.97369 225.56548 226.68095
 227.63980 229.87671 233.58997 238.19620 242.71028 246.76120 250.51970 254.16408
 257.62378 260.80539 263.76541 266.61017 269.29437 271.64200 273.52292 275.22849
 276.93909 278.53275 280.07324 281.44925 282.64536 283.70908 284.68320 285.57666
 286.38763 287.12143 287.76236 288.60934
 366.78100 356.34429 345.78558 334.66087 323.07316 311.27645 299.15575 286.96804
 274.68933 262.59562 250.61391 239.92420 230.05549 221.16878 213.36007 206.37136
 200.21466 195.16195 191.75324 189.80453 188.85082 188.92411 189.76840 191.08569
 192.81998 194.92427 197.19657 199.56486 202.01915 204.50844 206.60573 208.45702
 210.09231 211.24660 211.48489 211.72218 211.66848 211.38277 211.02506 210.66435
 210.29064 210.00993 209.82722 209.70051 209.63780 209.97809 210.37338 210.77168
 211.57397 212.76126 214.02055 215.81284 217.75013 219.80242 221.90671 223.99900
 226.06829 228.16159 230.26788 232.38317 234.52146 236.70275 238.96804 241.34733
 243.97762 246.23791 248.24920 250.02350 251.44979 252.58208 253.41337 253.73866
 253.78495 253.56824 252.93753 251.89482 250.51011 248.68041 246.59870 244.44099
 242.24128 240.05457 237.88386 235.73215 233.60144 231.47773 229.51302 227.67931
 225.97161 224.45290 223.09219 221.87348 220.76477 219.73406 218.84735 217.99764
 217.24893 216.43822 215.54552 214.91881 214.37810 214.84682 215.95424 217.73547
 220.01331 221.98460 223.13261 223.39124 223.35893 223.79185 225.32697 226.51144
 227.65076 230.01904 233.71049 238.29488 242.82939 246.90009 250.64142 254.23660
 257.64209 260.77777 263.71048 266.54446 269.21851 271.55151 273.43405 275.15817
 276.89725 278.53659 280.08316 281.46286 282.66251 283.72806 284.70435 285.59641
 286.40753 287.14124 287.77963 288.62711
 366.78100 356.34427 345.78554 334.66081 323.07309 311.27636 299.15563 286.96790
 274.68917 262.59544 250.61371 239.92398 230.05526 221.16853 213.35980 206.37107
 200.21434 195.16161 191.75288 189.80415 188.85043 188.92370 189.76797 191.08524
 192.81951 194.92378 197.19605 199.56432 202.01860 204.50787 206.60514 208.45641
 210.09168 211.24595 211.48422 211.72150 211.66777 211.38204 211.02431 210.66358
 210.28985 210.00912 209.82639 209.69967 209.63694 209.97721 210.37248 210.77075
 211.57302 212.76029 214.01956 215.81184 217.74911 219.80138 221.90565 223.99792
 226.06719 228.16046 230.26673 232.38201 234.52028 236.70155 238.96682 241.34609
 243.97636 246.23663 248.24791 250.02218 251.44845 252.58072 253.41199 253.73726
 253.78353 253.56680 252.93608 251.89335 250.50862 248.67889 246.59716 244.43943
 242.23970 240.05297 237.88225 235.73052 233.59979 231.47606 229.51133 227.67760
 225.96987 224.45114 223.09042 221.87169 220.76296 219.73223 218.84550 217.99577
 217.24704 216.43632 215.54359 214.91686 214.37613 214.85915 216.00034 217.74176
 219.94038 221.94386 223.15712 223.41116 223.30585 223.62761 225.09511 226.35274
 227.66353 230.13936 233.82501 238.39616 242.95190 247.04726 250.77318 254.31721
 257.66669 260.75662 263.66092 266.48276 269.14307 271.45926 273.34265 275.08398
 276.81134 278.55911 280.11621 281.48981 282.68704 283.74890 284.72433 285.61401
 286.42194 287.15256 287.79156 288.63547
 366.78100 356.34418 345.78536 334.66055 323.07273 311.27591 299.15509 286.96727
 274.68846 262.59464 250.61282 239.92300 230.05418 221.16736 213.35855 206.36973
 200.21291 195.16009 191.75127 189.80246 188.84864 188.92182 189.76600 191.08318
 192.81736 194.92155 197.19373 199.56191 202.01609 204.50527 206.60246 208.45364
 210.08882 211.24300 211.48118 211.71837 211.66455 211.37873 211.02091 210.66009
 210.28628 210.00546 209.82264 209.69582 209.63300 209.97318 210.36837 210.76655
 211.56873 212.75591 214.01509 215.80728 217.74446 219.79664 221.90082 223.99300
 226.06218 228.15537 230.26155 232.37673 234.51491 236.69609 238.96128 241.34046
 243.97064 246.23082 248.24200 250.01619 251.44237 252.57455 253.40573 253.73091
 253.77710 253.56028 252.92946 251.88664 250.50182 248.67200 246.59019 244.43237
 242.23255 240.04573 237.87491 235.72310 233.59228 231.46846 229.50364 227.66982
 225.96200 224.44319 223.08237 221.86355 220.75473 219.72391 218.83710 217.98728
 217.23846 216.42764 215.53482 214.90801 214.36719 214.86688 216.04747 217.75328
 219.86691 221.89017 223.16522 223.41917 223.25725 223.48207 224.87030 226.19139
 227.66730 230.24802 233.93599 238.50290 243.08186 247.20068 250.91052 254.40352
 257.69604 260.74057 263.61844 266.42703 269.07227 271.37592 273.26532 275.02225
 276.78287 278.55276 280.11743 281.49612 282.69336 283.75797 284.73178 285.62030
 286.42825 287.15363 287.78854 288.63214
 366.78100 356.34410 345.78521 334.66031 323.07241 311.27552 299.15462 286.96672
 274.68783 262.59393 250.61203 239.92214 230.05324 221.16634 213.35745 206.36855
 200.21166 195.15876 191.74986 189.80097 188.84707 188.92017 189.76428 191.08138
 192.81548 194.91959 197.19169 199.55979 202.01390 204.50300 206.60010 208.45121
 210.08631 211.24041 211.47852 211.71562 211.66172 211.37583 211.01793 210.65703
 210.28314 210.00224 209.81934 209.69245 209.62955 209.96966 210.36476 210.76286
 211.56497 212.75207 214.01117 215.80328 217.74038 219.79248 221.89659 223.98869
 226.05779 228.15090 230.25700 232.37210 234.51021 236.69131 238.95641 241.33552
 243.96562 246.22572 248.23683 250.01093 251.43703 252.56914 253.40024 253.72534
 253.77145 253.55455 252.92365 251.88076 250.49586 248.66597 246.58407 244.42617
 242.22628 240.03938 237.86848 235.71659 233.58569 231.46179 229.49690 227.66300
 225.95510 224.43621 223.07531 221.85641 220.74752 219.71662 218.82972 217.97983
 217.23093 216.42003 215.52714 214.90024 214.35934 214.87608 216.09692 217.75673
 219.80614 221.83427 223.14511 223.39308 223.19766 223.35638 224.66655 226.03712
 227.66412 230.34921 234.05408 238.61771 243.21371 247.35416 251.05043 254.49550
 257.73621 260.73981 263.58981 266.38110 269.00546 271.28912 273.17636 274.95084
 276.77280 278.54962 280.11728 281.49844 282.69678 283.76117 284.73395 285.62045
 286.42529 287.14691 287.77573 288.61765
 366.78100 356.34444 345.78588 334.66132 323.07376 311.27720 299.15665 286.96909
 274.69053 262.59697 250.61541 239.92585 230.05729 221.17073 213.36217 206.37361
 200.21706 195.16450 191.75594 189.80738 188.85382 188.92726 189.77170 191.08914
 192.82358 194.92802 197.20047 199.56891 202.02335 204.51279 206.61023 208.46167
 210.09711 211.25155 211.48999 211.72743 211.67387 211.38832 211.03076 210.67020
 210.29664 210.01608 209.83352 209.70696 209.64440 209.98484 210.38028 210.77873
 211.58117 212.76861 214.02805 215.82049 217.75793 219.81037 221.91481 224.00725
 226.07669 228.17014 230.27658 232.39202 234.53046 236.71190 238.97734 241.35678
 243.98722 246.24766 248.25910 250.03354 251.45999 252.59243 253.42387 253.74931
 253.79575 253.57919 252.94863 251.90607 250.52151 248.69195 246.61040 244.45284
 242.25328 240.06672 237.89616 235.74460 233.61404 231.49048 229.52592 227.69236
 225.98481 224.46625 223.10569 221.88713 220.77857 219.74801 218.86145 218.01189
 217.26333 216.45277 215.56021 214.93366 214.39310 214.91058 216.13322 217.74384
 219.76717 221.78670 223.10796 223.33398 223.11407 223.23198 224.47668 225.88925
 227.65457 230.45314 234.18231 238.73692 243.34433 247.50056 251.18425 254.59457
 257.79163 260.75449 263.57544 266.34549 268.94699 271.21384 273.10590 274.89890
 276.75134 278.53195 280.09827 281.47818 282.67508 283.73755 284.70938 285.59482
 286.39706 287.12045 287.75333 288.59000
 366.78100 356.34513 345.78726 334.66338 323.07651 311.28064 299.16077 286.97390
 274.69602 262.60315 250.62228 239.93341 230.06554 221.17966 213.37179 206.38392
 200.22805 195.17618 191.76831 189.82043 188.86756 188.94169 189.78682 191.10495
 192.84007 194.94520 197.21833 199.58746 202.04259 204.53271 206.63084 208.48297
 210.11910 211.27423 211.51335 211.75148 211.69861 211.41374 211.05687 210.69699
 210.32412 210.04425 209.86238 209.73651 209.67464 210.01576 210.41189 210.81102
 211.61415 212.80228 214.06240 215.85553 217.79366 219.84679 221.95192 224.04504
 226.11517 228.20930 230.31643 232.43256 234.57168 236.75381 239.01994 241.40007
 244.03120 246.29232 248.30445 250.07958 251.50671 252.63984 253.47197 253.79809
 253.84522 253.62935 252.99948 251.95761 250.57373 248.74486 246.66399 244.50712
 242.30825 240.12237 237.95250 235.80163 233.67176 231.54889 229.58501 227.75214
 226.04527 224.52740 223.16753 221.94965 220.84178 219.81191 218.92604 218.07717
 217.32929 216.51942 215.62755 215.00168 214.46181 214.96762 216.16267 217.72261
 219.70882 221.71924 223.06601 223.27464 223.03911 223.12625 224.29277 225.72429
 227.62367 230.52663 234.30191 238.85764 243.47232 247.64697 251.33080 254.70523
 257.86325 260.79007 263.57428 266.32114 268.89832 271.14105 273.01422 274.82132
 276.73373 278.53238 280.09961 281.47812 282.67633 283.73688 284.70981 285.59497
 286.40094 287.13010 287.77002 288.59195
 366.78100 356.34599 345.78898 334.66597 323.07996 311.28494 299.16593 286.97992
 274.70291 262.61090 250.63089 239.94288 230.07587 221.19085 213.38384 206.39683
 200.24182 195.19081 191.78380 189.83679 188.88478 188.95977 189.80575 191.12474
 192.86073 194.96672 197.24071 199.61070 202.06669 204.55768 206.65666 208.50965
 210.14664 211.30263 211.54262 211.78161 211.72960 211.44559 211.08958 210.73056
 210.35855 210.07954 209.89853 209.77352 209.71251 210.05450 210.45149 210.85147
 211.65546 212.84445 214.10544 215.89943 217.83842 219.89241 221.99840 224.09239
 226.16337 228.25836 230.36635 232.48334 234.62333 236.80632 239.07331 241.45430
 244.08628 246.34827 248.36126 250.13725 251.56524 252.69923 253.53222 253.85921
 253.90720 253.69218 253.06317 252.02216 250.63915 248.81114 246.73113 244.57512
 242.37711 240.19209 238.02308 235.87307 233.74406 231.62205 229.65904 227.82703
 226.12102 224.60401 223.24499 222.02798 220.92097 219.89196 219.00695 218.15894
 217.41193 216.60292 215.71190 215.08689 214.54788 215.03459 216.18451 217.70256
 219.64389 221.63100 223.01137 223.20398 222.95680 223.02475 224.13524 225.56944
 227.58417 230.58650 234.42029 238.97992 243.59326 247.78346 251.47319 254.85008
 257.97552 260.86368 263.60449 266.31717 268.86908 271.08087 272.94846 274.78647
 276.69958 278.49817 280.05957 281.43381 282.62576 283.68158 284.64835 285.53604
 286.35129 287.08316 287.72946 288.55557
 366.78100 356.34640 345.78980 334.66720 323.08160 311.28700 299.16840 286.98280
 274.70620 262.61460 250.63501 239.94741 230.08081 221.19621 213.38961 206.40301
 200.24841 195.19781 191.79121 189.84461 188.89301 188.96841 189.81481 191.13421
 192.87061 194.97701 197.25141 199.62181 202.07821 204.56961 206.66902 208.52242
 210.15982 211.31622 211.55662 211.79602 211.74442 211.46082 211.10522 210.74662
 210.37502 210.09642 209.91582 209.79122 209.73062 210.07302 210.47042 210.87082
 211.67522 212.86462 214.12603 215.92043 217.85983 219.91423 222.02063 224.11503
 226.18643 228.28183 230.39023 232.50763 234.64803 236.83143 239.09883 241.48023
 244.11263 246.37503 248.38843 250.16483 251.59323 252.72763 253.56104 253.88844
 253.93684 253.72224 253.09364 252.05304 250.67044 248.84284 246.76324 244.60764
 242.41004 240.22544 238.05684 235.90724 233.77864 231.65704 229.69444 227.86284
 226.15724 224.64064 223.28205 222.06545 220.95885 219.93025 219.04565 218.19805
 217.45145 216.64285 215.75225 215.12765 214.58905 215.07651 216.22818 217.67203
 219.59090 221.55220 222.92387 223.09656 222.85304 222.91913 223.97870 225.44313
 227.55838 230.64149 234.52954 239.09256 243.70927 247.91621 251.62714 254.98787
 258.11340 260.97809 263.67395 266.33768 268.83282 271.00296 272.87875 274.75116
 276.69077 278.49167 280.05560 281.43344 282.63098 283.69635 284.68262 285.58395
 286.39786 287.12329 287.78308 288.62387
 366.78100 356.34624 345.78949 334.66673 323.08097 311.28621 299.16746 286.98170
 274.70494 262.61318 250.63343 239.94567 230.07891 221.19415 213.38740 206.40064
 200.24588 195.19512 191.78837 189.84161 188.88985 188.96509 189.81134 191.13058
 192.86682 194.97306 197.24731 199.61755 202.07379 204.56503 206.66428 208.51752
 210.15476 211.31100 211.55125 211.79049 211.73873 211.45498 211.09922 210.74046
 210.36870 210.08995 209.90919 209.78443 209.72367 210.06592 210.46316 210.86340
 211.66764 212.85689 214.11813 215.91237 217.85161 219.90586 222.01210 224.10634
 226.17758 228.27283 230.38107 232.49831 234.63855 236.82180 239.08904 241.47028
 244.10252 246.36477 248.37801 250.15425 251.58250 252.71674 253.54998 253.87722
 253.92547 253.71071 253.08195 252.04119 250.65844 248.83068 246.75092 244.59516
 242.39741 240.21265 238.04389 235.89413 233.76538 231.64362 229.68086 227.84910
 226.14335 224.62659 223.26783 222.05107 220.94432 219.91556 219.03080 218.18304
 217.43629 216.62753 215.73677 215.11201 214.57326 215.08029 216.27820 217.69167
 219.51993 221.40303 222.80884 223.02295 222.80019 222.85254 223.89508 225.32622
 227.49133 230.67192 234.63078 239.18823 243.76978 247.97699 251.66173 255.18759
 258.28195 261.11447 263.78128 266.40613 268.86768 271.01041 272.89148 274.74713
 276.65073 278.42767 279.98203 281.35229 282.54266 283.61038 284.61148 285.50992
 286.27225 286.84048 287.29004 287.86292
 366.78100 356.34714 345.79128 334.66942 323.08456 311.29070 299.17284 286.98798
 274.71212 262.62126 250.64241 239.95555 230.08969 221.20583 213.39997 206.41411
 200.26025 195.21039 191.80453 189.85867 188.90781 188.98395 189.83109 191.15123
 192.88837 194.99551 197.27065 199.64179 202.09894 204.59108 206.69122 208.54536
 210.18350 211.34064 211.58178 211.82192 211.77106 211.48820 211.13334 210.77548
 210.40462 210.12676 209.94690 209.82304 209.76318 210.10632 210.50447 210.90561
 211.71075 212.90089 214.16303 215.95817 217.89831 219.95345 222.06059 224.15573
 226.22787 228.32401 230.43315 232.55129 234.69243 236.87657 239.14471 241.52685
 244.16000 246.42314 248.43728 250.21442 251.64356 252.77870 253.61284 253.94098
 253.99012 253.77626 253.14840 252.10854 250.72668 248.89982 246.82096 244.66610
 242.46924 240.28538 238.11753 235.96867 233.84081 231.71995 229.75809 227.92723
 226.22237 224.70651 223.34865 222.13279 221.02693 219.99907 219.11521 218.26835
 217.52249 216.71463 215.82477 215.20091 214.66306 215.13513 216.25050 217.72867
 219.57617 221.37227 222.67239 222.92216 222.74127 222.78287 223.79210 225.21159
 227.41953 230.75586 234.77582 239.31149 243.86665 248.05754 251.80486 255.28101
 258.35361 261.15598 263.80173 266.40359 268.82504 270.96295 272.87720 274.74362
 276.62079 278.36697 279.92081 281.28549 282.46814 283.52142 284.49283 285.36664
 286.13492 286.82614 287.44040 288.25027
 366.78100 356.34731 345.79161 334.66992 323.08522 311.29153 299.17383 286.98914
 274.71344 262.62275 250.64405 239.95736 230.09166 221.20797 213.40227 206.41658
 200.26289 195.21319 191.80750 189.86180 188.91111 188.98741 189.83472 191.15502
 192.89233 194.99963 197.27494 199.64624 202.10355 204.59586 206.69616 208.55047
 210.18877 211.34608 211.58738 211.82769 211.77699 211.49430 211.13960 210.78191
 210.41121 210.13352 209.95382 209.83013 209.77044 210.11374 210.51205 210.91335
 211.71866 212.90896 214.17127 215.96657 217.90688 219.96218 222.06949 224.16479
 226.23710 228.33340 230.44271 232.56102 234.70232 236.88663 239.15493 241.53724
 244.17054 246.43385 248.44815 250.22546 251.65476 252.79007 253.62437 253.95268
 254.00199 253.78829 253.16060 252.12090 250.73921 248.91251 246.83382 244.67912
 242.48243 240.29873 238.13104 235.98234 233.85465 231.73395 229.77226 227.94157
 226.23687 224.72118 223.36348 222.14779 221.04209 220.01440 219.13070 218.28401
 217.53831 216.73062 215.84092 215.21723 214.67953 215.16638 216.31659 217.60069
 219.58955 221.48193 222.63580 222.71490 222.48196 222.59441 223.60402 225.00764
 227.33369 230.79625 234.90834 239.44800 244.00821 248.22537 252.08423 255.52394
 258.55093 261.29501 263.86578 266.38821 268.77173 270.88199 272.77502 274.64478
 276.52353 278.30142 279.84781 281.20151 282.36859 283.41031 284.36658 285.22751
 285.99738 286.69351 287.32471 288.13940
 366.78100 356.34482 345.78664 334.66246 323.07528 311.27911 299.15893 286.97175
 274.69357 262.60039 250.61921 239.93003 230.06185 221.17568 213.36750 206.37932
 200.22314 195.17096 191.76278 189.81460 188.86142 188.93525 189.78007 191.09789
 192.83271 194.93753 197.21035 199.57917 202.03399 204.52382 206.62164 208.47346
 210.10928 211.26410 211.50292 211.74074 211.68756 211.40239 211.04521 210.68503
 210.31185 210.03167 209.84949 209.72331 209.66113 210.00195 210.39778 210.79660
 211.59942 212.78724 214.04706 215.83988 217.77770 219.83052 221.93535 224.02817
 226.09799 228.19181 230.29863 232.41445 234.55327 236.73509 239.00092 241.38074
 244.01156 246.27238 248.28420 250.05902 251.48584 252.61866 253.45049 253.77631
 253.82313 253.60695 252.97677 251.93459 250.55041 248.72123 246.64006 244.48288
 242.28370 240.09752 237.92734 235.77616 233.64598 231.52280 229.55862 227.72545
 226.01827 224.50009 223.13991 221.92173 220.81355 219.78337 218.89719 218.04802
 217.29984 216.48966 215.59748 214.97130 214.43112 215.06274 216.55228 217.46556
 219.29820 221.28864 222.56451 222.67505 222.45224 222.42068 223.33949 224.92960
 227.26959 230.76611 234.93092 239.52295 244.07402 248.35291 252.30449 255.79393
 258.81143 261.51016 264.04425 266.47882 268.72726 270.72620 272.63000 274.58987
 276.42914 278.11835 279.59821 280.89746 282.05283 283.08078 284.01874 284.86111
 285.61945 286.29474 286.88464 287.63644
 366.78100 356.34412 345.78524 334.66035 323.07247 311.27559 299.15471 286.96682
 274.68794 262.59406 250.61218 239.92229 230.05341 221.16653 213.35765 206.36876
 200.21188 195.15900 191.75012 189.80124 188.84735 188.92047 189.76459 191.08171
 192.81582 194.91994 197.19206 199.56018 202.01429 204.50341 206.60053 208.45165
 210.08676 211.24088 211.47900 211.71612 211.66223 211.37635 211.01847 210.65759
 210.28371 210.00282 209.81994 209.69306 209.63018 209.97029 210.36541 210.76353
 211.56565 212.75276 214.01188 215.80400 217.74112 219.79323 221.89735 223.98947
 226.05859 228.15171 230.25782 232.37294 234.51106 236.69218 238.95729 241.33641
 243.96653 246.22665 248.23776 250.01188 251.43800 252.57012 253.40123 253.72635
 253.77247 253.55559 252.92471 251.88182 250.49694 248.66706 246.58518 244.42729
 242.22741 240.04053 237.86965 235.71776 233.58688 231.46300 229.49812 227.66423
 225.95635 224.43747 223.07659 221.85770 220.74882 219.71794 218.83106 217.98118
 217.23229 216.42141 215.52853 214.90165 214.36076 215.04204 216.63713 217.57462
 219.07013 220.88258 222.44937 222.89748 222.74260 222.46713 223.19229 224.96735
 227.23613 230.77208 234.97369 239.52223 244.07951 248.40028 252.39238 255.92567
 258.99658 261.72195 264.25427 266.64426 268.85275 270.80698 272.67401 274.50031
 276.32025 277.81891 279.19440 280.48810 281.66162 282.73947 283.74915 284.66388
 285.48654 286.21915 286.85913 287.67474
 366.78100 356.34560 345.78819 334.66479 323.07838 311.28298 299.16358 286.97717
 274.69977 262.60737 250.62696 239.93856 230.07115 221.18575 213.37835 206.39094
 200.23554 195.18414 191.77673 189.82933 188.87692 188.95152 189.79712 191.11571
 192.85131 194.95691 197.23050 199.60010 202.05569 204.54629 206.64489 208.49748
 210.13408 211.28968 211.52927 211.76787 211.71546 211.43106 211.07466 210.71525
 210.34285 210.06344 209.88204 209.75664 209.69523 210.03683 210.43343 210.83302
 211.63662 212.82521 214.08581 215.87941 217.81800 219.87160 221.97720 224.07079
 226.14139 228.23598 230.34358 232.46018 234.59977 236.78237 239.04897 241.42956
 244.06116 246.32275 248.33535 250.11095 251.53854 252.67214 253.50473 253.83133
 253.87893 253.66352 253.03412 251.99272 250.60931 248.78091 246.70050 244.54410
 242.34570 240.16029 237.99089 235.84049 233.71108 231.58868 229.62527 227.79287
 226.08647 224.56906 223.20966 221.99226 220.88485 219.85545 218.97004 218.12164
 217.37424 216.56483 215.67343 215.04803 214.50862 215.12970 216.59546 217.69449
 219.04846 220.79811 222.48131 223.06891 222.89433 222.49101 223.08838 224.83913
 227.16194 230.75597 235.01814 239.54663 244.07990 248.41454 252.42801 256.00647
 259.12347 261.88361 264.43188 266.81555 268.99451 270.88135 272.69052 274.49200
 276.18353 277.57513 278.95517 280.32474 281.60144 282.73975 283.77826 284.71909
 285.56528 286.31879 286.97705 287.81592
 366.78100 356.34672 345.79043 334.66815 323.08286 311.28858 299.17029 286.98501
 274.70872 262.61744 250.63815 239.95087 230.08458 221.20030 213.39401 206.40773
 200.25344 195.20316 191.79688 189.85059 188.89931 188.97502 189.82174 191.14145
 192.87817 194.98488 197.25960 199.63031 202.08703 204.57874 206.67846 208.53217
 210.16989 211.32660 211.56732 211.80704 211.75575 211.47247 211.11718 210.75890
 210.38761 210.10933 209.92904 209.80476 209.74447 210.08719 210.48490 210.88562
 211.69033 212.88005 214.14176 215.93648 217.87620 219.93091 222.03763 224.13234
 226.20406 228.29977 230.40849 232.52620 234.66692 236.85063 239.11835 241.50006
 244.13278 246.39549 248.40921 250.18592 251.61464 252.74936 253.58307 253.91079
 253.95950 253.74522 253.11693 252.07665 250.69436 248.86708 246.78779 244.63251
 242.43522 240.25094 238.08265 235.93337 233.80508 231.68380 229.72152 227.89023
 226.18495 224.66866 223.31038 222.09409 220.98781 219.95952 219.07524 218.22795
 217.48167 216.67338 215.78310 215.15881 214.62053 215.19473 216.56903 217.74319
 219.02881 220.78886 222.37059 222.93021 222.80690 222.46034 223.10229 224.76086
 227.13078 230.79341 235.12846 239.63835 244.14760 248.47234 252.48126 256.07336
 259.21091 262.04675 264.61560 266.99197 269.13644 271.01297 272.76169 274.52051
 276.11346 277.44348 278.92249 280.38580 281.67850 282.82217 283.86563 284.81091
 285.66110 286.41821 287.07959 287.92245
 366.78100 356.34692 345.79084 334.66876 323.08368 311.28960 299.17152 286.98645
 274.71037 262.61929 250.64021 239.95313 230.08705 221.20297 213.39689 206.41081
 200.25673 195.20665 191.80057 189.85450 188.90342 188.97934 189.82626 191.14618
 192.88310 194.99002 197.26494 199.63586 202.09278 204.58470 206.68462 208.53855
 210.17647 211.33339 211.57431 211.81423 211.76315 211.48007 211.12499 210.76691
 210.39583 210.11775 209.93767 209.81360 209.75352 210.09644 210.49436 210.89528
 211.70020 212.89012 214.15204 215.94696 217.88688 219.94180 222.04872 224.14365
 226.21557 228.31149 230.42041 232.53833 234.67925 236.86317 239.13109 241.51301
 244.14593 246.40885 248.42277 250.19970 251.62862 252.76354 253.59746 253.92538
 253.97430 253.76022 253.13214 252.09206 250.70998 248.88290 246.80382 244.64875
 242.45167 240.26759 238.09951 235.95043 233.82235 231.70127 229.73919 227.90811
 226.20303 224.68695 223.32887 222.11280 221.00672 219.97864 219.09456 218.24748
 217.50140 216.69332 215.80324 215.17916 214.64108 215.20897 216.57161 217.75346
 219.00230 220.75064 222.19473 222.64041 222.55774 222.33559 223.08392 224.80830
 227.19861 230.90340 235.27330 239.77606 244.24780 248.56424 252.56892 256.15073
 259.27985 262.16187 264.74329 267.12558 269.28802 271.19379 272.93063 274.64658
 276.25845 277.51086 278.96609 280.45810 281.79211 282.97235 284.04916 285.02466
 285.90201 286.68332 287.36584 288.23563
 366.78100 356.34660 345.79020 334.66780 323.08239 311.28799 299.16959 286.98419
 274.70779 262.61639 250.63699 239.94958 230.08318 221.19878 213.39238 206.40598
 200.25158 195.20118 191.79477 189.84837 188.89697 188.97257 189.81917 191.13877
 192.87537 194.98196 197.25656 199.62716 202.08376 204.57536 206.67496 208.52856
 210.16615 211.32275 211.56335 211.80295 211.75155 211.46815 211.11275 210.75434
 210.38294 210.10454 209.92414 209.79974 209.73934 210.08194 210.47953 210.88013
 211.68473 212.87433 214.13593 215.93053 217.87013 219.92472 222.03132 224.12592
 226.19752 228.29312 230.40172 232.51932 234.65991 236.84351 239.11111 241.49271
 244.12531 246.38791 248.40151 250.17810 251.60670 252.74130 253.57490 253.90250
 253.95110 253.73670 253.10829 252.06789 250.68549 248.85809 246.77869 244.62329
 242.42588 240.24148 238.07308 235.92368 233.79528 231.67388 229.71148 227.88007
 226.17467 224.65827 223.29987 222.08347 220.97707 219.94867 219.06426 218.21686
 217.47046 216.66206 215.77166 215.14726 214.60886 215.20543 216.61777 217.72655
 219.04395 220.77457 222.19225 222.58711 222.33368 222.06949 223.01009 224.65288
 227.14711 230.94650 235.37976 239.89801 244.35654 248.65552 252.65266 256.21066
 259.34369 262.11411 264.73105 267.16455 269.34924 271.27100 273.00964 274.74091
 276.21552 277.77698 279.48792 281.03323 282.37061 283.55380 284.63333 285.61127
 286.49084 287.27411 287.95834 288.83032
 366.78100 356.34689 345.79077 334.66866 323.08355 311.28943 299.17132 286.98621
 274.71009 262.61898 250.63987 239.95275 230.08664 221.20253 213.39641 206.41030
 200.25619 195.20607 191.79996 189.85385 188.90273 188.97862 189.82551 191.14539
 192.88228 194.98917 197.26405 199.63494 202.09183 204.58371 206.68360 208.53749
 210.17537 211.33226 211.57315 211.81303 211.76192 211.47881 211.12369 210.76558
 210.39447 210.11635 209.93624 209.81213 209.75201 210.09490 210.49279 210.89367
 211.69856 212.88845 214.15033 215.94522 217.88511 219.93999 222.04688 224.14177
 226.21365 228.30954 230.41843 232.53631 234.67720 236.86109 239.12897 241.51086
 244.14375 246.40663 248.42052 250.19741 251.62629 252.76118 253.59507 253.92295
 253.97184 253.75773 253.12961 252.08950 250.70739 248.88027 246.80116 244.64605
 242.44893 240.26482 238.09671 235.94759 233.81948 231.69837 229.73625 227.90514
 226.20003 224.68391 223.32580 222.10968 221.00357 219.97546 219.09134 218.24423
 217.49812 216.69000 215.79989 215.17578 214.63766 215.23503 216.63052 217.71806
 219.07808 220.78532 222.16510 222.56258 222.16924 221.75694 222.98952 224.64230
 227.17747 231.02782 235.49167 240.03496 244.51421 248.78862 252.76050 256.33936
 259.45343 262.24063 264.81760 267.21469 269.35764 271.21338 272.93689 274.60138
 276.68954 278.79486 280.61667 282.21637 283.60077 284.82559 285.94305 286.95541
 287.86591 288.67673 289.38501 290.28766
 366.78100 356.34725 345.79150 334.66974 323.08499 311.29124 299.17349 286.98874
 274.71299 262.62223 250.64348 239.95673 230.09098 221.20723 213.40147 206.41572
 200.26197 195.21222 191.80647 189.86071 188.90996 188.98621 189.83346 191.15371
 192.89096 194.99820 197.27345 199.64470 202.10195 204.59420 206.69444 208.54869
 210.18694 211.34419 211.58544 211.82568 211.77493 211.49218 211.13743 210.77968
 210.40893 210.13117 209.95142 209.82767 209.76792 210.11117 210.50941 210.91066
 211.71591 212.90616 214.16841 215.96365 217.90390 219.95915 222.06640 224.16165
 226.23390 228.33014 230.43939 232.55764 234.69889 236.88314 239.15138 241.53363
 244.16688 246.43013 248.44438 250.22162 251.65087 252.78612 253.62037 253.94862
 253.99787 253.78411 253.15636 252.11661 250.73486 248.90811 246.82935 244.67460
 242.47785 240.29410 238.12635 235.97759 233.84984 231.72909 229.76734 227.93659
 226.23184 224.71608 223.35833 222.14258 221.03683 220.00908 219.12532 218.27857
 217.53282 216.72507 215.83532 215.21156 214.67381 215.25974 216.62202 217.70605
 219.09966 220.76407 222.02107 222.33861 222.01233 221.56242 222.81425 224.57266
 227.21445 231.13377 235.62943 240.18851 244.68793 248.95670 252.89986 256.51825
 259.68616 262.48828 265.02750 267.38437 269.48911 271.29016 272.80954 274.88120
 277.12744 279.22037 281.03146 282.62170 283.99796 285.21555 286.32645 287.33282
 288.23798 289.04401 289.74811 290.64545
 366.78100 356.34715 345.79130 334.66944 323.08459 311.29074 299.17289 286.98804
 274.71218 262.62133 250.64248 239.95563 230.08977 221.20592 213.40007 206.41422
 200.26037 195.21051 191.80466 189.85881 188.90796 188.98411 189.83125 191.15140
 192.88855 194.99570 197.27084 199.64199 202.09914 204.59129 206.69144 208.54558
 210.18373 211.34088 211.58203 211.82218 211.77132 211.48847 211.13362 210.77577
 210.40492 210.12706 209.94721 209.82336 209.76351 210.10665 210.50480 210.90595
 211.71110 212.90125 214.16339 215.95854 217.89869 219.95384 222.06099 224.15613
 226.22828 228.32443 230.43358 232.55172 234.69287 236.87702 239.14517 241.52732
 244.16046 246.42361 248.43776 250.21491 251.64406 252.77920 253.61335 253.94150
 253.99065 253.77680 253.14894 252.10909 250.72724 248.90039 246.82153 244.66668
 242.46983 240.28598 238.11813 235.96927 233.84142 231.72057 229.75872 227.92787
 226.22301 224.70716 223.34931 222.13346 221.02760 219.99975 219.11590 218.26905
 217.52320 216.71534 215.82549 215.20164 214.66379 215.25505 216.62460 217.67534
 219.09602 220.77931 221.94307 222.08955 221.75450 221.46445 222.52611 224.51985
 227.23613 231.21268 235.74532 240.30927 244.79501 249.05630 253.01253 256.62094
 259.79276 262.60089 265.15057 267.53137 269.67871 271.53073 273.02664 275.01477
 277.16751 279.27658 281.10159 282.70410 284.09094 285.31796 286.43741 287.45154
 288.36365 289.17590 289.88544 290.78970
 366.78100 356.34712 345.79124 334.66936 323.08448 311.29061 299.17273 286.98785
 274.71197 262.62109 250.64221 239.95533 230.08945 221.20557 213.39969 206.41382
 200.25994 195.21006 191.80418 189.85830 188.90742 188.98354 189.83066 191.15078
 192.88790 194.99503 197.27015 199.64127 202.09839 204.59051 206.69063 208.54475
 210.18287 211.33999 211.58111 211.82124 211.77036 211.48748 211.13260 210.77472
 210.40384 210.12596 209.94608 209.82220 209.76233 210.10545 210.50357 210.90469
 211.70981 212.89993 214.16205 215.95717 217.89729 219.95241 222.05954 224.15466
 226.22678 228.32290 230.43202 232.55014 234.69126 236.87538 239.14350 241.52562
 244.15875 246.42187 248.43599 250.21311 251.64223 252.77735 253.61147 253.93959
 253.98871 253.77483 253.14696 252.10708 250.72520 248.89832 246.81944 244.66456
 242.46768 240.28380 238.11592 235.96704 233.83917 231.71829 229.75641 227.92553
 226.22065 224.70477 223.34689 222.13101 221.02513 219.99726 219.11338 218.26650
 217.52062 216.71274 215.82286 215.19898 214.66110 215.24680 216.61519 217.65912
 219.06139 220.75706 221.88924 221.90935 221.53943 221.43857 222.34865 224.45042
 227.22339 231.27101 235.85089 240.40807 244.86543 249.10298 253.01825 256.57065
 259.72372 262.53894 265.13010 267.55292 269.75488 271.69266 273.35104 275.09149
 277.11261 279.01096 280.73734 282.25323 283.56512 284.72580 285.78473 286.74405
 287.60687 288.37521 289.04642 289.90176
 366.78100 356.34668 345.79037 334.66805 323.08273 311.28841 299.17010 286.98478
 274.70846 262.61715 250.63783 239.95051 230.08419 221.19988 213.39356 206.40724
 200.25292 195.20261 191.79629 189.84997 188.89866 188.97434 189.82102 191.14070
 192.87739 194.98407 197.25875 199.62944 202.08612 204.57780 206.67748 208.53117
 210.16885 211.32553 211.56621 211.80590 211.75458 211.47126 211.11595 210.75763
 210.38631 210.10799 209.92768 209.80336 209.74304 210.08573 210.48341 210.88409
 211.68877 212.87846 214.14014 215.93482 217.87451 219.92919 222.03587 224.13055
 226.20224 228.29792 230.40660 232.52428 234.66497 236.84865 239.11633 241.49802
 244.13070 246.39338 248.40706 250.18375 251.61243 252.74711 253.58080 253.90848
 253.95716 253.74284 253.11453 252.07421 250.69189 248.86457 246.78526 244.62994
 242.43262 240.24831 238.07999 235.93067 233.80235 231.68104 229.71872 227.88740
 226.18209 224.66577 223.30745 222.09113 220.98482 219.95650 219.07218 218.22487
 217.47855 216.67023 215.77991 215.15560 214.61728 215.22057 216.62570 217.64467
 219.02766 220.72614 221.86998 221.76828 221.27705 221.26025 222.17506 224.35030
 227.21498 231.34515 235.97247 240.54152 245.00865 249.25343 253.15326 256.65823
 259.76224 262.53168 265.09021 267.50723 269.72501 271.70074 273.47849 275.10349
 276.91019 278.68866 280.48273 282.05807 283.42136 284.62756 285.72800 286.72495
 287.62158 288.42004 289.11755 290.00644
 366.78100 356.34658 345.79015 334.66773 323.08231 311.28788 299.16946 286.98403
 274.70761 262.61619 250.63676 239.94934 230.08292 221.19849 213.39207 206.40564
 200.25122 195.20080 191.79437 189.84795 188.89653 188.97210 189.81868 191.13825
 192.87483 194.98141 197.25598 199.62656 202.08314 204.57471 206.67429 208.52786
 210.16544 211.32202 211.56259 211.80217 211.75075 211.46732 211.11190 210.75348
 210.38205 210.10363 209.92320 209.79878 209.73836 210.08093 210.47851 210.87909
 211.68366 212.87324 214.13481 215.92939 217.86897 219.92354 222.03012 224.12470
 226.19627 228.29185 230.40042 232.51800 234.65858 236.84215 239.10973 241.49131
 244.12388 246.38646 248.40003 250.17661 251.60519 252.73976 253.57334 253.90092
 253.94949 253.73507 253.10665 252.06622 250.68380 248.85637 246.77695 244.62153
 242.42410 240.23968 238.07126 235.92183 233.79341 231.67198 229.70956 227.87814
 226.17271 224.65629 223.29787 222.08144 220.97502 219.94659 219.06217 218.21475
 217.46832 216.65990 215.76948 215.14505 214.60663 215.22025 216.63414 217.64294
 219.03989 220.72758 221.87903 221.69743 221.06813 220.89467 221.96465 224.31201
 227.27968 231.44331 236.08095 240.68336 245.18698 249.46553 253.36765 256.85205
 259.92249 262.67050 265.18854 267.55179 269.72314 271.68677 273.48605 275.16412
 277.07608 279.07837 280.84900 282.40375 283.74924 284.93967 286.02573 287.00964
 287.89456 288.68259 289.37097 290.24829
 366.78100 356.34706 345.79112 334.66918 323.08424 311.29030 299.17236 286.98742
 274.71148 262.62054 250.64160 239.95466 230.08872 221.20478 213.39884 206.41290
 200.25896 195.20902 191.80308 189.85714 188.90620 188.98226 189.82932 191.14938
 192.88644 194.99350 197.26856 199.63962 202.09668 204.58874 206.68880 208.54286
 210.18092 211.33798 211.57904 211.81910 211.76817 211.48523 211.13029 210.77235
 210.40141 210.12347 209.94353 209.81959 209.75965 210.10271 210.50077 210.90183
 211.70689 212.89695 214.15901 215.95407 217.89413 219.94919 222.05625 224.15131
 226.22337 228.31943 230.42849 232.54655 234.68761 236.87167 239.13973 241.52179
 244.15485 246.41791 248.43197 250.20903 251.63809 252.77315 253.60721 253.93527
 253.98433 253.77039 253.14245 252.10251 250.72057 248.89363 246.81469 244.65975
 242.46281 240.27887 238.11093 235.96199 233.83405 231.71311 229.75117 227.92023
 226.21529 224.69935 223.34141 222.12547 221.01953 219.99159 219.10765 218.26071
 217.51477 216.70683 215.81689 215.19295 214.65501 215.24170 216.60368 217.64261
 219.05879 220.71007 221.79259 221.50131 220.84328 220.79095 221.76498 224.21342
 227.30807 231.54074 236.19760 240.81433 245.34480 249.62552 253.48557 256.92105
 260.01065 262.80658 265.35822 267.72647 269.88174 271.80304 273.59052 275.41498
 277.39737 279.34644 281.04709 282.54044 283.83276 284.97614 286.01932 286.96436
 287.81430 288.57120 289.23242 290.07504
 366.78100 356.34656 345.79012 334.66768 323.08224 311.28780 299.16937 286.98393
 274.70749 262.61605 250.63661 239.94917 230.08273 221.19829 213.39185 206.40541
 200.25097 195.20053 191.79410 189.84766 188.89622 188.97178 189.81834 191.13790
 192.87446 194.98102 197.25558 199.62614 202.08270 204.57427 206.67383 208.52739
 210.16495 211.32151 211.56207 211.80163 211.75019 211.46675 211.11131 210.75287
 210.38143 210.10300 209.92256 209.79812 209.73768 210.08024 210.47780 210.87836
 211.68292 212.87248 214.13404 215.92860 217.86817 219.92273 222.02929 224.12385
 226.19541 228.29097 230.39953 232.51709 234.65765 236.84121 239.10877 241.49033
 244.12290 246.38546 248.39902 250.17558 251.60414 252.73870 253.57226 253.89982
 253.94838 253.73394 253.10550 252.06507 250.68263 248.85519 246.77575 244.62031
 242.42287 240.23843 238.06999 235.92055 233.79211 231.67067 229.70824 227.87680
 226.17136 224.65492 223.29648 222.08004 220.97360 219.94516 219.06072 218.21328
 217.46684 216.65840 215.76797 215.14353 214.60509 215.20857 216.60835 217.61047
 219.03423 220.74460 221.74805 221.34949 220.61285 220.58435 221.51901 224.13660
 227.32742 231.62401 236.31097 240.93784 245.47887 249.75514 253.57976 256.94077
 259.96939 262.80191 265.42514 267.83627 270.02069 271.97870 273.78159 275.40067
 276.92004 278.60718 280.23859 281.67108 282.91080 284.00763 285.00830 285.91486
 286.73019 287.45627 288.09055 288.89883
 366.78100 356.34592 345.78884 334.66576 323.07968 311.28460 299.16552 286.97944
 274.70236 262.61028 250.63020 239.94212 230.07504 221.18996 213.38288 206.39580
 200.24072 195.18964 191.78256 189.83548 188.88340 188.95832 189.80424 191.12316
 192.85908 194.96500 197.23892 199.60884 202.06476 204.55568 206.65460 208.50752
 210.14444 211.30036 211.54027 211.77919 211.72711 211.44303 211.08695 210.72787
 210.35579 210.07671 209.89563 209.77055 209.70947 210.05139 210.44831 210.84823
 211.65215 212.84107 214.10199 215.89591 217.83483 219.88875 221.99467 224.08859
 226.15951 228.25443 230.36235 232.47927 234.61919 236.80211 239.06903 241.44995
 244.08187 246.34379 248.35671 250.13263 251.56055 252.69447 253.52739 253.85431
 253.90223 253.68715 253.05807 252.01699 250.63391 248.80583 246.72575 244.56967
 242.37159 240.18651 238.01743 235.86735 233.73827 231.61619 229.65311 227.82103
 226.11495 224.59787 223.23879 222.02171 220.91463 219.88555 219.00047 218.15239
 217.40531 216.59623 215.70515 215.08007 214.54099 215.16820 216.62404 217.60138
 218.93604 220.73895 221.80310 221.31920 220.42139 220.28212 221.21196 224.04118
 227.36642 231.71771 236.42667 241.07130 245.63298 249.90916 253.73450 257.08829
 260.04950 262.80249 265.42856 267.85980 270.05829 272.03854 273.89005 275.57175
 276.79596 277.71359 279.33936 280.80429 282.07205 283.19373 284.21707 285.14413
 285.97794 286.72043 287.36908 288.19568
 366.78100 356.34572 345.78844 334.66516 323.07888 311.28360 299.16431 286.97803
 274.70075 262.60847 250.62819 239.93991 230.07263 221.18735 213.38007 206.39279
 200.23750 195.18622 191.77894 189.83166 188.87938 188.95410 189.79982 191.11854
 192.85426 194.95998 197.23370 199.60341 202.05913 204.54985 206.64857 208.50129
 210.13801 211.29373 211.53345 211.77217 211.71989 211.43560 211.07932 210.72004
 210.34776 210.06848 209.88720 209.76192 209.70064 210.04236 210.43908 210.83880
 211.64251 212.83123 214.09195 215.88567 217.82439 219.87811 221.98383 224.07755
 226.14827 228.24299 230.35070 232.46742 234.60714 236.78986 239.05658 241.43730
 244.06902 246.33074 248.34346 250.11918 251.54690 252.68061 253.51333 253.84005
 253.88777 253.67249 253.04321 252.00193 250.61865 248.79037 246.71009 244.55380
 242.35552 240.17024 238.00096 235.85068 233.72140 231.59912 229.63584 227.80356
 226.09728 224.58000 223.22071 222.00343 220.89615 219.86687 218.98159 218.13331
 217.38603 216.57675 215.68547 215.06019 214.52090 215.14035 216.59892 217.63245
 218.79962 220.58237 221.66197 221.13753 220.20155 220.08167 221.20877 224.06570
 227.55873 231.87646 236.55901 241.21437 245.79887 250.07378 253.87767 257.22897
 260.18469 262.88806 265.47632 267.90384 270.11176 272.13239 274.03748 275.72287
 276.92596 277.60114 277.99619 279.37442 280.65027 281.77908 282.80896 283.74197
 284.58109 285.32834 285.98111 286.81302
 366.78100 356.34504 345.78709 334.66313 323.07617 311.28021 299.16026 286.97330
 274.69534 262.60238 250.62143 239.93247 230.06451 221.17856 213.37060 206.38264
 200.22668 195.17473 191.76677 189.81881 188.86586 188.93990 189.78494 191.10298
 192.83803 194.94307 197.21611 199.58515 202.04020 204.53024 206.62828 208.48033
 210.11637 211.27141 211.51045 211.74850 211.69554 211.41058 211.05363 210.69367
 210.32071 210.04075 209.85880 209.73284 209.67088 210.01192 210.40797 210.80701
 211.61005 212.79810 214.05814 215.85118 217.78922 219.84227 221.94731 224.04035
 226.11040 228.20444 230.31148 232.42752 234.56657 236.74861 239.01465 241.39469
 244.02574 246.28678 248.29882 250.07387 251.50091 252.63395 253.46599 253.79204
 253.83908 253.62312 252.99317 251.95121 250.56725 248.73829 246.65734 244.50038
 242.30142 240.11546 237.94551 235.79455 233.66459 231.54164 229.57768 227.74472
 226.03776 224.51981 223.15985 221.94189 220.83394 219.80398 218.91802 218.06906
 217.32111 216.51115 215.61919 214.99323 214.45328 215.08607 216.58257 217.68526
 218.67059 220.33296 221.50458 220.91371 219.89755 219.69693 221.20549 223.94078
 227.69791 231.99600 236.68657 241.35577 245.91011 250.16400 253.96510 257.32489
 260.29694 262.97742 265.51169 267.93115 270.15466 272.19833 274.10495 275.76077
 276.94794 277.67410 278.09705 278.39624 279.11627 280.20905 281.22525 282.14584
 282.97379 283.71112 284.35522 285.17606
 366.78100 356.34562 345.78825 334.66487 323.07850 311.28312 299.16375 286.97737
 274.70000 262.60762 250.62725 239.93887 230.07150 221.18612 213.37875 206.39137
 200.23600 195.18462 191.77725 189.82987 188.87750 188.95212 189.79775 191.11637
 192.85200 194.95762 197.23125 199.60087 202.05650 204.54712 206.64575 208.49837
 210.13500 211.29062 211.53025 211.76887 211.71650 211.43212 211.07575 210.71637
 210.34400 210.06462 209.88325 209.75787 209.69650 210.03812 210.43475 210.83437
 211.63800 212.82662 214.08724 215.88087 217.81949 219.87312 221.97874 224.07237
 226.14299 228.23762 230.34524 232.46187 234.60149 236.78412 239.05074 241.43137
 244.06299 246.32462 248.33724 250.11287 251.54049 252.67412 253.50674 253.83337
 253.88099 253.66562 253.03624 251.99487 250.61149 248.78312 246.70274 244.54637
 242.34799 240.16262 237.99324 235.84287 233.71349 231.59112 229.62774 227.79537
 226.08899 224.57162 223.21224 221.99487 220.88749 219.85812 218.97274 218.12437
 217.37699 216.56762 215.67624 215.05086 214.51149 215.10115 216.50482 217.80116
 218.62926 220.04282 221.37875 220.87340 219.73221 219.27000 220.99089 223.86459
 227.76314 232.09567 236.81009 241.48749 246.04510 250.28819 254.06734 257.42502
 260.41519 263.10468 265.60034 267.96494 270.17496 272.23367 274.15878 275.82260
 276.96817 277.61069 277.97479 278.26456 278.71179 279.62177 280.62927 281.56683
 282.41006 283.16098 283.81696 284.65289
 366.78100 356.34622 345.78945 334.66667 323.08089 311.28612 299.16734 286.98157
 274.70479 262.61301 250.63324 239.94546 230.07868 221.19391 213.38713 206.40035
 200.24558 195.19480 191.78803 189.84125 188.88947 188.96470 189.81092 191.13014
 192.86637 194.97259 197.24681 199.61704 202.07326 204.56449 206.66371 208.51693
 210.15416 211.31038 211.55060 211.78983 211.73805 211.45428 211.09850 210.73972
 210.36795 210.08917 209.90839 209.78362 209.72284 210.06506 210.46229 210.86251
 211.66674 212.85596 214.11718 215.91141 217.85063 219.90485 222.01108 224.10530
 226.17652 228.27175 230.37997 232.49720 234.63742 236.82064 239.08787 241.46909
 244.10131 246.36354 248.37676 250.15298 251.58121 252.71543 253.54866 253.87588
 253.92410 253.70933 253.08055 252.03977 250.65700 248.82922 246.74944 244.59367
 242.39589 240.21112 238.04234 235.89256 233.76379 231.64201 229.67923 227.84746
 226.14168 224.62491 223.26613 222.04935 220.94258 219.91380 219.02902 218.18125
 217.43447 216.62569 215.73492 215.11014 214.57137 215.12320 216.43634 217.85187
 218.74411 219.97693 221.24422 220.77437 219.62328 218.92487 220.75835 223.85391
 227.85246 232.22491 236.94722 241.63220 246.18752 250.41177 254.17537 257.53842
 260.55643 263.27023 265.73593 268.03903 270.21552 272.27020 274.25299 275.91269
 276.96689 277.53543 277.83649 278.09656 278.53635 279.36542 280.33060 281.24545
 282.07260 282.80914 283.45261 284.27261
 354.97500 345.04800 334.58700 324.11500 313.32600 302.53700 291.65000 280.76700
 269.93100 259.19300 248.62200 238.61700 229.08700 220.35500 212.54000 205.53500
 199.46400 194.49300 191.14300 189.19000 188.08900 188.01400 188.72400 189.90600
 191.46900 193.38200 195.40300 197.55600 199.80700 202.06000 204.28800 206.47900
 208.55200 210.37800 212.02500 213.65900 214.99800 216.11800 217.17200 218.25900
 219.49400 220.64500 221.67900 222.61400 223.54500 224.98200 226.57100 228.19000
 229.79700 231.81100 233.86500 235.97200 238.24200 240.55300 242.89900 245.25300
 247.48800 249.53500 251.36600 252.84800 254.09800 255.16700 256.02700 256.25300
 256.09500 255.54300 253.93500 252.56600 251.38400 250.24500 249.05200 247.70100
 246.01600 243.99600 241.78400 239.39300 236.81300 234.22300 231.65800 229.14400
 226.74000 224.47300 222.33500 220.32500 218.44000 216.67700 214.96200 213.47200
 212.20000 211.10800 210.26000 209.63900 209.24400 209.03100 209.05800 209.33300
 209.78400 210.62600 211.33100 212.39100 213.62500 214.84668 217.72949 219.47640
 220.32566 220.86828 220.88710 220.27371 219.43733 218.84250 219.04934 220.86203
 222.60583 225.72206 229.03064 232.61777 236.12270 239.51333 242.70767 245.68587
 248.41061 250.90679 253.19353 254.91714 256.48655 257.94920 259.39966 260.69384
 261.81714 262.77997 263.71679 264.54570 265.26305 265.89772 266.47676 267.00133
 267.47312 267.89325 268.26027 268.72800
