|-------------------------------------------------------------------------|
|   File Name : in_temp.dat
|   Subject   : temperature profiles used for initial guess atmosphere
|   File Type : input of gmtr
|   Data Type : atmospherical data
|   Author/s  : WRF-Chem
|   Date      : Fri Jul 26 15:39:24 2024
|-------------------------------------------------------------------------|

 WRF-Chem temperature
#
 values of T (K)    (8f10.5)
#
 354.97500 345.04800 334.58700 324.11500 313.32600 302.53700 291.65000 280.76700
 269.93100 259.19300 248.62200 238.61700 229.08700 220.35500 212.54000 205.53500
 199.46400 194.49300 191.14300 189.19000 188.08900 188.01400 188.72400 189.90600
 191.46900 193.38200 195.40300 197.55600 199.80700 202.06000 204.28800 206.47900
 208.55200 210.37800 212.02500 213.65900 214.99800 216.11800 217.17200 218.25900
 219.49400 220.64500 221.67900 222.61400 223.54500 224.98200 226.57100 228.19000
 229.79700 231.81100 233.86500 235.97200 238.24200 240.55300 242.89900 245.25300
 247.48800 249.53500 251.36600 252.84800 254.09800 255.16700 256.02700 256.25300
 256.09500 255.54300 253.93500 252.56600 251.38400 250.24500 249.05200 247.70100
 246.01600 243.99600 241.78400 239.39300 236.81300 234.22300 231.65800 229.14400
 226.74000 224.47300 222.33500 220.32500 218.44000 216.67700 214.96200 213.47200
 212.20000 211.10800 210.26000 209.63900 209.24400 209.03100 209.05800 209.33300
 209.78400 210.62600 211.33100 212.39100 213.62500 214.84668 217.72949 219.47640
 220.32566 220.86828 220.88710 220.27371 219.43733 218.84250 219.04934 220.86203
 222.60583 225.72206 229.03064 232.61777 236.12270 239.51333 242.70767 245.68587
 248.41061 250.90679 253.19353 254.91714 256.48655 257.94920 259.39966 260.69384
 261.81714 262.77997 263.71679 264.54570 265.26305 265.89772 266.47676 267.00133
 267.47312 267.89325 268.26027 268.72800
 366.78100 356.33500 345.76700 334.63300 323.03600 311.23000 299.10000 286.90300
 274.61500 262.51200 250.52100 239.82200 229.94400 221.04800 213.23000 206.23200
 200.06600 195.00400 191.58600 189.62800 188.66500 188.72900 189.56400 190.87200
 192.59700 194.69200 196.95500 199.31400 201.75900 204.23900 206.32700 208.16900
 209.79500 210.94000 211.16900 211.39700 211.33400 211.03900 210.67200 210.30200
 209.91900 209.62900 209.43700 209.30100 209.22900 209.56000 209.94600 210.33500
 211.12800 212.30600 213.55600 215.33900 217.26700 219.31000 221.40500 223.48800
 225.54800 227.63200 229.72900 231.83500 233.96400 236.13600 238.39200 240.76200
 243.38300 245.63400 247.63600 249.40100 250.81800 251.94100 252.76300 253.07900
 253.11600 252.89000 252.25000 251.19800 249.80400 247.96500 245.87400 243.70700
 241.49800 239.30200 237.12200 234.96100 232.82100 230.68800 228.71400 226.87100
 225.15400 223.62600 222.25600 221.02800 219.91000 218.87000 217.97400 217.11500
 216.35700 215.53700 214.63500 213.99900 213.44900 212.85855 212.01316 212.61654
 214.26826 216.08686 218.14273 220.53346 223.40855 226.78828 231.49734 235.90155
 239.42278 243.28576 247.23140 251.11907 254.80144 258.23331 261.38913 264.27520
 266.89312 269.26852 271.44504 273.08845 274.58484 275.98591 277.39845 278.65879
 279.75272 280.69038 281.56708 282.34086 283.01050 283.60295 284.14348 284.63317
 285.07358 285.46577 285.80838 286.24500
 381.81900 372.39900 361.20600 349.77600 337.62200 324.85300 311.81000 298.35300
 284.86000 271.32400 258.56100 246.30400 236.08700 226.79600 218.44800 211.29000
 205.52200 200.89400 197.38100 194.84800 193.01500 192.31500 192.25000 192.43100
 192.91200 193.53700 194.13600 194.71200 195.26200 195.83100 196.39300 196.97600
 197.60400 198.14900 198.58400 199.05700 199.69500 200.37800 201.05400 201.70800
 202.31300 202.85700 203.35500 203.86200 204.56900 205.29700 206.02600 206.98700
 208.19300 209.44100 210.96900 212.57600 214.46200 216.51300 218.63000 220.85300
 223.34100 225.96200 228.73900 231.69700 234.70600 237.70600 240.69200 243.65700
 246.73700 249.69900 252.52100 255.06300 257.29000 259.23300 260.63300 261.68000
 262.46100 262.79800 262.69100 262.22400 261.06900 259.52500 257.70700 255.50700
 253.00100 250.30200 247.39800 244.45200 241.65400 239.05400 236.73300 234.59000
 232.59500 230.72500 228.83400 226.82600 224.66600 222.38700 220.10400 217.71500
 215.45900 213.06600 210.54600 208.09300 205.35400 202.08130 196.05959 200.71215
 209.01611 216.90438 223.84126 229.78593 235.00632 240.20838 245.98943 250.68668
 254.32982 257.93487 261.55666 264.96801 268.15192 271.06452 273.76717 276.25691
 278.57680 280.74479 282.77456 284.60533 286.27232 287.81705 289.31715 290.65561
 291.81734 292.81312 293.70701 294.49387 295.17482 295.77730 296.32696 296.82492
 297.27278 297.67160 298.02000 298.46400
 399.33000 389.90700 379.81300 368.66800 357.52200 345.30100 333.07400 320.22700
 307.21600 293.84800 280.37600 267.29600 254.61000 242.98700 232.15100 221.97700
 212.67200 204.28600 197.66900 192.82100 189.48600 187.45200 186.81400 187.08900
 187.78100 189.05400 190.64800 192.54200 194.63000 196.75200 198.67100 200.15800
 201.53500 202.48700 202.97500 203.34000 203.53900 203.49700 203.38500 203.24700
 203.00500 202.78600 202.60300 202.43700 202.42600 202.88800 203.42000 203.95100
 204.89500 205.99200 207.30100 208.95800 210.73800 213.10000 215.56400 218.18000
 220.96600 223.91800 226.96100 230.09200 233.29300 236.55700 239.95500 243.53700
 246.84500 249.39000 251.54200 253.47400 255.19500 256.48400 257.43100 258.05900
 258.21200 258.04000 257.58200 256.64300 255.23900 253.50700 251.40800 249.05600
 246.57600 243.99400 241.38900 238.83000 236.34400 233.98600 231.96900 230.11800
 228.42300 226.89900 225.54800 224.29700 223.10500 221.96500 220.95800 220.11300
 219.49000 218.92000 218.32500 217.88100 217.42300 216.96366 216.35568 216.80261
 217.73415 218.28582 218.64258 219.10077 220.44626 222.53987 226.38451 230.35736
 233.59734 237.39164 241.29814 245.22796 248.98002 252.51130 255.78595 258.80109
 261.54781 264.05210 266.34239 268.04198 269.58951 271.01303 272.35754 273.55718
 274.59842 275.49092 276.28989 276.99307 277.60161 278.14001 278.63122 279.07623
 279.47646 279.83287 280.14422 280.54100
 399.73800 389.78500 379.66200 368.15100 356.64100 344.35000 331.79200 318.88800
 305.72600 292.49300 279.20900 266.73800 254.69600 244.21100 234.45700 225.43300
 217.56900 210.45100 204.30000 199.30600 195.45800 192.57600 191.02700 190.38600
 190.23900 190.53400 191.16600 191.92500 192.79500 193.76600 194.73200 195.31200
 195.80000 196.05200 196.11500 196.11500 196.03900 195.72300 195.34000 194.98900
 194.75100 194.79200 195.13300 195.59800 196.50600 198.13600 199.85800 201.56600
 204.17900 206.82300 209.89300 213.28400 216.82800 220.60500 224.38700 228.20900
 232.03200 235.82500 239.56000 243.25800 246.84500 250.20100 253.70900 257.46800
 261.53000 264.22100 266.60100 268.68100 270.32900 271.74100 272.83600 273.47400
 273.89800 274.00200 273.75700 273.28800 272.37100 271.10000 269.58900 267.77900
 265.81600 263.72100 261.39300 258.91600 256.29800 253.42300 250.33100 247.11400
 243.83700 240.52900 237.24900 233.99900 230.72800 227.51500 224.25400 220.95200
 217.62700 213.65600 210.12100 206.78900 204.01000 201.99491 199.07309 198.76551
 199.40006 200.48994 201.46112 202.31912 203.45100 204.96110 207.47502 210.85391
 213.70530 217.29629 220.99574 224.72316 228.28753 231.64854 234.68024 237.40893
 239.70644 241.60899 243.46854 245.67368 247.68154 249.52395 251.24767 252.78566
 254.12057 255.26479 256.23740 257.09036 257.82852 258.48160 259.07744 259.61723
 260.10271 260.53504 260.91270 261.39400
 399.73800 389.78500 379.66200 368.15100 356.64100 344.35000 331.79200 318.88800
 305.72600 292.49300 279.20900 266.73800 254.69600 244.21100 234.45700 225.43300
 217.56900 210.45100 204.30000 199.30600 195.45800 192.57600 191.02700 190.38600
 190.23900 190.53400 191.16600 191.92500 192.79500 193.76600 194.73200 195.31200
 195.80000 196.05200 196.11500 196.11500 196.03900 195.72300 195.34000 194.98900
 194.75100 194.79200 195.13300 195.59800 196.50600 198.13600 199.85800 201.56600
 204.17900 206.82300 209.89300 213.28400 216.82800 220.60500 224.38700 228.20900
 232.03200 235.82500 239.56000 243.25800 246.84500 250.20100 253.70900 257.46800
 261.53000 264.22100 266.60100 268.68100 270.32900 271.74100 272.83600 273.47400
 273.89800 274.00200 273.75700 273.28800 272.37100 271.10000 269.58900 267.77900
 265.81600 263.72100 261.39300 258.91600 256.29800 253.42300 250.33100 247.11400
 243.83700 240.52900 237.24900 233.99900 230.72800 227.51500 224.25400 220.95200
 217.62700 213.65600 210.12100 206.78900 204.01000 201.99491 199.07309 198.76551
 199.40006 200.48994 201.46112 202.31912 203.45100 204.96110 207.47502 210.85391
 213.70530 217.29629 220.99574 224.72316 228.28753 231.64854 234.68024 237.40893
 239.70644 241.60899 243.46854 245.67368 247.68154 249.52395 251.24767 252.78566
 254.12057 255.26479 256.23740 257.09036 257.82852 258.48160 259.07744 259.61723
 260.10271 260.53504 260.91270 261.39400
 399.33000 389.90700 379.81300 368.66800 357.52200 345.30100 333.07400 320.22700
 307.21600 293.84800 280.37600 267.29600 254.61000 242.98700 232.15100 221.97700
 212.67200 204.28600 197.66900 192.82100 189.48600 187.45200 186.81400 187.08900
 187.78100 189.05400 190.64800 192.54200 194.63000 196.75200 198.67100 200.15800
 201.53500 202.48700 202.97500 203.34000 203.53900 203.49700 203.38500 203.24700
 203.00500 202.78600 202.60300 202.43700 202.42600 202.88800 203.42000 203.95100
 204.89500 205.99200 207.30100 208.95800 210.73800 213.10000 215.56400 218.18000
 220.96600 223.91800 226.96100 230.09200 233.29300 236.55700 239.95500 243.53700
 246.84500 249.39000 251.54200 253.47400 255.19500 256.48400 257.43100 258.05900
 258.21200 258.04000 257.58200 256.64300 255.23900 253.50700 251.40800 249.05600
 246.57600 243.99400 241.38900 238.83000 236.34400 233.98600 231.96900 230.11800
 228.42300 226.89900 225.54800 224.29700 223.10500 221.96500 220.95800 220.11300
 219.49000 218.92000 218.32500 217.88100 217.42300 216.96366 216.35568 216.80261
 217.73415 218.28582 218.64258 219.10077 220.44626 222.53987 226.38451 230.35736
 233.59734 237.39164 241.29814 245.22796 248.98002 252.51130 255.78595 258.80109
 261.54781 264.05210 266.34239 268.04198 269.58951 271.01303 272.35754 273.55718
 274.59842 275.49092 276.28989 276.99307 277.60161 278.14001 278.63122 279.07623
 279.47646 279.83287 280.14422 280.54100
 381.81900 372.39900 361.20600 349.77600 337.62200 324.85300 311.81000 298.35300
 284.86000 271.32400 258.56100 246.30400 236.08700 226.79600 218.44800 211.29000
 205.52200 200.89400 197.38100 194.84800 193.01500 192.31500 192.25000 192.43100
 192.91200 193.53700 194.13600 194.71200 195.26200 195.83100 196.39300 196.97600
 197.60400 198.14900 198.58400 199.05700 199.69500 200.37800 201.05400 201.70800
 202.31300 202.85700 203.35500 203.86200 204.56900 205.29700 206.02600 206.98700
 208.19300 209.44100 210.96900 212.57600 214.46200 216.51300 218.63000 220.85300
 223.34100 225.96200 228.73900 231.69700 234.70600 237.70600 240.69200 243.65700
 246.73700 249.69900 252.52100 255.06300 257.29000 259.23300 260.63300 261.68000
 262.46100 262.79800 262.69100 262.22400 261.06900 259.52500 257.70700 255.50700
 253.00100 250.30200 247.39800 244.45200 241.65400 239.05400 236.73300 234.59000
 232.59500 230.72500 228.83400 226.82600 224.66600 222.38700 220.10400 217.71500
 215.45900 213.06600 210.54600 208.09300 205.35400 202.08130 196.05959 200.71215
 209.01611 216.90438 223.84126 229.78593 235.00632 240.20838 245.98943 250.68668
 254.32982 257.93487 261.55666 264.96801 268.15192 271.06452 273.76717 276.25691
 278.57680 280.74479 282.77456 284.60533 286.27232 287.81705 289.31715 290.65561
 291.81734 292.81312 293.70701 294.49387 295.17482 295.77730 296.32696 296.82492
 297.27278 297.67160 298.02000 298.46400
 366.78100 356.34135 345.77970 334.65204 323.06139 311.26174 299.13809 286.94743
 274.66578 262.56913 250.58448 239.89182 230.02017 221.13052 213.31887 206.32722
 200.16756 195.11191 191.70026 189.74861 188.79195 188.86230 189.70365 191.01800
 192.74934 194.85069 197.12004 199.48539 201.93674 204.42308 206.51743 208.36578
 209.99813 211.14947 211.38482 211.61917 211.56252 211.27387 210.91321 210.54956
 210.17291 209.88926 209.70360 209.57395 209.50830 209.84565 210.23799 210.63334
 211.43269 212.61704 213.87339 215.66273 217.59708 219.64643 221.74778 223.83712
 225.90347 227.99382 230.09717 232.20951 234.34486 236.52321 238.78556 241.16191
 243.78925 246.04660 248.05495 249.82630 251.24964 252.37899 253.20734 253.52969
 253.57303 253.35338 252.71973 251.67408 250.28643 248.45377 246.36912 244.20847
 242.00582 239.81616 237.64251 235.48786 233.35421 231.22756 229.25990 227.42325
 225.71260 224.19095 222.82729 221.60564 220.49399 219.46034 218.57068 217.71803
 216.96638 216.15273 215.25708 214.62742 214.08377 213.34700 211.60887 211.06386
 211.88515 213.78021 215.82487 217.01508 219.00700 223.02530 228.93585 233.99590
 237.82538 241.54056 245.24614 249.08553 253.09479 256.32950 258.91861 261.37143
 264.23807 266.97269 269.33508 271.34903 273.15875 274.88077 276.51468 278.18402
 279.90649 281.54428 283.03635 284.39108 285.57040 286.61694 287.57462 288.44800
 289.23758 289.94681 290.57239 291.40396
 366.78100 356.33946 345.77592 334.64638 323.05384 311.25230 299.12676 286.93422
 274.65068 262.55214 250.56561 239.87107 229.99753 221.10599 213.29245 206.29891
 200.13737 195.07983 191.66629 189.71275 188.75421 188.82267 189.66213 190.97459
 192.70405 194.80351 197.07097 199.43443 201.88389 204.36835 206.46082 208.30728
 209.93774 211.08720 211.32066 211.55312 211.49458 211.20404 210.84150 210.47596
 210.09742 209.81188 209.62434 209.49280 209.42526 209.76072 210.15118 210.54464
 211.34210 212.52456 213.77903 215.56649 217.49895 219.54641 221.64587 223.73333
 225.79779 227.88625 229.98771 232.09817 234.23163 236.40809 238.66855 241.04301
 243.66847 245.92393 247.93039 249.69985 251.12131 252.24877 253.07524 253.39570
 253.43716 253.21562 252.58008 251.53254 250.14300 248.30846 246.22192 244.05938
 241.85484 239.66330 237.48776 235.33122 233.19568 231.06714 229.09760 227.25906
 225.54652 224.02298 222.65745 221.43391 220.32037 219.28483 218.39329 217.53875
 216.78521 215.96967 215.07213 214.44059 213.89505 213.25452 211.74304 211.24052
 211.94135 213.86717 215.90002 217.06358 218.91013 222.93437 228.87427 233.91237
 237.73241 241.45427 245.18399 249.04623 253.06418 256.24637 258.78116 261.24887
 264.10706 266.85556 269.24747 271.25598 273.03760 274.73462 276.37799 278.06442
 279.79388 281.43677 282.93304 284.28760 285.46841 286.51572 287.47485 288.34729
 289.13791 289.84738 290.47400 291.30591
 366.78100 356.33728 345.77155 334.63983 323.04510 311.24138 299.11365 286.91893
 274.63321 262.53248 250.54376 239.84703 229.97131 221.07758 213.26186 206.26614
 200.10241 195.04269 191.62696 189.67124 188.71051 188.77679 189.61407 190.92434
 192.65162 194.74889 197.01417 199.37545 201.82272 204.30500 206.39527 208.23955
 209.86782 211.01510 211.24638 211.47665 211.41593 211.12320 210.75848 210.39075
 210.01003 209.72231 209.53258 209.39886 209.32913 209.66241 210.05068 210.44196
 211.23724 212.41751 213.66979 215.45506 217.38534 219.43061 221.52789 223.61317
 225.67544 227.76172 229.86099 231.96927 234.10054 236.27482 238.53310 240.90537
 243.52865 245.78192 247.78620 249.55348 250.97275 252.09803 252.92230 253.24058
 253.27985 253.05613 252.41841 251.36868 249.97696 248.14023 246.05151 243.88678
 241.68006 239.48634 237.30861 235.14989 233.01216 230.88144 228.90971 227.06899
 225.35427 223.82854 222.46082 221.23509 220.11937 219.08164 218.18792 217.33120
 216.57547 215.75775 214.85802 214.22430 213.67657 213.14648 211.89516 211.37953
 212.03017 213.97005 215.93451 217.11725 218.84299 222.85446 228.82243 233.83218
 237.63956 241.36552 245.11839 249.00385 253.02257 256.15640 258.64435 261.12674
 263.97290 266.73413 269.15695 271.16190 272.91656 274.59003 276.24414 277.94690
 279.68423 281.33051 282.83365 284.18958 285.37125 286.41818 287.37659 288.25092
 289.04047 289.75208 290.37924 291.21255
 366.78100 356.33523 345.76746 334.63368 323.03691 311.23114 299.10137 286.90460
 274.61682 262.51405 250.52328 239.82451 229.94673 221.05096 213.23319 206.23542
 200.06965 195.00787 191.59010 189.63233 188.66956 188.73379 189.56901 190.87724
 192.60247 194.69770 196.96092 199.32015 201.76538 204.24561 206.33384 208.17606
 209.80229 210.94752 211.17675 211.40498 211.34220 211.04743 210.68066 210.31089
 209.92811 209.63834 209.44657 209.31080 209.23903 209.57025 209.95648 210.34571
 211.13894 212.31717 213.56739 215.35062 217.27885 219.32208 221.41730 223.50053
 225.56076 227.64499 229.74222 231.84844 233.97767 236.14990 238.40613 240.77636
 243.39758 245.64881 247.65104 249.41627 250.83349 251.95672 252.77895 253.09518
 253.13241 252.90663 252.26686 251.21509 249.82132 247.98255 245.89177 243.72500
 241.51623 239.32046 237.14068 234.97991 232.84014 230.70737 228.73360 226.89082
 225.17405 223.64628 222.27651 221.04874 219.93096 218.89119 217.99542 217.13665
 216.37888 215.55910 214.65733 214.02156 213.47179 213.04396 212.03366 211.51534
 212.12854 214.07173 215.97189 217.16443 218.79623 222.78667 228.77441 233.74866
 237.54265 241.27293 245.05177 248.95862 252.97160 256.06082 258.51016 261.00739
 263.83673 266.60687 269.05865 271.06085 272.79376 274.45105 276.11752 277.83694
 279.58176 281.23056 282.73813 284.09586 285.27679 286.32501 287.28610 288.15860
 288.95145 289.66254 290.28806 291.12305
 366.78100 356.33358 345.76416 334.62874 323.03032 311.22290 299.09149 286.89307
 274.60365 262.49923 250.50681 239.80639 229.92697 221.02955 213.21013 206.21071
 200.04330 194.97988 191.56046 189.60104 188.63662 188.69920 189.53278 190.83936
 192.56294 194.65652 196.91811 199.27569 201.71927 204.19785 206.28443 208.12501
 209.74959 210.89317 211.12075 211.34733 211.28292 210.98650 210.61808 210.24666
 209.86224 209.57082 209.37740 209.23998 209.16656 209.49614 209.88073 210.26831
 211.05989 212.23647 213.48505 215.26663 217.19321 219.23479 221.32837 223.40995
 225.46854 227.55112 229.64670 231.75128 233.87886 236.04944 238.30402 240.67260
 243.29218 245.54176 247.54234 249.30593 250.72151 251.84309 252.66367 252.97825
 253.01383 252.78641 252.14499 251.09157 249.69615 247.85574 245.76332 243.59490
 241.38448 239.18706 237.00564 234.84322 232.70180 230.56738 228.59196 226.74755
 225.02913 223.49971 222.12829 220.89887 219.77945 218.73803 217.84061 216.98019
 216.22077 215.39936 214.49594 213.85852 213.30710 212.96086 212.14304 211.66127
 212.23772 214.16473 216.01857 217.20883 218.76120 222.73331 228.72614 233.66257
 237.44383 241.18417 244.98964 248.91339 252.91138 255.95862 258.37698 260.88828
 263.69659 266.47028 268.94763 270.94998 272.67087 274.31879 275.99911 277.73685
 279.48355 281.13654 282.64944 284.00620 285.18832 286.23746 287.19717 288.07059
 288.86371 289.57675 290.20288 291.03824
 366.78100 356.33226 345.76152 334.62478 323.02504 311.21630 299.08356 286.88383
 274.59309 262.48735 250.49361 239.79187 229.91113 221.01239 213.19165 206.19091
 200.02217 194.95743 191.53669 189.57596 188.61022 188.67148 189.50374 190.80900
 192.53126 194.62352 196.88378 199.24004 201.68230 204.15956 206.24482 208.08408
 209.70735 210.84961 211.07587 211.30113 211.23539 210.93765 210.56791 210.19517
 209.80943 209.51669 209.32195 209.18321 209.10847 209.43674 209.82000 210.20626
 210.99652 212.17178 213.41904 215.19930 217.12456 219.16482 221.25708 223.33734
 225.39460 227.47587 229.57013 231.67339 233.79965 235.96891 238.22217 240.58943
 243.20769 245.45595 247.45521 249.21747 250.63173 251.75199 252.57126 252.88452
 252.91878 252.69004 252.04730 250.99256 249.59582 247.75408 245.66034 243.49060
 241.27886 239.08012 236.89739 234.73365 232.59091 230.45517 228.47843 226.63269
 224.91295 223.38221 222.00947 220.77873 219.65799 218.61525 217.71651 216.85478
 216.09404 215.27130 214.36656 213.72782 213.17508 212.89359 212.22864 211.80937
 212.35793 214.25189 216.07330 217.24913 218.73524 222.69501 228.67738 233.57816
 237.34792 241.10101 244.93219 248.86783 252.84178 255.85127 258.24536 260.76898
 263.55099 266.32126 268.82016 270.82703 272.54782 274.19812 275.89221 277.64285
 279.39056 281.04810 282.56320 283.92258 285.10437 286.15240 287.11453 287.98816
 288.78168 289.49460 290.12024 290.96350
 366.78100 356.33117 345.75934 334.62151 323.02068 311.21085 299.07702 286.87619
 274.58436 262.47753 250.48269 239.77986 229.89803 220.99820 213.17637 206.17454
 200.00471 194.93888 191.51705 189.55522 188.58839 188.64856 189.47973 190.78390
 192.50507 194.59624 196.85541 199.21058 201.65175 204.12792 206.21208 208.05025
 209.67242 210.81359 211.03876 211.26293 211.19610 210.89727 210.52644 210.15261
 209.76578 209.47195 209.27612 209.13629 209.06046 209.38763 209.76980 210.15497
 210.94414 212.11830 213.36447 215.14364 217.06781 219.10698 221.19815 223.27732
 225.33349 227.41366 229.50683 231.60900 233.73417 235.90234 238.15451 240.52068
 243.13785 245.38502 247.38319 249.14436 250.55752 251.67669 252.49486 252.80703
 252.84020 252.61037 251.96654 250.91071 249.51288 247.67005 245.57522 243.40439
 241.19156 238.99173 236.80790 234.64307 232.49924 230.36241 228.38458 226.53775
 224.81691 223.28508 221.91125 220.67942 219.55759 218.51376 217.61393 216.75110
 215.98927 215.16544 214.25961 213.61978 213.06595 212.83804 212.29962 211.95392
 212.48395 214.34300 216.13657 217.27766 218.72647 222.66920 228.62505 233.49815
 237.25861 241.02362 244.87784 248.82021 252.76115 255.73882 258.11768 260.65179
 263.40158 266.16104 268.67422 270.68628 272.42023 274.08792 275.79761 277.55783
 279.30518 280.96432 282.48331 283.84250 285.02496 286.07379 287.03568 287.91077
 288.70255 289.41605 290.04514 290.88470
 366.78100 356.33023 345.75746 334.61869 323.01692 311.20615 299.07139 286.86962
 274.57685 262.46908 250.47331 239.76954 229.88677 220.98600 213.16323 206.16046
 199.98969 194.92293 191.50016 189.53739 188.56962 188.62885 189.45908 190.76231
 192.48254 194.57277 196.83100 199.18523 201.62547 204.10070 206.18393 208.02116
 209.64239 210.78262 211.00685 211.23008 211.16231 210.86254 210.49077 210.11601
 209.72824 209.43347 209.23670 209.09593 209.01916 209.34539 209.72662 210.11085
 210.89908 212.07231 213.31755 215.09578 217.01901 219.05724 221.14747 223.22570
 225.28093 227.36016 229.45239 231.55362 233.67786 235.84509 238.09632 240.46155
 243.07778 245.32401 247.32124 249.08147 250.49370 251.61193 252.42916 252.74040
 252.77263 252.54186 251.89709 250.84032 249.44155 247.59778 245.50201 243.33024
 241.11647 238.91570 236.73094 234.56517 232.42040 230.28263 228.30386 226.45609
 224.73432 223.20155 221.82678 220.59401 219.47124 218.42648 217.52571 216.66194
 215.89917 215.07440 214.16763 213.52686 212.97209 212.79079 212.36246 212.08907
 212.61362 214.44121 216.20659 217.30005 218.72736 222.65663 228.57533 233.42084
 237.17155 240.94817 244.82487 248.77083 252.66975 255.62074 257.99521 260.53918
 263.25189 265.99164 268.51047 270.53082 272.28790 273.98346 275.71301 277.47903
 279.22598 280.88477 282.40884 283.77020 284.95312 286.00186 286.96353 287.84030
 288.63416 289.34695 289.97623 290.81824
 366.78100 356.32943 345.75587 334.61630 323.01374 311.20217 299.06660 286.86404
 274.57047 262.46191 250.46534 239.76078 229.87721 220.97564 213.15208 206.14851
 199.97695 194.90938 191.48581 189.52225 188.55368 188.61212 189.44155 190.74398
 192.46342 194.55285 196.81029 199.16372 201.60315 204.07759 206.16002 207.99646
 209.61689 210.75633 210.97976 211.20219 211.13363 210.83306 210.46050 210.08493
 209.69636 209.40080 209.20323 209.06167 208.98410 209.30953 209.68997 210.07340
 210.86084 212.03327 213.27771 215.05514 216.97757 219.01501 221.10444 223.18188
 225.23631 227.31474 229.40618 231.50661 233.63005 235.79648 238.04691 240.41135
 243.02678 245.27222 247.26865 249.02808 250.43952 251.55695 252.37339 252.68382
 252.71526 252.48369 251.83812 250.78056 249.38099 247.53643 245.43986 243.26729
 241.05273 238.85116 236.66560 234.49903 232.35346 230.21490 228.23533 226.38677
 224.66420 223.13064 221.75507 220.52150 219.39794 218.35237 217.45081 216.58624
 215.82267 214.99711 214.08954 213.44798 212.89241 212.75201 212.42030 212.21454
 212.74028 214.55632 216.27664 217.31148 218.75995 222.65215 228.51985 233.34274
 237.08798 240.87666 244.77597 248.72183 252.56555 255.49265 257.87354 260.42862
 263.10150 265.81403 268.33453 270.36667 272.15659 273.88959 275.63705 277.40674
 279.15118 280.81174 282.34015 283.70227 284.88553 285.93573 286.89798 287.77368
 288.57010 289.28189 289.91495 290.75723
 366.78100 356.32895 345.75490 334.61485 323.01179 311.19974 299.06369 286.86064
 274.56659 262.45754 250.46049 239.75543 229.87138 220.96933 213.14528 206.14123
 199.96918 194.90113 191.47707 189.51302 188.54397 188.60192 189.43087 190.73282
 192.45177 194.54071 196.79766 199.15061 201.58956 204.06351 206.14546 207.98141
 209.60135 210.74030 210.96325 211.18520 211.11615 210.81510 210.44205 210.06599
 209.67694 209.38089 209.18284 209.04079 208.96274 209.28769 209.66763 210.05058
 210.83753 212.00948 213.25343 215.03038 216.95233 218.98927 221.07822 223.15517
 225.20912 227.28707 229.37802 231.47797 233.60091 235.76686 238.01681 240.38076
 242.99571 245.24066 247.23661 248.99555 250.40650 251.52345 252.33940 252.64935
 252.68030 252.44825 251.80219 250.74414 249.34409 247.49904 245.40199 243.22894
 241.01389 238.81183 236.62578 234.45873 232.31268 230.17363 228.19358 226.34453
 224.62147 223.08742 221.71137 220.47732 219.35327 218.30722 217.40517 216.54011
 215.77606 214.95001 214.04196 213.39991 212.84386 212.73062 212.46310 212.33659
 212.87117 214.66141 216.36351 217.33832 218.78674 222.66391 228.47833 233.26894
 237.00288 240.80363 244.72615 248.67023 252.44728 255.35126 257.74905 260.31793
 262.95108 265.63126 268.14954 270.19971 272.03403 273.81015 275.57220 277.34070
 279.08392 280.74390 282.27710 283.63992 284.82278 285.87494 286.83618 287.71555
 288.51022 289.22543 289.85532 290.70328
 366.78100 356.32848 345.75395 334.61343 323.00991 311.19738 299.06086 286.85734
 274.56281 262.45329 250.45577 239.75024 229.86572 220.96320 213.13867 206.13415
 199.96163 194.89310 191.46858 189.50406 188.53453 188.59201 189.42049 190.72196
 192.44044 194.52892 196.78539 199.13787 201.57635 204.04982 206.13130 207.96678
 209.58625 210.72473 210.94720 211.16868 211.09916 210.79763 210.42411 210.04759
 209.65806 209.36154 209.16302 209.02049 208.94197 209.26645 209.64592 210.02840
 210.81488 211.98635 213.22983 215.00631 216.92778 218.96426 221.05274 223.12921
 225.18269 227.26017 229.35064 231.45012 233.57260 235.73807 237.98755 240.35103
 242.96550 245.20998 247.20546 248.96393 250.37441 251.49089 252.30636 252.61584
 252.64632 252.41379 251.76727 250.70875 249.30822 247.46270 245.36518 243.19165
 240.97613 238.77361 236.58708 234.41956 232.27304 230.13351 228.15299 226.30347
 224.57994 223.04542 221.66890 220.43437 219.30985 218.26333 217.36080 216.49528
 215.73075 214.90423 213.99571 213.35318 212.79666 212.71281 212.51472 212.43105
 213.00569 214.79428 216.41704 217.36729 218.87526 222.67819 228.42455 233.18002
 236.90945 240.72894 244.67963 248.62164 252.32230 255.20265 257.62454 260.20740
 262.80106 265.44568 267.95700 270.03082 271.91858 273.74417 275.51782 277.27783
 279.01834 280.67941 282.21750 283.58188 284.76514 285.81726 286.78088 287.65955
 288.45706 289.17108 289.80338 290.64862
 366.78100 356.32845 345.75389 334.61334 323.00979 311.19724 299.06068 286.85713
 274.56258 262.45302 250.45547 239.74992 229.86537 220.96281 213.13826 206.13371
 199.96115 194.89260 191.46805 189.50350 188.53394 188.59139 189.41984 190.72128
 192.43973 194.52818 196.78463 199.13707 201.57552 204.04897 206.13041 207.96586
 209.58531 210.72376 210.94620 211.16765 211.09810 210.79655 210.42299 210.04644
 209.65689 209.36033 209.16178 209.01923 208.94068 209.26512 209.64457 210.02702
 210.81346 211.98491 213.22836 215.00481 216.92625 218.96270 221.05115 223.12759
 225.18104 227.25849 229.34894 231.44838 233.57083 235.73628 237.98572 240.34917
 242.96362 245.20807 247.20351 248.96196 250.37241 251.48885 252.30430 252.61375
 252.64420 252.41164 251.76509 250.70654 249.30598 247.46043 245.36288 243.18933
 240.97377 238.77122 236.58467 234.41711 232.27056 230.13101 228.15046 226.30090
 224.57735 223.04280 221.66624 220.43169 219.30714 218.26059 217.35803 216.49248
 215.72793 214.90137 213.99282 213.35027 212.79372 212.72198 212.55251 212.50801
 213.11432 214.94446 216.56779 217.38742 218.88675 222.69173 228.38698 233.10361
 236.82639 240.66377 244.63969 248.57419 252.18872 255.04428 257.49609 260.09650
 262.65512 265.26019 267.75977 269.85828 271.80450 273.68561 275.46960 277.21686
 278.95062 280.62097 282.16159 283.52536 284.71014 285.76239 286.72607 287.60587
 288.40302 289.11755 289.75064 290.60492
 366.78100 356.32826 345.75353 334.61279 323.00906 311.19632 299.05959 286.85585
 274.56111 262.45138 250.45364 239.74791 229.86317 220.96044 213.13570 206.13097
 199.95823 194.88949 191.46476 189.50002 188.53029 188.58755 189.41582 190.71708
 192.43534 194.52361 196.77987 199.13214 201.57040 204.04367 206.12493 207.96020
 209.57946 210.71772 210.93999 211.16125 211.09152 210.78978 210.41605 210.03931
 209.64957 209.35284 209.15410 209.01137 208.93263 209.25690 209.63616 210.01843
 210.80469 211.97595 213.21922 214.99548 216.91675 218.95301 221.04128 223.11754
 225.17080 227.24807 229.33833 231.43760 233.55986 235.72513 237.97439 240.33765
 242.95192 245.19618 247.19145 248.94971 250.35998 251.47624 252.29151 252.60077
 252.63103 252.39830 251.75156 250.69283 249.29209 247.44636 245.34862 243.17488
 240.95915 238.75641 236.56968 234.40194 232.25521 230.11547 228.13474 226.28500
 224.56126 223.02653 221.64979 220.41506 219.29032 218.24359 217.34085 216.47511
 215.71038 214.88364 213.97491 213.33217 212.77544 212.73512 212.63991 212.55403
 213.15553 215.04420 216.76300 217.51060 218.94037 222.68956 228.33797 233.01683
 236.73007 240.58694 244.59067 248.51660 252.04320 254.87851 257.36935 259.99014
 262.51791 265.07883 267.55939 269.68253 271.68784 273.62634 275.42123 277.15540
 278.87991 280.56796 282.10965 283.47507 284.66034 285.71420 286.67935 287.55823
 288.35626 289.07190 289.70432 290.55719
 366.78100 356.32908 345.75516 334.61523 323.01231 311.20039 299.06447 286.86154
 274.56762 262.45870 250.46178 239.75686 229.87293 220.97101 213.14709 206.14317
 199.97124 194.90332 191.47940 189.51548 188.54656 188.60463 189.43371 190.73579
 192.45487 194.54395 196.80102 199.15410 201.59318 204.06726 206.14933 207.98541
 209.60549 210.74457 210.96765 211.18972 211.12080 210.81988 210.44696 210.07103
 209.68211 209.38619 209.18827 209.04635 208.96842 209.29350 209.67358 210.05666
 210.84373 212.01581 213.25989 215.03697 216.95905 218.99612 221.08520 223.16228
 225.21636 227.29444 229.38551 231.48559 233.60867 235.77475 238.02482 240.38890
 243.00398 245.24906 247.24514 249.00421 250.41529 251.53237 252.34845 252.65852
 252.68960 252.45768 251.81176 250.75384 249.35391 247.50899 245.41207 243.23915
 241.02422 238.82230 236.63638 234.46946 232.32354 230.18461 228.20469 226.35577
 224.63285 223.09893 221.72300 220.48908 219.36516 218.31924 217.41731 216.55239
 215.78847 214.96255 214.05463 213.41270 212.85678 212.79491 212.64870 212.62480
 213.26698 215.11276 216.90195 217.64720 219.03300 222.69974 228.28641 232.92700
 236.63481 240.51462 244.54704 248.46405 251.90115 254.71571 257.24524 259.88306
 262.38074 264.89383 267.35208 269.50128 271.57104 273.57260 275.37967 277.10025
 278.81564 280.51517 282.05920 283.42548 284.61188 285.66537 286.63135 287.51044
 288.31049 289.02719 289.65997 290.51727
 366.78100 356.32871 345.75443 334.61414 323.01086 311.19857 299.06228 286.85900
 274.56471 262.45543 250.45814 239.75285 229.86857 220.96628 213.14200 206.13771
 199.96542 194.89714 191.47285 189.50857 188.53928 188.59699 189.42571 190.72742
 192.44614 194.53485 196.79157 199.14428 201.58299 204.05671 206.13842 207.97414
 209.59385 210.73256 210.95528 211.17699 211.10771 210.80642 210.43313 210.05685
 209.66756 209.37128 209.17299 209.03070 208.95242 209.27713 209.65685 210.03956
 210.82627 211.99799 213.24170 215.01842 216.94013 218.97684 221.06556 223.14227
 225.19599 227.27370 229.36441 231.46413 233.58684 235.75256 238.00227 240.36598
 242.98070 245.22541 247.22113 248.97984 250.39055 251.50727 252.32298 252.63270
 252.66341 252.43112 251.78484 250.72655 249.32627 247.48098 245.38370 243.21041
 240.99512 238.79284 236.60655 234.43927 232.29298 230.15369 228.17341 226.32412
 224.60084 223.06655 221.69026 220.45598 219.33169 218.28541 217.38312 216.51783
 215.75355 214.92726 214.01898 213.37669 212.82040 212.79613 212.73875 212.63853
 213.37520 215.23549 216.98810 217.75929 219.14630 222.70450 228.24568 232.85295
 236.55696 240.46077 244.51712 248.41908 251.75989 254.54440 257.10767 259.76117
 262.23294 264.70270 267.13907 269.32089 271.45969 273.52792 275.34958 277.05801
 278.76025 280.46310 282.00848 283.37476 284.56116 285.61551 286.58121 287.46298
 288.26163 288.98032 289.61322 290.47403
 366.78100 356.32866 345.75433 334.61399 323.01065 311.19832 299.06198 286.85864
 274.56431 262.45497 250.45763 239.75230 229.86796 220.96562 213.14129 206.13695
 199.96461 194.89628 191.47194 189.50760 188.53827 188.59593 189.42459 190.72626
 192.44492 194.53358 196.79025 199.14291 201.58157 204.05524 206.13690 207.97256
 209.59223 210.73089 210.95355 211.17522 211.10588 210.80455 210.43121 210.05487
 209.66554 209.36920 209.17086 209.02853 208.95019 209.27485 209.65452 210.03718
 210.82384 211.99551 213.23917 215.01583 216.93750 218.97416 221.06282 223.13949
 225.19315 227.27081 229.36148 231.46114 233.58380 235.74947 237.99913 240.36279
 242.97746 245.22212 247.21778 248.97645 250.38711 251.50377 252.31944 252.62910
 252.65976 252.42743 251.78109 250.72275 249.32242 247.47708 245.37974 243.20641
 240.99107 238.78873 236.60240 234.43506 232.28872 230.14939 228.16905 226.31971
 224.59638 223.06204 221.68570 220.45137 219.32703 218.28069 217.37836 216.51302
 215.74868 214.92235 214.01401 213.37167 212.81534 212.81413 212.81128 212.66541
 213.49820 215.34724 217.03593 217.85767 219.27336 222.71614 228.21361 232.79349
 236.49393 240.41917 244.49069 248.36787 251.60716 254.35593 256.95407 259.62762
 262.08295 264.51541 266.93423 269.15158 271.35757 273.48883 275.32318 277.02057
 278.70691 280.41098 281.95825 283.32556 284.51202 285.56726 286.53351 287.41522
 288.21637 288.93140 289.56522 290.43073
 366.78100 356.32901 345.75502 334.61503 323.01205 311.20006 299.06407 286.86108
 274.56709 262.45810 250.46112 239.75613 229.87214 220.97015 213.14616 206.14217
 199.97019 194.90220 191.47821 189.51422 188.54523 188.60324 189.43225 190.73427
 192.45328 194.54229 196.79930 199.15231 201.59132 204.06534 206.14735 207.98336
 209.60337 210.74238 210.96539 211.18741 211.11842 210.81743 210.44444 210.06845
 209.67946 209.38348 209.18549 209.04350 208.96551 209.29052 209.67053 210.05354
 210.84056 212.01257 213.25658 215.03359 216.95560 218.99261 221.08163 223.15864
 225.21265 227.29066 229.38167 231.48168 233.60470 235.77071 238.02072 240.38473
 242.99974 245.24475 247.24076 248.99978 250.41079 251.52780 252.34381 252.65382
 252.68483 252.45285 251.80686 250.74887 249.34888 247.50389 245.40690 243.23392
 241.01893 238.81694 236.63095 234.46396 232.31797 230.17898 228.19900 226.35001
 224.62702 223.09303 221.71704 220.48305 219.35907 218.31308 217.41109 216.54610
 215.78211 214.95612 214.04814 213.40615 212.85016 212.85374 212.86223 212.70612
 213.62164 215.44873 217.08035 217.96652 219.40648 222.73434 228.18889 232.74565
 236.43718 240.37602 244.45276 248.29692 251.43518 254.15051 256.78857 259.48898
 261.93829 264.34137 266.74515 269.00024 271.26752 273.45535 275.29916 276.98782
 278.65985 280.36151 281.90839 283.27625 284.46393 285.51834 286.48569 287.36761
 288.16910 288.88535 289.51978 290.38586
 366.78100 356.32957 345.75613 334.61670 323.01427 311.20283 299.06740 286.86497
 274.57153 262.46310 250.46667 239.76223 229.87880 220.97737 213.15393 206.15050
 199.97906 194.91163 191.48820 189.52476 188.55633 188.61490 189.44446 190.74703
 192.46660 194.55616 196.81373 199.16730 201.60686 204.08143 206.16400 208.00056
 209.62113 210.76070 210.98426 211.20683 211.13840 210.83796 210.46553 210.09010
 209.70166 209.40623 209.20880 209.06736 208.98993 209.31549 209.69606 210.07963
 210.86719 212.03976 213.28433 215.06189 216.98446 219.02203 221.11159 223.18916
 225.24373 227.32229 229.41386 231.51443 233.63799 235.80456 238.05513 240.41969
 243.03526 245.28083 247.27739 249.03696 250.44853 251.56609 252.38266 252.69322
 252.72479 252.49336 251.84792 250.79049 249.39106 247.54662 245.45019 243.27776
 241.06332 238.86189 236.67646 234.51002 232.36459 230.22616 228.24672 226.39829
 224.67586 223.14242 221.76699 220.53356 219.41012 218.36469 217.46326 216.59882
 215.83539 215.00996 214.10252 213.46109 212.90565 212.90529 212.90443 212.74675
 213.74472 215.55783 217.13020 218.08932 219.54759 222.75441 228.16901 232.70154
 236.37659 240.32210 244.39668 248.20197 251.24417 253.93092 256.61221 259.34372
 261.79703 264.18130 266.57553 268.87106 271.19427 273.43024 275.28125 276.95990
 278.62006 280.31302 281.86044 283.22733 284.41516 285.47095 286.43842 287.32114
 288.12109 288.84000 289.47540 290.34061
 366.78100 356.33018 345.75736 334.61853 323.01671 311.20589 299.07107 286.86925
 274.57643 262.46860 250.47278 239.76896 229.88614 220.98532 213.16250 206.15967
 199.98885 194.92203 191.49921 189.53639 188.56857 188.62774 189.45792 190.76110
 192.48128 194.57146 196.82964 199.18381 201.62399 204.09917 206.18235 208.01953
 209.64070 210.78088 211.00506 211.22824 211.16042 210.86060 210.48877 210.11395
 209.72613 209.43131 209.23449 209.09367 209.01684 209.34302 209.72420 210.10838
 210.89656 212.06974 213.31491 215.09309 217.01627 219.05445 221.14463 223.22281
 225.27798 227.35716 229.44934 231.55052 233.67470 235.84187 238.09305 240.45823
 243.07441 245.32059 247.31777 249.07794 250.49012 251.60830 252.42548 252.73666
 252.76884 252.53801 251.89319 250.83637 249.43755 247.59373 245.49791 243.32608
 241.11226 238.91144 236.72662 234.56080 232.41598 230.27815 228.29933 226.45151
 224.72969 223.19687 221.82204 220.58922 219.46640 218.42158 217.52076 216.65694
 215.89411 215.06929 214.16247 213.52165 212.96683 212.96089 212.94688 212.78072
 213.86334 215.67496 217.18954 218.22383 219.70119 222.77606 228.15276 232.65291
 236.30907 240.25987 244.32718 248.08926 251.04150 253.70152 256.42419 259.18921
 261.65613 264.03207 266.42572 268.76343 271.13620 273.41293 275.27386 276.94412
 278.60498 280.26346 281.80804 283.17606 284.36450 285.42126 286.38907 287.27136
 288.07343 288.79181 289.42679 290.29691
 366.78100 356.33077 345.75855 334.62032 323.01910 311.20887 299.07465 286.87342
 274.58120 262.47397 250.47875 239.77552 229.89330 220.99307 213.17085 206.16862
 199.99840 194.93217 191.50995 189.54772 188.58050 188.64027 189.47105 190.77482
 192.49560 194.58637 196.84515 199.19992 201.64070 204.11647 206.20025 208.03802
 209.65980 210.80057 211.02535 211.24912 211.18190 210.88267 210.51145 210.13722
 209.75000 209.45577 209.25955 209.11932 209.04310 209.36987 209.75165 210.13642
 210.92519 212.09897 213.34474 215.12352 217.04729 219.08607 221.17684 223.25562
 225.31139 227.39117 229.48394 231.58572 233.71049 235.87827 238.13004 240.49582
 243.11259 245.35937 247.35714 249.11792 250.53069 251.64947 252.46724 252.77902
 252.81179 252.58157 251.93734 250.88112 249.48289 247.63967 245.54444 243.37322
 241.15999 238.95977 236.77554 234.61032 232.46609 230.32887 228.35064 226.50342
 224.78219 223.24997 221.87574 220.64352 219.52129 218.47707 217.57684 216.71361
 215.95139 215.12716 214.22094 213.58071 213.02649 213.01649 212.99289 212.81131
 213.97427 215.78836 217.25963 218.37067 219.86928 222.80312 228.14037 232.59995
 236.24002 240.19647 244.24921 247.96068 250.82776 253.46106 256.22076 259.01874
 261.50909 263.89090 266.29544 268.67825 271.09464 273.40506 275.27652 276.93881
 278.60513 280.21402 281.75400 283.12299 284.31158 285.36795 286.33606 287.21844
 288.01855 288.73734 289.37387 290.24164
 366.78100 356.33135 345.75971 334.62206 323.02141 311.21177 299.07812 286.87747
 274.58582 262.47918 250.48453 239.78188 229.90024 221.00059 213.17894 206.17730
 200.00765 194.94200 191.52035 189.55871 188.59206 188.65241 189.48377 190.78812
 192.50947 194.60083 196.86018 199.21553 201.65689 204.13324 206.21759 208.05594
 209.67830 210.81965 211.04500 211.26936 211.20271 210.90406 210.53342 210.15977
 209.77312 209.47947 209.28383 209.14418 209.06853 209.39589 209.77824 210.16359
 210.95295 212.12730 213.37365 215.15301 217.07736 219.11671 221.20806 223.28742
 225.34377 227.42412 229.51748 231.61983 233.74518 235.91354 238.16589 240.53224
 243.14960 245.39695 247.39530 249.15665 250.57001 251.68936 252.50771 252.82007
 252.85342 252.62377 251.98013 250.92448 249.52683 247.68418 245.58954 243.41889
 241.20624 239.00660 236.82295 234.65830 232.51466 230.37801 228.40036 226.55372
 224.83307 223.30142 221.92777 220.69613 219.57448 218.53083 217.63119 216.76854
 216.00689 215.18325 214.27760 213.63795 213.08430 213.07132 213.04062 212.84256
 214.08104 215.89015 217.33080 218.52802 220.05202 222.84575 228.13306 232.55338
 236.17926 240.14003 244.16617 247.81381 250.59718 253.20612 255.99792 258.82794
 261.35150 263.75562 266.18423 268.61514 271.06790 273.39978 275.27481 276.92789
 278.58453 280.18683 281.72769 283.09747 284.28833 285.34769 286.31763 287.20599
 288.01437 288.74075 289.37863 290.24908
 366.78100 356.33186 345.76072 334.62358 323.02344 311.21430 299.08116 286.88102
 274.58988 262.48374 250.48960 239.78746 229.90632 221.00718 213.18604 206.18490
 200.01576 194.95062 191.52948 189.56834 188.60220 188.66306 189.49492 190.79978
 192.52164 194.61350 196.87336 199.22922 201.67108 204.14794 206.23280 208.07166
 209.69452 210.83638 211.06224 211.28710 211.22096 210.92282 210.55268 210.17954
 209.79340 209.50026 209.30512 209.16598 209.09084 209.41870 209.80156 210.18742
 210.97728 212.15214 213.39900 215.17886 217.10372 219.14358 221.23544 223.31530
 225.37216 227.45302 229.54688 231.64974 233.77560 235.94446 238.19732 240.56418
 243.18204 245.42990 247.42876 249.19062 250.60448 251.72434 252.54320 252.85606
 252.88992 252.66078 252.01764 250.96250 249.56536 247.72322 245.62908 243.45894
 241.24680 239.04766 236.86452 234.70038 232.55724 230.42110 228.44396 226.59782
 224.87768 223.34654 221.97340 220.74226 219.62111 218.57797 217.67883 216.81669
 216.05555 215.23241 214.32727 213.68813 213.13499 213.12178 213.09058 212.87988
 214.18317 215.98102 217.39264 218.68369 220.24965 222.90889 228.13158 232.52406
 236.13318 240.09312 244.07762 247.64693 250.34949 252.93793 255.75760 258.61826
 261.18356 263.62573 266.09189 268.57089 271.05490 273.40021 275.27570 276.92065
 278.56824 280.16727 281.70868 283.07932 284.27142 285.33145 286.30319 287.18994
 288.00153 288.73026 289.37024 290.23810
 366.78100 356.33230 345.76160 334.62490 323.02520 311.21650 299.08380 286.88410
 274.59340 262.48769 250.49399 239.79229 229.91159 221.01289 213.19219 206.19149
 200.02279 194.95809 191.53739 189.57669 188.61099 188.67229 189.50459 190.80989
 192.53219 194.62448 196.88478 199.24108 201.68338 204.16068 206.24598 208.08528
 209.70858 210.85088 211.07718 211.30248 211.23678 210.93908 210.56938 210.19668
 209.81098 209.51828 209.32357 209.18487 209.11017 209.43847 209.82177 210.20807
 210.99837 212.17367 213.42097 215.20127 217.12657 219.16687 221.25917 223.33947
 225.39677 227.47807 229.57237 231.67566 233.80196 235.97126 238.22456 240.59186
 243.21016 245.45846 247.45776 249.22006 250.63436 251.75466 252.57396 252.88726
 252.92156 252.69286 252.05016 250.99545 249.59875 247.75705 245.66335 243.49365
 241.28195 239.08325 236.90055 234.73685 232.59415 230.45845 228.48175 226.63605
 224.91635 223.38565 222.01295 220.78225 219.66154 218.61884 217.72014 216.85844
 216.09774 215.27504 214.37034 213.73164 213.17894 213.16711 213.13916 212.93262
 214.27982 216.05951 217.45065 218.82799 220.44504 222.99747 228.13245 232.51585
 236.10449 240.05826 243.98708 247.46329 250.09039 252.66011 255.50276 258.39307
 261.00870 263.50378 266.01645 268.54257 271.05142 273.40283 275.27814 276.91800
 278.56546 280.14554 281.68704 283.05887 284.25104 285.31116 286.28177 287.17105
 287.98218 288.71100 289.35144 290.21783
 366.78100 356.33240 345.76180 334.62519 323.02559 311.21699 299.08439 286.88478
 274.59418 262.48858 250.49498 239.79337 229.91277 221.01417 213.19357 206.19296
 200.02436 194.95976 191.53916 189.57856 188.61295 188.67435 189.50675 190.81215
 192.53454 194.62694 196.88734 199.24374 201.68613 204.16353 206.24893 208.08833
 209.71173 210.85412 211.08052 211.30592 211.24032 210.94271 210.57311 210.20051
 209.81491 209.52230 209.32770 209.18910 209.11450 209.44289 209.82629 210.21269
 211.00309 212.17849 213.42588 215.20628 217.13168 219.17208 221.26447 223.34487
 225.40227 227.48367 229.57806 231.68146 233.80786 235.97726 238.23066 240.59805
 243.21645 245.46485 247.46425 249.22664 250.64104 251.76144 252.58084 252.89423
 252.92863 252.70003 252.05743 251.00282 249.60622 247.76462 245.67102 243.50142
 241.28981 239.09121 236.90861 234.74501 232.60240 230.46680 228.49020 226.64460
 224.92499 223.39439 222.02179 220.79119 219.67059 218.62798 217.72938 216.86778
 216.10718 215.28457 214.37997 213.74137 213.18877 213.19232 213.20074 212.98602
 214.37994 216.15041 217.49284 218.94940 220.64145 223.09514 228.13956 232.52797
 236.09180 240.03130 243.89279 247.26451 249.82433 252.37807 255.23988 258.15909
 260.83167 263.38989 265.95248 268.52286 271.05170 273.40350 275.27292 276.91046
 278.56256 280.12741 281.66751 283.03986 284.23248 285.29260 286.26547 287.15283
 287.96387 288.69159 289.33514 290.19516
 366.78100 356.33282 345.76263 334.62645 323.02726 311.21908 299.08689 286.88771
 274.59752 262.49234 250.49915 239.79797 229.91779 221.01960 213.19942 206.19923
 200.03105 194.96686 191.54668 189.58649 188.62131 188.68312 189.51594 190.82176
 192.54457 194.63739 196.89820 199.25502 201.69783 204.17565 206.26146 208.10128
 209.72509 210.86791 211.09473 211.32054 211.25536 210.95817 210.58899 210.21680
 209.83162 209.53943 209.34525 209.20706 209.13288 209.46170 209.84551 210.23233
 211.02314 212.19896 213.44677 215.22759 217.15340 219.19422 221.28703 223.36785
 225.42567 227.50748 229.60230 231.70611 233.83293 236.00274 238.25656 240.62437
 243.24319 245.49200 247.49182 249.25464 250.66945 251.79027 252.61008 252.92390
 252.95871 252.73053 252.08834 251.03416 249.63797 247.79679 245.70361 243.53442
 241.32324 239.12505 236.94287 234.77968 232.63750 230.50231 228.52613 226.68094
 224.96176 223.43158 222.05939 220.82921 219.70902 218.66684 217.76865 216.90747
 216.14728 215.32510 214.42091 213.78273 213.23055 213.22838 213.22327 213.09415
 214.47687 216.22707 217.56357 219.05028 220.79523 223.19859 228.14711 232.54175
 236.08990 240.01257 243.80043 247.06131 249.56111 252.09695 254.97122 257.91559
 260.64877 263.27658 265.89508 268.50882 271.05573 273.40274 275.26459 276.90048
 278.55893 280.11072 281.65109 283.02368 284.21646 285.27618 286.24792 287.13577
 287.94559 288.67673 289.31445 290.17618
 366.78100 356.33219 345.76138 334.62457 323.02476 311.21595 299.08315 286.88334
 274.59253 262.48672 250.49291 239.79110 229.91029 221.01148 213.19067 206.18986
 200.02105 194.95625 191.53544 189.57463 188.60882 188.67001 189.50220 190.80739
 192.52958 194.62177 196.88196 199.23815 201.68035 204.15754 206.24273 208.08192
 209.70511 210.84730 211.07349 211.29868 211.23287 210.93506 210.56525 210.19245
 209.80664 209.51383 209.31902 209.18021 209.10540 209.43359 209.81678 210.20297
 210.99316 212.16835 213.41555 215.19574 217.12093 219.16112 221.25331 223.33350
 225.39069 227.47188 229.56607 231.66926 233.79545 235.96465 238.21784 240.58503
 243.20322 245.45141 247.45060 249.21279 250.62698 251.74717 252.56636 252.87955
 252.91375 252.68494 252.04213 250.98732 249.59051 247.74870 245.65489 243.48508
 241.27327 239.07446 236.89165 234.72785 232.58504 230.44923 228.47242 226.62661
 224.90680 223.37599 222.00318 220.77237 219.65156 218.60875 217.70995 216.84814
 216.08733 215.26452 214.35971 213.72090 213.16809 213.20245 213.28362 213.19266
 214.66977 216.31303 217.50443 219.10184 220.96194 223.27377 228.17068 232.58173
 236.11111 240.01047 243.71780 246.85728 249.29355 251.80679 254.68918 257.65817
 260.46060 263.16815 265.84933 268.50781 271.06934 273.40906 275.25928 276.89236
 278.55237 280.09427 281.63330 283.00681 284.20001 285.26160 286.23129 287.12054
 287.93085 288.66019 289.29990 290.15747
 366.78100 356.33452 345.76604 334.63155 323.03407 311.22759 299.09711 286.89963
 274.61115 262.50766 250.51618 239.81670 229.93822 221.04174 213.22325 206.22477
 200.05829 194.99581 191.57733 189.61885 188.65536 188.71888 189.55340 190.86092
 192.58544 194.67995 196.94247 199.30099 201.74551 204.22503 206.31255 208.15406
 209.77958 210.92410 211.15262 211.38014 211.31665 211.02117 210.65369 210.28321
 209.89973 209.60925 209.41676 209.28028 209.20780 209.53832 209.92384 210.31235
 211.10487 212.28239 213.53191 215.31443 217.24195 219.28446 221.37898 223.46150
 225.52102 227.60454 229.70105 231.80657 233.93509 236.10661 238.36213 240.73165
 243.35216 245.60268 247.60420 249.36872 250.78524 251.90775 252.72927 253.04479
 253.08131 252.85483 252.21435 251.16186 249.76738 247.92790 245.83642 243.66894
 241.45945 239.26297 237.08249 234.92101 232.78053 230.64705 228.67256 226.82908
 225.11160 223.58312 222.21264 220.98415 219.86567 218.82519 217.92871 217.06923
 216.31075 215.49026 214.58778 213.95130 213.40082 213.32047 213.13058 213.51065
 214.90202 216.14114 217.39874 219.15024 221.14642 223.49295 228.22241 232.61801
 236.14244 240.01562 243.63403 246.64075 249.00717 251.50104 254.39738 257.39978
 260.28174 263.07800 265.82303 268.52072 271.08914 273.41278 275.24872 276.87885
 278.54129 280.07581 281.61465 282.98712 284.18170 285.24133 286.21106 287.09848
 287.91037 288.63763 289.27679 290.12842
 366.78100 356.33529 345.76758 334.63387 323.03716 311.23145 299.10174 286.90503
 274.61732 262.51461 250.52390 239.82519 229.94748 221.05177 213.23406 206.23634
 200.07063 195.00892 191.59121 189.63350 188.67079 188.73508 189.57037 190.87866
 192.60395 194.69924 196.96253 199.32182 201.76711 204.24740 206.33569 208.17798
 209.80427 210.94956 211.17885 211.40714 211.34443 211.04972 210.68301 210.31330
 209.93059 209.64088 209.44917 209.31346 209.24175 209.57303 209.95932 210.34861
 211.14190 212.32019 213.57048 215.35377 217.28206 219.32535 221.42064 223.50393
 225.56422 227.64851 229.74580 231.85209 233.98138 236.15367 238.40996 240.78025
 243.40154 245.65283 247.65512 249.42041 250.83770 251.96099 252.78328 253.09957
 253.13686 252.91115 252.27144 251.21972 249.82601 247.98730 245.89659 243.72988
 241.52117 239.32546 237.14575 234.98504 232.84533 230.71262 228.73891 226.89620
 225.17949 223.65178 222.28207 221.05436 219.93665 218.89694 218.00123 217.14252
 216.38481 215.56510 214.66339 214.02768 213.47797 213.36740 213.10619 213.68762
 215.01793 216.12631 217.39896 219.19781 221.30269 223.71629 228.27708 232.64146
 236.16643 240.01466 243.53961 246.41302 248.71426 251.19690 254.11340 257.15427
 260.11804 263.00052 265.80191 268.53174 271.10162 273.40765 275.22946 276.85870
 278.52411 280.05063 281.59009 282.96292 284.15601 285.21497 286.18350 287.07080
 287.88171 288.61121 289.25064 290.09622
 366.78100 356.33523 345.76745 334.63368 323.03691 311.23114 299.10136 286.90459
 274.61682 262.51405 250.52327 239.82450 229.94673 221.05095 213.23318 206.23541
 200.06964 195.00786 191.59009 189.63232 188.66955 188.73377 189.56900 190.87723
 192.60245 194.69768 196.96091 199.32014 201.76536 204.24559 206.33382 208.17604
 209.80227 210.94750 211.17673 211.40495 211.34218 211.04741 210.68064 210.31086
 209.92809 209.63832 209.44654 209.31077 209.23900 209.57023 209.95645 210.34568
 211.13891 212.31714 213.56736 215.35059 217.27882 219.32204 221.41727 223.50050
 225.56073 227.64495 229.74218 231.84841 233.97764 236.14986 238.40609 240.77632
 243.39754 245.64877 247.65100 249.41623 250.83345 251.95668 252.77891 253.09514
 253.13236 252.90659 252.26682 251.21504 249.82127 247.98250 245.89173 243.72495
 241.51618 239.32041 237.14063 234.97986 232.84009 230.70732 228.73354 226.89077
 225.17400 223.64623 222.27645 221.04868 219.93091 218.89113 217.99536 217.13659
 216.37882 215.55904 214.65727 214.02150 213.47173 213.37456 213.14500 213.83118
 215.07925 216.17406 217.43825 219.24811 221.41994 223.90314 228.32458 232.65605
 236.18193 240.00638 243.43916 246.18336 248.42751 250.90768 253.84599 256.92563
 259.96774 262.92734 265.77734 268.53647 271.10837 273.39719 275.20676 276.83313
 278.50000 280.01572 281.55469 282.92670 284.11850 285.17630 286.14328 287.02811
 287.83798 288.56757 289.20505 290.04016
 366.78100 356.33510 345.76721 334.63331 323.03641 311.23052 299.10062 286.90372
 274.61582 262.51293 250.52203 239.82313 229.94524 221.04934 213.23144 206.23355
 200.06765 195.00575 191.58785 189.62996 188.66706 188.73116 189.56627 190.87437
 192.59947 194.69458 196.95768 199.31678 201.76189 204.24199 206.33009 208.17219
 209.79830 210.94340 211.17250 211.40061 211.33771 211.04281 210.67592 210.30602
 209.92312 209.63322 209.44133 209.30543 209.23353 209.56464 209.95074 210.33984
 211.13295 212.31105 213.56115 215.34426 217.27236 219.31546 221.41056 223.49367
 225.55377 227.63787 229.73498 231.84108 233.97018 236.14229 238.39839 240.76849
 243.38960 245.64070 247.64280 249.40790 250.82501 251.94811 252.77021 253.08632
 253.12342 252.89752 252.25763 251.20573 249.81183 247.97293 245.88204 243.71514
 241.50624 239.31035 237.13045 234.96955 232.82966 230.69676 228.72286 226.87997
 225.16307 223.63517 222.26527 221.03738 219.91948 218.87958 217.98369 217.12479
 216.36689 215.54700 214.64510 214.00920 213.45930 213.38181 213.19868 213.96074
 215.15274 216.20395 217.47888 219.31522 221.51112 224.05780 228.36398 232.66710
 236.19357 239.99530 243.33917 245.96112 248.15392 250.63507 253.59480 256.71017
 259.82281 262.85144 265.74887 268.53766 271.11108 273.37970 275.17413 276.79776
 278.46368 279.98306 281.52100 282.89127 284.08286 285.13806 286.10464 286.98901
 287.79715 288.52744 289.16257 289.99649
 366.78100 356.33455 345.76611 334.63166 323.03422 311.22777 299.09733 286.89988
 274.61144 262.50799 250.51655 239.81710 229.93866 221.04221 213.22377 206.22532
 200.05888 194.99643 191.57799 189.61954 188.65610 188.71965 189.55421 190.86176
 192.58632 194.68087 196.94342 199.30198 201.74653 204.22609 206.31364 208.15520
 209.78075 210.92531 211.15386 211.38142 211.31797 211.02253 210.65508 210.28464
 209.90119 209.61075 209.41830 209.28186 209.20941 209.53997 209.92552 210.31408
 211.10663 212.28419 213.53374 215.31629 217.24385 219.28640 221.38096 223.46351
 225.52307 227.60662 229.70318 231.80873 233.93729 236.10884 238.36440 240.73395
 243.35451 245.60506 247.60662 249.37117 250.78773 251.91028 252.73184 253.04739
 253.08395 252.85750 252.21706 251.16461 249.77016 247.93072 245.83927 243.67183
 241.46238 239.26594 237.08549 234.92405 232.78360 230.65016 228.67571 226.83227
 225.11482 223.58638 222.21593 220.98749 219.86904 218.82860 217.93215 217.07271
 216.31426 215.49382 214.59137 213.95493 213.40448 213.36909 213.28548 214.07655
 215.23009 216.21591 217.51636 219.37299 221.57454 224.19711 228.40898 232.69669
 236.21819 239.99236 243.24783 245.75253 247.89673 250.37697 253.35519 256.50058
 259.67618 262.76794 265.71164 268.52835 271.10239 273.35144 275.13687 276.76248
 278.42227 279.94376 281.48175 282.85229 284.04214 285.09747 286.06400 286.94669
 287.75699 288.48529 289.12033 289.95111
 366.78100 356.33412 345.76524 334.63036 323.03248 311.22560 299.09472 286.89684
 274.60797 262.50409 250.51221 239.81233 229.93345 221.03657 213.21769 206.21881
 200.05193 194.98905 191.57017 189.61129 188.64741 188.71053 189.54466 190.85178
 192.57590 194.67002 196.93214 199.29026 201.73438 204.21350 206.30062 208.14174
 209.76686 210.91098 211.13910 211.36622 211.30234 211.00647 210.63859 210.26771
 209.88383 209.59295 209.40007 209.26319 209.19031 209.52043 209.90555 210.29367
 211.08579 212.26291 213.51203 215.29416 217.22128 219.26340 221.35752 223.43964
 225.49876 227.58188 229.67800 231.78312 233.91124 236.08236 238.33748 240.70660
 243.32672 245.57684 247.57797 249.34209 250.75821 251.88033 252.70145 253.01657
 253.05269 252.82581 252.18493 251.13205 249.73717 247.89729 245.80541 243.63753
 241.42765 239.23078 237.04990 234.88802 232.74714 230.61326 228.63838 226.79450
 225.07662 223.54774 222.17686 220.94798 219.82910 218.78822 217.89134 217.03147
 216.27259 215.45171 214.54883 213.91195 213.36107 213.36386 213.37047 214.19386
 215.31685 216.23735 217.54916 219.40323 221.62164 224.32880 228.46544 232.73653
 236.24660 239.97897 243.14066 245.53072 247.63268 250.12111 253.12279 256.30365
 259.54498 262.69974 265.67743 268.51282 271.08298 273.31436 275.10468 276.73724
 278.39056 279.89877 281.42612 282.79297 283.98123 285.03394 285.99509 286.87747
 287.68335 288.40939 289.02835 289.84082
 366.78100 356.33405 345.76510 334.63015 323.03220 311.22525 299.09430 286.89635
 274.60740 262.50345 250.51150 239.81155 229.93260 221.03565 213.21670 206.21776
 200.05081 194.98786 191.56891 189.60996 188.64601 188.70906 189.54311 190.85016
 192.57421 194.66826 196.93031 199.28836 201.73241 204.21146 206.29851 208.13956
 209.76461 210.90866 211.13671 211.36376 211.29981 211.00386 210.63591 210.26496
 209.88101 209.59006 209.39711 209.26016 209.18722 209.51727 209.90232 210.29037
 211.08242 212.25947 213.50852 215.29057 217.21762 219.25967 221.35372 223.43577
 225.49482 227.57787 229.67392 231.77897 233.90702 236.07807 238.33312 240.70217
 243.32222 245.57227 247.57332 249.33737 250.75342 251.87547 252.69652 253.01157
 253.04762 252.82068 252.17973 251.12678 249.73183 247.89188 245.79993 243.63198
 241.42203 239.22508 237.04413 234.88218 232.74123 230.60728 228.63233 226.78838
 225.07043 223.54148 222.17053 220.94158 219.82263 218.78168 217.88473 217.02478
 216.26583 215.44488 214.54193 213.90498 213.35403 213.37900 213.43796 214.30643
 215.43469 216.27443 217.58192 219.45468 221.67549 224.43044 228.50661 232.75830
 236.24826 239.92583 242.98659 245.27051 247.34862 249.86871 252.91147 256.14099
 259.45206 262.65836 265.65744 268.50253 271.06857 273.28662 275.07288 276.69983
 278.34000 279.84348 281.36862 282.73334 283.91977 284.97375 285.93585 286.81546
 287.62271 288.34903 288.96451 289.77631
 366.78100 356.33379 345.76457 334.62936 323.03115 311.22393 299.09272 286.89451
 274.60529 262.50108 250.50887 239.80865 229.92944 221.03222 213.21301 206.21380
 200.04658 194.98337 191.56416 189.60494 188.64073 188.70352 189.53730 190.84409
 192.56788 194.66166 196.92345 199.28124 201.72502 204.20381 206.29060 208.13138
 209.75617 210.89996 211.12774 211.35453 211.29031 210.99410 210.62589 210.25467
 209.87046 209.57925 209.38603 209.24882 209.17561 209.50539 209.89018 210.27797
 211.06975 212.24654 213.49533 215.27711 217.20390 219.24569 221.33947 223.42126
 225.48005 227.56283 229.65862 231.76340 233.89119 236.06198 238.31676 240.68555
 243.30534 245.55512 247.55591 249.31970 250.73548 251.85727 252.67806 252.99284
 253.02863 252.80142 252.16020 251.10699 249.71178 247.87156 245.77935 243.61114
 241.40092 239.20371 237.02249 234.86028 232.71907 230.58485 228.60964 226.76543
 225.04721 223.51800 222.14679 220.91757 219.79836 218.75715 217.85993 216.99972
 216.24051 215.41929 214.51608 213.87887 213.32765 213.38353 213.51555 214.42268
 215.55791 216.30746 217.62675 219.55084 221.73126 224.48373 228.52238 232.76355
 236.22446 239.83139 242.78990 244.99132 247.07341 249.64174 252.73546 256.01825
 259.38779 262.62903 265.64343 268.49927 271.06879 273.28372 275.06033 276.65210
 278.24457 279.75040 281.27927 282.64609 283.83347 284.88571 285.84738 286.72757
 287.53290 288.25671 288.87744 289.68216
 366.78100 356.33343 345.76385 334.62828 323.02970 311.22213 299.09056 286.89198
 274.60241 262.49783 250.50526 239.80469 229.92511 221.02754 213.20797 206.20839
 200.04082 194.97724 191.55767 189.59810 188.63352 188.69595 189.52937 190.83580
 192.55923 194.65265 196.91408 199.27150 201.71493 204.19336 206.27978 208.12021
 209.74464 210.88806 211.11549 211.34191 211.27734 210.98077 210.61219 210.24062
 209.85604 209.56447 209.37090 209.23332 209.15975 209.48917 209.87360 210.26103
 211.05245 212.22888 213.47731 215.25873 217.18516 219.22658 221.32001 223.40144
 225.45986 227.54229 229.63771 231.74214 233.86957 236.03999 238.29442 240.66284
 243.28227 245.53170 247.53212 249.29555 250.71098 251.83240 252.65283 252.96725
 253.00268 252.77511 252.13353 251.07996 249.68438 247.84381 245.75124 243.58266
 241.37209 239.17451 236.99294 234.83037 232.68879 230.55422 228.57865 226.73407
 225.01550 223.48592 222.11435 220.88478 219.76520 218.72363 217.82605 216.96548
 216.20591 215.38433 214.48076 213.84318 213.29161 213.38406 213.60248 214.54263
 215.66177 216.35223 217.69931 219.64336 221.77454 224.51538 228.55000 232.76794
 236.18663 239.71185 242.57333 244.71733 246.81808 249.42914 252.57141 255.90892
 259.32672 262.59647 265.62543 268.49152 271.07129 273.29715 275.08548 276.65323
 278.19473 279.65909 281.14459 282.50592 283.69080 284.74371 285.70462 286.58319
 287.39020 288.11179 288.73132 289.53668
 366.78100 356.33344 345.76388 334.62832 323.02975 311.22219 299.09063 286.89207
 274.60251 262.49795 250.50539 239.80482 229.92526 221.02770 213.20814 206.20858
 200.04102 194.97746 191.55790 189.59833 188.63377 188.69621 189.52965 190.83609
 192.55953 194.65297 196.91440 199.27184 201.71528 204.19372 206.28016 208.12060
 209.74504 210.88847 211.11591 211.34235 211.27779 210.98123 210.61267 210.24111
 209.85654 209.56498 209.37142 209.23386 209.16030 209.48974 209.87418 210.26162
 211.05305 212.22949 213.47793 215.25937 217.18581 219.22725 221.32069 223.40212
 225.46056 227.54300 229.63844 231.74288 233.87032 236.04076 238.29519 240.66363
 243.28307 245.53251 247.53295 249.29639 250.71183 251.83326 252.65370 252.96814
 253.00358 252.77602 252.13446 251.08090 249.68534 247.84477 245.75221 243.58365
 241.37309 239.17553 236.99397 234.83141 232.68984 230.55528 228.57972 226.73516
 225.01660 223.48704 222.11548 220.88591 219.76635 218.72479 217.82723 216.96667
 216.20711 215.38555 214.48198 213.84442 213.29286 213.40515 213.67047 214.66092
 215.78262 216.41029 217.79147 219.70213 221.79567 224.53937 228.61111 232.76527
 236.13354 239.56990 242.33887 244.43016 246.54848 249.21019 252.41093 255.81216
 259.27170 262.56058 265.59836 268.47385 271.06897 273.31509 275.12515 276.69122
 278.19818 279.63254 280.99307 282.34003 283.52420 284.57748 285.53674 286.41714
 287.22232 287.94577 288.56964 289.38467
 366.78100 356.33328 345.76356 334.62784 323.02912 311.22140 299.08969 286.89097
 274.60125 262.49653 250.50381 239.80309 229.92337 221.02565 213.20593 206.20621
 200.03850 194.97478 191.55506 189.59534 188.63062 188.69290 189.52618 190.83246
 192.55574 194.64902 196.91031 199.26759 201.71087 204.18915 206.27543 208.11571
 209.73999 210.88327 211.11055 211.33683 211.27212 210.97540 210.60668 210.23496
 209.85024 209.55852 209.36480 209.22708 209.15336 209.48264 209.86693 210.25421
 211.04549 212.22177 213.47005 215.25133 217.17761 219.21889 221.31217 223.39345
 225.45174 227.53402 229.62930 231.73358 233.86086 236.03114 238.28542 240.65370
 243.27298 245.52226 247.52255 249.28583 250.70111 251.82239 252.64267 252.95695
 252.99223 252.76451 252.12279 251.06907 249.67336 247.83264 245.73992 243.57120
 241.36048 239.16276 236.98104 234.81832 232.67660 230.54188 228.56617 226.72145
 225.00273 223.47301 222.10129 220.87157 219.75185 218.71013 217.81241 216.95169
 216.19198 215.37026 214.46654 213.82882 213.27710 213.41783 213.75034 214.79211
 215.88867 216.49876 217.85777 219.75415 221.82806 224.57552 228.68390 232.72279
 236.06351 239.41603 242.09157 244.12970 246.25946 248.98274 252.26094 255.72983
 259.22528 262.52850 265.56818 268.45062 271.05368 273.31363 275.14679 276.73236
 278.22626 279.62878 280.94635 282.18951 283.36295 284.41278 285.37518 286.25464
 287.06149 287.78720 288.41800 289.22833
 366.78100 356.33369 345.76438 334.62907 323.03076 311.22345 299.09214 286.89383
 274.60453 262.50022 250.50791 239.80760 229.92829 221.03098 213.21167 206.21236
 200.04505 194.98174 191.56243 189.60312 188.63881 188.70150 189.53520 190.84189
 192.56558 194.65927 196.92096 199.27865 201.72234 204.20103 206.28772 208.12841
 209.75310 210.89679 211.12448 211.35117 211.28687 210.99056 210.62225 210.25094
 209.86663 209.57532 209.38201 209.24470 209.17139 209.50108 209.88577 210.27346
 211.06515 212.24184 213.49053 215.27223 217.19892 219.24061 221.33430 223.41599
 225.47468 227.55737 229.65306 231.75775 233.88544 236.05613 238.31082 240.67951
 243.29920 245.54890 247.54959 249.31328 250.72897 251.85066 252.67135 252.98604
 253.02173 252.79442 252.15311 251.09980 249.70449 247.86418 245.77187 243.60356
 241.39326 239.19595 237.01464 234.85233 232.71102 230.57671 228.60140 226.75709
 225.03878 223.50947 222.13816 220.90885 219.78954 218.74823 217.85093 216.99062
 216.23131 215.41000 214.50669 213.86938 213.31807 213.46075 213.79788 214.97205
 215.95804 216.55290 217.95464 219.88446 221.92632 224.64838 228.73517 232.58838
 235.94363 239.20680 241.79300 243.78519 245.94833 248.76627 252.13779 255.67514
 259.19690 262.49988 265.52927 268.40701 271.02075 273.29385 275.14951 276.74316
 278.21387 279.59839 280.92007 282.10721 283.26978 284.31827 285.27881 286.15720
 286.96478 287.69275 288.32288 289.13293
 366.78100 356.33482 345.76665 334.63247 323.03530 311.22912 299.09895 286.90177
 274.61360 262.51042 250.51925 239.82007 229.94190 221.04572 213.22755 206.22937
 200.06320 195.00102 191.58285 189.62467 188.66150 188.72532 189.56015 190.86797
 192.59280 194.68762 196.95045 199.30927 201.75410 204.23392 206.32175 208.16357
 209.78940 210.93422 211.16305 211.39087 211.32770 211.03252 210.66535 210.29517
 209.91200 209.62182 209.42964 209.29347 209.22129 209.55212 209.93794 210.32677
 211.11959 212.29742 213.54724 215.33007 217.25789 219.30072 221.39554 223.47837
 225.53819 227.62202 229.71884 231.82467 233.95349 236.12532 238.38114 240.75097
 243.37179 245.62262 247.62444 249.38927 250.80609 251.92892 252.75074 253.06657
 253.10339 252.87722 252.23704 251.18487 249.79069 247.95152 245.86034 243.69317
 241.48399 239.28782 237.10764 234.94647 232.80629 230.67311 228.69894 226.85576
 225.13859 223.61041 222.24024 221.01206 219.89389 218.85371 217.95754 217.09836
 216.34019 215.52001 214.61784 213.98166 213.43149 213.54680 213.81924 215.08232
 216.13789 216.60374 218.09712 220.04076 222.03346 224.72136 228.76057 232.46439
 235.77977 238.93819 241.45479 243.43942 245.66647 248.59090 252.04590 255.63327
 259.16171 262.46384 265.48877 268.35529 270.96881 273.22827 275.07755 276.67328
 278.17203 279.57941 280.87308 282.07062 283.23764 284.28979 285.25211 286.13068
 286.93546 287.66193 288.28732 289.09711
 366.78100 356.33421 345.76541 334.63062 323.03282 311.22603 299.09524 286.89744
 274.60865 262.50485 250.51306 239.81327 229.93447 221.03768 213.21888 206.22009
 200.05330 194.99050 191.57171 189.61291 188.64912 188.71233 189.54653 190.85374
 192.57794 194.67215 196.93436 199.29256 201.73677 204.21597 206.30318 208.14439
 209.76959 210.91380 211.14200 211.36921 211.30542 211.00962 210.64183 210.27103
 209.88724 209.59645 209.40365 209.26686 209.19406 209.52427 209.90948 210.29768
 211.08989 212.26709 213.51630 215.29851 217.22571 219.26792 221.36212 223.44433
 225.50354 227.58674 229.68295 231.78815 233.91636 236.08757 238.34277 240.71198
 243.33218 245.58239 247.58359 249.34780 250.76401 251.88621 252.70742 253.02262
 253.05883 252.83204 252.19124 251.13845 249.74365 247.90386 245.81207 243.64427
 241.43448 239.23768 237.05689 234.89510 232.75430 230.62051 228.64571 226.80192
 225.08413 223.55533 222.18454 220.95574 219.83695 218.79616 217.89936 217.03957
 216.28077 215.45998 214.55719 213.92039 213.36960 213.54572 213.96182 215.11293
 216.16327 216.86819 218.35460 220.07680 222.04803 224.76471 228.79868 232.40295
 235.61156 238.65509 241.10689 243.10641 245.38843 248.39340 251.93338 255.58374
 259.14383 262.45636 265.47305 268.29269 270.85754 273.08099 274.94760 276.59174
 278.10403 279.47452 280.73843 282.01620 283.19183 284.24481 285.20743 286.08722
 286.88678 287.60895 288.23099 289.03369
 366.78100 356.33252 345.76205 334.62557 323.02610 311.21762 299.08515 286.88567
 274.59520 262.48972 250.49625 239.79477 229.91430 221.01582 213.19535 206.19487
 200.02640 194.96192 191.54145 189.58097 188.61550 188.67702 189.50954 190.81507
 192.53759 194.63012 196.89064 199.24717 201.68969 204.16722 206.25274 208.09227
 209.71579 210.85832 211.08484 211.31037 211.24489 210.94742 210.57794 210.20547
 209.81999 209.52752 209.33304 209.19457 209.12009 209.44861 209.83214 210.21866
 211.00919 212.18471 213.43224 215.21276 217.13829 219.17881 221.27134 223.35186
 225.40939 227.49091 229.58544 231.68896 233.81549 235.98501 238.23854 240.60606
 243.22459 245.47311 247.47263 249.23516 250.64968 251.77021 252.58973 252.90326
 252.93778 252.70931 252.06683 251.01236 249.61588 247.77441 245.68093 243.51146
 241.29998 239.10151 236.91903 234.75556 232.61308 230.47761 228.50113 226.65566
 224.93618 223.40570 222.03323 220.80275 219.68228 218.63980 217.74133 216.87985
 216.11938 215.29690 214.39243 213.75395 213.20148 213.48647 214.15982 215.18961
 216.15536 217.17209 218.47346 219.99544 222.03317 224.81613 228.85973 232.37090
 235.49036 238.41237 240.77725 242.78198 245.11108 248.19069 251.82970 255.55685
 259.12796 262.41394 265.40192 268.18573 270.73877 272.99384 274.92664 276.62799
 278.13477 279.46033 280.66187 281.78107 282.90164 283.94284 284.90265 285.78018
 286.58206 287.30426 287.93259 288.74371
 366.78100 356.33187 345.76073 334.62360 323.02347 311.21433 299.08120 286.88107
 274.58994 262.48380 250.48967 239.78754 229.90640 221.00727 213.18614 206.18500
 200.01587 194.95074 191.52961 189.56847 188.60234 188.66321 189.49507 190.79994
 192.52181 194.61367 196.87354 199.22941 201.67127 204.14814 206.23301 208.07188
 209.69474 210.83661 211.06248 211.28734 211.22121 210.92308 210.55294 210.17981
 209.79368 209.50055 209.30541 209.16628 209.09115 209.41901 209.80188 210.18775
 210.97761 212.15248 213.39935 215.17922 217.10408 219.14395 221.23582 223.31568
 225.37255 227.45342 229.54728 231.65015 233.77602 235.94488 238.19775 240.56462
 243.18249 245.43035 247.42922 249.19109 250.60495 251.72482 252.54369 252.85655
 252.89042 252.66129 252.01816 250.96302 249.56589 247.72376 245.62962 243.45949
 241.24736 239.04822 236.86509 234.70096 232.55782 230.42169 228.44456 226.59843
 224.87829 223.34716 221.97403 220.74289 219.62176 218.57863 217.67949 216.81736
 216.05623 215.23310 214.32796 213.68883 213.13570 213.47995 214.29330 215.29657
 216.18225 217.34192 218.52022 219.99527 222.09084 224.90160 228.93495 232.37157
 235.40633 238.20796 240.48502 242.48982 244.86613 248.02129 251.73363 255.50838
 259.06747 262.32852 265.32672 268.15359 270.76184 273.07193 275.04465 276.73114
 278.16504 279.38950 280.48901 281.51810 282.51099 283.53769 284.49725 285.37827
 286.18607 286.91788 287.55798 288.38925
 366.78100 356.33194 345.76089 334.62383 323.02378 311.21472 299.08166 286.88161
 274.59055 262.48450 250.49044 239.78838 229.90733 221.00827 213.18722 206.18616
 200.01710 194.95205 191.53099 189.56994 188.60388 188.66482 189.49677 190.80171
 192.52366 194.61560 196.87554 199.23149 201.67343 204.15038 206.23532 208.07426
 209.69721 210.83915 211.06510 211.29004 211.22398 210.92593 210.55587 210.18282
 209.79676 209.50370 209.30865 209.16959 209.09454 209.42248 209.80542 210.19137
 210.98131 212.15626 213.40320 215.18315 217.10809 219.14803 221.23998 223.31992
 225.37687 227.45781 229.55175 231.65470 233.78064 235.94959 238.20253 240.56947
 243.18742 245.43536 247.43431 249.19625 250.61019 251.73014 252.54908 252.86203
 252.89597 252.66691 252.02386 250.96880 249.57175 247.72969 245.63563 243.46558
 241.25352 239.05447 236.87141 234.70735 232.56430 230.42824 228.45119 226.60513
 224.88507 223.35402 221.98096 220.74991 219.62885 218.58579 217.68674 216.82468
 216.06363 215.24057 214.33551 213.69646 213.14340 213.51244 214.38429 215.41402
 216.22551 217.33171 218.54933 220.12201 222.23766 225.01819 228.99110 232.41983
 235.34586 238.02415 240.21121 242.20418 244.62730 247.85619 251.63560 255.44128
 259.00192 262.28098 265.32996 268.21313 270.86093 273.18329 275.12396 276.72708
 278.04684 279.16245 280.18835 281.19370 282.30493 283.35184 284.31226 285.19519
 286.00281 286.73325 287.37265 288.20581
 366.78100 356.33387 345.76473 334.62960 323.03147 311.22434 299.09320 286.89507
 274.60594 262.50181 250.50967 239.80954 229.93041 221.03328 213.21414 206.21501
 200.04788 194.98475 191.56561 189.60648 188.64235 188.70522 189.53908 190.84595
 192.56982 194.66368 196.92555 199.28342 201.72729 204.20615 206.29302 208.13389
 209.75876 210.90262 211.13049 211.35736 211.29323 210.99709 210.62896 210.25783
 209.87370 209.58256 209.38943 209.25230 209.17917 209.50903 209.89390 210.28177
 211.07363 212.25050 213.49937 215.28124 217.20810 219.24997 221.34384 223.42571
 225.48457 227.56744 229.66331 231.76818 233.89604 236.06691 238.32178 240.69065
 243.31051 245.56038 247.56125 249.32512 250.74098 251.86285 252.68372 252.99858
 253.03445 252.80732 252.16619 251.11305 249.71792 247.87779 245.78566 243.61752
 241.40739 239.21026 237.02913 234.86699 232.72586 230.59173 228.61660 226.77246
 225.05433 223.52520 222.15407 220.92493 219.80580 218.76467 217.86753 217.00740
 216.24827 215.42714 214.52400 213.88687 213.33574 213.64262 214.36771 215.55873
 216.32256 217.28865 218.61082 220.30212 222.40189 225.10464 228.99809 232.42728
 235.25616 237.81212 239.89830 241.88361 244.36940 247.68036 251.54030 255.38547
 258.97147 262.29175 265.38708 268.28397 270.93076 273.24658 275.16919 276.73056
 277.98773 279.03430 279.99466 280.99149 282.12704 283.17764 284.14108 285.02069
 285.82587 286.55344 287.19409 288.04337
 366.78100 356.33352 345.76404 334.62856 323.03008 311.22260 299.09112 286.89264
 274.60316 262.49868 250.50619 239.80571 229.92623 221.02875 213.20927 206.20979
 200.04231 194.97883 191.55935 189.59987 188.63539 188.69791 189.53143 190.83795
 192.56147 194.65499 196.91651 199.27403 201.71755 204.19607 206.28258 208.12310
 209.74762 210.89114 211.11866 211.34518 211.28070 210.98422 210.61574 210.24426
 209.85978 209.56830 209.37482 209.23734 209.16386 209.49338 209.87790 210.26542
 211.05694 212.23346 213.48197 215.26349 217.19001 219.23153 221.32505 223.40657
 225.46509 227.54761 229.64313 231.74765 233.87517 236.04569 238.30021 240.66873
 243.28825 245.53777 247.53829 249.30181 250.71733 251.83884 252.65936 252.97388
 253.00940 252.78192 252.14044 251.08696 249.69148 247.85100 245.75852 243.59004
 241.37956 239.18208 237.00060 234.83812 232.69664 230.56216 228.58668 226.74220
 225.02372 223.49423 222.12275 220.89327 219.77379 218.73231 217.83483 216.97435
 216.21487 215.39339 214.48991 213.85243 213.30095 213.66202 214.51508 215.58890
 216.35129 217.35629 218.71451 220.40140 222.50237 225.16930 228.98750 232.43967
 235.18690 237.60223 239.58838 241.56418 244.11783 247.52588 251.49222 255.38214
 259.00333 262.34454 265.43793 268.33276 270.98022 273.29843 275.21918 276.75400
 277.95691 278.97128 279.90485 280.89413 282.05344 283.10785 284.07925 284.97244
 285.79178 286.53687 287.24292 288.20276
 366.78100 356.33019 345.75739 334.61858 323.01678 311.20597 299.07117 286.86936
 274.57656 262.46875 250.47295 239.76914 229.88634 220.98553 213.16272 206.15992
 199.98911 194.92231 191.49950 189.53670 188.56889 188.62809 189.45828 190.76148
 192.48167 194.57187 196.83006 199.18425 201.62445 204.09964 206.18284 208.02003
 209.64123 210.78142 211.00562 211.22881 211.16101 210.86120 210.48939 210.11459
 209.72678 209.43198 209.23517 209.09437 209.01756 209.34376 209.72495 210.10915
 210.89734 212.07054 213.31573 215.09392 217.01712 219.05531 221.14551 223.22370
 225.27890 227.35809 229.45029 231.55148 233.67568 235.84287 238.09407 240.45926
 243.07545 245.32165 247.31884 249.07904 250.49123 251.60943 252.42662 252.73782
 252.77001 252.53921 251.89440 250.83760 249.43879 247.59498 245.49918 243.32737
 241.11357 238.91276 236.72796 234.56215 232.41735 230.27954 228.30074 226.45293
 224.73112 223.19832 221.82351 220.59071 219.46790 218.42310 217.52229 216.65849
 215.89568 215.07088 214.16407 213.52327 212.96846 213.53018 214.85214 215.65749
 216.20085 217.05251 218.60156 220.49174 222.70694 225.32909 228.93459 232.58043
 235.15810 237.42647 239.29620 241.27802 243.92418 247.42059 251.44896 255.42076
 259.10458 262.46109 265.52908 268.36935 270.97369 273.27414 275.19278 276.70474
 277.88968 278.91037 279.85605 280.93127 282.08899 283.14191 284.12326 285.07480
 285.97217 286.77124 287.46933 288.35892
 366.78100 356.32705 345.75109 334.60914 323.00418 311.19023 299.05227 286.84732
 274.55136 262.44041 250.44145 239.73450 229.84855 220.94459 213.11864 206.11268
 199.93873 194.86877 191.44282 189.47686 188.50591 188.56196 189.38900 190.68905
 192.40609 194.49314 196.74818 199.09923 201.53627 204.00832 206.08836 207.92241
 209.54046 210.67750 210.89855 211.11859 211.04764 210.74468 210.36973 209.99177
 209.60082 209.30287 209.10291 208.95896 208.87900 209.20205 209.58009 209.96114
 210.74618 211.91623 213.15827 214.93332 216.85337 218.88841 220.97546 223.05050
 225.10255 227.17859 229.26764 231.36568 233.48673 235.65078 237.89882 240.26087
 242.87391 245.11696 247.11100 248.86805 250.27709 251.39214 252.20618 252.51423
 252.54328 252.30932 251.66137 250.60141 249.19946 247.35250 245.25355 243.07859
 240.86164 238.65768 236.46973 234.30078 232.15282 230.01187 228.02991 226.17896
 224.45400 222.91805 221.54009 220.30414 219.17819 218.13023 217.22628 216.35932
 215.59337 214.76541 213.85546 213.21150 212.65355 213.42035 215.13260 215.70247
 216.21588 217.19542 218.79033 220.74780 222.97618 225.45210 229.07884 232.50870
 234.91748 237.04733 238.94678 241.08057 243.88934 247.51306 251.54602 255.54247
 259.27328 262.67169 265.75406 268.55627 271.08008 273.29947 275.13422 276.52872
 277.53412 278.90424 280.54465 282.31955 283.89957 285.29745 286.57281 287.72818
 288.76733 289.69272 290.50110 291.53128
 366.78100 356.32394 345.74488 334.59983 322.99177 311.17471 299.03365 286.82560
 274.52654 262.41248 250.41042 239.70036 229.81131 220.90425 213.07519 206.06613
 199.88907 194.81602 191.38696 189.41790 188.44384 188.49679 189.32073 190.61767
 192.33161 194.41555 196.66750 199.01544 201.44938 203.91832 205.99526 207.82621
 209.44115 210.57509 210.79303 211.00998 210.93592 210.62986 210.25180 209.87074
 209.47669 209.17563 208.97257 208.82551 208.74246 209.06240 209.43734 209.81528
 210.59722 211.76417 213.00311 214.77505 216.69199 218.72393 220.80788 222.87982
 224.92876 227.00170 229.08765 231.18259 233.30053 235.46147 237.70641 240.06536
 242.67530 244.91524 246.90618 248.66012 250.06607 251.17801 251.98895 252.29389
 252.31984 252.08278 251.43172 250.36866 248.96360 247.11355 245.01149 242.83343
 240.61337 238.40631 236.21526 234.04320 231.89214 229.74808 227.76303 225.90897
 224.18091 222.64185 221.26079 220.02174 218.89268 217.84162 216.93456 216.06451
 215.29545 214.46439 213.55133 212.90427 212.34322 213.30365 215.36487 215.86150
 216.18311 217.26012 218.80075 220.68288 222.84048 225.24313 229.13007 232.38576
 234.71442 236.78256 238.73526 241.03508 244.03035 247.71100 251.75964 255.82201
 259.61450 263.06403 266.16232 268.92703 271.40903 273.56946 275.24200 276.17020
 278.51041 281.13742 283.41068 285.40674 287.13419 288.66251 290.05688 291.32010
 292.45621 293.46793 294.35175 295.47806
 366.78100 356.32446 345.74592 334.60137 322.99383 311.17729 299.03675 286.82920
 274.53066 262.41712 250.41558 239.70604 229.81749 220.91095 213.08241 206.07387
 199.89732 194.82478 191.39624 189.42770 188.45416 188.50761 189.33207 190.62953
 192.34399 194.42844 196.68090 199.02936 201.46382 203.93327 206.01073 207.84219
 209.45765 210.59211 210.81056 211.02802 210.95448 210.64894 210.27139 209.89085
 209.49731 209.19677 208.99423 208.84768 208.76514 209.08560 209.46106 209.83951
 210.62197 211.78943 213.02889 214.80135 216.71880 218.75126 220.83572 222.90818
 224.95763 227.03109 229.11755 231.21301 233.33147 235.49292 237.73838 240.09784
 242.70830 244.94875 246.94021 248.69467 250.10113 251.21359 252.02504 252.33050
 252.35696 252.12042 251.46987 250.40733 249.00279 247.15325 245.05170 242.87416
 240.65462 238.44808 236.25754 234.08599 231.93545 229.79191 227.80737 225.95382
 224.22628 222.68774 221.30720 220.06866 218.94011 217.88957 216.98303 216.11349
 215.34494 214.51440 213.60186 212.95532 212.39478 213.32452 215.44489 216.26509
 216.36310 217.31349 218.70357 220.34758 222.48048 225.22809 228.90628 232.21666
 234.45227 236.43321 238.36008 240.75591 243.91815 247.75388 251.91455 256.03775
 259.88831 263.41003 266.57251 269.35791 271.83655 274.00168 275.66873 276.40317
 278.70197 281.26865 283.48969 285.43994 287.12769 288.62091 289.98328 291.21747
 292.32748 293.31598 294.17950 295.27994
 366.78100 356.32873 345.75447 334.61420 323.01094 311.19867 299.06241 286.85914
 274.56488 262.45561 250.45835 239.75308 229.86882 220.96655 213.14229 206.13802
 199.96576 194.89749 191.47323 189.50896 188.53970 188.59743 189.42617 190.72790
 192.44664 194.53537 196.79210 199.14484 201.58357 204.05731 206.13904 207.97478
 209.59451 210.73325 210.95598 211.17772 211.10845 210.80719 210.43392 210.05766
 209.66839 209.37213 209.17386 209.03160 208.95333 209.27807 209.65780 210.04054
 210.82727 211.99900 213.24274 215.01947 216.94121 218.97794 221.06668 223.14341
 225.19715 227.27488 229.36562 231.46535 233.58809 235.75382 238.00356 240.36729
 242.98203 245.22676 247.22250 248.98123 250.39197 251.50870 252.32444 252.63417
 252.66491 252.43264 251.78637 250.72811 249.32784 247.48258 245.38531 243.21205
 240.99678 238.79452 236.60825 234.44099 232.29472 230.15546 228.17519 226.32593
 224.60266 223.06840 221.69213 220.45787 219.33360 218.28734 217.38507 216.51981
 215.75554 214.92927 214.02101 213.37874 212.82248 213.52472 215.28587 216.63553
 216.90318 217.70642 218.86812 220.20816 222.25391 225.08797 228.54285 231.81686
 233.93643 235.82574 237.76318 240.31082 243.66589 247.64928 251.87419 256.00137
 259.85815 263.40332 266.61542 269.45630 271.93811 274.08606 275.77789 276.61322
 278.45673 280.67197 282.77304 284.61792 286.21451 287.62711 288.91586 290.08340
 291.13345 292.06854 292.88544 293.92642
 366.78100 356.33554 345.76808 334.63462 323.03816 311.23270 299.10323 286.90677
 274.61931 262.51685 250.52639 239.82793 229.95047 221.05501 213.23755 206.24009
 200.07463 195.01317 191.59570 189.63824 188.67578 188.74032 189.57586 190.88440
 192.60994 194.70548 196.96902 199.32856 201.77410 204.25464 206.34317 208.18571
 209.81225 210.95779 211.18733 211.41587 211.35341 211.05895 210.69249 210.32303
 209.94057 209.65110 209.45964 209.32418 209.25272 209.58426 209.97080 210.36034
 211.15388 212.33242 213.58296 215.36650 217.29504 219.33857 221.43411 223.51765
 225.57819 227.66273 229.76027 231.86681 233.99635 236.16889 238.42543 240.79597
 243.41751 245.66904 247.67158 249.43712 250.85466 251.97820 252.80074 253.11728
 253.15482 252.92936 252.28990 251.23844 249.84497 248.00651 245.91605 243.74959
 241.54113 239.34567 237.16621 235.00575 232.86629 230.73383 228.76037 226.91791
 225.20144 223.67398 222.30452 221.07706 219.95960 218.92014 218.02468 217.16622
 216.40876 215.58930 214.68784 214.05238 213.50291 213.87601 215.00288 216.68216
 217.45184 218.28354 219.30061 220.31938 222.19453 224.96608 228.28448 231.43256
 233.44182 235.28511 237.28349 239.97191 243.46400 247.53221 251.79739 255.93982
 259.79593 263.34036 266.56564 269.41168 271.88510 273.99213 275.66913 276.59702
 278.64090 281.03000 283.19168 285.08981 286.73248 288.18582 289.51175 290.71298
 291.79333 292.75540 293.59586 294.66690
 366.78100 356.34342 345.78384 334.65825 323.06967 311.27209 299.15051 286.96193
 274.68234 262.58776 250.60518 239.91460 230.04501 221.15743 213.34785 206.35827
 200.20069 195.14710 191.73752 189.78794 188.83336 188.90578 189.74919 191.06561
 192.79903 194.90245 197.17386 199.54128 201.99470 204.48312 206.57954 208.42995
 210.06437 211.21779 211.45521 211.69163 211.63704 211.35046 210.99188 210.63030
 210.25571 209.97413 209.79055 209.66297 209.59939 209.93880 210.33322 210.73064
 211.53206 212.71848 213.97689 215.76831 217.70473 219.75615 221.85956 223.95098
 226.01940 228.11182 230.21724 232.33165 234.46907 236.64949 238.91391 241.29233
 243.92174 246.18116 248.19158 249.96500 251.39041 252.52183 253.35225 253.67667
 253.72209 253.50450 252.87292 251.82934 250.44376 248.61318 246.53059 244.37201
 242.17143 239.98385 237.81227 235.65968 233.52810 231.40352 229.43794 227.60335
 225.89477 224.37519 223.01361 221.79403 220.68444 219.65286 218.76528 217.91470
 217.16512 216.35353 215.45995 214.83237 214.29079 214.31201 214.67447 216.50652
 217.94345 218.91222 219.88644 220.60646 222.22011 224.90430 228.05367 231.10063
 232.97856 234.73488 236.76770 239.60457 243.24944 247.42993 251.76146 255.93501
 259.80722 263.36194 266.60275 269.48898 271.97311 274.12918 275.94336 276.92978
 278.49429 280.67932 282.84518 284.74698 286.39282 287.84894 289.17746 290.38098
 291.46344 292.42737 293.26944 294.34256
 366.78100 356.34715 345.79129 334.66944 323.08459 311.29074 299.17288 286.98803
 274.71218 262.62132 250.64247 239.95562 230.08977 221.20591 213.40006 206.41421
 200.26035 195.21050 191.80465 189.85880 188.90794 188.98409 189.83124 191.15138
 192.88853 194.99568 197.27083 199.64197 202.09912 204.59127 206.69141 208.54556
 210.18371 211.34085 211.58200 211.82215 211.77130 211.48844 211.13359 210.77574
 210.40488 210.12703 209.94718 209.82333 209.76347 210.10662 210.50477 210.90591
 211.71106 212.90121 214.16336 215.95850 217.89865 219.95380 222.06094 224.15609
 226.22824 228.32439 230.43353 232.55168 234.69283 236.87697 239.14512 241.52727
 244.16042 246.42356 248.43771 250.21486 251.64400 252.77915 253.61330 253.94145
 253.99059 253.77674 253.14889 252.10903 250.72718 248.90033 246.82148 244.66662
 242.46977 240.28592 238.11806 235.96921 233.84136 231.72050 229.75865 227.92780
 226.22295 224.70709 223.34924 222.13339 221.02753 219.99968 219.11583 218.26898
 217.52312 216.71527 215.82542 215.20156 214.66371 214.56657 214.51279 216.06180
 218.17259 219.55832 220.50616 221.04503 222.39951 224.91356 228.01630 230.66505
 232.49358 234.18991 236.26657 239.17787 242.91348 247.16823 251.52588 255.66565
 259.49054 263.02179 266.26871 269.19788 271.78256 274.02661 275.95926 277.47925
 278.57562 279.76105 281.29129 282.76816 284.23907 285.54047 286.72778 287.80344
 288.77084 289.63232 290.38492 291.34399
 366.78100 356.34556 345.78811 334.66467 323.07823 311.28278 299.16334 286.97690
 274.69945 262.60701 250.62657 239.93812 230.07068 221.18524 213.37779 206.39035
 200.23490 195.18346 191.77602 189.82857 188.87613 188.95069 189.79624 191.11480
 192.85036 194.95591 197.22947 199.59903 202.05458 204.54514 206.64370 208.49625
 210.13281 211.28837 211.52792 211.76648 211.71404 211.42959 211.07315 210.71371
 210.34126 210.06182 209.88037 209.75493 209.69349 210.03504 210.43160 210.83116
 211.63471 212.82327 214.08383 215.87738 217.81594 219.86950 221.97505 224.06861
 226.13917 228.23372 230.34128 232.45784 234.59739 236.77995 239.04651 241.42706
 244.05862 246.32018 248.33273 250.10829 251.53584 252.66940 253.50196 253.82851
 253.87607 253.66063 253.03118 251.98974 250.60630 248.77785 246.69741 244.54097
 242.34252 240.15708 237.98764 235.83719 233.70775 231.58531 229.62186 227.78942
 226.08298 224.56553 223.20609 221.98865 220.88120 219.85176 218.96631 218.11787
 217.37043 216.56098 215.66954 215.04410 214.50465 214.52225 214.60863 215.91330
 217.85107 219.38255 220.83823 221.59450 222.69685 224.99051 228.34036 230.43854
 232.46837 233.96898 235.98334 238.89832 242.69234 246.95270 251.27762 255.35654
 259.10861 262.57407 265.77353 268.67194 271.24313 273.50470 275.47665 277.14468
 278.48981 279.59439 280.60168 281.75208 282.89093 283.91788 284.87021 285.81702
 286.69672 287.48007 288.16437 289.03647
 366.78100 356.34409 345.78517 334.66026 323.07235 311.27543 299.15452 286.96661
 274.68769 262.59378 250.61187 239.92195 230.05304 221.16612 213.35721 206.36830
 200.21138 195.15847 191.74956 189.80064 188.84673 188.91982 189.76390 191.08099
 192.81508 194.91916 197.19125 199.55934 202.01342 204.50251 206.59960 208.45068
 210.08577 211.23985 211.47794 211.71503 211.66111 211.37520 211.01729 210.65637
 210.28246 210.00155 209.81863 209.69172 209.62881 209.96889 210.36398 210.76207
 211.56415 212.75124 214.01033 215.80241 217.73950 219.79158 221.89567 223.98776
 226.05684 228.14993 230.25602 232.37110 234.50919 236.69028 238.95536 241.33445
 243.96454 246.22462 248.23571 250.00980 251.43588 252.56797 253.39906 253.72414
 253.77023 253.55332 252.92240 251.87949 250.49457 248.66466 246.58275 244.42483
 242.22492 240.03801 237.86709 235.71518 233.58427 231.46035 229.49544 227.66153
 225.95361 224.43470 223.07379 221.85487 220.74596 219.71505 218.82813 217.97822
 217.22930 216.41839 215.52548 214.89856 214.35765 214.45541 214.68642 216.09978
 217.84073 219.20729 220.84891 221.95291 223.13286 225.16798 228.34062 230.44171
 232.26418 233.90036 235.91090 238.84756 242.64874 246.91809 251.25941 255.34492
 259.07797 262.50116 265.65778 268.51285 271.04059 273.24033 275.15735 276.78589
 278.13400 279.28741 280.32370 281.28021 282.17270 283.12271 284.06461 284.93921
 285.74951 286.47778 287.13565 287.98645
 366.78100 356.34376 345.78452 334.65928 323.07104 311.27380 299.15256 286.96433
 274.68509 262.59085 250.60861 239.91837 230.04913 221.16189 213.35265 206.36341
 200.20617 195.15293 191.74369 189.79445 188.84021 188.91298 189.75674 191.07350
 192.80726 194.91102 197.18278 199.55054 202.00430 204.49306 206.58982 208.44058
 210.07534 211.22910 211.46686 211.70363 211.64939 211.36315 211.00491 210.64367
 210.26943 209.98819 209.80495 209.67771 209.61447 209.95423 210.34899 210.74675
 211.54852 212.73528 213.99404 215.78580 217.72256 219.77432 221.87808 223.96984
 226.03860 228.13136 230.23712 232.35188 234.48964 236.67040 238.93517 241.31393
 243.94369 246.20345 248.21421 249.98797 251.41373 252.54549 253.37625 253.70101
 253.74677 253.52953 252.89829 251.85505 250.46982 248.63958 246.55734 244.39910
 242.19886 240.01162 237.84038 235.68814 233.55690 231.43266 229.46742 227.63318
 225.92494 224.40571 223.04447 221.82523 220.71599 219.68475 218.79751 217.94727
 217.19803 216.38679 215.49355 214.86631 214.32507 214.45119 214.74915 216.16275
 217.97044 219.21980 220.84525 222.12128 223.34419 225.22844 228.20683 230.25299
 231.95099 233.63707 235.72052 238.76378 242.63080 246.93216 251.28952 255.39520
 259.13196 262.54382 265.68076 268.52524 271.04694 273.22891 275.10190 276.68439
 277.94928 279.02246 280.01953 281.00089 281.84171 282.74734 283.68488 284.56387
 285.38333 286.11743 286.74884 287.60535
 366.78100 356.34550 345.78799 334.66449 323.07799 311.28248 299.16298 286.97647
 274.69897 262.60647 250.62596 239.93746 230.06996 221.18445 213.37695 206.38944
 200.23394 195.18244 191.77493 189.82743 188.87493 188.94942 189.79492 191.11341
 192.84891 194.95441 197.22790 199.59740 202.05290 204.54339 206.64189 208.49438
 210.13088 211.28638 211.52587 211.76437 211.71187 211.42736 211.07086 210.71135
 210.33885 210.05935 209.87784 209.75234 209.69084 210.03233 210.42883 210.82832
 211.63182 212.82032 214.08081 215.87431 217.81281 219.86630 221.97180 224.06529
 226.13579 228.23029 230.33778 232.45428 234.59378 236.77627 239.04277 241.42326
 244.05476 246.31626 248.32875 250.10425 251.53175 252.66524 253.49774 253.82423
 253.87173 253.65623 253.02672 251.98522 250.60172 248.77321 246.69271 244.53621
 242.33770 240.15220 237.98269 235.83219 233.70269 231.58018 229.61668 227.78418
 226.07767 224.56017 223.20066 221.98316 220.87566 219.84615 218.96065 218.11215
 217.36464 216.55514 215.66363 215.03813 214.49863 214.55807 214.69853 216.13870
 218.20757 219.46512 220.95180 222.23483 223.45781 225.27524 228.09346 229.98935
 231.59331 233.28137 235.44444 238.61536 242.56238 246.91060 251.28671 255.40273
 259.13205 262.53842 265.67468 268.52600 271.05359 273.23715 275.10095 276.66620
 277.89264 278.91760 279.87378 280.85712 281.71658 282.62659 283.56540 284.44858
 285.27094 286.00534 286.63419 287.48965
 366.78100 356.34560 345.78819 334.66479 323.07838 311.28298 299.16358 286.97717
 274.69977 262.60736 250.62696 239.93855 230.07115 221.18575 213.37834 206.39094
 200.23553 195.18413 191.77673 189.82932 188.87692 188.95151 189.79711 191.11571
 192.85130 194.95690 197.23049 199.60009 202.05569 204.54628 206.64488 208.49747
 210.13407 211.28966 211.52926 211.76786 211.71545 211.43105 211.07464 210.71524
 210.34284 210.06343 209.88203 209.75662 209.69522 210.03682 210.43341 210.83301
 211.63660 212.82520 214.08580 215.87939 217.81799 219.87158 221.97718 224.07077
 226.14137 228.23597 230.34356 232.46016 234.59975 236.78235 239.04895 241.42954
 244.06114 246.32273 248.33533 250.11093 251.53852 252.67212 253.50471 253.83131
 253.87891 253.66350 253.03410 251.99269 250.60929 248.78088 246.70048 244.54408
 242.34567 240.16027 237.99086 235.84046 233.71106 231.58865 229.62525 227.79284
 226.08644 224.56904 223.20963 221.99223 220.88482 219.85542 218.97002 218.12161
 217.37421 216.56480 215.67340 215.04799 214.50859 214.57883 214.74478 216.09737
 218.32712 219.70940 221.10675 222.40582 223.61063 225.37561 228.02133 229.70174
 231.23279 232.92033 235.16838 238.47404 242.49324 246.87991 251.26268 255.37102
 259.08542 262.49136 265.64203 268.50571 271.03513 273.21738 275.09415 276.68710
 277.93216 278.95490 279.88727 280.85345 281.71387 282.60284 283.53674 284.41876
 285.24417 285.97412 286.60730 287.45819
 366.78100 356.34153 345.78006 334.65259 323.06212 311.26265 299.13918 286.94871
 274.66724 262.57077 250.58630 239.89383 230.02236 221.13289 213.32142 206.32995
 200.17048 195.11501 191.70354 189.75207 188.79560 188.86613 189.70766 191.02219
 192.75372 194.85525 197.12478 199.49031 201.94184 204.42837 206.52290 208.37143
 210.00396 211.15549 211.39102 211.62555 211.56908 211.28061 210.92014 210.55667
 210.18020 209.89673 209.71126 209.58179 209.51632 209.85385 210.24638 210.64191
 211.44144 212.62597 213.88250 215.67203 217.60656 219.65609 221.75762 223.84715
 225.91368 228.00421 230.10774 232.22027 234.35580 236.53433 238.79686 241.17339
 243.80092 246.05845 248.06698 249.83851 251.26204 252.39157 253.22010 253.54263
 253.58616 253.36669 252.73322 251.68775 250.30028 248.46781 246.38334 244.22287
 242.02040 239.83093 237.65746 235.50299 233.36952 231.24305 229.27558 227.43911
 225.72864 224.20717 222.84370 221.62223 220.51076 219.47729 218.58782 217.73535
 216.98388 216.17041 215.27494 214.64547 214.10201 214.37363 215.01537 216.13997
 218.17897 219.65521 221.25520 222.64305 223.83597 225.56319 228.05302 229.52396
 230.96765 232.63499 234.95097 238.36533 242.43297 246.83176 251.20457 255.28535
 258.98337 262.39941 265.58090 268.46259 270.99554 273.18201 275.09113 276.73602
 278.03046 279.07999 280.01855 280.96375 281.80630 282.65091 283.57587 284.45898
 285.29022 286.01819 286.64893 287.49902
 366.78100 356.33777 345.77254 334.64131 323.04708 311.24386 299.11663 286.92240
 274.63717 262.53694 250.54871 239.85248 229.97725 221.08403 213.26880 206.27357
 200.11034 195.05111 191.63588 189.68065 188.72042 188.78720 189.62497 190.93574
 192.66351 194.76128 197.02705 199.38882 201.83659 204.31936 206.41014 208.25491
 209.88368 211.03145 211.26322 211.49399 211.43376 211.14153 210.77731 210.41008
 210.02985 209.74262 209.55339 209.42016 209.35093 209.68470 210.07348 210.46525
 211.26102 212.44179 213.69456 215.48033 217.41110 219.45687 221.55464 223.64042
 225.70319 227.78996 229.88973 231.99850 234.13027 236.30504 238.56381 240.93659
 243.56036 245.81413 247.81890 249.58667 251.00644 252.13221 252.95698 253.27576
 253.31553 253.09230 252.45507 251.40584 250.01461 248.17838 246.09015 243.92592
 241.71970 239.52647 237.34924 235.19101 233.05378 230.92355 228.95232 227.11209
 225.39787 223.87264 222.50541 221.28018 220.16495 219.12772 218.23449 217.37826
 216.62304 215.80581 214.90658 214.27335 213.72612 214.18074 215.25482 216.27184
 218.00508 219.53214 221.39639 222.75633 223.95374 225.72160 228.16006 229.46957
 230.80009 232.43398 234.78392 238.26994 242.37436 246.77621 251.13673 255.18840
 258.86804 262.28394 265.48285 268.37305 270.91040 273.11591 275.07104 276.76291
 278.10764 279.21161 280.19604 281.15396 281.94940 282.79794 283.71964 284.60205
 285.43509 286.16333 286.79074 287.63507
 366.78100 356.33731 345.77162 334.63993 323.04524 311.24155 299.11386 286.91917
 274.63349 262.53280 250.54411 239.84742 229.97173 221.07804 213.26235 206.26666
 200.10297 195.04328 191.62759 189.67190 188.71121 188.77752 189.61484 190.92515
 192.65246 194.74977 197.01508 199.37639 201.82370 204.30601 206.39632 208.24063
 209.86894 211.01625 211.24756 211.47787 211.41718 211.12450 210.75981 210.39212
 210.01143 209.72374 209.53405 209.40036 209.33067 209.66398 210.05229 210.44360
 211.23891 212.41922 213.67153 215.45685 217.38716 219.43247 221.52978 223.61509
 225.67740 227.76371 229.86302 231.97133 234.10264 236.27695 238.53526 240.90757
 243.53088 245.78419 247.78851 249.55582 250.97513 252.10044 252.92475 253.24306
 253.28237 253.05868 252.42099 251.37130 249.97961 248.14292 246.05423 243.88954
 241.68286 239.48917 237.31148 235.15279 233.01510 230.88441 228.91272 227.07203
 225.35734 223.83165 222.46396 221.23827 220.12258 219.08489 218.19120 217.33452
 216.57883 215.76114 214.86145 214.22776 213.68007 214.16124 215.29807 216.39906
 217.98306 219.63310 221.56178 222.76114 223.93855 225.76788 228.21489 229.38480
 230.60333 232.22203 234.60065 238.15662 242.31662 246.73573 251.09998 255.14561
 258.81744 262.22568 265.42014 268.30286 270.82812 273.03290 275.00128 276.70657
 278.06796 279.20294 280.23523 281.23489 282.11716 283.04111 283.97720 284.85855
 285.68826 286.40958 287.03137 287.86716
 366.78100 356.33860 345.77419 334.64379 323.05038 311.24798 299.12158 286.92817
 274.64377 262.54437 250.55696 239.86156 229.98715 221.09475 213.28035 206.28594
 200.12354 195.06514 191.65073 189.69633 188.73692 188.80452 189.64312 190.95471
 192.68331 194.78191 197.04850 199.41110 201.85969 204.34329 206.43489 208.28048
 209.91008 211.05868 211.29127 211.52287 211.46346 211.17206 210.80866 210.44225
 210.06285 209.77645 209.58804 209.45564 209.38723 209.72183 210.11143 210.50402
 211.30062 212.48222 213.73581 215.52241 217.45400 219.50060 221.59920 223.68579
 225.74939 227.83699 229.93758 232.04718 234.17977 236.35537 238.61497 240.98856
 243.61316 245.86776 247.87335 249.64195 251.06254 252.18914 253.01474 253.33433
 253.37493 253.15253 252.51612 251.46772 250.07731 248.24191 246.15451 243.99110
 241.78570 239.59330 237.41689 235.25949 233.12308 230.99368 229.02328 227.18387
 225.47047 223.94607 222.57966 221.35526 220.24085 219.20445 218.31205 217.45664
 216.70224 215.88584 214.98743 214.35503 213.80862 214.23167 215.23119 216.51373
 218.00571 219.85699 221.76106 222.83156 223.94533 225.76996 228.18044 229.22482
 230.35190 231.96904 234.39035 238.02400 242.25758 246.70274 251.07768 255.13234
 258.81027 262.22067 265.41614 268.29761 270.81665 273.00632 274.94437 276.61575
 277.94574 279.06989 280.15964 281.27054 282.27847 283.26758 284.20782 285.08734
 285.91373 286.63132 287.24866 288.07202
 366.78100 356.33939 345.77578 334.64617 323.05357 311.25196 299.12635 286.93374
 274.65013 262.55152 250.56491 239.87031 229.99670 221.10509 213.29148 206.29787
 200.13626 195.07865 191.66504 189.71144 188.75283 188.82122 189.66061 190.97300
 192.70239 194.80178 197.06918 199.43257 201.88196 204.36635 206.45874 208.30513
 209.93552 211.08492 211.31831 211.55070 211.49209 211.20148 210.83887 210.47326
 210.09466 209.80905 209.62144 209.48983 209.42222 209.75761 210.14800 210.54139
 211.33879 212.52118 213.77557 215.56296 217.49535 219.54274 221.64213 223.72953
 225.79392 227.88231 229.98370 232.09409 234.22748 236.40387 238.66427 241.03866
 243.66405 245.91944 247.92583 249.69522 251.11661 252.24401 253.07040 253.39079
 253.43218 253.21057 252.57496 251.52735 250.13774 248.30314 246.21653 244.05392
 241.84931 239.65770 237.48209 235.32548 233.18988 231.06127 229.09166 227.25305
 225.54044 224.01683 222.65122 221.42762 220.31401 219.27840 218.38679 217.53218
 216.77857 215.96296 215.06536 214.43375 213.88814 214.27676 215.19492 216.60199
 218.04219 220.00310 221.90524 222.95772 224.02052 225.80510 228.13873 229.06670
 230.11966 231.72090 234.21132 237.92448 242.20253 246.65944 251.03712 255.09338
 258.77469 262.19113 265.39560 268.28687 270.82074 273.01624 274.93857 276.58575
 277.89001 278.98923 280.08029 281.25903 282.41248 283.45718 284.42877 285.31537
 286.10999 286.80670 287.41910 288.23395
 366.78100 356.33926 345.77552 334.64577 323.05303 311.25129 299.12555 286.93280
 274.64906 262.55032 250.56358 239.86883 229.99509 221.10335 213.28961 206.29586
 200.13412 195.07638 191.66264 189.70889 188.75015 188.81841 189.65767 190.96992
 192.69918 194.79844 197.06570 199.42895 201.87821 204.36247 206.45473 208.30098
 209.93124 211.08050 211.31376 211.54601 211.48727 211.19653 210.83379 210.46804
 210.08930 209.80356 209.61582 209.48408 209.41633 209.75159 210.14185 210.53511
 211.33236 212.51462 213.76888 215.55614 217.48839 219.53565 221.63491 223.72217
 225.78642 227.87468 229.97594 232.08620 234.21945 236.39571 238.65597 241.03023
 243.65548 245.91074 247.91700 249.68626 251.10751 252.23477 253.06103 253.38129
 253.42254 253.20080 252.56506 251.51732 250.12757 248.29283 246.20609 244.04335
 241.83860 239.64686 237.47112 235.31438 233.17863 231.04989 229.08015 227.24141
 225.52867 224.00492 222.63918 221.41544 220.30170 219.26595 218.37421 217.51947
 216.76573 215.94998 215.05224 214.42050 213.87476 214.27637 215.22525 216.63950
 218.12726 220.06227 221.96843 223.04538 224.07312 225.86404 228.14566 228.96957
 229.93681 231.48297 234.05472 237.85973 242.15738 246.61789 250.99345 255.04535
 258.72446 262.14029 265.34885 268.24600 270.79453 273.00436 274.93182 276.58160
 277.90012 279.01907 280.10300 281.27225 282.44220 283.49152 284.46368 285.34622
 286.13223 286.82660 287.43561 288.23132
 366.78100 356.33875 345.77450 334.64424 323.05099 311.24874 299.12249 286.92924
 274.64498 262.54573 250.55848 239.86323 229.98897 221.09672 213.28247 206.28822
 200.12597 195.06771 191.65346 189.69921 188.73996 188.80771 189.64645 190.95820
 192.68695 194.78570 197.05245 199.41519 201.86394 204.34769 206.43944 208.28519
 209.91493 211.06368 211.29643 211.52818 211.46892 211.17767 210.81442 210.44817
 210.06892 209.78266 209.59441 209.46216 209.39391 209.72866 210.11840 210.51115
 211.30790 212.48965 213.74340 215.53014 217.46189 219.50864 221.60739 223.69414
 225.75788 227.84563 229.94638 232.05613 234.18887 236.36462 238.62437 240.99812
 243.62287 245.87761 247.88336 249.65211 251.07286 252.19961 253.02535 253.34510
 253.38585 253.16360 252.52735 251.47909 250.08884 248.25359 246.16634 244.00309
 241.79783 239.60558 237.42933 235.27208 233.13582 231.00657 229.03632 227.19707
 225.48382 223.95956 222.59331 221.36906 220.25481 219.21856 218.32630 217.47105
 216.71680 215.90055 215.00230 214.37004 213.82379 214.25937 215.28848 216.63716
 218.22371 220.12802 222.02364 223.10558 224.11023 225.90721 228.15034 228.89679
 229.78670 231.25868 233.90654 237.80937 242.12030 246.58038 250.95236 255.00146
 258.68088 262.09229 265.29459 268.18668 270.73517 272.95312 274.88885 276.55325
 277.91165 279.08762 280.19800 281.32947 282.42230 283.47015 284.43674 285.31619
 286.10132 286.79477 287.40845 288.20190
 366.78100 356.33776 345.77251 334.64127 323.04702 311.24378 299.11653 286.92229
 274.63704 262.53680 250.54855 239.85231 229.97706 221.08382 213.26857 206.27333
 200.11008 195.05084 191.63559 189.68035 188.72010 188.78686 189.62461 190.93537
 192.66312 194.76088 197.02663 199.38839 201.83614 204.31890 206.40966 208.25441
 209.88317 211.03092 211.26268 211.49343 211.43319 211.14094 210.77670 210.40945
 210.02921 209.74196 209.55272 209.41947 209.35023 209.68398 210.07274 210.46449
 211.26025 212.44100 213.69376 215.47951 217.41027 219.45602 221.55378 223.63953
 225.70229 227.78905 229.88880 231.99756 234.12931 236.30407 238.56282 240.93558
 243.55933 245.81309 247.81784 249.58560 251.00535 252.13111 252.95586 253.27462
 253.31437 253.09113 252.45388 251.40464 250.01339 248.17715 246.08890 243.92466
 241.71841 239.52517 237.34792 235.18968 233.05243 230.92219 228.95095 227.11070
 225.39646 223.87121 222.50397 221.27872 220.16348 219.12623 218.23299 217.37674
 216.62150 215.80425 214.90501 214.27176 213.72452 214.21852 215.38565 216.61816
 218.26427 220.23137 222.14014 223.15849 224.10326 225.98503 228.22586 228.87149
 229.61475 231.01662 233.74918 237.74417 242.06915 246.52765 250.89093 254.93518
 258.61475 262.02301 265.21857 268.10577 270.65549 272.88773 274.83722 276.51855
 277.90936 279.12143 280.25430 281.37943 282.48163 283.52890 284.49670 285.38089
 286.17444 286.88245 287.52829 288.36258
 366.78100 356.33719 345.77139 334.63958 323.04477 311.24097 299.11316 286.91836
 274.63255 262.53174 250.54294 239.84613 229.97032 221.07652 213.26071 206.26490
 200.10110 195.04129 191.62549 189.66968 188.70887 188.77507 189.61226 190.92245
 192.64965 194.74684 197.01204 199.37323 201.82042 204.30262 206.39281 208.23700
 209.86520 211.01239 211.24358 211.47378 211.41297 211.12017 210.75536 210.38755
 210.00675 209.71894 209.52913 209.39533 209.32552 209.65871 210.04691 210.43810
 211.23330 212.41349 213.66568 215.45088 217.38107 219.42626 221.52346 223.60865
 225.67084 227.75704 229.85623 231.96443 234.09562 236.26981 238.52801 240.90020
 243.52339 245.77659 247.78078 249.54797 250.96717 252.09236 252.91656 253.23475
 253.27394 253.05014 252.41233 251.36252 249.97072 248.13391 246.04511 243.88030
 241.67349 239.47969 237.30188 235.14307 233.00527 230.87446 228.90265 227.06185
 225.34704 223.82124 222.45343 221.22762 220.11182 219.07401 218.18020 217.32340
 216.56759 215.74978 214.84998 214.21617 213.66837 214.20038 215.45734 216.62175
 218.29732 220.27933 222.22054 223.34642 224.25269 226.04410 228.21378 228.76299
 229.41699 230.75667 233.59532 237.70180 242.01526 246.47020 250.81754 254.85155
 258.52567 261.93213 265.12711 268.01776 270.58066 272.83688 274.80243 276.49255
 277.90912 279.14050 280.29343 281.42490 282.53198 283.57538 284.54156 285.42105
 286.21182 286.91174 287.53250 288.32364
 366.78100 356.33699 345.77099 334.63898 323.04397 311.23996 299.11196 286.91695
 274.63094 262.52994 250.54093 239.84392 229.96791 221.07391 213.25790 206.26189
 200.09789 195.03788 191.62187 189.66586 188.70486 188.77085 189.60784 190.91784
 192.64483 194.74182 197.00681 199.36781 201.81480 204.29679 206.38679 208.23078
 209.85877 211.00576 211.23676 211.46675 211.40574 211.11274 210.74773 210.37972
 209.99871 209.71071 209.52070 209.38669 209.31669 209.64968 210.03767 210.42866
 211.22366 212.40365 213.65564 215.44064 217.37063 219.41562 221.51261 223.59761
 225.65960 227.74559 229.84459 231.95258 234.08357 236.25756 238.51556 240.88755
 243.51054 245.76354 247.76753 249.53452 250.95351 252.07851 252.90250 253.22049
 253.25949 253.03548 252.39747 251.34746 249.95546 248.11845 246.02944 243.86444
 241.65743 239.46342 237.28541 235.12641 232.98840 230.85739 228.88539 227.04438
 225.32937 223.80336 222.43536 221.20935 220.09334 219.05533 218.16133 217.30432
 216.54831 215.73031 214.83030 214.19629 213.64828 214.20375 215.51918 216.65489
 218.29291 220.21611 222.18633 223.45667 224.39471 226.07137 228.13078 228.74632
 229.23863 230.51053 233.41805 237.68871 242.00371 246.43707 250.76501 254.78839
 258.46707 261.87985 265.06357 267.95294 270.52560 272.79565 274.76883 276.45004
 277.86734 279.10587 280.26962 281.45911 282.62720 283.67905 284.65518 285.55304
 286.40201 287.16537 287.83221 288.68204
 366.78100 356.33596 345.76892 334.63588 323.03984 311.23480 299.10575 286.90971
 274.62267 262.52063 250.53059 239.83255 229.95551 221.06047 213.24343 206.24639
 200.08135 195.02030 191.60326 189.64622 188.68418 188.74914 189.58510 190.89406
 192.62002 194.71598 196.97994 199.33989 201.78585 204.26681 206.35577 208.19873
 209.82569 210.97165 211.20161 211.43057 211.36853 211.07449 210.70844 210.33940
 209.95736 209.66832 209.47728 209.34224 209.27120 209.60316 209.99012 210.38008
 211.17404 212.35299 213.60395 215.38791 217.31687 219.36083 221.45679 223.54075
 225.60171 227.68667 229.78463 231.89158 234.02154 236.19450 238.45146 240.82242
 243.44438 245.69634 247.69930 249.46526 250.88322 252.00718 252.83013 253.14709
 253.18505 252.96001 252.32097 251.26993 249.87689 248.03885 245.94881 243.78277
 241.57473 239.37968 237.20064 235.04060 232.90156 230.76952 228.79648 226.95444
 225.23840 223.71136 222.34232 221.11528 219.99823 218.95919 218.06415 217.20611
 216.44907 215.63003 214.72899 214.09395 213.54491 214.16309 215.62480 216.74037
 218.21089 220.08896 222.06342 223.46696 224.57414 226.12648 228.03423 228.87181
 229.15349 230.47960 233.42404 237.67116 242.03062 246.44028 250.73868 254.75757
 258.44803 261.86987 265.04715 267.93036 270.50735 272.78665 274.74850 276.41708
 277.83432 279.08548 280.28253 281.57111 282.76077 283.82968 284.85297 285.81577
 286.68167 287.45276 288.12640 288.98483
 366.78100 356.33625 345.76949 334.63674 323.04099 311.23623 299.10748 286.91173
 274.62497 262.52322 250.53347 239.83572 229.95896 221.06421 213.24746 206.25070
 200.08595 195.02520 191.60844 189.65169 188.68994 188.75518 189.59143 190.90068
 192.62692 194.72317 196.98742 199.34766 201.79391 204.27516 206.36441 208.20765
 209.83490 210.98115 211.21139 211.44064 211.37889 211.08513 210.71938 210.35063
 209.96887 209.68012 209.48937 209.35461 209.28386 209.61611 210.00335 210.39360
 211.18785 212.36710 213.61834 215.40259 217.33184 219.37608 221.47233 223.55658
 225.61782 227.70307 229.80132 231.90856 234.03881 236.21206 238.46930 240.84055
 243.46280 245.71505 247.71829 249.48454 250.90279 252.02703 252.85028 253.16753
 253.20577 252.98102 252.34227 251.29151 249.89876 248.06101 245.97125 243.80550
 241.59775 239.40299 237.22424 235.06449 232.92574 230.79398 228.82123 226.97948
 225.26372 223.73697 222.36822 221.14146 220.02471 218.98596 218.09120 217.23345
 216.47670 215.65794 214.75719 214.12244 213.57368 214.18611 215.64061 216.85112
 218.26993 220.09901 222.01094 223.45782 224.71968 226.19408 227.97740 228.83443
 229.06152 230.38490 233.36467 237.65291 242.03627 246.42017 250.70912 254.73654
 258.44275 261.87164 265.04358 267.92276 270.49973 272.78732 274.75818 276.42664
 277.85867 279.12994 280.33392 281.68719 282.88104 283.96289 285.02280 285.98563
 286.85159 287.62274 288.29642 289.15491
 366.78100 356.33787 345.77275 334.64162 323.04750 311.24437 299.11725 286.92312
 274.63800 262.53787 250.54975 239.85362 229.97850 221.08537 213.27025 206.27512
 200.11199 195.05287 191.63774 189.68262 188.72249 188.78937 189.62724 190.93812
 192.66599 194.76387 197.02974 199.39162 201.83949 204.32236 206.41324 208.25811
 209.88699 211.03486 211.26674 211.49761 211.43749 211.14536 210.78124 210.41411
 210.03399 209.74686 209.55774 209.42461 209.35548 209.68936 210.07823 210.47011
 211.26598 212.44686 213.69973 215.48561 217.41648 219.46236 221.56023 223.64611
 225.70898 227.79586 229.89573 232.00460 234.13648 236.31135 238.57023 240.94310
 243.56698 245.82085 247.82573 249.59360 251.01348 252.13935 252.96423 253.28310
 253.32298 253.09985 252.46272 251.41360 250.02247 248.18635 246.09822 243.93410
 241.72797 239.53485 237.35772 235.19960 233.06247 230.93235 228.96122 227.12109
 225.40697 223.88184 222.51472 221.28959 220.17447 219.13734 218.24422 217.38809
 216.63297 215.81584 214.91672 214.28359 213.73647 214.28001 215.58759 216.93039
 218.41782 220.19356 222.00838 223.45323 224.77785 226.21571 227.91635 228.65733
 228.87477 230.22371 233.28629 237.63905 242.04362 246.40848 250.68562 254.72472
 258.45187 261.89447 265.06839 267.94839 270.53357 272.83725 274.81979 276.48303
 277.92010 279.20804 280.43799 281.78854 282.98813 284.08286 285.15353 286.12350
 286.99585 287.77271 288.45135 289.31619
 366.78100 356.33736 345.77171 334.64007 323.04542 311.24178 299.11413 286.91949
 274.63384 262.53320 250.54455 239.84791 229.97226 221.07862 213.26297 206.26733
 200.10368 195.04404 191.62839 189.67275 188.71210 188.77846 189.61582 190.92617
 192.65353 194.75088 197.01624 199.37759 201.82495 204.30730 206.39766 208.24201
 209.87037 211.01772 211.24908 211.47943 211.41879 211.12614 210.76150 210.39385
 210.01321 209.72557 209.53592 209.40228 209.33263 209.66599 210.05434 210.44570
 211.24105 212.42141 213.67376 215.45912 217.38947 219.43483 221.53218 223.61754
 225.67989 227.76625 229.86560 231.97396 234.10531 236.27967 238.53803 240.91038
 243.53374 245.78709 247.79145 249.55880 250.97816 252.10351 252.92787 253.24622
 253.28558 253.06193 252.42429 251.37464 249.98300 248.14635 246.05771 243.89306
 241.68642 239.49277 237.31513 235.15649 233.01884 230.88820 228.91655 227.07591
 225.36126 223.83562 222.46797 221.24233 220.12668 219.08904 218.19539 217.33875
 216.58310 215.76546 214.86581 214.23217 213.68452 214.26157 215.64401 217.00862
 218.40094 220.17139 221.99321 223.46877 224.81586 226.26219 227.97070 228.50066
 228.70189 230.05270 233.18033 237.62564 242.03827 246.37070 250.63663 254.68124
 258.43018 261.89169 265.07666 267.97186 270.58054 272.91840 274.93268 276.61060
 278.05167 279.35611 280.52545 281.86685 283.05829 284.12897 285.16895 286.12466
 286.98422 287.74969 288.41837 289.27054
 366.78100 356.33570 345.76841 334.63511 323.03882 311.23352 299.10423 286.90793
 274.62063 262.51834 250.52804 239.82975 229.95245 221.05716 213.23986 206.24256
 200.07727 195.01597 191.59868 189.64138 188.67908 188.74379 189.57949 190.88820
 192.61390 194.70961 196.97331 199.33301 201.77872 204.25942 206.34813 208.19083
 209.81754 210.96324 211.19294 211.42165 211.35935 211.06506 210.69876 210.32947
 209.94717 209.65787 209.46658 209.33128 209.25999 209.59169 209.97840 210.36810
 211.16180 212.34051 213.59121 215.37492 217.30362 219.34732 221.44303 223.52673
 225.58744 227.67214 229.76985 231.87655 234.00625 236.17896 238.43566 240.80637
 243.42807 245.67978 247.68248 249.44818 250.86589 251.98959 252.81230 253.12900
 253.16671 252.94141 252.30211 251.25082 249.85752 248.01923 245.92893 243.76264
 241.55434 239.35904 237.17975 235.01945 232.88016 230.74786 228.77457 226.93227
 225.21597 223.68868 222.31938 221.09209 219.97479 218.93549 218.04020 217.18190
 216.42461 215.60531 214.70402 214.06872 213.51942 214.17613 215.73630 217.15230
 218.40063 220.15240 222.03160 223.53604 224.86873 226.34305 228.11493 228.32173
 228.54181 229.82674 233.03824 237.60612 241.98798 246.28105 250.52719 254.56915
 258.32779 261.80087 265.00049 267.91711 270.55917 272.93585 274.98969 276.71164
 278.19589 279.53149 280.73666 281.91937 283.10349 284.15640 285.13065 286.04645
 286.88773 287.63687 288.29129 289.12531
 366.78100 356.33485 345.76670 334.63255 323.03540 311.22924 299.09909 286.90194
 274.61379 262.51064 250.51949 239.82034 229.94219 221.04604 213.22789 206.22973
 200.06358 195.00143 191.58328 189.62513 188.66198 188.72583 189.56068 190.86853
 192.59338 194.68822 196.95107 199.30992 201.75477 204.23462 206.32247 208.16432
 209.79017 210.93502 211.16387 211.39171 211.32856 211.03341 210.66626 210.29611
 209.91296 209.62281 209.43066 209.29451 209.22236 209.55320 209.93905 210.32790
 211.12075 212.29860 213.54845 215.33130 217.25915 219.30200 221.39685 223.47969
 225.53954 227.62339 229.72024 231.82609 233.95494 236.12679 238.38264 240.75249
 243.37334 245.62418 247.62603 249.39088 250.80773 251.93058 252.75243 253.06828
 253.10513 252.87898 252.23883 251.18667 249.79252 247.95337 245.86222 243.69507
 241.48592 239.28977 237.10962 234.94847 232.80832 230.67516 228.70101 226.85786
 225.14071 223.61256 222.24241 221.01426 219.89611 218.85596 217.95980 217.10065
 216.34250 215.52235 214.62020 213.98405 213.43390 214.13071 215.77859 217.26811
 218.49759 220.21716 222.08337 223.58844 224.90834 226.39864 228.11411 228.19904
 228.48787 229.83517 233.04587 237.60721 241.93721 246.18095 250.41293 254.45328
 258.21472 261.69025 264.89456 267.82440 270.48880 272.88611 274.96005 276.71112
 278.24191 279.62057 280.86783 282.00946 283.14319 284.19040 285.15286 286.03217
 286.83057 287.54901 288.17661 288.97641
 366.78100 356.33487 345.76674 334.63261 323.03548 311.22934 299.09921 286.90208
 274.61395 262.51082 250.51969 239.82056 229.94243 221.04630 213.22817 206.23003
 200.06390 195.00177 191.58364 189.62551 188.66238 188.72625 189.56112 190.86899
 192.59386 194.68872 196.95159 199.31046 201.75533 204.23520 206.32307 208.16494
 209.79081 210.93568 211.16455 211.39241 211.32928 211.03415 210.66702 210.29689
 209.91376 209.62363 209.43150 209.29537 209.22324 209.55410 209.93997 210.32884
 211.12171 212.29958 213.54945 215.33232 217.26019 219.30306 221.39792 223.48079
 225.54066 227.62453 229.72140 231.82727 233.95614 236.12801 238.38388 240.75375
 243.37461 245.62548 247.62735 249.39222 250.80909 251.93196 252.75383 253.06970
 253.10657 252.88044 252.24030 251.18817 249.79404 247.95491 245.86378 243.69665
 241.48752 239.29139 237.11126 234.95013 232.80999 230.67686 228.70273 226.85960
 225.14247 223.61434 222.24421 221.01608 219.89795 218.85781 217.96168 217.10255
 216.34442 215.52429 214.62216 213.98603 213.43590 214.13194 215.77641 217.37218
 218.64745 220.29996 222.09384 223.56956 224.88507 226.39616 228.09023 228.17049
 228.42578 229.84523 233.08195 237.60129 241.92400 246.13150 250.33458 254.36775
 258.13251 261.61044 264.81094 267.74539 270.42801 272.85202 274.93304 276.67856
 278.22202 279.63486 280.91913 282.08688 283.16843 284.20462 285.16052 286.02496
 286.79886 287.47202 288.05200 288.79056
 366.78100 356.33578 345.76855 334.63533 323.03910 311.23388 299.10465 286.90843
 274.62121 262.51898 250.52876 239.83053 229.95331 221.05809 213.24086 206.24364
 200.07841 195.01719 191.59996 189.64274 188.68052 188.74529 189.58107 190.88984
 192.61562 194.71140 196.97517 199.33495 201.78072 204.26150 206.35027 208.19305
 209.81983 210.96560 211.19538 211.42415 211.36193 211.06770 210.70148 210.33226
 209.95003 209.66081 209.46958 209.33436 209.26314 209.59491 209.98169 210.37146
 211.16524 212.34401 213.59479 215.37857 217.30734 219.35112 221.44689 223.53067
 225.59145 227.67622 229.77400 231.88077 234.01055 236.18332 238.44010 240.81088
 243.43265 245.68443 247.68720 249.45298 250.87075 251.99453 252.81731 253.13408
 253.17186 252.94663 252.30741 251.25619 249.86296 248.02474 245.93451 243.76829
 241.56006 239.36484 237.18562 235.02539 232.88617 230.75394 228.78072 226.93850
 225.22227 223.69505 222.32582 221.09860 219.98137 218.94215 218.04693 217.18870
 216.43148 215.61225 214.71103 214.07581 213.52658 214.18115 215.72768 217.47501
 218.80620 220.39488 222.08684 223.49585 224.80061 226.33929 228.03853 228.16298
 228.37367 229.83366 233.09370 237.61876 241.93896 246.10352 250.27737 254.30873
 258.07510 261.55243 264.74606 267.68005 270.37027 272.80399 274.87094 276.60883
 278.17007 279.60733 280.92023 282.10855 283.17230 284.21204 285.16736 286.03021
 286.80222 287.48578 288.09341 288.90051
 366.78100 356.33687 345.77074 334.63861 323.04348 311.23935 299.11122 286.91609
 274.62996 262.52882 250.53969 239.84256 229.96643 221.07230 213.25617 206.26004
 200.09591 195.03578 191.61965 189.66352 188.70239 188.76826 189.60513 190.91500
 192.64187 194.73874 197.00360 199.36447 201.81134 204.29321 206.38308 208.22695
 209.85482 211.00169 211.23256 211.46243 211.40130 211.10817 210.74304 210.37491
 209.99378 209.70565 209.51552 209.38138 209.31125 209.64412 210.03199 210.42286
 211.21773 212.39760 213.64947 215.43434 217.36421 219.40908 221.50595 223.59082
 225.65269 227.73856 229.83743 231.94529 234.07616 236.25003 238.50790 240.87977
 243.50264 245.75551 247.75938 249.52625 250.94512 252.06999 252.89386 253.21173
 253.25060 253.02647 252.38834 251.33821 249.94607 248.10894 246.01981 243.85468
 241.64755 239.45342 237.27529 235.11616 232.97803 230.84690 228.87477 227.03364
 225.31851 223.79238 222.42425 221.19812 220.08199 219.04385 218.14972 217.29259
 216.53646 215.71833 214.81820 214.18407 213.63594 214.24275 215.67639 217.54613
 218.93521 220.49197 222.09135 223.41302 224.69034 226.26007 227.98917 228.14330
 228.33426 229.80138 233.09145 237.64465 241.95831 246.08754 250.24767 254.27415
 258.04807 261.52631 264.70953 267.63358 270.32123 272.75461 274.79813 276.52371
 278.10071 279.55640 280.89258 282.10211 283.16666 284.19086 285.14093 286.00262
 286.78223 287.47513 288.08508 288.88959
 366.78100 356.33764 345.77227 334.64091 323.04655 311.24318 299.11582 286.92146
 274.63609 262.53573 250.54736 239.85100 229.97564 221.08227 213.26691 206.27155
 200.10818 195.04882 191.63346 189.67809 188.71773 188.78437 189.62200 190.93264
 192.66028 194.75791 197.02355 199.38518 201.83282 204.31546 206.40609 208.25073
 209.87937 211.02700 211.25864 211.48928 211.42891 211.13655 210.77219 210.40482
 210.02446 209.73710 209.54773 209.41437 209.34500 209.67864 210.06728 210.45891
 211.25455 212.43519 213.68782 215.47346 217.40410 219.44973 221.54737 223.63301
 225.69564 227.78228 229.88191 231.99055 234.12219 236.29682 238.55546 240.92810
 243.55173 245.80537 247.81001 249.57764 250.99728 252.12292 252.94755 253.26619
 253.30583 253.08246 252.44510 251.39573 250.00437 248.16801 246.07964 243.91528
 241.70892 239.51555 237.33819 235.17983 233.04246 230.91210 228.94074 227.10037
 225.38601 223.86065 222.49328 221.26792 220.15255 219.11519 218.22183 217.36546
 216.61010 215.79274 214.89337 214.26001 213.71265 214.28801 215.64738 217.58957
 219.05876 220.57860 222.09230 223.33289 224.58040 226.18385 227.93834 228.12785
 228.31784 229.78000 233.09329 237.67249 241.97939 246.06978 250.20869 254.23975
 258.02707 261.51102 264.68655 267.60156 270.28687 272.72043 274.74469 276.45435
 278.03439 279.50089 280.85175 282.08072 283.14169 284.15350 285.10257 285.96692
 286.75156 287.45255 288.06177 288.87299
 366.78100 356.33823 345.77346 334.64268 323.04891 311.24614 299.11937 286.92559
 274.64082 262.54105 250.55328 239.85750 229.98273 221.08996 213.27519 206.28041
 200.11764 195.05887 191.64410 189.68932 188.72955 188.79678 189.63501 190.94623
 192.67446 194.77269 197.03892 199.40114 201.84937 204.33260 206.42383 208.26906
 209.89828 211.04651 211.27874 211.50997 211.45019 211.15842 210.79465 210.42788
 210.04810 209.76133 209.57256 209.43979 209.37101 209.70524 210.09447 210.48670
 211.28292 212.46415 213.71738 215.50361 217.43483 219.48106 221.57929 223.66552
 225.72875 227.81597 229.91620 232.02543 234.15766 236.33288 238.59211 240.96534
 243.58957 245.84379 247.84902 249.61725 251.03748 252.16370 252.98893 253.30816
 253.34839 253.12561 252.48884 251.44007 250.04930 248.21352 246.12575 243.96198
 241.75621 239.56343 237.38666 235.22889 233.09212 230.96235 228.99157 227.15180
 225.43803 223.91326 222.54648 221.32171 220.20694 219.17017 218.27739 217.42162
 216.66685 215.85008 214.95130 214.31853 213.77176 214.32388 215.62834 217.61261
 219.21028 220.66402 222.07974 223.24693 224.46483 226.09384 227.89839 228.12897
 228.30930 229.76169 233.09271 237.68791 241.98680 246.04695 250.16360 254.19644
 257.99521 261.48508 264.65738 267.56982 270.25723 272.69424 274.70874 276.40479
 277.97858 279.44650 280.80341 282.04501 283.10794 284.11633 285.06555 285.93356
 286.72281 287.42969 288.04092 288.84933
 366.78100 356.33903 345.77506 334.64508 323.05211 311.25014 299.12417 286.93119
 274.64722 262.54825 250.56128 239.86631 229.99233 221.10036 213.28639 206.29242
 200.13044 195.07247 191.65850 189.70453 188.74556 188.81358 189.65261 190.96464
 192.69367 194.79269 197.05972 199.42275 201.87178 204.35581 206.44783 208.29386
 209.92389 211.07292 211.30594 211.53797 211.47900 211.18803 210.82505 210.45908
 210.08011 209.79414 209.60617 209.47419 209.40622 209.74125 210.13128 210.52430
 211.32133 212.50336 213.75739 215.54442 217.47644 219.52347 221.62250 223.70953
 225.77355 227.86158 229.96261 232.07264 234.20567 236.38169 238.64172 241.01575
 243.64078 245.89580 247.90183 249.67086 251.09189 252.21892 253.04494 253.36497
 253.40600 253.18403 252.54805 251.50008 250.11011 248.27514 246.18817 244.02519
 241.82022 239.62825 237.45228 235.29530 233.15933 231.03036 229.06039 227.22142
 225.50844 223.98447 222.61850 221.39453 220.28055 219.24458 218.35261 217.49764
 216.74367 215.92769 215.02972 214.39775 213.85178 214.37070 215.59669 217.62878
 219.37860 220.75168 222.06500 223.15753 224.34085 226.01500 227.84671 228.10815
 228.30019 229.75638 233.10022 237.71022 242.00471 246.02135 250.11243 254.14989
 257.95981 261.45514 264.62585 267.53812 270.23071 272.67557 274.68723 276.37418
 277.93546 279.39435 280.75171 281.99939 283.06479 284.07751 285.02734 285.89963
 286.69086 287.40454 288.01694 288.82339
 366.78100 356.34011 345.77723 334.64834 323.05645 311.25557 299.13068 286.93879
 274.65590 262.55802 250.57213 239.87824 230.00536 221.11447 213.30158 206.30870
 200.14781 195.09092 191.67804 189.72515 188.76726 188.83638 189.67649 190.98960
 192.71971 194.81983 197.08794 199.45205 201.90217 204.38728 206.48039 208.32751
 209.95862 211.10873 211.34285 211.57596 211.51807 211.22819 210.86630 210.50141
 210.12352 209.83864 209.65175 209.52086 209.45398 209.79009 210.18120 210.57532
 211.37343 212.55654 213.81166 215.59977 217.53288 219.58100 221.68111 223.76922
 225.83433 227.92345 230.02556 232.13667 234.27079 236.44790 238.70901 241.08413
 243.71024 245.96635 247.97347 249.74358 251.16569 252.29381 253.12092 253.44203
 253.48414 253.26326 252.62837 251.58148 250.19260 248.35871 246.27282 244.11094
 241.90705 239.71616 237.54128 235.38539 233.25050 231.12262 229.15373 227.31584
 225.60395 224.08107 222.71618 221.49329 220.38041 219.34552 218.45463 217.60075
 216.84786 216.03297 215.13609 214.50520 213.96031 214.43289 215.54944 217.65465
 219.53804 220.83742 222.04803 223.09506 224.23988 225.86159 227.76497 228.11583
 228.32439 229.77425 233.11688 237.73337 242.02403 246.00836 250.07384 254.10571
 257.92453 261.42471 264.59561 267.50754 270.20514 272.65695 274.66864 276.35156
 277.89771 279.34308 280.69537 281.94525 283.01459 284.03781 284.99081 285.86346
 286.65884 287.37698 287.99347 288.80139
 366.78100 356.34105 345.77910 334.65115 323.06020 311.26024 299.13629 286.94534
 274.66339 262.56644 250.58149 239.88854 230.01659 221.12664 213.31469 206.32273
 200.16278 195.10683 191.69488 189.74293 188.78598 188.85603 189.69708 191.01113
 192.74217 194.84322 197.11227 199.47732 201.92837 204.41442 206.50847 208.35652
 209.98857 211.13962 211.37466 211.60871 211.55176 211.26281 210.90186 210.53791
 210.16096 209.87701 209.69106 209.56110 209.49515 209.83220 210.22425 210.61930
 211.41835 212.60240 213.85845 215.64750 217.58154 219.63059 221.73164 223.82069
 225.88674 227.97679 230.07984 232.19189 234.32694 236.50499 238.76703 241.14308
 243.77013 246.02718 248.03523 249.80628 251.22933 252.35838 253.18643 253.50847
 253.55152 253.33157 252.69762 251.65167 250.26372 248.43077 246.34582 244.18487
 241.98192 239.79196 237.61801 235.46306 233.32911 231.20216 229.23421 227.39726
 225.68631 224.16436 222.80040 221.57845 220.46650 219.43255 218.54260 217.68965
 216.93770 216.12375 215.22780 214.59785 214.05389 214.48750 215.51196 217.67209
 219.67673 220.93344 222.03937 223.04250 224.14566 225.69489 227.67049 228.11430
 228.34909 229.80173 233.13969 237.76006 242.05042 246.00464 250.03853 254.06435
 257.89282 261.39816 264.56659 267.47714 270.17899 272.63452 274.64709 276.32852
 277.86044 279.29041 280.63330 281.88028 282.96442 283.99600 284.95160 285.82730
 286.62622 287.34628 287.96811 288.77887
 366.78100 356.34133 345.77966 334.65200 323.06133 311.26166 299.13799 286.94732
 274.66565 262.56899 250.58432 239.89165 230.01998 221.13031 213.31864 206.32698
 200.16731 195.11164 191.69997 189.74830 188.79163 188.86197 189.70330 191.01763
 192.74896 194.85029 197.11962 199.48496 201.93629 204.42262 206.51695 208.36528
 209.99761 211.14895 211.38428 211.61861 211.56194 211.27327 210.91260 210.54894
 210.17227 209.88860 209.70293 209.57326 209.50759 209.84493 210.23726 210.63259
 211.43192 212.61625 213.87258 215.66192 217.59625 219.64558 221.74691 223.83624
 225.90257 227.99291 230.09624 232.20857 234.34390 236.52223 238.78456 241.16090
 243.78823 246.04556 248.05389 249.82522 251.24855 252.37789 253.20622 253.52855
 253.57188 253.35221 252.71854 251.67288 250.28521 248.45254 246.36787 244.20720
 242.00453 239.81487 237.64120 235.48653 233.35286 231.22619 229.25852 227.42186
 225.71119 224.18952 222.82585 221.60418 220.49252 219.45885 218.56918 217.71651
 216.96484 216.15117 215.25551 214.62584 214.08217 214.50829 215.51505 217.65251
 219.78885 221.06181 222.05956 222.99451 224.04475 225.52426 227.55534 228.08212
 228.35841 229.83279 233.16891 237.79378 242.08925 246.01178 250.01096 254.02971
 257.86713 261.37561 264.53949 267.44797 270.15079 272.60706 274.62003 276.30307
 277.82285 279.23694 280.56894 281.80444 282.91846 283.95621 284.91388 285.79135
 286.59299 287.31421 287.94391 288.75641
 366.78100 356.34126 345.77953 334.65179 323.06105 311.26131 299.13758 286.94684
 274.66510 262.56837 250.58363 239.89089 230.01915 221.12942 213.31768 206.32594
 200.16621 195.11047 191.69873 189.74699 188.79026 188.86052 189.70178 191.01605
 192.74731 194.84857 197.11783 199.48310 201.93436 204.42062 206.51489 208.36315
 209.99541 211.14667 211.38194 211.61620 211.55946 211.27073 210.90999 210.54625
 210.16951 209.88578 209.70004 209.57030 209.50457 209.84183 210.23409 210.62935
 211.42862 212.61288 213.86914 215.65841 217.59267 219.64193 221.74319 223.83246
 225.89872 227.98898 230.09225 232.20451 234.33977 236.51803 238.78030 241.15656
 243.78382 246.04109 248.04935 249.82061 251.24388 252.37314 253.20140 253.52366
 253.56693 253.34719 252.71345 251.66772 250.27998 248.44724 246.36250 244.20177
 241.99903 239.80929 237.63556 235.48082 233.34708 231.22034 229.25261 227.41587
 225.70513 224.18340 222.81966 221.59792 220.48618 219.45245 218.56271 217.70997
 216.95824 216.14450 215.24876 214.61902 214.07529 214.51022 215.53780 217.61516
 219.87567 221.21295 222.10837 222.94330 223.92712 225.34567 227.41820 228.02783
 228.36539 229.87570 233.20638 237.83276 242.13739 246.03929 249.99789 254.00552
 257.84503 261.35269 264.51019 267.41437 270.11771 272.57086 274.58344 276.26865
 277.78012 279.18106 280.50055 281.72122 282.87878 283.92368 284.88287 285.76263
 286.56555 287.28885 287.92447 288.73853
 366.78100 356.34174 345.78048 334.65322 323.06296 311.26370 299.14044 286.95018
 274.66892 262.57266 250.58840 239.89614 230.02488 221.13562 213.32436 206.33310
 200.17384 195.11858 191.70732 189.75606 188.79980 188.87054 189.71228 191.02702
 192.75876 194.86050 197.13024 199.49598 201.94772 204.43446 206.52920 208.37795
 210.01069 211.16243 211.39817 211.63291 211.57665 211.28839 210.92813 210.56487
 210.18861 209.90535 209.72009 209.59083 209.52557 209.86331 210.25605 210.65179
 211.45153 212.63627 213.89301 215.68275 217.61749 219.66723 221.76897 223.85871
 225.92545 228.01619 230.11993 232.23267 234.36841 236.54715 238.80989 241.18663
 243.81437 246.07211 248.08085 249.85259 251.27633 252.40607 253.23481 253.55755
 253.60129 253.38203 252.74877 251.70351 250.31625 248.48399 246.39973 244.23947
 242.03721 239.84795 237.67469 235.52043 233.38717 231.26091 229.29365 227.45739
 225.74713 224.22587 222.86261 221.64135 220.53010 219.49684 218.60758 217.75532
 217.00406 216.19080 215.29554 214.66628 214.12302 214.53973 215.52426 217.60916
 219.94775 221.33701 222.16559 222.89532 223.80606 225.17099 227.26955 227.96144
 228.37473 229.92934 233.25198 237.87842 242.19484 246.07355 249.99623 253.98677
 257.82748 261.33002 264.47672 267.37515 270.07785 272.52432 274.53357 276.22308
 277.72876 279.12061 280.42880 281.66385 282.83261 283.88181 284.84494 285.72614
 286.53149 287.25748 287.89227 288.70984
 366.78100 356.34300 345.78299 334.65699 323.06798 311.26998 299.14797 286.95897
 274.67897 262.58396 250.60096 239.90995 230.03995 221.15195 213.34194 206.35194
 200.19393 195.13993 191.72992 189.77992 188.82492 188.89691 189.73991 191.05590
 192.78890 194.89190 197.16289 199.52989 201.98288 204.47088 206.56687 208.41687
 210.05087 211.20386 211.44086 211.67685 211.62185 211.33484 210.97584 210.61384
 210.23883 209.95683 209.77282 209.64482 209.58082 209.91981 210.31381 210.71080
 211.51180 212.69779 213.95579 215.74679 217.68278 219.73378 221.83677 223.92777
 225.99577 228.08776 230.19276 232.30675 234.44375 236.62374 238.88774 241.26574
 243.89473 246.15373 248.16372 249.93672 251.36172 252.49271 253.32271 253.64670
 253.69170 253.47369 252.84169 251.79769 250.41168 248.58068 246.49767 244.33867
 242.13766 239.94966 237.77766 235.62465 233.49265 231.36764 229.40164 227.56664
 225.85763 224.33763 222.97562 221.75562 220.64561 219.61361 218.72561 217.87460
 217.12460 216.31259 215.41859 214.79059 214.24858 214.61005 215.46405 217.64217
 220.02042 221.40016 222.21611 222.87183 223.71214 225.02061 227.11909 227.88074
 228.37616 229.98187 233.29814 237.92082 242.24597 246.11568 250.00568 253.97791
 257.81165 261.30481 264.43915 267.33173 270.03152 272.46933 274.47354 276.16724
 277.67270 279.05914 280.35736 281.62231 282.79672 283.84726 284.81250 285.69556
 286.50064 287.22937 287.86865 288.69824
 366.78100 356.34422 345.78544 334.66066 323.07288 311.27610 299.15532 286.96754
 274.68876 262.59498 250.61320 239.92342 230.05464 221.16786 213.35908 206.37030
 200.21352 195.16074 191.75195 189.80317 188.84939 188.92261 189.76683 191.08405
 192.81827 194.92249 197.19471 199.56293 202.01715 204.50637 206.60359 208.45481
 210.09003 211.24425 211.48247 211.71969 211.66591 211.38013 211.02235 210.66157
 210.28779 210.00701 209.82423 209.69745 209.63467 209.97489 210.37011 210.76833
 211.57055 212.75777 214.01699 215.80921 217.74643 219.79864 221.90286 223.99508
 226.06430 228.15752 230.26374 232.37896 234.51718 236.69840 238.96362 241.34284
 243.97306 246.23328 248.24450 250.01872 251.44494 252.57716 253.40838 253.73360
 253.77982 253.56304 252.93226 251.88948 250.50470 248.67492 246.59314 244.43536
 242.23558 240.04880 237.87802 235.72624 233.59546 231.47168 229.50690 227.67312
 225.96534 224.44655 223.08577 221.86699 220.75821 219.72743 218.84065 217.99087
 217.24209 216.43131 215.53853 214.91175 214.37097 214.68021 215.41081 217.66385
 220.10023 221.42969 222.26028 222.87764 223.64777 224.89369 226.96799 227.78345
 228.36345 230.02887 233.34546 237.96289 242.29347 246.15848 250.02852 253.96846
 257.79324 261.27429 264.39627 267.28296 269.98166 272.41095 274.41360 276.11359
 277.61942 279.00266 280.28659 281.59320 282.77020 283.81897 284.78284 285.66837
 286.47244 287.20010 287.83737 288.66846
 366.78100 356.34472 345.78644 334.66216 323.07488 311.27860 299.15831 286.97103
 274.69275 262.59947 250.61819 239.92891 230.06063 221.17435 213.36607 206.37779
 200.22151 195.16923 191.76094 189.81266 188.85938 188.93310 189.77782 191.09554
 192.83026 194.93498 197.20770 199.57642 202.03114 204.52085 206.61857 208.47029
 210.10601 211.26073 211.49945 211.73717 211.68389 211.39861 211.04133 210.68105
 210.30777 210.02748 209.84520 209.71892 209.65664 209.99736 210.39308 210.79180
 211.59452 212.78224 214.04196 215.83468 217.77240 219.82511 221.92983 224.02255
 226.09227 228.18599 230.29271 232.40843 234.54715 236.72887 238.99459 241.37431
 244.00502 246.26574 248.27746 250.05218 251.47890 252.61162 253.44334 253.76906
 253.81578 253.59950 252.96922 251.92694 250.54265 248.71337 246.63209 244.47481
 242.27553 240.08925 237.91897 235.76769 233.63741 231.51413 229.54985 227.71656
 226.00928 224.49100 223.13072 221.91244 220.80416 219.77388 218.88760 218.03832
 217.29004 216.47976 215.58748 214.96119 214.42091 214.71378 215.40569 217.64212
 220.16359 221.49014 222.30826 222.88277 223.58188 224.76994 226.81198 227.67561
 228.34697 230.08133 233.40105 238.01147 242.34947 246.20930 250.05078 253.96393
 257.77066 261.23370 264.34143 267.22693 269.92618 272.35342 274.36023 276.06845
 277.57584 278.95749 280.23380 281.56546 282.74747 283.79868 284.76392 285.64862
 286.45218 287.17908 287.81793 288.64999
 366.78100 356.34472 345.78645 334.66217 323.07489 311.27862 299.15834 286.97106
 274.69279 262.59951 250.61823 239.92896 230.06068 221.17440 213.36613 206.37785
 200.22157 195.16930 191.76102 189.81274 188.85947 188.93319 189.77792 191.09564
 192.83036 194.93509 197.20781 199.57653 202.03126 204.52098 206.61870 208.47043
 210.10615 211.26087 211.49960 211.73732 211.68404 211.39877 211.04149 210.68121
 210.30794 210.02766 209.84538 209.71911 209.65683 209.99755 210.39328 210.79200
 211.59472 212.78245 214.04217 215.83489 217.77262 219.82534 221.93006 224.02279
 226.09251 228.18623 230.29296 232.40868 234.54740 236.72913 238.99485 241.37457
 244.00530 246.26602 248.27775 250.05247 251.47919 252.61192 253.44364 253.76936
 253.81609 253.59981 252.96953 251.92726 250.54298 248.71370 246.63243 244.47515
 242.27587 240.08960 237.91932 235.76804 233.63777 231.51449 229.55021 227.71694
 226.00966 224.49138 223.13111 221.91283 220.80455 219.77428 218.88800 218.03872
 217.29045 216.48017 215.58789 214.96162 214.42134 214.72188 215.43195 217.60182
 220.18648 221.59840 222.37051 222.86484 223.48038 224.63387 226.65532 227.57121
 228.34102 230.14922 233.47018 238.06818 242.41632 246.27798 250.07828 253.96040
 257.74274 261.18045 264.27490 267.15997 269.86423 272.29291 274.30734 276.02344
 277.53534 278.91989 280.20657 281.54611 282.73212 283.78525 284.75369 285.63727
 286.44684 287.17325 287.81235 288.64572
 366.78100 356.34475 345.78651 334.66226 323.07501 311.27877 299.15852 286.97127
 274.69302 262.59978 250.61853 239.92928 230.06104 221.17479 213.36654 206.37830
 200.22205 195.16980 191.76155 189.81331 188.86006 188.93381 189.77857 191.09632
 192.83107 194.93583 197.20858 199.57733 202.03208 204.52184 206.61959 208.47134
 210.10710 211.26185 211.50060 211.73836 211.68511 211.39986 211.04261 210.68237
 210.30912 210.02887 209.84663 209.72038 209.65813 209.99889 210.39464 210.79339
 211.59614 212.78390 214.04365 215.83640 217.77416 219.82691 221.93166 224.02442
 226.09417 228.18792 230.29467 232.41043 234.54918 236.73093 238.99669 241.37644
 244.00719 246.26795 248.27970 250.05445 251.48120 252.61396 253.44571 253.77146
 253.81822 253.60197 252.97172 251.92948 250.54523 248.71598 246.63473 244.47749
 242.27824 240.09199 237.92175 235.77050 233.64025 231.51701 229.55276 227.71951
 226.01227 224.49402 223.13377 221.91552 220.80728 219.77703 218.89078 218.04154
 217.29329 216.48304 215.59080 214.96455 214.42430 214.73198 215.45891 217.57509
 220.17078 221.71642 222.44218 222.82671 223.35597 224.48727 226.49605 227.47275
 228.34906 230.23599 233.55334 238.12946 242.49023 246.35446 250.12083 253.97655
 257.71323 261.11664 264.19580 267.08380 269.79324 272.22134 274.23990 275.96634
 277.48895 278.88495 280.19681 281.54144 282.72900 283.78571 284.75528 285.64252
 286.45035 287.18115 287.82214 288.65662
 366.78100 356.34499 345.78698 334.66296 323.07595 311.27994 299.15993 286.97291
 274.69490 262.60189 250.62088 239.93186 230.06385 221.17784 213.36983 206.38182
 200.22580 195.17379 191.76578 189.81777 188.86475 188.93874 189.78373 191.10172
 192.83670 194.94169 197.21468 199.58367 202.03866 204.52864 206.62663 208.47862
 210.11461 211.26959 211.50858 211.74657 211.69356 211.40854 211.05153 210.69152
 210.31851 210.03850 209.85648 209.73047 209.66846 210.00945 210.40543 210.80442
 211.60741 212.79540 214.05538 215.84837 217.78636 219.83935 221.94434 224.03732
 226.10731 228.20130 230.30829 232.42427 234.56326 236.74525 239.01124 241.39122
 244.02221 246.28320 248.29519 250.07018 251.49716 252.63015 253.46214 253.78813
 253.83511 253.61910 252.98909 251.94708 250.56306 248.73405 246.65304 244.49603
 242.29702 240.11100 237.94099 235.78998 233.65997 231.53695 229.57294 227.73993
 226.03292 224.51490 223.15489 221.93688 220.82887 219.79886 218.91284 218.06383
 217.31582 216.50581 215.61379 214.98778 214.44777 214.75455 215.47931 217.56393
 220.13550 221.79393 222.53363 222.80205 223.21849 224.34120 226.33308 227.35875
 228.34726 230.32784 233.65033 238.20146 242.57886 246.44595 250.18498 253.99178
 257.68130 261.05118 264.11453 267.00363 269.71527 272.13840 274.15765 275.89291
 277.43344 278.85089 280.19791 281.54797 282.73767 283.79669 284.76736 285.65680
 286.46719 287.19864 287.83932 288.67523
 366.78100 356.34526 345.78753 334.66379 323.07705 311.28132 299.16158 286.97484
 274.69711 262.60437 250.62364 239.93490 230.06716 221.18143 213.37369 206.38595
 200.23022 195.17848 191.77074 189.82301 188.87027 188.94453 189.78980 191.10806
 192.84333 194.94859 197.22185 199.59112 202.04638 204.53664 206.63491 208.48717
 210.12343 211.27870 211.51796 211.75622 211.70349 211.41875 211.06202 210.70228
 210.32954 210.04981 209.86807 209.74233 209.68060 210.02186 210.41812 210.81739
 211.62065 212.80891 214.06918 215.86244 217.80071 219.85397 221.95923 224.05250
 226.12276 228.21702 230.32429 232.44055 234.57981 236.76208 239.02834 241.40860
 244.03987 246.30113 248.31340 250.08866 251.51592 252.64919 253.48145 253.80771
 253.85498 253.63924 253.00950 251.96777 250.58403 248.75529 246.67456 244.51782
 242.31909 240.13335 237.96361 235.81288 233.68314 231.56040 229.59667 227.76393
 226.05719 224.53946 223.17972 221.96198 220.85425 219.82451 218.93878 218.09004
 217.34230 216.53257 215.64083 215.01509 214.47536 214.78169 215.50542 217.55022
 220.10481 221.81769 222.61617 222.81622 223.13184 224.20134 226.15123 227.22110
 228.32234 230.40764 233.75171 238.27846 242.67308 246.55933 250.26295 254.01709
 257.65503 260.98886 264.03445 266.92279 269.63062 272.04391 274.06189 275.80984
 277.37619 278.82083 280.21106 281.56607 282.75793 283.81799 284.78983 285.68100
 286.49075 287.22403 287.86288 288.70197
 366.78100 356.34527 345.78755 334.66382 323.07710 311.28137 299.16165 286.97492
 274.69720 262.60447 250.62374 239.93502 230.06729 221.18157 213.37384 206.38612
 200.23039 195.17866 191.77094 189.82321 188.87049 188.94476 189.79004 191.10831
 192.84359 194.94886 197.22213 199.59141 202.04668 204.53696 206.63523 208.48751
 210.12378 211.27906 211.51833 211.75660 211.70388 211.41915 211.06243 210.70270
 210.32998 210.05025 209.86852 209.74280 209.68107 210.02235 210.41862 210.81790
 211.62117 212.80945 214.06972 215.86299 217.80127 219.85454 221.95982 224.05309
 226.12337 228.21764 230.32492 232.44119 234.58046 236.76274 239.02901 241.40929
 244.04056 246.30184 248.31411 250.08939 251.51666 252.64993 253.48221 253.80848
 253.85576 253.64003 253.01031 251.96858 250.58485 248.75613 246.67540 244.51868
 242.31995 240.13423 237.96450 235.81378 233.68405 231.56132 229.59760 227.76487
 226.05815 224.54042 223.18070 221.96297 220.85525 219.82552 218.93979 218.09107
 217.34334 216.53362 215.64189 215.01617 214.47644 214.79608 215.55128 217.52429
 220.06981 221.82307 222.70468 222.83401 223.03253 224.09390 225.97807 227.05211
 228.26700 230.47563 233.85703 238.36536 242.77867 246.68073 250.34843 254.04666
 257.63440 260.93326 263.95987 266.84424 269.54593 271.94897 273.96341 275.72263
 277.31738 278.75034 280.24652 281.61111 282.79764 283.85425 284.82440 285.71301
 286.52341 287.25565 287.89648 288.72861
 366.78100 356.34497 345.78694 334.66291 323.07588 311.27986 299.15983 286.97280
 274.69477 262.60174 250.62071 239.93168 230.06365 221.17762 213.36959 206.38157
 200.22554 195.17351 191.76548 189.81745 188.86442 188.93839 189.78336 191.10133
 192.83631 194.94128 197.21425 199.58322 202.03819 204.52816 206.62613 208.47810
 210.11407 211.26904 211.50802 211.74599 211.69296 211.40793 211.05090 210.69087
 210.31784 210.03781 209.85578 209.72976 209.66773 210.00870 210.40467 210.80364
 211.60661 212.79458 214.05455 215.84752 217.78550 219.83847 221.94344 224.03641
 226.10638 228.20035 230.30732 232.42329 234.56226 236.74423 239.01021 241.39018
 244.02115 246.28212 248.29409 250.06906 251.49603 252.62900 253.46097 253.78695
 253.83392 253.61789 252.98786 251.94583 250.56180 248.73277 246.65174 244.49471
 242.29568 240.10966 237.93963 235.78860 233.65857 231.53554 229.57151 227.73848
 226.03145 224.51342 223.15340 221.93537 220.82734 219.79731 218.91128 218.06225
 217.31422 216.50419 215.61216 214.98613 214.44611 214.79300 215.61261 217.50313
 220.01254 221.81224 222.77960 222.90904 223.00470 223.92809 225.76486 226.89969
 228.21779 230.53726 233.96657 238.45659 242.87936 246.80525 250.44574 254.08456
 257.62311 260.88287 263.88879 266.76596 269.45941 271.85220 273.86581 275.64172
 277.26898 278.73792 280.26138 281.63388 282.82648 283.88870 284.86020 285.74918
 286.55954 287.29214 287.93082 288.76166
 366.78100 356.34464 345.78629 334.66193 323.07457 311.27821 299.15786 286.97050
 274.69214 262.59878 250.61743 239.92807 230.05971 221.17335 213.36500 206.37664
 200.22028 195.16792 191.75957 189.81121 188.85785 188.93149 189.77614 191.09378
 192.82842 194.93306 197.20571 199.57435 202.02899 204.51863 206.61628 208.46792
 210.10356 211.25820 211.49685 211.73449 211.68113 211.39577 211.03842 210.67806
 210.30470 210.02434 209.84199 209.71563 209.65327 209.99391 210.38956 210.78820
 211.59084 212.77848 214.03813 215.83077 217.76841 219.82105 221.92570 224.01834
 226.08798 228.18162 230.28827 232.40391 234.54255 236.72419 238.98984 241.36948
 244.00012 246.26076 248.27241 250.04705 251.47369 252.60634 253.43798 253.76362
 253.81026 253.59391 252.96355 251.92119 250.53683 248.70748 246.62612 244.46876
 242.26940 240.08305 237.91269 235.76133 233.63097 231.50762 229.54326 227.70990
 226.00254 224.48419 223.12383 221.90547 220.79711 219.76676 218.88040 218.03104
 217.28268 216.47233 215.57997 214.95361 214.41325 214.78813 215.67383 217.49847
 219.94693 221.79260 222.81548 222.97342 222.99649 223.76440 225.55107 226.75769
 228.17368 230.60162 234.08368 238.55785 242.99010 246.93268 250.55164 254.13393
 257.61731 260.83670 263.81955 266.68796 269.37195 271.75177 273.75967 275.54572
 277.20496 278.74878 280.28314 281.66037 282.85608 283.91992 284.89374 285.78357
 286.59418 287.32394 287.96039 288.79132
 366.78100 356.34439 345.78579 334.66118 323.07358 311.27697 299.15636 286.96876
 274.69015 262.59655 250.61494 239.92533 230.05673 221.17012 213.36152 206.37291
 200.21630 195.16370 191.75509 189.80649 188.85288 188.92627 189.77067 191.08806
 192.82246 194.92685 197.19924 199.56764 202.02203 204.51143 206.60882 208.46021
 210.09561 211.25000 211.48840 211.72579 211.67218 211.38658 211.02897 210.66836
 210.29476 210.01415 209.83155 209.70494 209.64233 209.98273 210.37812 210.77652
 211.57891 212.76630 214.02570 215.81809 217.75549 219.80788 221.91227 224.00467
 226.07406 228.16746 230.27385 232.38924 234.52764 236.70903 238.97443 241.35382
 243.98421 246.24461 248.25600 250.03040 251.45679 252.58918 253.42058 253.74597
 253.79237 253.57576 252.94515 251.90255 250.51794 248.68834 246.60673 244.44912
 242.24952 240.06291 237.89231 235.74070 233.61009 231.48649 229.52188 227.68828
 225.98067 224.46206 223.10146 221.88285 220.77425 219.74364 218.85703 218.00743
 217.25882 216.44822 215.55561 214.92900 214.38840 214.78854 215.73393 217.50275
 219.86980 221.77168 222.82213 223.00563 222.97444 223.60947 225.34482 226.61212
 228.13293 230.66426 234.20241 238.67131 243.11494 247.07111 250.66383 254.18764
 257.61554 260.79114 263.74915 266.60934 269.28650 271.65723 273.66290 275.46640
 277.15860 278.75797 280.30319 281.68231 282.87958 283.94238 284.91641 285.80432
 286.61359 287.34454 287.98334 288.80899
 366.78100 356.34424 345.78547 334.66071 323.07295 311.27618 299.15542 286.96766
 274.68889 262.59513 250.61337 239.92360 230.05484 221.16807 213.35931 206.37055
 200.21378 195.16102 191.75226 189.80349 188.84973 188.92297 189.76720 191.08444
 192.81868 194.92291 197.19515 199.56339 202.01762 204.50686 206.60410 208.45533
 210.09057 211.24480 211.48304 211.72028 211.66651 211.38075 211.02299 210.66222
 210.28846 210.00770 209.82493 209.69817 209.63541 209.97564 210.37088 210.76912
 211.57135 212.75859 214.01783 215.81006 217.74730 219.79953 221.90377 223.99601
 226.06524 228.15848 230.26472 232.37995 234.51819 236.69943 238.96466 241.34390
 243.97414 246.23437 248.24561 250.01985 251.44608 252.57832 253.40956 253.73479
 253.78103 253.56426 252.93350 251.89074 250.50597 248.67621 246.59445 244.43668
 242.23692 240.05016 237.87939 235.72763 233.59687 231.47310 229.50834 227.67458
 225.96681 224.44805 223.08729 221.86852 220.75976 219.72899 218.84223 217.99247
 217.24370 216.43294 215.54018 214.91341 214.37265 214.79468 215.79175 217.52481
 219.77313 221.72646 222.81448 223.01927 222.94438 223.47072 225.15622 226.48027
 228.09538 230.72302 234.32568 238.79303 243.24266 247.21190 250.78526 254.25304
 257.62204 260.75479 263.68665 266.53601 269.20279 271.55615 273.54785 275.35648
 277.05560 278.80173 280.35327 281.72473 282.91891 283.97989 284.95001 285.83902
 286.64404 287.37119 288.00845 288.84390
 366.78100 356.34426 345.78553 334.66079 323.07305 311.27632 299.15558 286.96784
 274.68910 262.59537 250.61363 239.92389 230.05516 221.16842 213.35968 206.37095
 200.21421 195.16147 191.75273 189.80400 188.85026 188.92352 189.76779 191.08505
 192.81931 194.92358 197.19584 199.56410 202.01837 204.50763 206.60489 208.45615
 210.09142 211.24568 211.48394 211.72121 211.66747 211.38173 211.02400 210.66326
 210.28952 210.00879 209.82605 209.69931 209.63657 209.97684 210.37210 210.77036
 211.57263 212.75989 214.01915 215.81142 217.74868 219.80094 221.90520 223.99747
 226.06673 228.15999 230.26626 232.38152 234.51978 236.70105 238.96631 241.34557
 243.97584 246.23610 248.24736 250.02162 251.44789 252.58015 253.41141 253.73668
 253.78294 253.56620 252.93547 251.89273 250.50799 248.67825 246.59652 244.43878
 242.23904 240.05231 237.88157 235.72983 233.59910 231.47536 229.51062 227.67689
 225.96915 224.45041 223.08967 221.87094 220.76220 219.73146 218.84473 217.99499
 217.24625 216.43552 215.54278 214.91604 214.37531 214.81168 215.84268 217.54332
 219.70787 221.68958 222.79581 222.99477 222.88139 223.33389 224.98514 226.36432
 228.06760 230.80020 234.45709 238.91638 243.37019 247.35191 250.90791 254.31984
 257.63470 260.72699 263.63562 266.47308 269.12695 271.46893 273.46149 275.28439
 277.02496 278.78839 280.34814 281.72229 282.91684 283.97586 284.94589 285.83093
 286.63437 287.36072 287.99057 288.81488
 366.78100 356.34442 345.78584 334.66126 323.07368 311.27709 299.15651 286.96893
 274.69035 262.59677 250.61519 239.92561 230.05703 221.17045 213.36187 206.37328
 200.21670 195.16412 191.75554 189.80696 188.85338 188.92680 189.77122 191.08864
 192.82306 194.92747 197.19989 199.56831 202.02273 204.51215 206.60957 208.46099
 210.09641 211.25083 211.48925 211.72666 211.67308 211.38750 211.02992 210.66934
 210.29576 210.01518 209.83260 209.70602 209.64344 209.98385 210.37927 210.77769
 211.58011 212.76753 214.02695 215.81937 217.75679 219.80921 221.91363 224.00604
 226.07546 228.16888 230.27530 232.39072 234.52914 236.71056 238.97598 241.35540
 243.98582 246.24623 248.25765 250.03207 251.45849 252.59091 253.42233 253.74775
 253.79417 253.57759 252.94701 251.90442 250.51984 248.69026 246.60868 244.45110
 242.25152 240.06494 237.89436 235.74278 233.61220 231.48861 229.52403 227.69045
 225.98287 224.46429 223.10371 221.88513 220.77655 219.74597 218.85939 218.00980
 217.26122 216.45064 215.55806 214.93148 214.39090 214.84172 215.90683 217.52501
 219.62207 221.63640 222.76982 222.94368 222.77449 223.16624 224.79770 226.24590
 228.06100 230.86961 234.58934 239.04901 243.51277 247.51285 251.05107 254.40378
 257.66049 260.70547 263.57730 266.40488 269.04889 271.37543 273.34039 275.17352
 276.99695 278.79755 280.36075 281.73874 282.93484 283.99710 284.96811 285.85358
 286.65601 287.37689 288.01819 288.84308
 366.78100 356.34461 345.78623 334.66184 323.07446 311.27807 299.15768 286.97030
 274.69191 262.59853 250.61714 239.92776 230.05937 221.17298 213.36460 206.37621
 200.21983 195.16744 191.75905 189.81067 188.85728 188.93090 189.77551 191.09313
 192.82774 194.93235 197.20497 199.57358 202.02820 204.51781 206.61542 208.46704
 210.10265 211.25727 211.49588 211.73350 211.68011 211.39472 211.03734 210.67695
 210.30357 210.02318 209.84079 209.71441 209.65202 209.99264 210.38825 210.78687
 211.58948 212.77709 214.03671 215.82932 217.76694 219.81955 221.92416 224.01678
 226.08639 228.18001 230.28662 232.40224 234.54085 236.72246 238.98808 241.36769
 243.99831 246.25892 248.27053 250.04515 251.47176 252.60438 253.43599 253.76161
 253.80822 253.59183 252.96145 251.91906 250.53468 248.70529 246.62390 244.46652
 242.26713 240.08075 237.91036 235.75897 233.62859 231.50520 229.54082 227.70743
 226.00005 224.48166 223.12127 221.90289 220.79450 219.76412 218.87773 218.02834
 217.27996 216.46957 215.57719 214.95080 214.41042 214.87317 215.96649 217.52725
 219.50861 221.53122 222.74158 222.89676 222.66481 223.00558 224.62672 226.13416
 228.05681 230.94768 234.72568 239.19002 243.66733 247.69836 251.23155 254.53578
 257.73636 260.73807 263.56256 266.36621 268.98691 271.28101 273.24396 275.10428
 276.97702 278.76041 280.31842 281.69006 282.87802 283.92902 284.88751 285.75940
 286.54474 287.24188 287.84402 288.61133
 366.78100 356.34501 345.78703 334.66304 323.07605 311.28007 299.16008 286.97309
 274.69511 262.60212 250.62113 239.93215 230.06416 221.17817 213.37019 206.38220
 200.22621 195.17423 191.76624 189.81825 188.86527 188.93928 189.78429 191.10231
 192.83732 194.94233 197.21535 199.58436 202.03937 204.52939 206.62740 208.47941
 210.11543 211.27044 211.50945 211.74747 211.69448 211.40949 211.05251 210.69252
 210.31953 210.03955 209.85756 209.73157 209.66959 210.01060 210.40661 210.80563
 211.60864 212.79665 214.05667 215.84968 217.78769 219.84071 221.94572 224.03873
 226.10875 228.20276 230.30977 232.42579 234.56480 236.74681 239.01283 241.39284
 244.02385 246.28487 248.29688 250.07189 251.49891 252.63192 253.46393 253.78995
 253.83696 253.62097 252.99099 251.94900 250.56501 248.73603 246.65504 244.49805
 242.29907 240.11308 237.94309 235.79211 233.66212 231.53913 229.57515 227.74216
 226.03517 224.51719 223.15720 221.93921 220.83123 219.80124 218.91525 218.06627
 217.31828 216.50829 215.61631 214.99032 214.45033 214.91191 216.00244 217.53691
 219.48830 221.48088 222.70134 222.82787 222.55673 222.87190 224.47015 226.02180
 228.01941 231.03168 234.86313 239.31462 243.78551 247.83554 251.37422 254.65462
 257.81461 260.78351 263.58517 266.36163 268.96210 271.23453 273.16461 275.01395
 276.90753 278.70108 280.25693 281.62512 282.80975 283.86057 284.82104 285.69714
 286.49197 287.20715 287.84525 288.66760
 366.78100 356.34550 345.78801 334.66451 323.07802 311.28252 299.16303 286.97653
 274.69904 262.60654 250.62605 239.93755 230.07006 221.18456 213.37707 206.38957
 200.23407 195.18258 191.77508 189.82759 188.87509 188.94960 189.79510 191.11361
 192.84911 194.95462 197.22812 199.59763 202.05313 204.54364 206.64214 208.49464
 210.13115 211.28665 211.52616 211.76466 211.71217 211.42767 211.07118 210.71168
 210.33919 210.05969 209.87820 209.75270 209.69121 210.03271 210.42921 210.82872
 211.63222 212.82073 214.08123 215.87474 217.81324 219.86675 221.97225 224.06576
 226.13626 228.23077 230.33827 232.45477 234.59428 236.77678 239.04329 241.42379
 244.05530 246.31680 248.32931 250.10481 251.53232 252.66582 253.49833 253.82483
 253.87234 253.65684 253.02734 251.98585 250.60235 248.77386 246.69336 244.53687
 242.33837 240.15288 237.98338 235.83289 233.70339 231.58090 229.61740 227.78491
 226.07841 224.56091 223.20142 221.98392 220.87643 219.84693 218.96144 218.11294
 217.36545 216.55595 215.66446 215.03896 214.49947 214.95819 216.04196 217.51553
 219.44759 221.44731 222.68471 222.76505 222.42929 222.71814 224.29601 225.89157
 227.97118 231.08347 234.97235 239.42345 243.88850 247.94356 251.48520 254.74675
 257.87079 260.80899 263.58820 266.35486 268.95471 271.24722 273.20581 275.05646
 276.89429 278.61002 280.16269 281.52789 282.71210 283.76141 284.72229 285.60205
 286.40948 287.13580 287.77011 288.57889
 366.78100 356.34536 345.78771 334.66407 323.07742 311.28178 299.16214 286.97549
 274.69785 262.60520 250.62456 239.93591 230.06827 221.18263 213.37498 206.38734
 200.23169 195.18005 191.77241 189.82476 188.87212 188.94647 189.79183 191.11019
 192.84554 194.95090 197.22425 199.59361 202.04896 204.53932 206.63768 208.49003
 210.12639 211.28174 211.52110 211.75946 211.70681 211.42217 211.06552 210.70588
 210.33324 210.05359 209.87195 209.74630 209.68466 210.02601 210.42237 210.82173
 211.62508 212.81344 214.07379 215.86715 217.80551 219.85886 221.96422 224.05757
 226.12793 228.22229 230.32964 232.44600 234.58535 236.76771 239.03406 241.41442
 244.04578 246.30713 248.31949 250.09484 251.52220 252.65556 253.48791 253.81427
 253.86162 253.64598 253.01634 251.97469 250.59105 248.76240 246.68176 244.52512
 242.32647 240.14083 237.97118 235.82054 233.69089 231.56825 229.60461 227.77196
 226.06532 224.54767 223.18803 221.97039 220.86274 219.83310 218.94745 218.09881
 217.35117 216.54152 215.64988 215.02423 214.48459 214.97313 216.12737 217.48265
 219.35208 221.41557 222.67068 222.71141 222.31862 222.58170 224.12575 225.73515
 227.91080 231.14003 235.09499 239.54793 244.01173 248.08783 251.66623 254.92300
 257.99991 260.88754 263.61755 266.34354 268.90378 271.15881 273.10370 274.96902
 276.84335 278.62192 280.17517 281.54269 282.73056 283.78928 284.76764 285.66006
 286.45734 287.16006 287.78058 288.58649
 366.78100 356.34619 345.78938 334.66657 323.08076 311.28594 299.16713 286.98132
 274.70451 262.61270 250.63289 239.94508 230.07827 221.19346 213.38664 206.39983
 200.24502 195.19421 191.78740 189.84059 188.88878 188.96397 189.81015 191.12934
 192.86553 194.97172 197.24591 199.61610 202.07229 204.56348 206.66267 208.51585
 210.15304 211.30923 211.54942 211.78861 211.73680 211.45299 211.09718 210.73837
 210.36655 210.08774 209.90693 209.78212 209.72131 210.06350 210.46069 210.86088
 211.66507 212.85425 214.11544 215.90963 217.84882 219.90301 222.00920 224.10339
 226.17458 228.26977 230.37795 232.49514 234.63533 236.81852 239.08571 241.46690
 244.09909 246.36128 248.37446 250.15065 251.57884 252.71303 253.54622 253.87341
 253.92160 253.70679 253.07798 252.03716 250.65435 248.82654 246.74673 244.59092
 242.39311 240.20830 238.03949 235.88968 233.76086 231.63905 229.67624 227.84443
 226.13862 224.62181 223.26300 222.04619 220.93938 219.91056 219.02575 218.17794
 217.43113 216.62232 215.73151 215.10670 214.56789 215.04076 216.15797 217.43564
 219.34250 221.40384 222.64417 222.61732 222.16539 222.42218 223.94296 225.58400
 227.83682 231.19562 235.22044 239.67921 244.14597 248.24709 251.86462 255.12180
 258.16510 261.01584 263.70615 266.38251 268.90945 271.13477 273.05295 274.89185
 276.72418 278.47629 280.02197 281.38223 282.56256 283.61606 284.59967 285.47330
 286.20480 286.89691 287.50906 288.31494
 366.78100 356.34760 345.79220 334.67080 323.08640 311.29300 299.17560 286.99120
 274.71580 262.62540 250.64700 239.96060 230.09520 221.21180 213.40640 206.42100
 200.26760 195.21819 191.81279 189.86739 188.91699 188.99359 189.84119 191.16179
 192.89939 195.00699 197.28259 199.65419 202.11179 204.60439 206.70499 208.55959
 210.19819 211.35579 211.59739 211.83799 211.78759 211.50519 211.15079 210.79339
 210.42299 210.14559 209.96619 209.84279 209.78339 210.12699 210.52559 210.92719
 211.73279 212.92338 214.18598 215.98158 217.92218 219.97778 222.08538 224.18098
 226.25358 228.35018 230.45978 232.57838 234.71998 236.90458 239.17318 241.55578
 244.18938 246.45298 248.46758 250.24518 251.67478 252.81038 253.64498 253.97358
 254.02318 253.80978 253.18238 252.14298 250.76158 248.93518 246.85678 244.70238
 242.50598 240.32257 238.15517 236.00677 233.87937 231.75897 229.79757 227.96717
 226.26277 224.74737 223.38997 222.17457 221.06917 220.04177 219.15837 218.31197
 217.56657 216.75917 215.86977 215.24637 214.70897 215.14096 216.16156 217.36397
 219.34027 221.32104 222.51154 222.44659 221.95201 222.24600 223.80383 225.56058
 227.88034 231.26598 235.34154 239.78839 244.25146 248.37178 252.00572 255.27371
 258.30093 261.12381 263.77786 266.42816 268.94104 271.17694 273.10883 274.92731
 276.71201 278.40228 279.91101 281.23911 282.40302 283.45358 284.43314 285.30276
 286.08243 286.79764 287.44327 288.26608
 366.78100 356.34685 345.79069 334.66854 323.08338 311.28923 299.17107 286.98592
 274.70976 262.61861 250.63945 239.95230 230.08615 221.20199 213.39584 206.40968
 200.25553 195.20537 191.79922 189.85306 188.90191 188.97775 189.82460 191.14445
 192.88129 194.98814 197.26298 199.63383 202.09067 204.58252 206.68236 208.53621
 210.17405 211.33090 211.57175 211.81159 211.76044 211.47728 211.12213 210.76397
 210.39282 210.11466 209.93451 209.81035 209.75020 210.09305 210.49089 210.89174
 211.69658 212.88643 214.14827 215.94312 217.88296 219.93781 222.04465 224.13950
 226.21135 228.30719 230.41604 232.53388 234.67473 236.85857 239.12642 241.50826
 244.14111 246.40395 248.41780 250.19465 251.62349 252.75834 253.59218 253.92003
 253.96887 253.75472 253.12656 252.08641 250.70425 248.87710 246.79795 244.64279
 242.44564 240.26148 238.09333 235.94417 233.81602 231.69486 229.73271 227.90155
 226.19640 224.68024 223.32209 222.10594 220.99978 219.97163 219.08747 218.24032
 217.49416 216.68601 215.79585 215.17170 214.63354 215.12427 216.28693 217.34509
 219.11488 220.97932 222.28252 222.39220 221.94229 222.19064 223.68550 225.55113
 227.79845 231.23639 235.37349 239.82529 244.27106 248.43796 252.14757 255.46454
 258.49274 261.28848 263.92776 266.50531 268.95071 271.13281 273.06305 274.88779
 276.67133 278.30063 279.75851 281.11063 282.30963 283.36871 284.31317 285.14847
 285.90863 286.58554 287.17688 287.93048
 366.78100 356.34571 345.78842 334.66513 323.07884 311.28355 299.16426 286.97797
 274.70068 262.60839 250.62810 239.93981 230.07252 221.18723 213.37994 206.39265
 200.23736 195.18607 191.77878 189.83149 188.87920 188.95391 189.79962 191.11833
 192.85404 194.95975 197.23346 199.60317 202.05888 204.54959 206.64830 208.50101
 210.13772 211.29343 211.53314 211.77185 211.71956 211.43527 211.07898 210.71969
 210.34740 210.06811 209.88682 209.76153 209.70024 210.04195 210.43865 210.83836
 211.64207 212.83078 214.09149 215.88520 217.82391 219.87762 221.98333 224.07704
 226.14775 228.24246 230.35017 232.46688 234.60659 236.78930 239.05601 241.43672
 244.06843 246.33014 248.34285 250.11856 251.54627 252.67998 253.51269 253.83940
 253.88711 253.67182 253.04253 252.00124 250.61795 248.78966 246.70937 244.55308
 242.35479 240.16950 238.00021 235.84992 233.72063 231.59834 229.63505 227.80276
 226.09647 224.57918 223.21989 222.00260 220.89531 219.86602 218.98073 218.13244
 217.38515 216.57586 215.68457 215.05928 214.51999 215.08171 216.40973 217.42937
 218.87094 220.59727 222.14388 222.55049 222.19000 222.27827 223.58902 225.39542
 227.70462 231.23427 235.39989 239.81859 244.28494 248.50128 252.32365 255.74414
 258.77866 261.53021 264.10324 266.56174 268.93018 271.03494 272.94257 274.71841
 276.49789 278.06128 279.50302 280.85562 282.04321 283.08478 284.00018 284.82947
 285.57532 286.23950 286.81973 287.55914
 366.78100 356.34571 345.78842 334.66513 323.07883 311.28354 299.16425 286.97796
 274.70067 262.60838 250.62809 239.93980 230.07250 221.18721 213.37992 206.39263
 200.23734 195.18605 191.77876 189.83146 188.87917 188.95388 189.79959 191.11830
 192.85401 194.95972 197.23343 199.60313 202.05884 204.54955 206.64826 208.50097
 210.13768 211.29339 211.53309 211.77180 211.71951 211.43522 211.07893 210.71964
 210.34735 210.06806 209.88676 209.76147 209.70018 210.04189 210.43860 210.83831
 211.64202 212.83072 214.09143 215.88514 217.82385 219.87756 221.98327 224.07698
 226.14769 228.24239 230.35010 232.46681 234.60652 236.78923 239.05594 241.43665
 244.06835 246.33006 248.34277 250.11848 251.54619 252.67990 253.51261 253.83932
 253.88702 253.67173 253.04244 252.00115 250.61786 248.78957 246.70928 244.55298
 242.35469 240.16940 238.00011 235.84982 233.72053 231.59824 229.63495 227.80265
 226.09636 224.57907 223.21978 222.00249 220.89520 219.86591 218.98061 218.13232
 217.38503 216.57574 215.68445 215.05916 214.51987 215.09819 216.46329 217.49062
 218.82141 220.49561 222.18895 222.76151 222.42619 222.29292 223.36847 225.18512
 227.59254 231.22789 235.43864 239.84755 244.29857 248.52740 252.43660 255.99142
 259.04153 261.72104 264.24915 266.65848 268.93115 271.00543 272.89978 274.65738
 276.36200 277.88550 279.28592 280.65161 281.87646 282.98239 283.99136 284.90546
 285.72754 286.45963 287.09918 287.91418
 366.78100 356.34535 345.78771 334.66406 323.07741 311.28176 299.16212 286.97547
 274.69782 262.60518 250.62453 239.93588 230.06824 221.18259 213.37494 206.38729
 200.23165 195.18000 191.77235 189.82471 188.87206 188.94641 189.79177 191.11012
 192.84547 194.95082 197.22418 199.59353 202.04888 204.53924 206.63759 208.48994
 210.12630 211.28165 211.52100 211.75935 211.70671 211.42206 211.06541 210.70577
 210.33312 210.05347 209.87183 209.74618 209.68453 210.02588 210.42224 210.82159
 211.62494 212.81330 214.07365 215.86700 217.80536 219.85871 221.96406 224.05741
 226.12777 228.22212 230.32947 232.44583 234.58518 236.76753 239.03389 241.41424
 244.04559 246.30694 248.31930 250.09465 251.52200 252.65536 253.48771 253.81406
 253.86142 253.64577 253.01612 251.97447 250.59083 248.76218 246.68153 244.52489
 242.32624 240.14059 237.97094 235.82030 233.69065 231.56800 229.60436 227.77171
 226.06506 224.54742 223.18777 221.97012 220.86247 219.83283 218.94718 218.09853
 217.35089 216.54124 215.64959 215.02395 214.48430 215.10017 216.53551 217.51758
 218.79454 220.53313 222.25128 222.82896 222.44012 222.20976 223.22372 224.99223
 227.54532 231.26010 235.52336 239.91068 244.35036 248.57640 252.49068 256.05078
 259.18112 261.88947 264.36276 266.74664 268.97504 271.02560 272.91315 274.66568
 276.32578 277.81805 279.41119 280.89841 282.18549 283.32419 284.36310 285.30429
 286.15076 286.90457 287.56308 288.40225
 366.78100 356.34564 345.78827 334.66491 323.07854 311.28318 299.16382 286.97745
 274.70009 262.60773 250.62736 239.93900 230.07163 221.18627 213.37891 206.39154
 200.23618 195.18482 191.77745 189.83009 188.87772 188.95236 189.79800 191.11663
 192.85227 194.95790 197.23154 199.60118 202.05681 204.54745 206.64609 208.49872
 210.13536 211.29099 211.53063 211.76927 211.71690 211.43254 211.07618 210.71681
 210.34445 210.06508 209.88372 209.75836 209.69699 210.03863 210.43526 210.83490
 211.63854 212.82717 214.08781 215.88145 217.82008 219.87372 221.97935 224.07299
 226.14363 228.23826 230.34590 232.46254 234.60217 236.78481 239.05144 241.43208
 244.06372 246.32535 248.33799 250.11362 251.54126 252.67490 253.50753 253.83417
 253.88181 253.66644 253.03708 251.99571 250.61235 248.78399 246.70362 244.54726
 242.34890 240.16353 237.99417 235.84380 233.71444 231.59208 229.62871 227.79635
 226.08998 224.57262 223.21326 221.99589 220.88853 219.85917 218.97380 218.12544
 217.37807 216.56871 215.67735 215.05198 214.51262 215.12646 216.55666 217.55389
 218.75453 220.48584 222.12393 222.67949 222.31100 222.08208 223.31261 224.99332
 227.54834 231.32234 235.64676 240.04172 244.43979 248.66699 252.57303 256.11667
 259.19254 261.98630 264.48129 266.86176 269.11218 271.18375 273.07297 274.78476
 276.41000 278.28040 280.03223 281.57047 282.90167 284.07947 285.15402 286.12747
 287.00299 287.78265 288.46375 289.33173
 366.78100 356.34669 345.79037 334.66806 323.08274 311.28843 299.17012 286.98480
 274.70849 262.61717 250.63786 239.95054 230.08423 221.19992 213.39360 206.40729
 200.25297 195.20266 191.79635 189.85003 188.89872 188.97440 189.82109 191.14077
 192.87746 194.98415 197.25883 199.62952 202.08620 204.57789 206.67758 208.53126
 210.16895 211.32563 211.56632 211.80600 211.75469 211.47138 211.11606 210.75775
 210.38643 210.10812 209.92781 209.80349 209.74318 210.08586 210.48355 210.88423
 211.68892 212.87861 214.14029 215.93498 217.87466 219.92935 222.03604 224.13072
 226.20241 228.29809 230.40678 232.52446 234.66515 236.84884 239.11652 241.49821
 244.13089 246.39358 248.40727 250.18395 251.61264 252.74732 253.58101 253.90869
 253.95738 253.74307 253.11475 252.07444 250.69212 248.86481 246.78550 244.63018
 242.43287 240.24855 238.08024 235.93092 233.80261 231.68130 229.71898 227.88767
 226.18235 224.66604 223.30773 222.09141 220.98510 219.95678 219.07247 218.22516
 217.47884 216.67053 215.78021 215.15590 214.61758 215.17699 216.51109 217.58640
 218.74355 220.38007 221.83813 222.26854 222.08125 222.13121 223.34520 225.21150
 227.72891 231.45332 235.76433 240.14044 244.49800 248.69385 252.57123 256.10712
 259.19501 261.99487 264.54303 266.96661 269.24426 271.35223 273.26761 274.98828
 276.58325 278.25259 279.87308 281.33609 282.60220 283.72238 284.74435 285.67023
 286.50293 287.24445 287.89224 288.71777
 366.78100 356.34652 345.79005 334.66757 323.08209 311.28762 299.16914 286.98366
 274.70718 262.61571 250.63623 239.94875 230.08228 221.19780 213.39132 206.40485
 200.25037 195.19989 191.79341 189.84694 188.89546 188.97098 189.81751 191.13703
 192.87355 194.98008 197.25460 199.62512 202.08164 204.57317 206.67269 208.52621
 210.16374 211.32026 211.56078 211.80031 211.74883 211.46535 211.10988 210.75140
 210.37992 210.10144 209.92097 209.79649 209.73601 210.07854 210.47606 210.87658
 211.68111 212.87063 214.13215 215.92667 217.86620 219.92072 222.02724 224.12177
 226.19329 228.28881 230.39734 232.51486 234.65538 236.83890 239.10643 241.48795
 244.12047 246.38300 248.39652 250.17304 251.60157 252.73609 253.56961 253.89714
 253.94566 253.73118 253.10270 252.06223 250.67975 248.85227 246.77280 244.61732
 242.41984 240.23537 238.06689 235.91741 233.78893 231.66746 229.70498 227.87350
 226.16803 224.65155 223.29307 222.07660 220.97012 219.94164 219.05716 218.20969
 217.46321 216.65473 215.76426 215.13978 214.60130 215.17635 216.53699 217.57259
 218.71667 220.34082 221.84616 222.15697 221.80272 221.88968 223.24870 225.23273
 227.76918 231.52141 235.85129 240.23311 244.58528 248.78192 252.64116 256.13568
 259.28821 262.08902 264.57819 266.96011 269.20160 271.31335 273.27771 274.94913
 276.51196 277.98013 279.60724 281.12415 282.43692 283.59836 284.65802 285.61798
 286.48138 287.25021 287.92188 288.77780
 366.78100 356.34603 345.78905 334.66608 323.08010 311.28513 299.16616 286.98018
 274.70321 262.61124 250.63126 239.94329 230.07631 221.19134 213.38437 206.39739
 200.24242 195.19145 191.78447 189.83750 188.88552 188.96055 189.80658 191.12560
 192.86163 194.96766 197.24168 199.61171 202.06773 204.55876 206.65779 208.51081
 210.14784 211.30386 211.54389 211.78292 211.73094 211.44697 211.09100 210.73202
 210.36005 210.08107 209.90010 209.77513 209.71415 210.05618 210.45321 210.85323
 211.65726 212.84628 214.10731 215.90134 217.84036 219.89439 222.00042 224.09444
 226.16547 228.26049 230.36852 232.48555 234.62557 236.80860 239.07562 241.45665
 244.08868 246.35070 248.36373 250.13976 251.56778 252.70181 253.53483 253.86186
 253.90989 253.69491 253.06594 252.02497 250.64199 248.81402 246.73404 244.57807
 242.38010 240.19512 238.02615 235.87618 233.74720 231.62523 229.66225 227.83028
 226.12431 224.60733 223.24836 222.03138 220.92441 219.89544 219.01046 218.16249
 217.41552 216.60654 215.71557 215.09059 214.55162 215.17262 216.59746 217.54288
 218.73055 220.36522 221.89003 222.11121 221.51456 221.51706 223.17560 225.21179
 227.83752 231.62248 235.96150 240.38521 244.77017 248.98944 252.89977 256.36450
 259.46268 262.21454 264.68665 266.99417 269.19055 271.27649 273.17300 274.84674
 276.67188 278.70193 280.48245 282.04584 283.39883 284.59589 285.68802 286.67743
 287.56729 288.35971 289.05194 289.93411
 366.78100 356.34628 345.78955 334.66683 323.08111 311.28638 299.16766 286.98194
 274.70521 262.61349 250.63377 239.94604 230.07932 221.19460 213.38787 206.40115
 200.24643 195.19570 191.78898 189.84226 188.89054 188.96581 189.81209 191.13137
 192.86764 194.97392 197.24820 199.61847 202.07475 204.56603 206.66530 208.51858
 210.15586 211.31213 211.55241 211.79169 211.73996 211.45624 211.10052 210.74179
 210.37007 210.09135 209.91062 209.78590 209.72518 210.06745 210.46473 210.86501
 211.66928 212.85856 214.11984 215.91411 217.85339 219.90767 222.01394 224.10822
 226.17950 228.27477 230.38305 232.50033 234.64061 236.82388 239.09116 241.47244
 244.10471 246.36699 248.38027 250.15654 251.58482 252.71910 253.55237 253.87965
 253.92793 253.71320 253.08448 252.04376 250.66103 248.83331 246.75359 244.59786
 242.40014 240.21542 238.04669 235.89697 233.76825 231.64652 229.68380 227.85208
 226.14635 224.62963 223.27091 222.05418 220.94746 219.91874 219.03401 218.18629
 217.43957 216.63085 215.74012 215.11540 214.57668 215.19685 216.59746 217.53563
 218.76370 220.30804 221.74117 221.91159 221.24387 221.24059 223.12956 225.22569
 227.92648 231.74399 236.10045 240.54283 244.95207 249.20320 253.13208 256.61658
 259.74503 262.52161 264.96680 267.22983 269.38336 271.43546 273.24567 275.13019
 277.47971 279.64505 281.51880 283.16406 284.58792 285.84766 286.99698 288.03821
 288.97464 289.80856 290.53705 291.46542
 366.78100 356.34615 345.78929 334.66644 323.08059 311.28573 299.16688 286.98103
 274.70418 262.61232 250.63247 239.94462 230.07776 221.19291 213.38606 206.39920
 200.24435 195.19350 191.78664 189.83979 188.88794 188.96308 189.80923 191.12838
 192.86453 194.97067 197.24482 199.61497 202.07111 204.56226 206.66141 208.51455
 210.15170 211.30785 211.54799 211.78714 211.73529 211.45144 211.09558 210.73673
 210.36488 210.08602 209.90517 209.78032 209.71946 210.06161 210.45876 210.85890
 211.66305 212.85220 214.11335 215.90749 217.84664 219.90079 222.00693 224.10108
 226.17223 228.26737 230.37552 232.49267 234.63281 236.81596 239.08311 241.46425
 244.09640 246.35855 248.37170 250.14784 251.57599 252.71014 253.54328 253.87043
 253.91858 253.70372 253.07487 252.03402 250.65116 248.82331 246.74346 244.58761
 242.38975 240.20490 238.03605 235.88619 233.75734 231.63549 229.67263 227.84078
 226.13493 224.61807 223.25922 222.04237 220.93551 219.90666 219.02181 218.17396
 217.42710 216.61825 215.72740 215.10254 214.56369 215.19254 216.60893 217.51039
 218.76819 220.36256 221.68230 221.69901 220.99072 221.11224 222.86043 225.14224
 227.92462 231.80205 236.19048 240.64035 245.05647 249.30888 253.24927 256.76270
 259.89163 262.67941 265.13818 267.39914 269.54193 271.58240 273.35928 275.42780
 277.73621 279.88968 281.75317 283.38947 284.80551 286.05838 287.20142 288.23694
 289.16824 289.99762 290.72211 291.64542
 366.78100 356.34704 345.79109 334.66913 323.08418 311.29022 299.17226 286.98731
 274.71135 262.62040 250.64144 239.95449 230.08853 221.20457 213.39862 206.41266
 200.25871 195.20875 191.80279 189.85684 188.90588 188.98193 189.82897 191.14901
 192.88606 194.99310 197.26815 199.63919 202.09624 204.58828 206.68832 208.54237
 210.18041 211.33746 211.57850 211.81854 211.76759 211.48463 211.12968 210.77172
 210.40076 210.12281 209.94285 209.81890 209.75894 210.10199 210.50003 210.90107
 211.70612 212.89616 214.15821 215.95325 217.89329 219.94834 222.05538 224.15043
 226.22247 228.31851 230.42756 232.54560 234.68665 236.87069 239.13874 241.52078
 244.15382 246.41687 248.43091 250.20796 251.63700 252.77204 253.60609 253.93413
 253.98318 253.76922 253.14126 252.10131 250.71935 248.89240 246.81344 244.65849
 242.46153 240.27757 238.10962 235.96066 233.83271 231.71175 229.74979 227.91884
 226.21388 224.69793 223.33997 222.12401 221.01806 219.99010 219.10615 218.25919
 217.51324 216.70528 215.81532 215.19137 214.65341 215.23201 216.57474 217.54114
 218.70224 220.30043 221.71252 221.75616 220.88908 220.94962 222.61377 224.99796
 227.86630 231.82407 236.25136 240.71710 245.16365 249.41748 253.33815 256.86328
 259.96542 262.71741 265.17950 267.46640 269.63754 271.72192 273.45023 275.64609
 277.99011 280.10495 281.93497 283.54187 284.93250 286.16287 287.28537 288.30231
 289.21689 290.03137 290.74286 291.64957
 366.78100 356.34827 345.79355 334.67282 323.08910 311.29637 299.17965 286.99592
 274.72120 262.63147 250.65375 239.96802 230.10330 221.22057 213.41584 206.43112
 200.27839 195.22967 191.82494 189.88022 188.93049 189.00777 189.85604 191.17732
 192.91559 195.02386 197.30014 199.67241 202.13069 204.62396 206.72524 208.58051
 210.21979 211.37806 211.62034 211.86161 211.81189 211.53016 211.17643 210.81971
 210.44998 210.17326 209.99453 209.87181 209.81308 210.15736 210.55663 210.95891
 211.76518 212.95645 214.21973 216.01600 217.95728 220.01355 222.12183 224.21810
 226.29138 228.38865 230.49893 232.61820 234.76048 236.94575 239.21502 241.59830
 244.23257 246.49685 248.51212 250.29040 251.72067 252.85695 253.69222 254.02150
 254.07177 253.85904 253.23232 252.19359 250.81287 248.98714 246.90942 244.75569
 242.55997 240.37724 238.21052 236.06279 233.93607 231.81634 229.85561 228.02589
 226.32216 224.80744 223.45071 222.23599 221.13126 220.10454 219.22181 218.37609
 217.63136 216.82463 215.93591 215.31318 214.77646 215.28229 216.49829 217.56839
 218.77028 220.19250 221.41824 221.44850 220.81169 221.08138 222.44997 224.97708
 227.88191 231.90167 236.37534 240.84785 245.28108 249.51186 253.38602 256.87622
 259.97580 262.75098 265.28098 267.61630 269.81110 271.89484 273.77832 275.86243
 277.92526 279.90311 281.62073 283.12897 284.43417 285.58899 286.64255 287.59702
 288.45544 289.21991 289.88770 290.73874
 366.78100 356.34728 345.79155 334.66983 323.08510 311.29138 299.17366 286.98893
 274.71321 262.62248 250.64376 239.95703 230.09131 221.20759 213.40186 206.41614
 200.26241 195.21269 191.80697 189.86124 188.91052 188.98679 189.83407 191.15435
 192.89162 194.99890 197.27417 199.64545 202.10273 204.59500 206.69528 208.54955
 210.18783 211.34510 211.58638 211.82666 211.77593 211.49321 211.13848 210.78076
 210.41004 210.13231 209.95259 209.82886 209.76914 210.11242 210.51069 210.91197
 211.71724 212.90752 214.16979 215.96507 217.90535 219.96062 222.06790 224.16317
 226.23545 228.33173 230.44100 232.55928 234.70055 236.88483 239.15311 241.53538
 244.16866 246.43193 248.44621 250.22349 251.65276 252.78804 253.62231 253.95059
 253.99986 253.78614 253.15842 252.11869 250.73697 248.91024 246.83152 244.67680
 242.48007 240.29635 238.12862 235.97990 233.85218 231.73145 229.76973 227.93900
 226.23428 224.71856 223.36083 222.14511 221.03938 220.01166 219.12793 218.28121
 217.53549 216.72776 215.83804 215.21431 214.67659 215.22398 216.51225 217.50385
 218.78650 220.25224 221.20488 221.02434 220.52220 220.97070 222.35239 224.92871
 227.92838 232.00185 236.51353 240.97974 245.41634 249.67059 253.52071 256.94632
 260.00958 262.78278 265.34601 267.72308 269.93927 272.02441 273.94974 275.76184
 277.45706 278.68192 280.22607 281.66302 282.90659 284.00681 285.01059 285.91998
 286.73785 287.46616 288.10242 288.91324
 366.78100 356.34631 345.78963 334.66694 323.08126 311.28657 299.16789 286.98220
 274.70552 262.61383 250.63415 239.94646 230.07978 221.19509 213.38841 206.40172
 200.24704 195.19635 191.78967 189.84298 188.89130 188.96661 189.81293 191.13224
 192.86856 194.97487 197.24919 199.61950 202.07582 204.56713 206.66645 208.51976
 210.15708 211.31339 211.55371 211.79302 211.74134 211.45765 211.10197 210.74328
 210.37160 210.09291 209.91223 209.78754 209.72686 210.06917 210.46649 210.86680
 211.67112 212.86043 214.12175 215.91606 217.85537 219.90969 222.01600 224.11032
 226.18163 228.27695 230.38526 232.50258 234.64289 236.82621 239.09352 241.47484
 244.10715 246.36947 248.38278 250.15910 251.58741 252.72173 253.55504 253.88236
 253.93067 253.71599 253.08730 252.04662 250.66393 248.83625 246.75656 244.60088
 242.40319 240.21851 238.04982 235.90014 233.77145 231.64977 229.68708 227.85540
 226.14971 224.63303 223.27434 222.05766 220.95097 219.92229 219.03760 218.18992
 217.44323 216.63455 215.74386 215.11918 214.58049 215.17267 216.55159 217.47943
 218.70998 220.26340 221.26616 220.95714 220.25737 220.64738 222.13264 224.79456
 227.94843 232.09341 236.62566 241.10315 245.57043 249.85313 253.71533 257.12225
 260.13434 262.85797 265.38721 267.75571 269.98746 272.09250 274.04095 275.81873
 277.49316 278.47229 279.59830 281.03296 282.27451 283.37299 284.37515 285.28308
 286.09964 286.82678 287.46201 288.27155
 366.78100 356.34646 345.78991 334.66737 323.08183 311.28728 299.16874 286.98320
 274.70666 262.61511 250.63557 239.94803 230.08148 221.19694 213.39040 206.40385
 200.24931 195.19877 191.79223 189.84568 188.89414 188.96960 189.81605 191.13551
 192.87197 194.97842 197.25288 199.62334 202.07979 204.57125 206.67071 208.52417
 210.16162 211.31808 211.55854 211.79799 211.74645 211.46291 211.10736 210.74882
 210.37728 210.09874 209.91819 209.79365 209.73311 210.07556 210.47302 210.87348
 211.67793 212.86739 214.12885 215.92330 217.86276 219.91722 222.02368 224.11813
 226.18959 228.28505 230.39350 232.51096 234.65142 236.83487 239.10233 241.48379
 244.11625 246.37870 248.39216 250.16862 251.59707 252.73153 253.56499 253.89244
 253.94090 253.72636 253.09782 252.05727 250.67473 248.84719 246.76764 244.61210
 242.41456 240.23001 238.06147 235.91193 233.78338 231.66184 229.69930 227.86776
 226.16221 224.64567 223.28713 222.07058 220.96404 219.93550 219.05095 218.20341
 217.45687 216.64833 215.75778 215.13324 214.59470 215.17685 216.53746 217.48822
 218.70534 220.22655 221.23686 220.83926 220.02275 220.45996 221.99481 224.68747
 227.97260 232.19629 236.75340 241.23538 245.71332 249.98480 253.83266 257.22687
 260.22641 262.95053 265.48645 267.85983 270.09924 272.21182 274.17551 275.94159
 277.51535 278.33734 279.56894 281.04071 282.31442 283.44131 284.46942 285.40085
 286.23853 286.98450 287.63617 288.46664
 366.78100 356.34587 345.78874 334.66561 323.07948 311.28435 299.16522 286.97909
 274.70196 262.60983 250.62970 239.94157 230.07444 221.18931 213.38218 206.39505
 200.23992 195.18879 191.78166 189.83453 188.88240 188.95727 189.80314 191.12201
 192.85788 194.96375 197.23761 199.60748 202.06335 204.55422 206.65309 208.50596
 210.14283 211.29870 211.53857 211.77744 211.72531 211.44118 211.08505 210.72592
 210.35379 210.07466 209.89353 209.76840 209.70727 210.04914 210.44601 210.84588
 211.64975 212.83862 214.09949 215.89336 217.83223 219.88610 221.99197 224.08584
 226.15671 228.25158 230.35945 232.47632 234.61619 236.79906 239.06593 241.44680
 244.07867 246.34054 248.35341 250.12928 251.55715 252.69102 253.52389 253.85076
 253.89863 253.68350 253.05437 252.01324 250.63010 248.80197 246.72184 244.56571
 242.36758 240.18245 238.01332 235.86319 233.73406 231.61193 229.64880 227.81667
 226.11054 224.59341 223.23428 222.01715 220.91002 219.88089 218.99576 218.14763
 217.40050 216.59137 215.70024 215.07511 214.53598 215.14619 216.56021 217.46501
 218.70563 220.23404 221.23285 220.77412 219.82587 220.15358 221.76457 224.61934
 228.01660 232.29788 236.86925 241.35959 245.84328 250.10233 253.92940 257.30591
 260.29367 263.02301 265.57492 267.96298 270.21835 272.34836 274.32635 276.06876
 277.54242 278.31992 279.49191 280.97388 282.25638 283.39105 284.42630 285.36414
 286.20764 286.95877 287.61496 288.45117
 366.78100 356.34483 345.78666 334.66250 323.07533 311.27916 299.15899 286.97182
 274.69365 262.60049 250.61932 239.93015 230.06198 221.17581 213.36764 206.37948
 200.22331 195.17114 191.76297 189.81480 188.86163 188.93547 189.78030 191.09813
 192.83296 194.93779 197.21063 199.57946 202.03429 204.52412 206.62195 208.47378
 210.10962 211.26445 211.50328 211.74111 211.68794 211.40277 211.04561 210.68544
 210.31227 210.03210 209.84993 209.72377 209.66160 210.00243 210.39826 210.79709
 211.59992 212.78776 214.04759 215.84042 217.77825 219.83108 221.93591 224.02875
 226.09858 228.19241 230.29924 232.41507 234.55390 236.73574 239.00157 241.38140
 244.01223 246.27306 248.28490 250.05973 251.48656 252.61939 253.45122 253.77705
 253.82389 253.60772 252.97755 251.93538 250.55121 248.72204 246.64088 244.48371
 242.28454 240.09837 237.92820 235.77703 233.64687 231.52370 229.55953 227.72636
 226.01919 224.50103 223.14086 221.92269 220.81452 219.78435 218.89818 218.04902
 217.30085 216.49068 215.59851 214.97234 214.43217 215.09219 216.60542 217.43753
 218.65817 220.22498 221.24394 220.73627 219.68207 219.87109 221.52168 224.56180
 228.05946 232.39653 236.98622 241.48586 245.98285 250.22867 254.01756 257.36819
 260.35040 263.08408 265.64740 268.04663 270.31549 272.45090 274.44510 276.24292
 277.62848 278.36945 279.52243 281.02301 282.32898 283.48444 284.53860 285.49362
 286.35254 287.11743 287.78561 288.63712
 366.78100 356.34443 345.78586 334.66129 323.07372 311.27715 299.15658 286.96900
 274.69043 262.59686 250.61529 239.92572 230.05715 221.17058 213.36201 206.37344
 200.21687 195.16430 191.75573 189.80716 188.85358 188.92701 189.77144 191.08887
 192.82330 194.92773 197.20016 199.56859 202.02302 204.51245 206.60988 208.46131
 210.09674 211.25116 211.48959 211.72702 211.67345 211.38788 211.03031 210.66974
 210.29617 210.01560 209.83303 209.70646 209.64389 209.98431 210.37974 210.77817
 211.58060 212.76803 214.02746 215.81989 217.75732 219.80975 221.91418 224.00661
 226.07604 228.16947 230.27589 232.39132 234.52975 236.71118 238.97661 241.35604
 243.98647 246.24690 248.25833 250.03276 251.45919 252.59162 253.42305 253.74847
 253.79490 253.57833 252.94776 251.90519 250.52062 248.69105 246.60948 244.45191
 242.25234 240.06577 237.89520 235.74363 233.61305 231.48948 229.52491 227.69134
 225.98377 224.46520 223.10463 221.88606 220.77749 219.74692 218.86035 218.01078
 217.26221 216.45163 215.55906 214.93249 214.39192 215.06012 216.60728 217.45084
 218.56874 220.12381 221.06943 220.53867 219.50677 219.63669 221.46890 224.56311
 228.18439 232.51767 237.11621 241.64038 246.12085 250.34644 254.10399 257.41626
 260.40472 263.15952 265.73938 268.15198 270.41415 272.56445 274.58676 276.36310
 277.66080 278.35153 278.84457 279.92145 281.16809 282.27518 283.28525 284.20032
 285.02328 285.75616 286.39639 287.21228
 366.78100 356.34509 345.78717 334.66326 323.07635 311.28044 299.16052 286.97361
 274.69570 262.60279 250.62187 239.93296 230.06505 221.17914 213.37122 206.38331
 200.22740 195.17549 191.76757 189.81966 188.86675 188.94084 189.78592 191.10401
 192.83910 194.94419 197.21727 199.58636 202.04145 204.53154 206.62962 208.48171
 210.11780 211.27289 211.51197 211.75006 211.69715 211.41224 211.05532 210.69541
 210.32250 210.04259 209.86067 209.73476 209.67285 210.01394 210.41002 210.80911
 211.61220 212.80029 214.06037 215.85346 217.79155 219.84464 221.94972 224.04281
 226.11290 228.20699 230.31407 232.43016 234.56925 236.75134 239.01742 241.39751
 244.02860 246.28969 248.30177 250.07686 251.50395 252.63704 253.46912 253.79521
 253.84230 253.62639 252.99647 251.95456 250.57065 248.74174 246.66082 244.50391
 242.30500 240.11909 237.94917 235.79826 233.66835 231.54544 229.58152 227.74861
 226.04170 224.52379 223.16387 221.94596 220.83805 219.80814 218.92222 218.07331
 217.32540 216.51549 215.62357 214.99766 214.45775 215.07446 216.53084 217.56627
 218.45552 219.85231 220.87761 220.30334 219.22806 219.29759 221.39929 224.44925
 228.29227 232.61902 237.24721 241.79297 246.24475 250.44908 254.19044 257.48856
 260.47186 263.23694 265.82187 268.23770 270.50974 272.67917 274.70779 276.45224
 277.69406 278.43701 278.79510 279.05511 279.74731 280.78378 281.80048 282.72156
 283.54993 284.28763 284.93204 285.75330
 366.78100 356.34547 345.78793 334.66440 323.07787 311.28234 299.16280 286.97627
 274.69874 262.60620 250.62567 239.93714 230.06961 221.18407 213.37654 206.38901
 200.23347 195.18194 191.77441 189.82688 188.87434 188.94881 189.79428 191.11274
 192.84821 194.95368 197.22715 199.59661 202.05208 204.54255 206.64101 208.49348
 210.12995 211.28542 211.52488 211.76335 211.71082 211.42628 211.06975 210.71022
 210.33768 210.05815 209.87662 209.75109 209.68955 210.03102 210.42749 210.82695
 211.63042 212.81889 214.07936 215.87282 217.81129 219.86476 221.97022 224.06369
 226.13416 228.22863 230.33609 232.45256 234.59203 236.77449 239.04096 241.42143
 244.05290 246.31436 248.32683 250.10230 251.52976 252.66323 253.49570 253.82217
 253.86963 253.65410 253.02457 251.98303 250.59950 248.77097 246.69044 244.53390
 242.33537 240.14984 237.98030 235.82977 233.70024 231.57771 229.61417 227.78164
 226.07511 224.55757 223.19804 221.98051 220.87298 219.84344 218.95791 218.10938
 217.36184 216.55231 215.66078 215.03525 214.49571 215.08095 216.46577 217.64403
 218.53766 219.84821 220.86305 220.10291 218.92099 218.91032 221.21265 224.29257
 228.36877 232.70918 237.37151 241.92085 246.37321 250.58188 254.31323 257.60464
 260.57739 263.33649 265.91431 268.32678 270.59906 272.76462 274.78613 276.49768
 277.68381 278.39630 278.76807 279.00916 279.35574 280.07910 281.03156 281.91498
 282.72461 283.44559 284.07541 284.87808
 366.78100 356.34337 345.78374 334.65811 323.06948 311.27185 299.15022 286.96160
 274.68197 262.58734 250.60471 239.91408 230.04445 221.15682 213.34719 206.35756
 200.19993 195.14630 191.73667 189.78704 188.83241 188.90479 189.74816 191.06453
 192.79790 194.90127 197.17264 199.54001 201.99338 204.48175 206.57812 208.42849
 210.06286 211.21623 211.45360 211.68998 211.63535 211.34872 210.99009 210.62846
 210.25383 209.97220 209.78857 209.66094 209.59731 209.93668 210.33105 210.72842
 211.52979 212.71617 213.97454 215.76591 217.70228 219.75365 221.85702 223.94839
 226.01676 228.10913 230.21450 232.32887 234.46624 236.64661 238.91098 241.28936
 243.91873 246.17810 248.18847 249.96184 251.38721 252.51858 253.34895 253.67332
 253.71869 253.50106 252.86943 251.82580 250.44017 248.60955 246.52692 244.36829
 242.16766 239.98003 237.80840 235.65577 233.52414 231.39951 229.43388 227.59925
 225.89062 224.37099 223.00936 221.78974 220.68011 219.64848 218.76085 217.91022
 217.16059 216.34896 215.45533 214.82770 214.28607 214.97644 216.60399 217.52849
 218.56454 219.89851 220.80888 220.02242 218.70609 218.55795 220.93137 224.28961
 228.42308 232.82857 237.48459 242.04251 246.51030 250.71097 254.42793 257.72385
 260.71356 263.46664 266.01822 268.40793 270.66864 272.83084 274.88419 276.61337
 277.71506 278.31781 278.58795 278.74716 279.15775 279.99432 280.96817 281.87909
 282.70538 283.44119 284.08395 284.90311
 354.97500 345.04800 334.58700 324.11500 313.32600 302.53700 291.65000 280.76700
 269.93100 259.19300 248.62200 238.61700 229.08700 220.35500 212.54000 205.53500
 199.46400 194.49300 191.14300 189.19000 188.08900 188.01400 188.72400 189.90600
 191.46900 193.38200 195.40300 197.55600 199.80700 202.06000 204.28800 206.47900
 208.55200 210.37800 212.02500 213.65900 214.99800 216.11800 217.17200 218.25900
 219.49400 220.64500 221.67900 222.61400 223.54500 224.98200 226.57100 228.19000
 229.79700 231.81100 233.86500 235.97200 238.24200 240.55300 242.89900 245.25300
 247.48800 249.53500 251.36600 252.84800 254.09800 255.16700 256.02700 256.25300
 256.09500 255.54300 253.93500 252.56600 251.38400 250.24500 249.05200 247.70100
 246.01600 243.99600 241.78400 239.39300 236.81300 234.22300 231.65800 229.14400
 226.74000 224.47300 222.33500 220.32500 218.44000 216.67700 214.96200 213.47200
 212.20000 211.10800 210.26000 209.63900 209.24400 209.03100 209.05800 209.33300
 209.78400 210.62600 211.33100 212.39100 213.62500 214.84668 217.72949 219.47640
 220.32566 220.86828 220.88710 220.27371 219.43733 218.84250 219.04934 220.86203
 222.60583 225.72206 229.03064 232.61777 236.12270 239.51333 242.70767 245.68587
 248.41061 250.90679 253.19353 254.91714 256.48655 257.94920 259.39966 260.69384
 261.81714 262.77997 263.71679 264.54570 265.26305 265.89772 266.47676 267.00133
 267.47312 267.89325 268.26027 268.72800
