|-------------------------------------------------------------------------|
|   File Name : in_temp.dat
|   Subject   : temperature profiles used for initial guess atmosphere
|   File Type : input of gmtr
|   Data Type : atmospherical data
|   Author/s  : WRF-Chem
|   Date      : Fri Jul 26 15:39:24 2024
|-------------------------------------------------------------------------|

 WRF-Chem temperature
#
 values of T (K)    (8f10.5)
#
 354.97500 345.04800 334.58700 324.11500 313.32600 302.53700 291.65000 280.76700
 269.93100 259.19300 248.62200 238.61700 229.08700 220.35500 212.54000 205.53500
 199.46400 194.49300 191.14300 189.19000 188.08900 188.01400 188.72400 189.90600
 191.46900 193.38200 195.40300 197.55600 199.80700 202.06000 204.28800 206.47900
 208.55200 210.37800 212.02500 213.65900 214.99800 216.11800 217.17200 218.25900
 219.49400 220.64500 221.67900 222.61400 223.54500 224.98200 226.57100 228.19000
 229.79700 231.81100 233.86500 235.97200 238.24200 240.55300 242.89900 245.25300
 247.48800 249.53500 251.36600 252.84800 254.09800 255.16700 256.02700 256.25300
 256.09500 255.54300 253.93500 252.56600 251.38400 250.24500 249.05200 247.70100
 246.01600 243.99600 241.78400 239.39300 236.81300 234.22300 231.65800 229.14400
 226.74000 224.47300 222.33500 220.32500 218.44000 216.67700 214.96200 213.47200
 212.20000 211.10800 210.26000 209.63900 209.24400 209.03100 209.05800 209.33300
 209.78400 210.62600 211.33100 212.39100 213.62500 214.84668 217.72949 219.47640
 220.32566 220.86828 220.88710 220.27371 219.43733 218.84250 219.04934 220.86203
 222.60583 225.72206 229.03064 232.61777 236.12270 239.51333 242.70767 245.68587
 248.41061 250.90679 253.19353 254.91714 256.48655 257.94920 259.39966 260.69384
 261.81714 262.77997 263.71679 264.54570 265.26305 265.89772 266.47676 267.00133
 267.47312 267.89325 268.26027 268.72800
 366.78100 356.33500 345.76700 334.63300 323.03600 311.23000 299.10000 286.90300
 274.61500 262.51200 250.52100 239.82200 229.94400 221.04800 213.23000 206.23200
 200.06600 195.00400 191.58600 189.62800 188.66500 188.72900 189.56400 190.87200
 192.59700 194.69200 196.95500 199.31400 201.75900 204.23900 206.32700 208.16900
 209.79500 210.94000 211.16900 211.39700 211.33400 211.03900 210.67200 210.30200
 209.91900 209.62900 209.43700 209.30100 209.22900 209.56000 209.94600 210.33500
 211.12800 212.30600 213.55600 215.33900 217.26700 219.31000 221.40500 223.48800
 225.54800 227.63200 229.72900 231.83500 233.96400 236.13600 238.39200 240.76200
 243.38300 245.63400 247.63600 249.40100 250.81800 251.94100 252.76300 253.07900
 253.11600 252.89000 252.25000 251.19800 249.80400 247.96500 245.87400 243.70700
 241.49800 239.30200 237.12200 234.96100 232.82100 230.68800 228.71400 226.87100
 225.15400 223.62600 222.25600 221.02800 219.91000 218.87000 217.97400 217.11500
 216.35700 215.53700 214.63500 213.99900 213.44900 212.85855 212.01316 212.61654
 214.26826 216.08686 218.14273 220.53346 223.40855 226.78828 231.49734 235.90155
 239.42278 243.28576 247.23140 251.11907 254.80144 258.23331 261.38913 264.27520
 266.89312 269.26852 271.44504 273.08845 274.58484 275.98591 277.39845 278.65879
 279.75272 280.69038 281.56708 282.34086 283.01050 283.60295 284.14348 284.63317
 285.07358 285.46577 285.80838 286.24500
 381.81900 372.39900 361.20600 349.77600 337.62200 324.85300 311.81000 298.35300
 284.86000 271.32400 258.56100 246.30400 236.08700 226.79600 218.44800 211.29000
 205.52200 200.89400 197.38100 194.84800 193.01500 192.31500 192.25000 192.43100
 192.91200 193.53700 194.13600 194.71200 195.26200 195.83100 196.39300 196.97600
 197.60400 198.14900 198.58400 199.05700 199.69500 200.37800 201.05400 201.70800
 202.31300 202.85700 203.35500 203.86200 204.56900 205.29700 206.02600 206.98700
 208.19300 209.44100 210.96900 212.57600 214.46200 216.51300 218.63000 220.85300
 223.34100 225.96200 228.73900 231.69700 234.70600 237.70600 240.69200 243.65700
 246.73700 249.69900 252.52100 255.06300 257.29000 259.23300 260.63300 261.68000
 262.46100 262.79800 262.69100 262.22400 261.06900 259.52500 257.70700 255.50700
 253.00100 250.30200 247.39800 244.45200 241.65400 239.05400 236.73300 234.59000
 232.59500 230.72500 228.83400 226.82600 224.66600 222.38700 220.10400 217.71500
 215.45900 213.06600 210.54600 208.09300 205.35400 202.08130 196.05959 200.71215
 209.01611 216.90438 223.84126 229.78593 235.00632 240.20838 245.98943 250.68668
 254.32982 257.93487 261.55666 264.96801 268.15192 271.06452 273.76717 276.25691
 278.57680 280.74479 282.77456 284.60533 286.27232 287.81705 289.31715 290.65561
 291.81734 292.81312 293.70701 294.49387 295.17482 295.77730 296.32696 296.82492
 297.27278 297.67160 298.02000 298.46400
 399.33000 389.90700 379.81300 368.66800 357.52200 345.30100 333.07400 320.22700
 307.21600 293.84800 280.37600 267.29600 254.61000 242.98700 232.15100 221.97700
 212.67200 204.28600 197.66900 192.82100 189.48600 187.45200 186.81400 187.08900
 187.78100 189.05400 190.64800 192.54200 194.63000 196.75200 198.67100 200.15800
 201.53500 202.48700 202.97500 203.34000 203.53900 203.49700 203.38500 203.24700
 203.00500 202.78600 202.60300 202.43700 202.42600 202.88800 203.42000 203.95100
 204.89500 205.99200 207.30100 208.95800 210.73800 213.10000 215.56400 218.18000
 220.96600 223.91800 226.96100 230.09200 233.29300 236.55700 239.95500 243.53700
 246.84500 249.39000 251.54200 253.47400 255.19500 256.48400 257.43100 258.05900
 258.21200 258.04000 257.58200 256.64300 255.23900 253.50700 251.40800 249.05600
 246.57600 243.99400 241.38900 238.83000 236.34400 233.98600 231.96900 230.11800
 228.42300 226.89900 225.54800 224.29700 223.10500 221.96500 220.95800 220.11300
 219.49000 218.92000 218.32500 217.88100 217.42300 216.96366 216.35568 216.80261
 217.73415 218.28582 218.64258 219.10077 220.44626 222.53987 226.38451 230.35736
 233.59734 237.39164 241.29814 245.22796 248.98002 252.51130 255.78595 258.80109
 261.54781 264.05210 266.34239 268.04198 269.58951 271.01303 272.35754 273.55718
 274.59842 275.49092 276.28989 276.99307 277.60161 278.14001 278.63122 279.07623
 279.47646 279.83287 280.14422 280.54100
 399.73800 389.78500 379.66200 368.15100 356.64100 344.35000 331.79200 318.88800
 305.72600 292.49300 279.20900 266.73800 254.69600 244.21100 234.45700 225.43300
 217.56900 210.45100 204.30000 199.30600 195.45800 192.57600 191.02700 190.38600
 190.23900 190.53400 191.16600 191.92500 192.79500 193.76600 194.73200 195.31200
 195.80000 196.05200 196.11500 196.11500 196.03900 195.72300 195.34000 194.98900
 194.75100 194.79200 195.13300 195.59800 196.50600 198.13600 199.85800 201.56600
 204.17900 206.82300 209.89300 213.28400 216.82800 220.60500 224.38700 228.20900
 232.03200 235.82500 239.56000 243.25800 246.84500 250.20100 253.70900 257.46800
 261.53000 264.22100 266.60100 268.68100 270.32900 271.74100 272.83600 273.47400
 273.89800 274.00200 273.75700 273.28800 272.37100 271.10000 269.58900 267.77900
 265.81600 263.72100 261.39300 258.91600 256.29800 253.42300 250.33100 247.11400
 243.83700 240.52900 237.24900 233.99900 230.72800 227.51500 224.25400 220.95200
 217.62700 213.65600 210.12100 206.78900 204.01000 201.99491 199.07309 198.76551
 199.40006 200.48994 201.46112 202.31912 203.45100 204.96110 207.47502 210.85391
 213.70530 217.29629 220.99574 224.72316 228.28753 231.64854 234.68024 237.40893
 239.70644 241.60899 243.46854 245.67368 247.68154 249.52395 251.24767 252.78566
 254.12057 255.26479 256.23740 257.09036 257.82852 258.48160 259.07744 259.61723
 260.10271 260.53504 260.91270 261.39400
 399.73800 389.78500 379.66200 368.15100 356.64100 344.35000 331.79200 318.88800
 305.72600 292.49300 279.20900 266.73800 254.69600 244.21100 234.45700 225.43300
 217.56900 210.45100 204.30000 199.30600 195.45800 192.57600 191.02700 190.38600
 190.23900 190.53400 191.16600 191.92500 192.79500 193.76600 194.73200 195.31200
 195.80000 196.05200 196.11500 196.11500 196.03900 195.72300 195.34000 194.98900
 194.75100 194.79200 195.13300 195.59800 196.50600 198.13600 199.85800 201.56600
 204.17900 206.82300 209.89300 213.28400 216.82800 220.60500 224.38700 228.20900
 232.03200 235.82500 239.56000 243.25800 246.84500 250.20100 253.70900 257.46800
 261.53000 264.22100 266.60100 268.68100 270.32900 271.74100 272.83600 273.47400
 273.89800 274.00200 273.75700 273.28800 272.37100 271.10000 269.58900 267.77900
 265.81600 263.72100 261.39300 258.91600 256.29800 253.42300 250.33100 247.11400
 243.83700 240.52900 237.24900 233.99900 230.72800 227.51500 224.25400 220.95200
 217.62700 213.65600 210.12100 206.78900 204.01000 201.99491 199.07309 198.76551
 199.40006 200.48994 201.46112 202.31912 203.45100 204.96110 207.47502 210.85391
 213.70530 217.29629 220.99574 224.72316 228.28753 231.64854 234.68024 237.40893
 239.70644 241.60899 243.46854 245.67368 247.68154 249.52395 251.24767 252.78566
 254.12057 255.26479 256.23740 257.09036 257.82852 258.48160 259.07744 259.61723
 260.10271 260.53504 260.91270 261.39400
 399.33000 389.90700 379.81300 368.66800 357.52200 345.30100 333.07400 320.22700
 307.21600 293.84800 280.37600 267.29600 254.61000 242.98700 232.15100 221.97700
 212.67200 204.28600 197.66900 192.82100 189.48600 187.45200 186.81400 187.08900
 187.78100 189.05400 190.64800 192.54200 194.63000 196.75200 198.67100 200.15800
 201.53500 202.48700 202.97500 203.34000 203.53900 203.49700 203.38500 203.24700
 203.00500 202.78600 202.60300 202.43700 202.42600 202.88800 203.42000 203.95100
 204.89500 205.99200 207.30100 208.95800 210.73800 213.10000 215.56400 218.18000
 220.96600 223.91800 226.96100 230.09200 233.29300 236.55700 239.95500 243.53700
 246.84500 249.39000 251.54200 253.47400 255.19500 256.48400 257.43100 258.05900
 258.21200 258.04000 257.58200 256.64300 255.23900 253.50700 251.40800 249.05600
 246.57600 243.99400 241.38900 238.83000 236.34400 233.98600 231.96900 230.11800
 228.42300 226.89900 225.54800 224.29700 223.10500 221.96500 220.95800 220.11300
 219.49000 218.92000 218.32500 217.88100 217.42300 216.96366 216.35568 216.80261
 217.73415 218.28582 218.64258 219.10077 220.44626 222.53987 226.38451 230.35736
 233.59734 237.39164 241.29814 245.22796 248.98002 252.51130 255.78595 258.80109
 261.54781 264.05210 266.34239 268.04198 269.58951 271.01303 272.35754 273.55718
 274.59842 275.49092 276.28989 276.99307 277.60161 278.14001 278.63122 279.07623
 279.47646 279.83287 280.14422 280.54100
 381.81900 372.39900 361.20600 349.77600 337.62200 324.85300 311.81000 298.35300
 284.86000 271.32400 258.56100 246.30400 236.08700 226.79600 218.44800 211.29000
 205.52200 200.89400 197.38100 194.84800 193.01500 192.31500 192.25000 192.43100
 192.91200 193.53700 194.13600 194.71200 195.26200 195.83100 196.39300 196.97600
 197.60400 198.14900 198.58400 199.05700 199.69500 200.37800 201.05400 201.70800
 202.31300 202.85700 203.35500 203.86200 204.56900 205.29700 206.02600 206.98700
 208.19300 209.44100 210.96900 212.57600 214.46200 216.51300 218.63000 220.85300
 223.34100 225.96200 228.73900 231.69700 234.70600 237.70600 240.69200 243.65700
 246.73700 249.69900 252.52100 255.06300 257.29000 259.23300 260.63300 261.68000
 262.46100 262.79800 262.69100 262.22400 261.06900 259.52500 257.70700 255.50700
 253.00100 250.30200 247.39800 244.45200 241.65400 239.05400 236.73300 234.59000
 232.59500 230.72500 228.83400 226.82600 224.66600 222.38700 220.10400 217.71500
 215.45900 213.06600 210.54600 208.09300 205.35400 202.08130 196.05959 200.71215
 209.01611 216.90438 223.84126 229.78593 235.00632 240.20838 245.98943 250.68668
 254.32982 257.93487 261.55666 264.96801 268.15192 271.06452 273.76717 276.25691
 278.57680 280.74479 282.77456 284.60533 286.27232 287.81705 289.31715 290.65561
 291.81734 292.81312 293.70701 294.49387 295.17482 295.77730 296.32696 296.82492
 297.27278 297.67160 298.02000 298.46400
 366.78100 356.33868 345.77436 334.64404 323.05072 311.24840 299.12208 286.92876
 274.64444 262.54513 250.55781 239.86249 229.98817 221.09585 213.28153 206.28721
 200.12489 195.06657 191.65225 189.69793 188.73861 188.80629 189.64497 190.95665
 192.68533 194.78402 197.05070 199.41338 201.86206 204.34574 206.43742 208.28310
 209.91278 211.06146 211.29414 211.52582 211.46650 211.17518 210.81186 210.44554
 210.06622 209.77991 209.59159 209.45927 209.39095 209.72563 210.11531 210.50799
 211.30467 212.48635 213.74003 215.52671 217.45839 219.50507 221.60375 223.69043
 225.75411 227.84180 229.94248 232.05216 234.18484 236.36052 238.62020 240.99388
 243.61856 245.87324 247.87892 249.64760 251.06828 252.19496 253.02064 253.34032
 253.38100 253.15869 252.52237 251.47405 250.08373 248.24841 246.16109 243.99777
 241.79245 239.60013 237.42381 235.26649 233.13017 231.00085 229.03053 227.19121
 225.47789 223.95358 222.58726 221.36294 220.24862 219.21230 218.31998 217.46466
 216.71034 215.89402 214.99570 214.36338 213.81706 212.92596 210.82880 209.99832
 210.33798 210.50482 211.79031 215.17838 219.51720 224.27922 230.01724 235.02562
 238.88110 242.88397 247.12383 251.28503 255.04413 258.52173 261.32391 263.62494
 266.41077 269.12762 271.68680 274.19086 276.29684 277.98697 279.33380 280.85083
 282.68445 284.44385 285.98694 287.34464 288.52386 289.56461 290.51501 291.37555
 292.14774 292.83521 293.43466 294.19617
 366.78100 356.33881 345.77461 334.64442 323.05122 311.24903 299.12283 286.92964
 274.64544 262.54625 250.55905 239.86386 229.98966 221.09747 213.28327 206.28908
 200.12688 195.06869 191.65450 189.70030 188.74111 188.80891 189.64772 190.95952
 192.68833 194.78713 197.05394 199.41674 201.86555 204.34935 206.44116 208.28696
 209.91677 211.06557 211.29838 211.53019 211.47099 211.17980 210.81660 210.45041
 210.07121 209.78502 209.59682 209.46463 209.39643 209.73124 210.12104 210.51385
 211.31065 212.49246 213.74626 215.53307 217.46487 219.51168 221.61049 223.69729
 225.76110 227.84890 229.94971 232.05951 234.19232 236.36812 238.62793 241.00173
 243.62654 245.88134 247.88715 249.65595 251.07676 252.20356 253.02937 253.34918
 253.38998 253.16779 252.53159 251.48340 250.09320 248.25801 246.17081 244.00762
 241.80242 239.61023 237.43403 235.27684 233.14064 231.01145 229.04125 227.20206
 225.48887 223.96467 222.59848 221.37428 220.26009 219.22389 218.33170 217.47650
 216.72231 215.90611 215.00792 214.37572 213.82953 212.95833 210.90771 210.10228
 210.33511 210.56239 211.82425 215.11452 219.46370 224.21992 229.92570 234.92891
 238.78108 242.78227 247.03233 251.20374 254.97147 258.48260 261.31320 263.62222
 266.40689 269.10941 271.63934 274.10931 276.21109 277.92017 279.28381 280.80267
 282.62357 284.35815 285.89478 287.25415 288.43198 289.47452 290.42557 291.28766
 292.05969 292.74817 293.34671 294.12076
 366.78100 356.33889 345.77478 334.64467 323.05157 311.24946 299.12335 286.93024
 274.64613 262.54702 250.55992 239.86481 229.99070 221.09859 213.28448 206.29037
 200.12826 195.07016 191.65605 189.70194 188.74283 188.81072 189.64961 190.96150
 192.69040 194.78929 197.05618 199.41907 201.86796 204.35185 206.44375 208.28964
 209.91953 211.06842 211.30131 211.53320 211.47409 211.18299 210.81988 210.45377
 210.07466 209.78855 209.60044 209.46833 209.40023 209.73512 210.12501 210.51790
 211.31479 212.49668 213.75058 215.53747 217.46936 219.51625 221.61514 223.70203
 225.76592 227.85382 229.95471 232.06460 234.19749 236.37338 238.63327 241.00716
 243.63206 245.88695 247.89284 249.66173 251.08262 252.20951 253.03541 253.35530
 253.39619 253.17408 252.53797 251.48986 250.09975 248.26465 246.17754 244.01443
 241.80932 239.61721 237.44110 235.28399 233.14789 231.01878 229.04867 227.20956
 225.49645 223.97234 222.60624 221.38213 220.26802 219.23191 218.33980 217.48469
 216.73058 215.91448 215.01637 214.38426 213.83815 212.98758 210.98520 210.20262
 210.34813 210.61421 211.86964 215.06473 219.38535 224.14586 229.83728 234.84019
 238.69017 242.68810 246.94443 251.12233 254.89656 258.43726 261.29419 263.61340
 266.39969 269.08945 271.59113 274.02789 276.12787 277.85797 279.23926 280.75839
 282.56506 284.27615 285.80582 287.16467 288.34277 289.38492 290.33871 291.19913
 291.97351 292.66269 293.26495 294.03720
 366.78100 356.33887 345.77474 334.64460 323.05147 311.24934 299.12321 286.93008
 274.64595 262.54681 250.55968 239.86455 229.99042 221.09829 213.28415 206.29002
 200.12789 195.06976 191.65563 189.70149 188.74236 188.81023 189.64910 190.96097
 192.68984 194.78870 197.05557 199.41844 201.86731 204.35118 206.44304 208.28891
 209.91878 211.06765 211.30052 211.53239 211.47325 211.18212 210.81899 210.45286
 210.07373 209.78759 209.59946 209.46733 209.39920 209.73407 210.12394 210.51680
 211.31367 212.49554 213.74941 215.53628 217.46814 219.51501 221.61388 223.70075
 225.76462 227.85248 229.95335 232.06322 234.19609 236.37196 238.63183 241.00569
 243.63056 245.88543 247.89130 249.66017 251.08103 252.20790 253.03377 253.35364
 253.39451 253.17238 252.53624 251.48811 250.09798 248.26285 246.17572 244.01258
 241.80745 239.61532 237.43919 235.28206 233.14592 231.01679 229.04666 227.20753
 225.49440 223.97027 222.60413 221.38000 220.26587 219.22974 218.33761 217.48247
 216.72834 215.91221 215.01408 214.38195 213.83582 213.01001 211.06541 210.29630
 210.37663 210.66367 211.91159 215.02667 219.29790 224.06770 229.75565 234.75549
 238.60016 242.59346 246.85486 251.03801 254.82025 258.38907 261.27032 263.59995
 266.38882 269.06671 271.54166 273.94638 276.04709 277.80066 279.19971 280.71902
 282.51019 284.19827 285.72073 287.07907 288.25797 289.30103 290.25394 291.11624
 291.89093 292.58051 293.18530 293.96027
 366.78100 356.33881 345.77461 334.64442 323.05123 311.24904 299.12284 286.92965
 274.64546 262.54627 250.55907 239.86388 229.98969 221.09750 213.28330 206.28911
 200.12692 195.06873 191.65453 189.70034 188.74115 188.80896 189.64776 190.95957
 192.68838 194.78719 197.05399 199.41680 201.86561 204.34942 206.44122 208.28703
 209.91684 211.06565 211.29845 211.53026 211.47107 211.17987 210.81668 210.45049
 210.07130 209.78510 209.59691 209.46472 209.39653 209.73133 210.12114 210.51395
 211.31076 212.49256 213.74637 215.53318 217.46499 219.51179 221.61060 223.69741
 225.76122 227.84902 229.94983 232.05964 234.19245 236.36825 238.62806 241.00187
 243.62668 245.88148 247.88729 249.65610 251.07690 252.20371 253.02952 253.34933
 253.39013 253.16794 252.53175 251.48356 250.09336 248.25817 246.17098 244.00779
 241.80259 239.61040 237.43421 235.27702 233.14082 231.01163 229.04144 227.20225
 225.48905 223.96486 222.59867 221.37448 220.26028 219.22409 218.33190 217.47671
 216.72251 215.90632 215.00813 214.37594 213.82974 213.02904 211.14314 210.38797
 210.41786 210.71381 211.94565 214.99696 219.20874 223.98592 229.67903 234.67210
 238.50806 242.49655 246.76295 250.95216 254.74417 258.33978 261.24167 263.58066
 266.37314 269.04031 271.49026 273.86526 275.96933 277.74789 279.16495 280.68256
 282.45923 284.12735 285.64221 286.99969 288.17862 289.22156 290.17593 291.03857
 291.81375 292.50266 293.10898 293.88901
 366.78100 356.33882 345.77464 334.64446 323.05128 311.24910 299.12293 286.92975
 274.64557 262.54639 250.55921 239.86403 229.98985 221.09767 213.28349 206.28931
 200.12713 195.06895 191.65478 189.70060 188.74142 188.80924 189.64806 190.95988
 192.68870 194.78752 197.05434 199.41716 201.86598 204.34980 206.44163 208.28745
 209.91727 211.06609 211.29891 211.53073 211.47155 211.18037 210.81719 210.45101
 210.07183 209.78565 209.59748 209.46530 209.39712 209.73194 210.12176 210.51458
 211.31140 212.49322 213.74704 215.53386 217.46568 219.51251 221.61133 223.69815
 225.76197 227.84979 229.95061 232.06043 234.19325 236.36907 238.62889 241.00271
 243.62753 245.88236 247.88818 249.65700 251.07782 252.20464 253.03046 253.35028
 253.39110 253.16892 252.53274 251.48456 250.09438 248.25921 246.17203 244.00885
 241.80367 239.61149 237.43531 235.27813 233.14195 231.01277 229.04259 227.20341
 225.49023 223.96606 222.59988 221.37570 220.26152 219.22534 218.33316 217.47798
 216.72380 215.90762 215.00944 214.37726 213.83109 213.05063 211.21217 210.48676
 210.46727 210.76459 211.97495 214.97464 219.11856 223.89877 229.60446 234.58763
 238.41501 242.39917 246.67076 250.86699 254.66978 258.28952 261.20779 263.55396
 266.35123 269.00897 271.43631 273.78387 275.89447 277.69983 279.13483 280.65057
 282.41385 284.06311 285.57019 286.92816 288.10709 289.15222 290.10474 290.96899
 291.74277 292.43640 293.03900 293.82510
 366.78100 356.33887 345.77474 334.64462 323.05149 311.24936 299.12323 286.93010
 274.64598 262.54685 250.55972 239.86459 229.99047 221.09834 213.28421 206.29008
 200.12795 195.06983 191.65570 189.70157 188.74244 188.81031 189.64919 190.96106
 192.68993 194.78880 197.05568 199.41855 201.86742 204.35129 206.44316 208.28904
 209.91891 211.06778 211.30065 211.53252 211.47340 211.18227 210.81914 210.45301
 210.07388 209.78776 209.59963 209.46750 209.39937 209.73425 210.12412 210.51699
 211.31386 212.49573 213.74961 215.53648 217.46835 219.51522 221.61409 223.70097
 225.76484 227.85271 229.95358 232.06346 234.19633 236.37220 238.63207 241.00594
 243.63082 245.88569 247.89156 249.66043 251.08130 252.20818 253.03405 253.35392
 253.39479 253.17266 252.53654 251.48841 250.09828 248.26315 246.17603 244.01290
 241.80777 239.61564 237.43951 235.28239 233.14626 231.01713 229.04700 227.20787
 225.49475 223.97062 222.60449 221.38036 220.26624 219.23011 218.33798 217.48285
 216.72872 215.91260 215.01447 214.38234 213.83621 213.07280 211.27440 210.58882
 210.52623 210.81830 212.00325 214.95584 219.02669 223.80850 229.53078 234.50133
 238.32124 242.30316 246.57959 250.78185 254.59715 258.23792 261.16843 263.52054
 266.32385 268.97354 271.38025 273.70358 275.82169 277.65463 279.10709 280.62231
 282.37180 284.00577 285.50861 286.86520 288.04523 289.08984 290.04367 290.90753
 291.68301 292.37549 292.98169 293.76685
 366.78100 356.33904 345.77508 334.64512 323.05217 311.25021 299.12425 286.93129
 274.64733 262.54837 250.56141 239.86645 229.99250 221.10054 213.28658 206.29262
 200.13066 195.07270 191.65874 189.70479 188.74583 188.81387 189.65291 190.96495
 192.69399 194.79303 197.06007 199.42312 201.87216 204.35620 206.44824 208.29428
 209.92432 211.07336 211.30641 211.53845 211.47949 211.18853 210.82557 210.45961
 210.08065 209.79470 209.60674 209.47478 209.40682 209.74186 210.13190 210.52494
 211.32198 212.50403 213.75807 215.54511 217.47715 219.52419 221.62323 223.71027
 225.77432 227.86236 229.96340 232.07344 234.20648 236.38252 238.64256 241.01660
 243.64165 245.89669 247.90273 249.67177 251.09281 252.21985 253.04589 253.36594
 253.40698 253.18502 252.54906 251.50110 250.11114 248.27618 246.18922 244.02627
 241.82131 239.62935 237.45339 235.29643 233.16047 231.03151 229.06156 227.22260
 225.50964 223.98568 222.61972 221.39576 220.28180 219.24584 218.35389 217.49893
 216.74497 215.92901 215.03105 214.39909 213.85313 213.09973 211.32497 210.69371
 210.59927 210.87367 212.02870 214.94162 218.93599 223.71271 229.45482 234.41139
 238.22571 242.20744 246.48856 250.69710 254.52545 258.18463 261.12360 263.47998
 266.29178 268.93527 271.32190 273.62451 275.75287 277.61429 279.08286 280.59808
 282.33624 283.95636 285.45453 286.81265 287.99203 289.03683 289.99103 290.85309
 291.63101 292.32315 292.93069 293.71597
 366.78100 356.33956 345.77612 334.64668 323.05425 311.25281 299.12737 286.93493
 274.65149 262.55305 250.56662 239.87218 229.99874 221.10730 213.29386 206.30042
 200.13898 195.08155 191.66811 189.71467 188.75623 188.82479 189.66435 190.97691
 192.70648 194.80604 197.07360 199.43716 201.88672 204.37128 206.46385 208.31041
 209.94097 211.09053 211.32409 211.55665 211.49821 211.20778 210.84534 210.47990
 210.10146 209.81602 209.62858 209.49715 209.42971 209.76527 210.15583 210.54939
 211.34695 212.52951 213.78408 215.57164 217.50420 219.55176 221.65132 223.73888
 225.80344 227.89201 229.99357 232.10413 234.23769 236.41425 238.67481 241.04938
 243.67494 245.93050 247.93706 249.70662 251.12818 252.25574 253.08231 253.40287
 253.44443 253.22299 252.58755 251.54011 250.15068 248.31624 246.22980 244.06736
 241.86292 239.67148 237.49604 235.33961 233.20417 231.07573 229.10629 227.26785
 225.55541 224.03197 222.66654 221.44310 220.32966 219.29422 218.40278 217.54834
 216.79491 215.97947 215.08203 214.45059 213.90515 213.14322 211.34875 210.81128
 210.68355 210.93158 212.05737 214.92264 218.84883 223.60970 229.37682 234.31827
 238.12950 242.11279 246.39786 250.61156 254.45459 258.12979 261.07394 263.43338
 266.25644 268.89542 271.26270 273.54617 275.68759 277.57797 279.06171 280.57623
 282.30319 283.91269 285.40887 286.76682 287.94748 288.99112 289.94449 290.80853
 291.58615 292.27963 292.88516 293.67361
 366.78100 356.33986 345.77672 334.64758 323.05545 311.25431 299.12917 286.93703
 274.65389 262.55575 250.56962 239.87548 230.00234 221.11120 213.29806 206.30492
 200.14379 195.08665 191.67351 189.72037 188.76223 188.83109 189.67096 190.98382
 192.71368 194.81354 197.08140 199.44526 201.89513 204.37999 206.47285 208.31971
 209.95057 211.10043 211.33430 211.56716 211.50902 211.21888 210.85674 210.49160
 210.11347 209.82833 209.64119 209.51005 209.44291 209.77877 210.16964 210.56350
 211.36136 212.54422 213.79908 215.58694 217.51981 219.56767 221.66753 223.75539
 225.82025 227.90911 230.01098 232.12184 234.25570 236.43256 238.69342 241.06828
 243.69415 245.95001 247.95687 249.72673 251.14859 252.27645 253.10332 253.42418
 253.46604 253.24490 252.60976 251.56262 250.17349 248.33935 246.25321 244.09107
 241.88693 239.69579 237.52066 235.36452 233.22938 231.10124 229.13210 227.29396
 225.58183 224.05869 222.69355 221.47041 220.35727 219.32213 218.43100 217.57686
 216.82372 216.00858 215.11144 214.48030 213.93517 213.17555 211.38647 210.90305
 210.79692 211.00128 212.07239 214.91179 218.76718 223.49954 229.29361 234.21992
 238.02902 242.01530 246.30440 250.52489 254.38589 258.07758 261.02667 263.38632
 266.21985 268.85312 271.20132 273.46613 275.62210 277.54028 279.03873 280.55582
 282.27341 283.87445 285.37024 286.72867 287.90643 288.95172 289.90543 290.76953
 291.54660 292.23813 292.84641 293.63477
 366.78100 356.34082 345.77863 334.65045 323.05926 311.25908 299.13490 286.94371
 274.66153 262.56435 250.57916 239.88598 230.01379 221.12361 213.31143 206.31924
 200.15906 195.10288 191.69069 189.73851 188.78132 188.85114 189.69196 191.00577
 192.73659 194.83741 197.10622 199.47104 201.92185 204.40767 206.50149 208.34930
 209.98112 211.13194 211.36675 211.60057 211.54338 211.25420 210.89302 210.52883
 210.15165 209.86747 209.68128 209.55110 209.48491 209.82173 210.21355 210.60836
 211.40718 212.59100 213.84681 215.63563 217.56944 219.61826 221.71908 223.80789
 225.87371 227.96353 230.06634 232.17816 234.31297 236.49079 238.75261 241.12842
 243.75524 246.01206 248.01987 249.79069 251.21350 252.34232 253.17014 253.49195
 253.53477 253.31459 252.68040 251.63422 250.24603 248.41285 246.32767 244.16648
 241.96330 239.77312 237.59893 235.44375 233.30956 231.18238 229.21420 227.37701
 225.66583 224.14365 222.77946 221.55728 220.44509 219.41091 218.52073 217.66754
 216.91536 216.10118 215.20499 214.57481 214.03062 213.23932 211.37617 211.02457
 210.92274 211.07237 212.12167 214.87589 218.64632 223.37648 229.21045 234.11928
 237.92813 241.92151 246.21568 250.44569 254.32706 258.03455 260.98602 263.33868
 266.17969 268.80487 271.13232 273.38058 275.55331 277.49820 279.00970 280.53217
 282.24460 283.83829 285.33722 286.69473 287.87540 288.91891 289.87177 290.73605
 291.51257 292.20667 292.81342 293.60156
 366.78100 356.34262 345.78224 334.65586 323.06648 311.26809 299.14571 286.95633
 274.67595 262.58057 250.59719 239.90581 230.03543 221.14704 213.33666 206.34628
 200.18790 195.13352 191.72314 189.77276 188.81738 188.88899 189.73161 191.04723
 192.77985 194.88247 197.15309 199.51971 201.97233 204.45994 206.55556 208.40518
 210.03880 211.19142 211.42804 211.66366 211.60828 211.32089 210.96151 210.59913
 210.22375 209.94137 209.75699 209.62861 209.56423 209.90284 210.29646 210.69308
 211.49370 212.67932 213.93694 215.72756 217.66318 219.71379 221.81641 223.90703
 225.97465 228.06627 230.17089 232.28451 234.42113 236.60074 238.86436 241.24198
 243.87060 246.12922 248.13884 249.91146 251.33608 252.46669 253.29631 253.61993
 253.66455 253.44617 252.81379 251.76941 250.38303 248.55164 246.46826 244.30888
 242.10750 239.91912 237.74674 235.59336 233.46098 231.33559 229.36921 227.53383
 225.82445 224.30407 222.94169 221.72131 220.61093 219.57855 218.69016 217.83878
 217.08840 216.27602 215.38164 214.75326 214.21088 213.34766 211.31563 211.11409
 211.19341 211.16644 212.00166 214.81070 218.57631 223.26485 229.12810 234.02553
 237.83900 241.84013 246.13814 250.37595 254.27429 257.99112 260.93619 263.27948
 266.12817 268.74582 271.05692 273.29300 275.48572 277.45728 278.98221 280.50986
 282.21851 283.80502 285.30850 286.66812 287.84668 288.89026 289.84317 290.70840
 291.48471 292.17725 292.78568 293.57376
 366.78100 356.34349 345.78398 334.65846 323.06995 311.27244 299.15093 286.96242
 274.68290 262.58839 250.60588 239.91537 230.04585 221.15834 213.34883 206.35932
 200.20181 195.14829 191.73878 189.78927 188.83476 188.90725 189.75073 191.06722
 192.80071 194.90420 197.17569 199.54317 201.99666 204.48515 206.58164 208.43213
 210.06661 211.22010 211.45759 211.69408 211.63956 211.35305 210.99454 210.63303
 210.25852 209.97700 209.79349 209.66598 209.60247 209.94196 210.33644 210.73393
 211.53542 212.72191 213.98040 215.77188 217.70837 219.75986 221.86335 223.95483
 226.02332 228.11581 230.22130 232.33579 234.47327 236.65376 238.91825 241.29674
 243.92623 246.18571 248.19620 249.96969 251.39518 252.52667 253.35715 253.68164
 253.72713 253.50962 252.87810 251.83459 250.44908 248.61857 246.53606 244.37754
 242.17703 239.98952 237.81801 235.66550 233.53398 231.40947 229.44396 227.60945
 225.90094 224.38142 223.01991 221.80040 220.69089 219.65938 218.77186 217.92135
 217.17184 216.36033 215.46681 214.83930 214.29779 213.41185 211.32564 211.13065
 211.35896 211.32872 212.06355 214.72667 218.41420 223.15727 229.05045 233.94902
 237.76878 241.77255 246.06680 250.30708 254.21826 257.93716 260.86966 263.20761
 266.06839 268.68259 270.98053 273.21036 275.42590 277.42548 278.96362 280.49469
 282.19672 283.77502 285.28476 286.64383 287.82150 288.86328 289.81683 290.68085
 291.45700 292.14966 292.75595 293.54700
 366.78100 356.34386 345.78472 334.65957 323.07143 311.27429 299.15315 286.96500
 274.68586 262.59172 250.60958 239.91943 230.05029 221.16315 213.35401 206.36486
 200.20772 195.15458 191.74544 189.79629 188.84215 188.91501 189.75887 191.07573
 192.80958 194.91344 197.18530 199.55316 202.00701 204.49587 206.59273 208.44359
 210.07844 211.23230 211.47016 211.70702 211.65287 211.36673 211.00859 210.64745
 210.27331 209.99216 209.80902 209.68188 209.61874 209.95859 210.35345 210.75131
 211.55317 212.74002 213.99888 215.79074 217.72760 219.77945 221.88331 223.97517
 226.04403 228.13688 230.24274 232.35760 234.49546 236.67632 238.94117 241.32003
 243.94989 246.20975 248.22060 249.99446 251.42032 252.55218 253.38303 253.70789
 253.75375 253.53661 252.90546 251.86232 250.47718 248.64704 246.56489 244.40675
 242.20661 240.01947 237.84833 235.69618 233.56504 231.44090 229.47576 227.64161
 225.93347 224.41433 223.05319 221.83404 220.72490 219.69376 218.80662 217.95647
 217.20733 216.39619 215.50305 214.87590 214.33476 213.45013 211.36615 211.15060
 211.45015 211.42799 212.17419 214.68851 218.28046 223.07610 228.99963 233.89618
 237.71088 241.70758 245.99150 250.23047 254.15491 257.87311 260.79385 263.13193
 266.00717 268.61993 270.90707 273.13171 275.37076 277.39999 278.94907 280.48184
 282.17859 283.74771 285.26306 286.62109 287.79861 288.84109 289.79288 290.65536
 291.43280 292.12491 292.73111 293.51874
 366.78100 356.34435 345.78569 334.66104 323.07338 311.27673 299.15607 286.96842
 274.68976 262.59611 250.61445 239.92480 230.05614 221.16949 213.36083 206.37218
 200.21552 195.16287 191.75422 189.80556 188.85191 188.92525 189.76960 191.08694
 192.82129 194.92563 197.19798 199.56632 202.02067 204.51001 206.60736 208.45870
 210.09405 211.24839 211.48674 211.72409 211.67043 211.38478 211.02712 210.66647
 210.29281 210.01216 209.82950 209.70285 209.64019 209.98054 210.37588 210.77423
 211.57657 212.76392 214.02326 215.81561 217.75296 219.80530 221.90965 224.00199
 226.07134 228.16468 230.27103 232.38637 234.52472 236.70606 238.97141 241.35075
 243.98110 246.24144 248.25279 250.02713 251.45348 252.58583 253.41717 253.74252
 253.78886 253.57221 252.94155 251.89890 250.51424 248.68459 246.60293 244.44528
 242.24562 240.05897 237.88831 235.73666 233.60600 231.48235 229.51770 227.68404
 225.97639 224.45773 223.09708 221.87842 220.76977 219.73911 218.85246 218.00280
 217.25415 216.44349 215.55084 214.92418 214.38353 213.49394 211.39754 211.17465
 211.54887 211.51189 212.24777 214.67455 218.20525 223.00354 228.96033 233.83910
 237.64015 241.62994 245.90594 250.14615 254.08792 257.80743 260.71994 263.05978
 265.94836 268.55862 270.83344 273.05389 275.31604 277.37057 278.92984 280.46613
 282.15729 283.71677 285.24463 286.60138 287.77786 288.81931 289.77023 290.63251
 291.40720 292.10172 292.70712 293.49371
 366.78100 356.34494 345.78688 334.66281 323.07575 311.27969 299.15963 286.97257
 274.69450 262.60144 250.62038 239.93132 230.06326 221.17720 213.36913 206.38107
 200.22501 195.17295 191.76489 189.81682 188.86376 188.93770 189.78264 191.10058
 192.83551 194.94045 197.21339 199.58233 202.03727 204.52720 206.62514 208.47708
 210.11302 211.26796 211.50690 211.74483 211.69177 211.40671 211.04965 210.68959
 210.31652 210.03646 209.85440 209.72834 209.66628 210.00721 210.40315 210.80209
 211.60503 212.79297 214.05291 215.84584 217.78378 219.83672 221.94166 224.03460
 226.10453 228.19847 230.30541 232.42135 234.56029 236.74222 239.00816 241.38810
 244.01904 246.27998 248.29191 250.06685 251.49379 252.62673 253.45867 253.78461
 253.83154 253.61548 252.98542 251.94336 250.55930 248.73023 246.64917 244.49211
 242.29305 240.10699 237.93692 235.78586 233.65580 231.53274 229.56868 227.73561
 226.02855 224.51049 223.15043 221.93237 220.82431 219.79424 218.90818 218.05912
 217.31106 216.50100 215.60893 214.98287 214.44281 213.54295 211.42159 211.19089
 211.64862 211.61678 212.30064 214.67146 218.16113 222.92841 228.91409 233.76834
 237.55734 241.54613 245.81882 250.06410 254.02525 257.74734 260.65399 262.99292
 265.88971 268.49316 270.75684 272.97498 275.25980 277.33585 278.90411 280.44727
 282.13492 283.68750 285.22403 286.58179 287.75812 288.79761 289.74811 290.60941
 291.38443 292.07599 292.68143 293.46881
 366.78100 356.34563 345.78825 334.66488 323.07850 311.28313 299.16375 286.97738
 274.70000 262.60763 250.62725 239.93888 230.07150 221.18613 213.37875 206.39138
 200.23600 195.18463 191.77725 189.82988 188.87750 188.95213 189.79775 191.11638
 192.85200 194.95763 197.23125 199.60088 202.05650 204.54713 206.64575 208.49838
 210.13500 211.29063 211.53025 211.76888 211.71650 211.43213 211.07575 210.71638
 210.34400 210.06463 209.88325 209.75788 209.69650 210.03813 210.43475 210.83438
 211.63800 212.82663 214.08725 215.88088 217.81950 219.87313 221.97875 224.07238
 226.14300 228.23763 230.34525 232.46188 234.60150 236.78413 239.05075 241.43138
 244.06300 246.32463 248.33725 250.11288 251.54050 252.67413 253.50675 253.83338
 253.88100 253.66563 253.03625 251.99488 250.61150 248.78313 246.70275 244.54638
 242.34800 240.16263 237.99325 235.84288 233.71350 231.59113 229.62775 227.79538
 226.08900 224.57163 223.21225 221.99488 220.88750 219.85813 218.97275 218.12438
 217.37700 216.56763 215.67626 215.05088 214.51151 213.59627 211.43800 211.20560
 211.74197 211.72852 212.36168 214.68117 218.11554 222.85680 228.85907 233.69275
 237.47282 241.46349 245.73508 249.98663 253.96753 257.69003 260.59036 262.92746
 265.82901 268.42429 270.67676 272.89603 275.20255 277.29962 278.87762 280.42758
 282.11133 283.66165 285.20349 286.56091 287.73547 288.77588 289.72638 290.58798
 291.36594 292.05759 292.66843 293.44431
 366.78100 356.34641 345.78982 334.66723 323.08164 311.28705 299.16846 286.98288
 274.70629 262.61470 250.63511 239.94752 230.08093 221.19634 213.38975 206.40316
 200.24857 195.19798 191.79139 189.84480 188.89321 188.96863 189.81504 191.13445
 192.87086 194.97727 197.25168 199.62209 202.07850 204.56991 206.66932 208.52273
 210.16014 211.31655 211.55696 211.79638 211.74479 211.46120 211.10561 210.74702
 210.37543 210.09684 209.91625 209.79166 209.73107 210.07348 210.47089 210.87130
 211.67571 212.86513 214.12654 215.92095 217.86036 219.91477 222.02118 224.11559
 226.18700 228.28241 230.39082 232.50823 234.64864 236.83205 239.09947 241.48088
 244.11329 246.37570 248.38911 250.16552 251.59393 252.72834 253.56175 253.88916
 253.93757 253.72298 253.09439 252.05380 250.67122 248.84363 246.76404 244.60845
 242.41086 240.22627 238.05768 235.90809 233.77950 231.65791 229.69532 227.86373
 226.15814 224.64155 223.28297 222.06638 220.95979 219.93120 219.04661 218.19902
 217.45243 216.64384 215.75325 215.12866 214.59007 213.65424 211.44669 211.22183
 211.83023 211.83476 212.43864 214.69855 218.05922 222.79434 228.80128 233.61742
 237.39091 241.38359 245.65421 249.91296 253.91200 257.63324 260.52780 262.86267
 265.76620 268.35132 270.59467 272.81793 275.14569 277.26126 278.85028 280.40787
 282.08820 283.63528 285.18106 286.53824 287.71158 288.75150 289.70129 290.56345
 291.34100 292.03601 292.64194 293.41562
 366.78100 356.34725 345.79150 334.66976 323.08501 311.29126 299.17351 286.98876
 274.71302 262.62227 250.64352 239.95677 230.09103 221.20728 213.40153 206.41578
 200.26203 195.21229 191.80654 189.86079 188.91004 188.98629 189.83355 191.15380
 192.89105 194.99830 197.27355 199.64481 202.10206 204.59431 206.69456 208.54881
 210.18707 211.34432 211.58557 211.82582 211.77508 211.49233 211.13758 210.77983
 210.40908 210.13134 209.95159 209.82784 209.76809 210.11134 210.50960 210.91085
 211.71610 212.90635 214.16860 215.96386 217.90411 219.95936 222.06661 224.16187
 226.23412 228.33037 230.43962 232.55787 234.69913 236.88338 239.15163 241.53388
 244.16713 246.43039 248.44464 250.22189 251.65114 252.78639 253.62065 253.94890
 253.99815 253.78440 253.15666 252.11691 250.73516 248.90841 246.82966 244.67492
 242.47817 240.29442 238.12667 235.97792 233.85018 231.72943 229.76768 227.93693
 226.23218 224.71644 223.35869 222.14294 221.03719 220.00944 219.12570 218.27895
 217.53320 216.72545 215.83571 215.21196 214.67421 213.71458 211.45024 211.24001
 211.91035 211.94101 212.52536 214.71552 218.00240 222.74097 228.74417 233.54214
 237.30969 241.30464 245.57582 249.84357 253.85966 257.57715 260.46539 262.80103
 265.70132 268.27579 270.51270 272.74127 275.09006 277.22098 278.82147 280.38736
 282.06366 283.60873 285.15549 286.51245 287.68439 288.72275 289.67215 290.53339
 291.31192 292.00497 292.61142 293.38153
 366.78100 356.34811 345.79322 334.67232 323.08843 311.29554 299.17865 286.99475
 274.71986 262.62997 250.65208 239.96618 230.10129 221.21840 213.41351 206.42861
 200.27572 195.22683 191.82194 189.87705 188.92715 189.00426 189.85237 191.17348
 192.91158 195.01969 197.29580 199.66791 202.12601 204.61912 206.72023 208.57534
 210.21444 211.37255 211.61466 211.85577 211.80588 211.52398 211.17009 210.81320
 210.44331 210.16641 209.98752 209.86463 209.80574 210.14984 210.54895 210.95106
 211.75717 212.94828 214.21138 216.00749 217.94860 220.00471 222.11281 224.20892
 226.28203 228.37914 230.48924 232.60835 234.75046 236.93557 239.20467 241.58778
 244.22189 246.48600 248.50111 250.27921 251.70932 252.84543 253.68054 254.00964
 254.05975 253.84686 253.21997 252.18107 250.80018 248.97429 246.89640 244.74250
 242.54661 240.36372 238.19683 236.04894 233.92204 231.80215 229.84126 228.01137
 226.30747 224.79258 223.43569 222.22080 221.11590 220.08901 219.20612 218.36023
 217.61533 216.80844 215.91955 215.29666 214.75977 213.77533 211.45174 211.25865
 211.97888 212.05269 212.61900 214.72827 217.95386 222.69273 228.68886 233.46640
 237.22897 241.22595 245.49934 249.77690 253.80916 257.52258 260.40594 262.74371
 265.63766 268.19958 270.43060 272.66724 275.03415 277.17682 278.78836 280.36346
 282.03616 283.58054 285.12775 286.48343 287.65347 288.69086 289.63980 290.50171
 291.27881 291.97266 292.57861 293.34564
 366.78100 356.34898 345.79495 334.67493 323.09190 311.29988 299.18385 287.00083
 274.72681 262.63778 250.66076 239.97573 230.11171 221.22968 213.42566 206.44164
 200.28961 195.24159 191.83756 189.89354 188.94451 189.02249 189.87147 191.19344
 192.93242 195.04139 197.31837 199.69134 202.15032 204.64430 206.74627 208.60225
 210.24222 211.40120 211.64417 211.88615 211.83713 211.55610 211.20308 210.84705
 210.47803 210.20200 210.02398 209.90196 209.84393 210.18891 210.58888 210.99186
 211.79883 212.99081 214.25479 216.05176 217.99374 220.05071 222.15969 224.25667
 226.33064 228.42862 230.53959 232.65957 234.80254 236.98852 239.25850 241.64247
 244.27745 246.54242 248.55840 250.33737 251.76835 252.90533 253.74130 254.07128
 254.12225 253.91023 253.28420 252.24618 250.86616 249.04113 246.96411 244.81108
 242.61606 240.43403 238.26801 236.12099 233.99496 231.87594 229.91591 228.08689
 226.38386 224.86984 223.51382 222.29979 221.19577 220.16974 219.28772 218.44269
 217.69867 216.89265 216.00462 215.38260 214.84657 213.83662 211.45207 211.27396
 212.04321 212.16206 212.71371 214.74225 217.91508 222.64792 228.63387 233.38768
 237.14638 241.14825 245.42598 249.71556 253.76357 257.47015 260.35135 262.69119
 265.57281 268.11865 270.34775 272.59387 274.97696 277.13043 278.75565 280.34222
 282.00858 283.55475 285.09442 286.44879 287.61664 288.65216 289.60132 290.46136
 291.23987 291.93542 292.54047 293.30713
 366.78100 356.34982 345.79664 334.67746 323.09528 311.30410 299.18892 287.00674
 274.73356 262.64538 250.66920 239.98502 230.12184 221.24066 213.43748 206.45430
 200.30312 195.25593 191.85275 189.90957 188.96139 189.04021 189.89003 191.21285
 192.95267 195.06249 197.34031 199.71413 202.17395 204.66877 206.77159 208.62841
 210.26923 211.42905 211.67287 211.91569 211.86751 211.58733 211.23515 210.87997
 210.51179 210.23661 210.05943 209.93825 209.88107 210.22689 210.62771 211.03153
 211.83935 213.03216 214.29698 216.09480 218.03762 220.09544 222.20526 224.30308
 226.37790 228.47672 230.58854 232.70936 234.85318 237.04000 239.31082 241.69564
 244.33146 246.59728 248.61410 250.39392 251.82574 252.96356 253.80038 254.13120
 254.18302 253.97184 253.34666 252.30948 250.93030 249.10612 247.02994 244.87776
 242.68358 240.50240 238.33721 236.19103 234.06585 231.94767 229.98849 228.16031
 226.45813 224.94495 223.58977 222.37659 221.27341 220.24823 219.36705 218.52287
 217.77969 216.97451 216.08733 215.46615 214.93097 213.89690 211.45457 211.28569
 212.10234 212.27042 212.80429 214.75174 217.89590 222.60207 228.57648 233.31488
 237.07037 241.07584 245.35764 249.66026 253.72151 257.41837 260.29727 262.64279
 265.50638 268.03430 270.26218 272.52151 274.91937 277.08319 278.72540 280.32193
 281.98239 283.53140 285.05765 286.41006 287.57471 288.61108 289.55914 290.42157
 291.20084 291.89896 292.50369 293.26822
 366.78100 356.35036 345.79773 334.67909 323.09745 311.30681 299.19218 287.01054
 274.73790 262.65026 250.67463 239.99099 230.12835 221.24772 213.44508 206.46244
 200.31180 195.26517 191.86253 189.91989 188.97226 189.05162 189.90198 191.22534
 192.96571 195.07607 197.35443 199.72879 202.18916 204.68452 206.78788 208.64525
 210.28661 211.44697 211.69133 211.93470 211.88706 211.60742 211.25578 210.90115
 210.53351 210.25887 210.08224 209.96160 209.90496 210.25132 210.65269 211.05705
 211.86541 213.05877 214.32414 216.12250 218.06586 220.12423 222.23459 224.33295
 226.40831 228.50768 230.62004 232.74140 234.88577 237.07313 239.34449 241.72985
 244.36622 246.63258 248.64994 250.43030 251.86267 253.00103 253.83839 254.16976
 254.22212 254.01148 253.38684 252.35021 250.97157 249.14793 247.07229 244.92066
 242.72702 240.54638 238.38175 236.23611 234.11147 231.99383 230.03520 228.20756
 226.50592 224.99328 223.63865 222.42601 221.32337 220.29874 219.41810 218.57446
 217.83182 217.02719 216.14055 215.51991 214.98528 213.94199 211.47714 211.28452
 212.15718 212.37534 212.89546 214.77100 217.86792 222.55637 228.52103 233.24635
 236.99666 241.00429 245.29221 249.61006 253.68446 257.37061 260.24728 262.60132
 265.43930 267.94675 270.17590 272.44974 274.86227 277.03336 278.69568 280.30447
 281.95837 283.50818 285.01437 286.36691 287.53406 288.56906 289.51935 290.38229
 291.16562 291.86395 292.47290 293.24243
 366.78100 356.35113 345.79927 334.68140 323.10053 311.31066 299.19680 287.01593
 274.74406 262.65719 250.68233 239.99946 230.13759 221.25773 213.45586 206.47399
 200.32412 195.27826 191.87639 189.93452 188.98765 189.06779 189.91892 191.24305
 192.98419 195.09532 197.37445 199.74958 202.21072 204.70685 206.81098 208.66911
 210.31125 211.47238 211.71751 211.96164 211.91478 211.63591 211.28504 210.93118
 210.56431 210.29044 210.11457 209.99471 209.93884 210.28597 210.68810 211.09324
 211.90237 213.09650 214.36264 216.16177 218.10590 220.16503 222.27617 224.37530
 226.45143 228.55156 230.66470 232.78683 234.93196 237.12010 239.39223 241.77836
 244.41549 246.68263 248.70076 250.48189 251.91502 253.05416 253.89229 254.22442
 254.27756 254.06769 253.44382 252.40795 251.03009 249.20722 247.13235 244.98148
 242.78862 240.60875 238.44488 236.30002 234.17615 232.05928 230.10141 228.27455
 226.57368 225.06181 223.70794 222.49608 221.39421 220.37034 219.49047 218.64761
 217.90574 217.10187 216.21601 215.59614 215.06227 213.99763 211.48228 211.30086
 212.22797 212.46269 212.95808 214.78302 217.84354 222.51312 228.46877 233.17802
 236.92366 240.93497 245.23233 249.56789 253.65468 257.32788 260.20386 262.56570
 265.37149 267.85629 270.08801 272.37802 274.80319 276.98068 278.66434 280.28799
 281.93323 283.47934 284.96967 286.32422 287.49185 288.52933 289.47977 290.34451
 291.13062 291.83133 292.44244 293.21478
 366.78100 356.35158 345.80015 334.68273 323.10230 311.31288 299.19945 287.01903
 274.74760 262.66118 250.68675 240.00433 230.14290 221.26348 213.46205 206.48063
 200.33120 195.28578 191.88435 189.94293 188.99650 189.07708 189.92865 191.25323
 192.99480 195.10638 197.38595 199.76153 202.22310 204.71968 206.82425 208.68283
 210.32540 211.48698 211.73255 211.97713 211.93070 211.65228 211.30185 210.94843
 210.58200 210.30858 210.13315 210.01373 209.95830 210.30588 210.70845 211.11403
 211.92360 213.11818 214.38475 216.18433 218.12890 220.18848 222.30005 224.39963
 226.47620 228.57678 230.69035 232.81293 234.95850 237.14708 239.41965 241.80623
 244.44380 246.71138 248.72995 250.51153 251.94510 253.08468 253.92325 254.25583
 254.30940 254.09998 253.47655 252.44113 251.06370 249.24128 247.16685 245.01643
 242.82401 240.64458 238.48116 236.33673 234.21331 232.09688 230.13946 228.31303
 226.61261 225.10118 223.74776 222.53633 221.43491 220.41148 219.53206 218.68963
 217.94821 217.14478 216.25936 215.63993 215.10651 214.03400 211.50008 211.32727
 212.28923 212.53703 213.03595 214.77563 217.79526 222.45772 228.42384 233.12347
 236.85988 240.87320 245.17937 249.53323 253.63158 257.28815 260.16125 262.53183
 265.29990 267.76016 269.99835 272.30746 274.74615 276.93204 278.64218 280.27933
 281.91116 283.44742 284.92719 286.27844 287.44598 288.48294 289.43484 290.30136
 291.08945 291.79321 292.40662 293.18390
 366.78100 356.35125 345.79949 334.68174 323.10099 311.31123 299.19748 287.01673
 274.74498 262.65822 250.68347 240.00072 230.13896 221.25921 213.45746 206.47570
 200.32595 195.28020 191.87845 189.93669 188.98994 189.07019 189.92143 191.24568
 192.98693 195.09817 197.37742 199.75267 202.21392 204.71016 206.81441 208.67266
 210.31490 211.47615 211.72140 211.96564 211.91889 211.64014 211.28939 210.93563
 210.56888 210.29513 210.11937 209.99962 209.94387 210.29111 210.69336 211.09861
 211.90786 213.10210 214.36835 216.16760 218.11184 220.17109 222.28234 224.38158
 226.45783 228.55808 230.67133 232.79357 234.93882 237.12707 239.39931 241.78556
 244.42281 246.69005 248.70830 250.48955 251.92280 253.06204 253.90029 254.23254
 254.28578 254.07603 253.45228 252.41652 251.03877 249.21602 247.14127 244.99051
 242.79776 240.61801 238.45425 236.30950 234.18575 232.06899 230.11124 228.28449
 226.58374 225.07198 223.71823 222.50648 221.40472 220.38097 219.50122 218.65846
 217.91671 217.11296 216.22721 215.60745 215.07370 214.02881 211.56015 211.32768
 212.37421 212.60611 213.02861 214.76631 217.77908 222.45235 228.38737 233.07585
 236.79991 240.81177 245.12592 249.49828 253.60686 257.24573 260.11615 262.49933
 265.22827 267.66464 269.90945 272.24057 274.68930 276.88354 278.62097 280.27020
 281.88757 283.41409 284.88123 286.23282 287.40277 288.44156 289.39310 290.26083
 291.05273 291.76205 292.37390 293.16031
 366.78100 356.35103 345.79906 334.68109 323.10011 311.31014 299.19617 287.01520
 274.74323 262.65626 250.68128 239.99831 230.13634 221.25637 213.45440 206.47243
 200.32245 195.27648 191.87451 189.93254 188.98557 189.06560 189.91662 191.24065
 192.98168 195.09271 197.37174 199.74677 202.20779 204.70382 206.80785 208.66588
 210.30791 211.46894 211.71396 211.95799 211.91102 211.63205 211.28108 210.92711
 210.56013 210.28616 210.11019 209.99022 209.93425 210.28128 210.68330 211.08833
 211.89736 213.09139 214.35742 216.15645 218.10047 220.15950 222.27053 224.36956
 226.44559 228.54562 230.65864 232.78067 234.92570 237.11373 239.38576 241.77179
 244.40881 246.67584 248.69387 250.47490 251.90793 253.04696 253.88498 254.21701
 254.27004 254.06007 253.43610 252.40013 251.02215 249.19918 247.12421 244.97324
 242.78027 240.60030 238.43632 236.29135 234.16738 232.05041 230.09244 228.26547
 226.56449 225.05252 223.69855 222.48658 221.38461 220.36064 219.48066 218.63769
 217.89572 217.09175 216.20578 215.58581 215.05183 214.02815 211.60957 211.33794
 212.40643 212.64877 213.09315 214.86720 217.75871 222.37273 228.36281 233.03754
 236.73703 240.75076 245.07634 249.47098 253.59033 257.20419 260.08047 262.46924
 265.15311 267.55991 269.81628 272.16791 274.62659 276.82532 278.59241 280.25699
 281.85992 283.37506 284.83615 286.18430 287.34775 288.38580 289.33728 290.20468
 290.99460 291.69760 292.29941 293.07050
 366.78100 356.35196 345.80091 334.68387 323.10383 311.31478 299.20174 287.02170
 274.75065 262.66461 250.69057 240.00852 230.14748 221.26844 213.46739 206.48635
 200.33731 195.29226 191.89122 189.95018 189.00413 189.08509 189.93705 191.26200
 193.00396 195.11592 197.39587 199.77183 202.23379 204.73074 206.83570 208.69466
 210.33761 211.49957 211.74553 211.99048 211.94444 211.66640 211.31635 210.96331
 210.59727 210.32422 210.14918 210.03014 209.97509 210.32305 210.72601 211.13196
 211.94192 213.13688 214.40383 216.20379 218.14875 220.20870 222.32066 224.42062
 226.49757 228.59853 230.71249 232.83544 234.98140 237.17036 239.44331 241.83027
 244.46823 246.73618 248.75514 250.53710 251.97105 253.11101 253.94997 254.28292
 254.33688 254.12784 253.50479 252.46975 251.09271 249.27066 247.19662 245.04658
 242.85453 240.67549 238.51245 236.36840 234.24536 232.12932 230.17227 228.34623
 226.64619 225.13515 223.78210 222.57106 221.47002 220.44697 219.56793 218.72589
 217.98484 217.18180 216.29676 215.67771 215.14467 214.08881 211.59421 211.34117
 212.47098 212.71822 213.18700 214.95497 217.75606 222.26538 228.32935 232.98204
 236.66179 240.68127 245.02454 249.44194 253.57553 257.18231 260.03995 262.44522
 265.07825 267.45834 269.72165 272.09439 274.55969 276.75998 278.55417 280.23218
 281.82379 283.33618 284.79657 286.13647 287.29733 288.33566 289.28726 290.15472
 290.94498 291.64725 292.24606 293.01834
 366.78100 356.35304 345.80308 334.68712 323.10816 311.32020 299.20824 287.02928
 274.75932 262.67436 250.70140 240.02044 230.16048 221.28252 213.48256 206.50260
 200.35464 195.31068 191.91072 189.97076 189.02580 189.10784 189.96088 191.28692
 193.02996 195.14300 197.42404 199.80108 202.26412 204.76216 206.86820 208.72824
 210.37228 211.53532 211.78236 212.02840 211.98344 211.70648 211.35752 211.00556
 210.64060 210.36864 210.19468 210.07672 210.02276 210.37180 210.77584 211.18288
 211.99392 213.18996 214.45800 216.25904 218.20508 220.26612 222.37916 224.48020
 226.55824 228.66028 230.77532 232.89936 235.04640 237.23644 239.51048 241.89852
 244.53756 246.80660 248.82664 250.60968 252.04472 253.18576 254.02580 254.35984
 254.41488 254.20692 253.58496 252.55100 251.17504 249.35408 247.28112 245.13216
 242.94120 240.76324 238.60128 236.45832 234.33637 232.22141 230.26545 228.44049
 226.74153 225.23157 223.87961 222.66965 221.56969 220.54773 219.66977 218.82881
 218.08885 217.28689 216.40293 215.78497 215.25301 214.16031 211.57870 211.32169
 212.56064 212.81693 213.24878 215.00798 217.79526 222.17712 228.27422 232.90929
 236.57903 240.60890 244.97203 249.41565 253.55991 257.12573 260.01877 262.42621
 265.01404 267.36749 269.64236 272.03006 274.49597 276.69720 278.51855 280.20862
 281.78745 283.28799 284.74222 286.07437 287.22626 288.26346 289.21298 290.07974
 290.87048 291.56958 292.16220 292.92767
 366.78100 356.35217 345.80134 334.68451 323.10468 311.31585 299.20302 287.02319
 274.75236 262.66652 250.69269 240.01086 230.15003 221.27120 213.47037 206.48954
 200.34071 195.29588 191.89505 189.95422 189.00839 189.08956 189.94173 191.26690
 193.00907 195.12123 197.40140 199.77757 202.23974 204.73691 206.84208 208.70125
 210.34442 211.50659 211.75276 211.99793 211.95210 211.67427 211.32444 210.97161
 210.60578 210.33295 210.15811 210.03928 209.98445 210.33262 210.73579 211.14196
 211.95213 213.14730 214.41447 216.21464 218.15981 220.21998 222.33215 224.43232
 226.50949 228.61066 230.72482 232.84799 234.99416 237.18333 239.45650 241.84367
 244.48184 246.75001 248.76918 250.55135 251.98552 253.12569 253.96486 254.29803
 254.35220 254.14337 253.52054 252.48570 251.10887 249.28704 247.21321 245.06338
 242.87155 240.69272 238.52989 236.38606 234.26323 232.14740 230.19057 228.36474
 226.66491 225.15408 223.80125 222.59041 221.48958 220.46675 219.58792 218.74609
 218.00526 217.20243 216.31760 215.69877 215.16594 214.12489 211.66531 211.36864
 212.56816 212.86159 213.25371 215.03223 217.83632 222.11977 228.19939 232.83557
 236.49722 240.54378 244.92810 249.39607 253.56433 257.13434 260.02167 262.42944
 264.97037 267.30429 269.58835 271.98691 274.45126 276.65915 278.50421 280.20251
 281.76028 283.25754 284.70425 286.02777 287.17801 288.21692 289.16833 290.03726
 290.83109 291.53220 292.13397 292.91589
 366.78100 356.35077 345.79853 334.68030 323.09906 311.30883 299.19459 287.01336
 274.74113 262.65389 250.67866 239.99542 230.13319 221.25295 213.45072 206.46849
 200.31825 195.27202 191.86978 189.92755 188.98031 189.06008 189.91085 191.23461
 192.97538 195.08614 197.36491 199.73967 202.20044 204.69621 206.79997 208.65774
 210.29950 211.46027 211.70504 211.94880 211.90157 211.62233 211.27110 210.91686
 210.54963 210.27540 210.09916 209.97893 209.92269 210.26946 210.67122 211.07599
 211.88476 213.07852 214.34429 216.14305 218.08682 220.14558 222.25635 224.35512
 226.43088 228.53065 230.64341 232.76518 234.90994 237.09771 239.36948 241.75524
 244.39201 246.65877 248.67654 250.45730 251.89007 253.02884 253.86660 254.19837
 254.25113 254.04090 253.41666 252.38043 251.00220 249.17896 247.10373 244.95249
 242.75926 240.57902 238.41479 236.26956 234.14532 232.02809 230.06985 228.24262
 226.54138 225.02915 223.67492 222.46268 221.36045 220.33621 219.45598 218.61275
 217.87051 217.06628 216.18004 215.55981 215.02557 214.05426 211.75940 211.49925
 212.53249 212.86397 213.27092 215.05441 217.85428 222.08751 228.11563 232.76431
 236.40807 240.46680 244.86441 249.34494 253.51816 257.09933 259.90906 262.51788
 265.02295 267.35507 269.63669 272.01749 274.45068 276.64432 278.49359 280.16437
 281.69855 283.16693 284.60275 285.91742 287.06046 288.08701 289.03036 289.89233
 290.66602 291.32227 291.83450 292.43216
 366.78100 356.35109 345.79918 334.68127 323.10035 311.31044 299.19653 287.01562
 274.74371 262.65680 250.68188 239.99897 230.13706 221.25715 213.45524 206.47333
 200.32342 195.27750 191.87559 189.93368 188.98677 189.06686 189.91795 191.24203
 192.98312 195.09421 197.37330 199.74839 202.20948 204.70557 206.80965 208.66774
 210.30983 211.47092 211.71601 211.96010 211.91318 211.63427 211.28336 210.92945
 210.56254 210.28863 210.11272 209.99280 209.93689 210.28398 210.68607 211.09116
 211.90025 213.09433 214.36042 216.15951 218.10360 220.16269 222.27378 224.37287
 226.44895 228.54904 230.66213 232.78422 234.92931 237.11740 239.38948 241.77557
 244.41266 246.67975 248.69784 250.47893 251.91202 253.05110 253.88919 254.22128
 254.27437 254.06446 253.44055 252.40463 251.02672 249.20381 247.12890 244.97799
 242.78508 240.60517 238.44125 236.29634 234.17243 232.05552 230.09761 228.27070
 226.56978 225.05787 223.70396 222.49205 221.39014 220.36623 219.48632 218.64340
 217.90149 217.09758 216.21167 215.59176 215.05785 214.07362 211.74911 211.59647
 212.56844 212.93098 213.35835 215.06865 217.83646 222.06358 228.05957 232.70735
 236.32861 240.39299 244.79872 249.29153 253.43517 256.90018 259.89331 262.54007
 264.99103 267.31122 269.60654 271.98196 274.39984 276.58810 278.45435 280.12363
 281.64023 283.05939 284.47797 285.77237 286.88974 287.88904 288.81381 289.66699
 290.42889 291.07382 291.59152 292.22119
 366.78100 356.35187 345.80073 334.68360 323.10347 311.31433 299.20120 287.02107
 274.74994 262.66380 250.68967 240.00754 230.14640 221.26727 213.46614 206.48500
 200.33587 195.29074 191.88961 189.94847 189.00234 189.08321 189.93507 191.25994
 193.00181 195.11367 197.39354 199.76941 202.23127 204.72814 206.83301 208.69188
 210.33474 211.49661 211.74248 211.98734 211.94121 211.66308 211.31294 210.95981
 210.59368 210.32055 210.14541 210.02628 209.97115 210.31901 210.72188 211.12775
 211.93761 213.13248 214.39935 216.19922 218.14408 220.20395 222.31582 224.41568
 226.49255 228.59342 230.70728 232.83015 234.97602 237.16488 239.43775 241.82462
 244.46249 246.73035 248.74922 250.53109 251.96495 253.10482 253.94369 254.27655
 254.33042 254.12129 253.49816 252.46302 251.08589 249.26376 247.18962 245.03949
 242.84736 240.66822 238.50509 236.36096 234.23782 232.12169 230.16456 228.33843
 226.63829 225.12716 223.77403 222.56289 221.46176 220.43863 219.55949 218.71736
 217.97623 217.17310 216.28796 215.66883 215.13570 214.12032 211.72139 211.61917
 212.67192 213.04730 213.44034 215.02711 217.77510 222.02916 228.03346 232.66467
 236.27640 240.35022 244.77066 249.28558 253.44498 256.90726 259.81036 262.46820
 264.85956 267.14172 269.45267 271.85687 274.29416 276.50095 278.40015 280.08475
 281.59381 283.02640 284.44922 285.73746 286.84204 287.83478 288.75665 289.61249
 290.38522 291.05002 291.61517 292.34360
 366.78100 356.35123 345.79947 334.68170 323.10093 311.31116 299.19740 287.01663
 274.74486 262.65809 250.68333 240.00056 230.13879 221.25902 213.45726 206.47549
 200.32572 195.27995 191.87819 189.93642 188.98965 189.06988 189.92112 191.24535
 192.98658 195.09781 197.37705 199.75228 202.21351 204.70974 206.81398 208.67221
 210.31444 211.47567 211.72091 211.96514 211.91837 211.63960 211.28884 210.93507
 210.56830 210.29453 210.11877 209.99900 209.94323 210.29046 210.69270 211.09793
 211.90716 213.10139 214.36763 216.16686 218.11109 220.17032 222.28156 224.38079
 226.45702 228.55725 230.67049 232.79272 234.93795 237.12618 239.39842 241.78465
 244.42188 246.68911 248.70735 250.48858 251.92181 253.06104 253.89928 254.23151
 254.28474 254.07497 253.45121 252.41544 251.03767 249.21490 247.14014 244.98937
 242.79660 240.61683 238.45307 236.30830 234.18453 232.06776 230.11000 228.28323
 226.58246 225.07069 223.71693 222.50516 221.40339 220.37962 219.49986 218.65709
 217.91532 217.11155 216.22579 215.60602 215.07225 214.09346 211.78096 211.62651
 212.75615 213.15814 213.49037 214.97581 217.70267 221.97458 227.99626 232.57988
 236.20189 240.29121 244.73741 249.27614 253.46527 256.97806 259.79507 262.43390
 264.78787 267.03918 269.35501 271.76712 274.20456 276.41156 278.32761 280.02008
 281.53296 283.00476 284.43079 285.71179 286.80206 287.77045 288.69412 289.55756
 290.34518 291.01776 291.59528 292.35101
 366.78100 356.34946 345.79592 334.67638 323.09384 311.30230 299.18676 287.00422
 274.73069 262.64215 250.66561 239.98107 230.11753 221.23599 213.43245 206.44891
 200.29737 195.24983 191.84629 189.90275 188.95421 189.03267 189.88213 191.20460
 192.94406 195.05352 197.33098 199.70444 202.16390 204.65836 206.76082 208.61728
 210.25774 211.41720 211.66066 211.90312 211.85458 211.57404 211.22150 210.86597
 210.49743 210.22189 210.04435 209.92281 209.86527 210.21073 210.61119 211.01465
 211.82211 213.01457 214.27903 216.07649 218.01895 220.07641 222.18588 224.28334
 226.35780 228.45626 230.56772 232.68818 234.83164 237.01810 239.28856 241.67302
 244.30848 246.57394 248.59040 250.36986 251.80132 252.93879 253.77525 254.10571
 254.15717 253.94563 253.32009 252.28255 250.90301 249.07847 247.00193 244.84939
 242.65485 240.47331 238.30777 236.16123 234.03569 231.91716 229.95762 228.12908
 226.42654 224.91300 223.55746 222.34392 221.24038 220.21484 219.33330 218.48876
 217.74522 216.93968 216.05214 215.43060 214.89507 214.00821 211.91295 211.65428
 212.74323 213.22585 213.57611 215.00763 217.67960 221.92975 227.94145 232.46809
 236.09976 240.20457 244.67923 249.23911 253.43985 256.98001 259.78998 262.40320
 264.74106 266.98355 269.30148 271.70975 274.12799 276.32068 278.23438 279.92532
 281.45389 282.95441 284.37598 285.63876 286.72748 287.73492 288.68488 289.54019
 290.29880 290.94058 291.50275 292.24905
 366.78100 356.34795 345.79291 334.67186 323.08781 311.29477 299.17772 286.99367
 274.71863 262.62858 250.65053 239.96449 230.09944 221.21639 213.41135 206.42630
 200.27325 195.22421 191.81916 189.87411 188.92406 189.00102 189.84897 191.16992
 192.90788 195.01583 197.29178 199.66374 202.12169 204.61464 206.71560 208.57055
 210.20950 211.36746 211.60941 211.85036 211.80032 211.51827 211.16422 210.80718
 210.43713 210.16008 209.98104 209.85799 209.79894 210.14290 210.54185 210.94380
 211.74976 212.94071 214.20366 215.99962 217.94057 219.99652 222.10447 224.20043
 226.27338 228.37033 230.48029 232.59924 234.74119 236.92615 239.19510 241.57805
 244.21201 246.47596 248.49091 250.26887 251.69882 252.83477 253.66973 253.99868
 254.04863 253.83559 253.20854 252.16949 250.78845 248.96240 246.88435 244.73031
 242.53426 240.35121 238.18417 236.03612 233.90907 231.78903 229.82798 227.99793
 226.29388 224.77884 223.42179 222.20674 221.10170 220.07465 219.19160 218.34556
 217.60051 216.79346 215.90442 215.28137 214.74432 213.93681 212.02898 211.71780
 212.68143 213.22626 213.65981 215.07231 217.69258 221.91483 227.88982 232.40317
 236.01836 240.13103 244.62213 249.19865 253.41428 256.91019 259.79636 262.37430
 264.69632 266.94412 269.27051 271.66879 274.06445 276.23761 278.14383 279.82748
 281.37445 282.88034 284.28992 285.54807 286.65082 287.68237 288.63177 289.48257
 290.20938 290.80185 291.34521 292.07874
 366.78100 356.34725 345.79150 334.66975 323.08499 311.29124 299.17349 286.98874
 274.71299 262.62224 250.64348 239.95673 230.09098 221.20723 213.40148 206.41573
 200.26197 195.21222 191.80647 189.86072 188.90997 188.98622 189.83347 191.15371
 192.89096 194.99821 197.27346 199.64471 202.10196 204.59420 206.69445 208.54870
 210.18695 211.34420 211.58545 211.82570 211.77494 211.49219 211.13744 210.77969
 210.40894 210.13119 209.95143 209.82768 209.76793 210.11118 210.50943 210.91068
 211.71592 212.90617 214.16842 215.96367 217.90392 219.95917 222.06642 224.16166
 226.23391 228.33016 230.43941 232.55766 234.69891 236.88315 239.15140 241.53365
 244.16690 246.43015 248.44440 250.22165 251.65089 252.78614 253.62039 253.94864
 253.99789 253.78414 253.15638 252.11663 250.73488 248.90813 246.82938 244.67463
 242.47787 240.29412 238.12637 235.97762 233.84987 231.72912 229.76737 227.93661
 226.23186 224.71611 223.35836 222.14261 221.03686 220.00910 219.12535 218.27860
 217.53285 216.72510 215.83535 215.21159 214.67384 213.90407 212.08537 211.83458
 212.64384 213.21138 213.72939 215.09479 217.69614 221.90825 227.84064 232.35895
 235.94495 240.05980 244.56093 249.14619 253.34338 256.85941 259.74338 262.31778
 264.63565 266.90588 269.24832 271.64166 274.02066 276.18924 278.10620 279.80765
 281.32953 282.81219 284.20074 285.43893 286.53491 287.56390 288.51147 289.36310
 290.06104 290.59766 291.11014 291.82568
 366.78100 356.34588 345.78875 334.66563 323.07950 311.28438 299.16526 286.97913
 274.70201 262.60989 250.62976 239.94164 230.07451 221.18939 213.38227 206.39514
 200.24002 195.18890 191.78177 189.83465 188.88252 188.95740 189.80328 191.12215
 192.85803 194.96391 197.23778 199.60766 202.06353 204.55441 206.65329 208.50616
 210.14304 211.29891 211.53879 211.77767 211.72554 211.44142 211.08530 210.72617
 210.35405 210.07492 209.89380 209.76868 209.70755 210.04943 210.44631 210.84618
 211.65006 212.83893 214.09981 215.89369 217.83256 219.88644 221.99232 224.08619
 226.15707 228.25194 230.35982 232.47670 234.61657 236.79945 239.06633 241.44720
 244.07908 246.34095 248.35383 250.12971 251.55758 252.69146 253.52433 253.85121
 253.89909 253.68396 253.05484 252.01372 250.63059 248.80247 246.72234 244.56622
 242.36810 240.18297 238.01385 235.86373 233.73460 231.61248 229.64935 227.81723
 226.11111 224.59398 223.23486 222.01774 220.91061 219.88149 218.99636 218.14824
 217.40112 216.59199 215.70087 215.07574 214.53662 213.83762 212.18611 211.95525
 212.62169 213.15828 213.74068 215.06346 217.68533 221.90952 227.81480 232.38171
 235.93715 240.04692 244.54184 249.12001 253.32957 256.76620 259.71716 262.27646
 264.59903 266.90323 269.25540 271.63199 273.96695 276.10019 277.99207 279.65121
 281.23901 282.75748 284.13757 285.38846 286.50232 287.52628 288.46164 289.27191
 289.89093 290.41699 290.92160 291.62170
 366.78100 356.34556 345.78812 334.66468 323.07823 311.28279 299.16335 286.97691
 274.69947 262.60703 250.62659 239.93814 230.07070 221.18526 213.37782 206.39038
 200.23494 195.18349 191.77605 189.82861 188.87617 188.95073 189.79629 191.11485
 192.85040 194.95596 197.22952 199.59908 202.05464 204.54520 206.64376 208.49631
 210.13287 211.28843 211.52799 211.76655 211.71411 211.42967 211.07322 210.71378
 210.34134 210.06190 209.88046 209.75502 209.69358 210.03513 210.43169 210.83125
 211.63481 212.82337 214.08393 215.87748 217.81604 219.86960 221.97516 224.06872
 226.13928 228.23384 230.34139 232.45795 234.59751 236.78007 239.04663 241.42719
 244.05875 246.32030 248.33286 250.10842 251.53598 252.66954 253.50210 253.82866
 253.87621 253.66077 253.03133 251.98989 250.60645 248.77801 246.69756 244.54112
 242.34268 240.15724 237.98780 235.83736 233.70792 231.58547 229.62203 227.78959
 226.08315 224.56571 223.20627 221.98883 220.88138 219.85194 218.96650 218.11806
 217.37062 216.56118 215.66974 215.04429 214.50485 213.83372 212.25383 212.04736
 212.70100 213.19574 213.70857 214.90877 217.60449 221.87883 227.72647 232.31235
 235.86613 240.00005 244.50690 249.09346 253.27446 256.80331 259.90445 262.46725
 264.76788 267.05743 269.40469 271.66232 273.89777 275.95236 277.86453 279.63318
 281.09268 282.45993 283.79425 284.98007 286.03452 286.98987 287.82419 288.50015
 289.07913 289.59042 289.98984 290.49725
 366.78100 356.34852 345.79405 334.67357 323.09010 311.29762 299.18114 286.99767
 274.72319 262.63372 250.65624 239.97076 230.10629 221.22381 213.41933 206.43486
 200.28238 195.23391 191.82943 189.88495 188.93548 189.01300 189.86153 191.18305
 192.92157 195.03010 197.30662 199.67915 202.13767 204.63119 206.73272 208.58824
 210.22777 211.38629 211.62881 211.87034 211.82086 211.53938 211.18591 210.82943
 210.45996 210.18348 210.00500 209.88253 209.82405 210.16858 210.56810 210.97062
 211.77715 212.96867 214.23220 216.02872 217.97024 220.02677 222.13529 224.23182
 226.30534 228.40286 230.51339 232.63291 234.77543 236.96096 239.23048 241.61401
 244.24853 246.51305 248.52858 250.30710 251.73763 252.87415 253.70967 254.03920
 254.08972 253.87725 253.25077 252.21229 250.83182 249.00634 246.92887 244.77539
 242.57991 240.39744 238.23096 236.08349 233.95701 231.83753 229.87706 228.04758
 226.34410 224.82963 223.47315 222.25868 221.15420 220.12772 219.24525 218.39977
 217.65530 216.84882 215.96034 215.33787 214.80139 214.00653 212.14880 212.02861
 212.91075 213.39720 213.86867 214.99306 217.52385 221.75464 227.55598 232.09718
 235.67917 239.85948 244.39941 248.96617 253.12549 256.73163 259.90189 262.46811
 264.75333 267.06436 269.40466 271.61951 273.82233 275.90811 277.88559 279.62570
 280.99374 282.32166 283.60077 284.72375 285.72321 286.62549 287.44632 288.07343
 288.58850 289.06216 289.47357 289.99786
 366.78100 356.34937 345.79574 334.67611 323.09348 311.30185 299.18622 287.00359
 274.72996 262.64132 250.66469 239.98006 230.11643 221.23480 213.43117 206.44754
 200.29591 195.24828 191.84465 189.90102 188.95239 189.03076 189.88013 191.20250
 192.94187 195.05124 197.32860 199.70197 202.16134 204.65571 206.75808 208.61445
 210.25482 211.41419 211.65756 211.89993 211.85130 211.57067 211.21804 210.86241
 210.49378 210.21815 210.04052 209.91888 209.86125 210.20662 210.60699 211.01036
 211.81773 213.01010 214.27447 216.07184 218.01421 220.07158 222.18095 224.27832
 226.35269 228.45106 230.56243 232.68279 234.82616 237.01253 239.28290 241.66727
 244.30264 246.56801 248.58438 250.36375 251.79512 252.93249 253.76886 254.09923
 254.15060 253.93897 253.31334 252.27571 250.89607 249.07144 246.99481 244.84218
 242.64755 240.46592 238.30029 236.15366 234.02803 231.90940 229.94977 228.12114
 226.41851 224.90488 223.54925 222.33562 221.23199 220.20635 219.32472 218.48009
 217.73646 216.93083 216.04320 215.42157 214.88594 214.06561 212.13641 211.95850
 213.00851 213.62766 214.16544 215.14677 217.45692 221.65651 227.45926 231.90166
 235.51898 239.72993 244.29874 248.87103 253.03662 256.61984 259.75381 262.33792
 264.63638 266.99103 269.38086 271.59674 273.78668 275.84445 277.83377 279.60928
 281.07468 282.36444 283.62958 284.73376 285.70865 286.61810 287.47589 288.16568
 288.70914 289.32617 289.88550 290.59830
 366.78100 356.34879 345.79458 334.67437 323.09115 311.29894 299.18273 286.99952
 274.72531 262.63610 250.65888 239.97367 230.10946 221.22725 213.42304 206.43883
 200.28661 195.23840 191.83419 189.88998 188.94077 189.01856 189.86734 191.18913
 192.92792 195.03671 197.31350 199.68629 202.14507 204.63886 206.74065 208.59644
 210.23623 211.39502 211.63780 211.87959 211.83038 211.54917 211.19596 210.83975
 210.47053 210.19432 210.01611 209.89390 209.83569 210.18048 210.58026 210.98305
 211.78984 212.98163 214.24542 216.04221 217.98399 220.04078 222.14957 224.24636
 226.32015 228.41794 230.52872 232.64851 234.79130 236.97709 239.24688 241.63067
 244.26545 246.53024 248.54603 250.32482 251.75561 252.89240 253.72818 254.05797
 254.10876 253.89655 253.27034 252.23213 250.85191 249.02670 246.94949 244.79628
 242.60107 240.41886 238.25264 236.10543 233.97922 231.86001 229.89980 228.07059
 226.36737 224.85316 223.49695 222.28274 221.17853 220.15232 219.27010 218.42489
 217.68068 216.87447 215.98626 215.36405 214.82784 214.05124 212.22353 211.95074
 213.05640 213.66386 214.33154 215.32370 217.50151 221.63641 227.40134 231.80435
 235.42282 239.63379 244.19299 248.75529 252.91386 256.43204 259.63138 262.15894
 264.53394 266.97964 269.39893 271.59122 273.76505 275.83310 277.82791 279.53204
 280.93948 282.28894 283.52786 284.61780 285.59290 286.50833 287.35181 288.01599
 288.60034 289.17538 289.61652 290.17871
 366.78100 356.34838 345.79375 334.67313 323.08950 311.29688 299.18026 286.99663
 274.72201 262.63238 250.65476 239.96913 230.10451 221.22189 213.41726 206.43264
 200.28001 195.23139 191.82677 189.88214 188.93252 189.00989 189.85827 191.17965
 192.91802 195.02640 197.30277 199.67515 202.13353 204.62690 206.72828 208.58365
 210.22303 211.38140 211.62378 211.86516 211.81553 211.53391 211.18028 210.82366
 210.45404 210.17741 209.99879 209.87616 209.81754 210.16192 210.56129 210.96367
 211.77004 212.96142 214.22480 216.02117 217.96255 220.01892 222.12730 224.22367
 226.29705 228.39443 230.50480 232.62418 234.76655 236.95193 239.22131 241.60468
 244.23906 246.50343 248.51881 250.29719 251.72756 252.86394 253.69931 254.02869
 254.07907 253.86644 253.23982 252.20119 250.82057 248.99494 246.91732 244.76370
 242.56807 240.38545 238.21882 236.07120 233.94458 231.82495 229.86433 228.03470
 226.33108 224.81646 223.45983 222.24521 221.14058 220.11396 219.23134 218.38571
 217.64109 216.83446 215.94584 215.32321 214.78659 214.06381 212.37431 211.84790
 213.03038 213.68378 214.42134 215.52600 217.69562 221.69307 227.29300 231.74202
 235.34496 239.56975 244.10530 248.59680 252.66704 256.28873 259.54404 262.18094
 264.60803 267.08286 269.50491 271.64563 273.73492 275.93515 277.89294 279.53265
 280.71725 282.09067 283.27289 284.32858 285.29791 286.15952 286.89792 287.56378
 288.03815 288.42474 288.76248 289.19284
 366.78100 356.34688 345.79077 334.66865 323.08353 311.28942 299.17130 286.98619
 274.71007 262.61895 250.63984 239.95272 230.08660 221.20249 213.39637 206.41025
 200.25614 195.20602 191.79990 189.85379 188.90267 188.97856 189.82544 191.14532
 192.88221 194.98909 197.26397 199.63486 202.09174 204.58362 206.68351 208.53739
 210.17528 211.33216 211.57304 211.81293 211.76181 211.47869 211.12358 210.76546
 210.39434 210.11623 209.93611 209.81199 209.75188 210.09476 210.49265 210.89353
 211.69841 212.88830 214.15018 215.94506 217.88495 219.93983 222.04671 224.14160
 226.21348 228.30936 230.41825 232.53613 234.67702 236.86090 239.12878 241.51067
 244.14355 246.40643 248.42032 250.19720 251.62608 252.76097 253.59485 253.92274
 253.97162 253.75750 253.12939 252.08927 250.70715 248.88004 246.80092 244.64580
 242.44869 240.26457 238.09645 235.94734 233.81922 231.69811 229.73599 227.90487
 226.19976 224.68364 223.32552 222.10941 221.00329 219.97517 219.09106 218.24394
 217.49783 216.68971 215.79959 215.17548 214.63736 214.01918 212.56931 211.86104
 212.70731 213.60892 214.54373 215.75381 217.92197 221.77609 227.21858 231.68872
 235.29961 239.53586 244.06940 248.51837 252.52422 256.12885 259.37387 262.15628
 264.69724 267.21994 269.64813 271.73050 273.74426 276.07095 277.83630 279.45715
 280.69214 281.92798 283.06467 284.08722 284.99258 285.80176 286.57968 287.29291
 287.93430 288.50543 289.00439 289.64026
 366.78100 356.34500 345.78699 334.66299 323.07599 311.27998 299.15998 286.97297
 274.69497 262.60197 250.62096 239.93196 230.06396 221.17795 213.36995 206.38195
 200.22594 195.17394 191.76594 189.81793 188.86493 188.93892 189.78392 191.10192
 192.83691 194.94191 197.21491 199.58390 202.03890 204.52890 206.62689 208.47889
 210.11488 211.26988 211.50888 211.74687 211.69387 211.40887 211.05186 210.69186
 210.31886 210.03885 209.85685 209.73084 209.66884 210.00984 210.40583 210.80483
 211.60783 212.79582 214.05582 215.84882 217.78681 219.83981 221.94481 224.03780
 226.10780 228.20179 230.30879 232.42479 234.56378 236.74578 239.01178 241.39177
 244.02277 246.28377 248.29576 250.07076 251.49775 252.63075 253.46275 253.78874
 253.83574 253.61974 252.98973 251.94773 250.56373 248.73472 246.65372 244.49671
 242.29771 240.11171 237.94170 235.79070 233.66070 231.53769 229.57369 227.74069
 226.03368 224.51568 223.15568 221.93767 220.82967 219.79966 218.91366 218.06466
 217.31665 216.50665 215.61465 214.98864 214.44864 213.94037 212.74152 212.01857
 212.43279 213.43155 214.55150 215.86865 218.07365 221.84933 227.19833 231.67729
 235.29059 239.52086 244.05518 248.49078 252.47144 256.01291 259.22223 262.01755
 264.65161 267.21692 269.66620 271.84601 273.72501 276.01364 277.76593 279.39221
 280.68555 281.94986 283.03818 284.02789 284.92502 285.83710 286.71255 287.50681
 288.22113 288.85724 289.41293 290.12109
 366.78100 356.34466 345.78632 334.66198 323.07464 311.27830 299.15796 286.97062
 274.69228 262.59894 250.61760 239.92826 230.05992 221.17358 213.36524 206.37690
 200.22056 195.16822 191.75988 189.81154 188.85820 188.93186 189.77653 191.09419
 192.82885 194.93351 197.20617 199.57483 202.02949 204.51915 206.61681 208.46847
 210.10413 211.25879 211.49745 211.73511 211.68177 211.39643 211.03909 210.67875
 210.30541 210.02507 209.84273 209.71639 209.65405 209.99471 210.39037 210.78903
 211.59169 212.77935 214.03901 215.83167 217.76933 219.82199 221.92665 224.01931
 226.08897 228.18263 230.28929 232.40495 234.54361 236.72527 238.99093 241.37059
 244.00126 246.26192 248.27358 250.04824 251.47490 252.60756 253.43922 253.76488
 253.81154 253.59520 252.96486 251.92252 250.53818 248.70884 246.62750 244.47016
 242.27082 240.08448 237.91414 235.76280 233.63246 231.50912 229.54478 227.71144
 226.00410 224.48576 223.12542 221.90708 220.79874 219.76840 218.88206 218.03272
 217.28438 216.47404 215.58170 214.95536 214.41502 213.94737 212.83267 212.08369
 212.54408 213.41685 214.49236 215.87657 218.13861 221.91245 227.24469 231.71545
 235.30942 239.51984 244.03961 248.45451 252.42825 255.89355 259.09573 261.88187
 264.57230 267.11462 269.60004 271.76773 273.73550 275.91125 277.67255 279.29984
 280.64005 281.93350 282.96884 283.93564 284.95999 285.94562 286.84854 287.66650
 288.40219 289.05731 289.62964 290.35898
 366.78100 356.34566 345.78832 334.66499 323.07865 311.28331 299.16397 286.97763
 274.70030 262.60796 250.62762 239.93928 230.07194 221.18661 213.37927 206.39193
 200.23659 195.18525 191.77792 189.83058 188.87824 188.95290 189.79856 191.11723
 192.85289 194.95855 197.23221 199.60187 202.05754 204.54820 206.64686 208.49952
 210.13618 211.29185 211.53151 211.77017 211.71783 211.43349 211.07716 210.71782
 210.34548 210.06614 209.88480 209.75947 209.69813 210.03979 210.43645 210.83611
 211.63977 212.82844 214.08910 215.88276 217.82142 219.87508 221.98075 224.07441
 226.14507 228.23973 230.34739 232.46406 234.60372 236.78638 239.05304 241.43370
 244.06537 246.32703 248.33969 250.11535 251.54301 252.67668 253.50934 253.83600
 253.88366 253.66832 253.03899 251.99765 250.61431 248.78597 246.70563 244.54930
 242.35096 240.16562 237.99628 235.84594 233.71661 231.59427 229.63093 227.79859
 226.09225 224.57492 223.21558 221.99824 220.89090 219.86156 218.97623 218.12789
 217.38055 216.57121 215.67987 215.05454 214.51520 214.03964 212.87752 212.04666
 212.72234 213.52441 214.51970 215.93777 218.21512 221.97888 227.32013 231.75586
 235.32990 239.51930 244.02866 248.43613 252.41783 255.77225 258.85513 261.71506
 264.45184 267.11359 269.59845 271.69098 273.74948 275.87238 277.70123 279.22620
 280.45435 281.71182 282.72336 283.92773 285.11954 286.17395 287.13599 288.00748
 288.79132 289.48932 290.09909 290.87616
 366.78100 356.34500 345.78700 334.66301 323.07601 311.28001 299.16001 286.97302
 274.69502 262.60202 250.62102 239.93203 230.06403 221.17803 213.37003 206.38204
 200.22604 195.17404 191.76604 189.81805 188.86505 188.93905 189.78405 191.10206
 192.83706 194.94206 197.21506 199.58407 202.03907 204.52907 206.62707 208.47908
 210.11508 211.27008 211.50908 211.74709 211.69409 211.40909 211.05209 210.69210
 210.31910 210.03910 209.85710 209.73111 209.66911 210.01011 210.40611 210.80512
 211.60812 212.79612 214.05612 215.84913 217.78713 219.84013 221.94513 224.03814
 226.10814 228.20214 230.30914 232.42515 234.56415 236.74615 239.01215 241.39216
 244.02316 246.28416 248.29616 250.07117 251.49817 252.63117 253.46317 253.78918
 253.83618 253.62018 252.99018 251.94819 250.56419 248.73519 246.65419 244.49720
 242.29820 240.11220 237.94220 235.79121 233.66121 231.53821 229.57421 227.74122
 226.03422 224.51622 223.15622 221.93823 220.83023 219.80023 218.91423 218.06524
 217.31724 216.50724 215.61524 214.98925 214.44925 214.04987 213.00203 212.05885
 212.73552 213.58049 214.56419 216.00545 218.26859 222.00307 227.37119 231.77637
 235.36201 239.55014 244.03053 248.40144 252.34319 255.70880 258.77603 261.61423
 264.47052 267.14615 269.55850 271.64471 273.81409 275.84061 277.68707 279.10007
 280.38412 281.56369 282.89951 284.25934 285.43619 286.47739 287.42731 288.28787
 289.06186 289.75110 290.35321 291.12054
 366.78100 356.34479 345.78659 334.66238 323.07517 311.27897 299.15876 286.97155
 274.69335 262.60014 250.61893 239.92973 230.06152 221.17531 213.36711 206.37890
 200.22269 195.17049 191.76228 189.81407 188.86087 188.93466 189.77945 191.09725
 192.83204 194.93683 197.20963 199.57842 202.03321 204.52301 206.62080 208.47259
 210.10839 211.26318 211.50197 211.73977 211.68656 211.40135 211.04415 210.68394
 210.31073 210.03053 209.84832 209.72211 209.65990 210.00070 210.39649 210.79528
 211.59808 212.78587 214.04566 215.83846 217.77625 219.82904 221.93384 224.02663
 226.09642 228.19022 230.29701 232.41280 234.55160 236.73339 238.99918 241.37898
 244.00977 246.27056 248.28236 250.05715 251.48394 252.61674 253.44853 253.77432
 253.82112 253.60491 252.97470 251.93250 250.54829 248.71908 246.63788 244.48067
 242.28146 240.09526 237.92505 235.77384 233.64364 231.52043 229.55622 227.72302
 226.01581 224.49760 223.13740 221.91919 220.81098 219.78078 218.89457 218.04536
 217.29716 216.48695 215.59474 214.96854 214.42833 214.06613 213.08443 212.08876
 212.74516 213.67088 214.62128 216.02786 218.24355 221.95752 227.30299 231.70547
 235.31091 239.53049 244.02287 248.39685 252.33606 255.70415 258.69205 261.46408
 264.39117 267.07150 269.45230 271.59793 273.83368 275.81622 277.60052 279.01321
 280.41849 281.67856 283.12711 284.45938 285.61234 286.63242 287.56311 288.40622
 289.16452 289.83978 290.42969 291.18146
 366.78100 356.34502 345.78704 334.66305 323.07607 311.28009 299.16011 286.97313
 274.69514 262.60216 250.62118 239.93220 230.06421 221.17823 213.37025 206.38227
 200.22629 195.17430 191.76632 189.81834 188.86536 188.93938 189.78439 191.10241
 192.83743 194.94245 197.21547 199.58448 202.03950 204.52952 206.62754 208.47956
 210.11557 211.27059 211.50961 211.74763 211.69464 211.40966 211.05268 210.69270
 210.31972 210.03973 209.85775 209.73177 209.66979 210.01081 210.40682 210.80584
 211.60886 212.79688 214.05690 215.84991 217.78793 219.84095 221.94597 224.03898
 226.10900 228.20302 230.31004 232.42606 234.56507 236.74709 239.01311 241.39313
 244.02415 246.28516 248.29718 250.07220 251.49922 252.63224 253.46425 253.79027
 253.83729 253.62131 252.99132 251.94934 250.56536 248.73638 246.65540 244.49841
 242.29943 240.11345 237.94347 235.79249 233.66250 231.53952 229.57554 227.74256
 226.03558 224.51759 223.15761 221.93963 220.83165 219.80167 218.91568 218.06670
 217.31872 216.50874 215.61675 214.99077 214.45079 214.10907 213.15312 212.04587
 212.67381 213.76985 214.86897 216.28593 218.35829 221.94044 227.23555 231.57582
 235.14920 239.39220 243.90086 248.24635 252.13780 255.44716 258.41101 261.38486
 264.27686 266.97333 269.36383 271.54327 273.80484 275.76160 277.50458 278.85492
 280.40817 281.69104 283.13181 284.44992 285.59061 286.59985 287.52063 288.35480
 289.10504 289.77310 290.35675 291.10052
 366.78100 356.34149 345.77998 334.65246 323.06195 311.26244 299.13893 286.94842
 274.66691 262.57039 250.58588 239.89337 230.02186 221.13235 213.32084 206.32932
 200.16981 195.11430 191.70279 189.75128 188.79476 188.86525 189.70674 191.02123
 192.75272 194.85421 197.12369 199.48918 201.94067 204.42716 206.52165 208.37014
 210.00262 211.15411 211.38960 211.62409 211.56758 211.27906 210.91855 210.55504
 210.17853 209.89502 209.70951 209.57999 209.51448 209.85197 210.24446 210.63995
 211.43944 212.62392 213.88041 215.66990 217.60439 219.65388 221.75537 223.84485
 225.91134 228.00183 230.10532 232.21781 234.35329 236.53178 238.79427 241.17076
 243.79825 246.05574 248.06422 249.83571 251.25920 252.38869 253.21718 253.53967
 253.58315 253.36364 252.73013 251.68462 250.29711 248.46459 246.38008 244.21957
 242.01706 239.82755 237.65404 235.49952 233.36601 231.23950 229.27199 227.43548
 225.72497 224.20345 222.83994 221.61843 220.50692 219.47341 218.58389 217.73138
 216.97987 216.16636 215.27085 214.64134 214.09782 213.97783 213.40538 212.01421
 212.32359 213.48759 214.99701 216.72820 218.78687 222.15744 227.36127 231.66426
 235.19263 239.35109 243.81671 248.14563 252.01134 255.27972 258.22037 261.29980
 264.16092 266.73773 269.18906 271.50656 273.85977 275.72394 277.38849 278.74771
 280.05093 281.73367 283.35837 284.78494 286.01953 287.11185 288.10840 289.01120
 289.82318 290.54623 291.17789 291.98288
 366.78100 356.33719 345.77138 334.63957 323.04476 311.24095 299.11314 286.91833
 274.63252 262.53171 250.54290 239.84609 229.97029 221.07648 213.26067 206.26486
 200.10105 195.04124 191.62543 189.66962 188.70881 188.77500 189.61219 190.92238
 192.64957 194.74676 197.01195 199.37314 201.82033 204.30252 206.39271 208.23690
 209.86509 211.01228 211.24348 211.47367 211.41286 211.12005 210.75524 210.38743
 210.00662 209.71881 209.52900 209.39519 209.32538 209.65857 210.04676 210.43795
 211.23314 212.41333 213.66552 215.45071 217.38090 219.42609 221.52328 223.60847
 225.67067 227.75686 229.85605 231.96424 234.09543 236.26962 238.52781 240.90000
 243.52319 245.77638 247.78057 249.54776 250.96695 252.09214 252.91633 253.23452
 253.27371 253.04990 252.41209 251.36228 249.97047 248.13366 246.04486 243.88005
 241.67324 239.47943 237.30162 235.14281 233.00500 230.87419 228.90238 227.06157
 225.34676 223.82095 222.45314 221.22733 220.11152 219.07371 218.17990 217.32309
 216.56728 215.74947 214.84966 214.21585 213.66805 213.79520 213.67036 212.17043
 211.98903 212.99387 214.76157 216.79443 219.06552 222.29228 227.51933 231.85143
 235.38837 239.49811 243.91406 248.24884 252.16856 255.50688 258.31732 261.26599
 264.14017 266.76697 269.21362 271.57556 273.84366 275.66367 277.27469 278.71033
 280.12338 282.00693 283.63681 285.06799 286.30655 287.40234 288.40210 289.30780
 290.12241 290.84778 291.48148 292.28903
 366.78100 356.33877 345.77454 334.64431 323.05108 311.24885 299.12262 286.92939
 274.64517 262.54594 250.55871 239.86348 229.98925 221.09702 213.28279 206.28856
 200.12633 195.06810 191.65387 189.69964 188.74041 188.80818 189.64695 190.95872
 192.68750 194.78627 197.05304 199.41581 201.86458 204.34835 206.44012 208.28589
 209.91566 211.06443 211.29720 211.52897 211.46974 211.17851 210.81528 210.44906
 210.06983 209.78360 209.59537 209.46314 209.39491 209.72968 210.11945 210.51222
 211.30899 212.49076 213.74453 215.53130 217.46307 219.50984 221.60862 223.69539
 225.75916 227.84693 229.94770 232.05747 234.19024 236.36601 238.62578 240.99955
 243.62432 245.87909 247.88486 249.65363 251.07440 252.20117 253.02695 253.34672
 253.38749 253.16526 252.52903 251.48080 250.09057 248.25534 246.16811 244.00488
 241.79965 239.60742 237.43119 235.27396 233.13773 231.00851 229.03828 227.19905
 225.48582 223.96159 222.59536 221.37113 220.25690 219.22067 218.32844 217.47321
 216.71898 215.90275 215.00452 214.37229 213.82607 213.87476 213.66212 212.44200
 211.99904 212.82445 214.50879 216.51169 218.90253 222.23616 227.47603 231.88104
 235.44960 239.57452 243.99171 248.35275 252.32576 255.69687 258.52921 261.31543
 264.14014 266.76685 269.21786 271.64795 273.82648 275.61703 277.22342 278.57870
 280.40079 282.27768 283.90182 285.32794 286.56213 287.65408 288.65030 289.55283
 290.36453 291.08734 291.71881 292.52353
 366.78100 356.34241 345.78182 334.65523 323.06564 311.26705 299.14445 286.95486
 274.67427 262.57868 250.59509 239.90350 230.03291 221.14432 213.33373 206.34314
 200.18455 195.12995 191.71936 189.76877 188.81318 188.88459 189.72700 191.04241
 192.77482 194.87723 197.14764 199.51405 201.96646 204.45386 206.54927 208.39868
 210.03209 211.18450 211.42091 211.65632 211.60073 211.31314 210.95355 210.59096
 210.21536 209.93277 209.74818 209.61959 209.55500 209.89341 210.28682 210.68323
 211.48364 212.66905 213.92646 215.71686 217.65227 219.70268 221.80509 223.89550
 225.96291 228.05432 230.15873 232.27214 234.40855 236.58796 238.85136 241.22877
 243.85718 246.11559 248.12500 249.89741 251.32182 252.45223 253.28164 253.60505
 253.64946 253.43086 252.79827 251.75368 250.36709 248.53550 246.45191 244.29232
 242.09073 239.90214 237.72955 235.57596 233.44337 231.31777 229.35118 227.51559
 225.80600 224.28541 222.92282 221.70223 220.59164 219.55905 218.67046 217.81887
 217.06827 216.25568 215.36109 214.73250 214.18991 214.05748 213.55870 212.59314
 212.13249 212.85802 214.47472 216.41435 218.74269 222.13919 227.32301 231.76712
 235.36624 239.53456 243.97079 248.31808 252.28873 255.71640 258.59354 261.31506
 264.11099 266.76544 269.22391 271.66742 273.80573 275.57550 277.13583 278.50824
 280.78470 282.73593 284.42444 285.90704 287.19012 288.32535 289.36102 290.29929
 291.14316 291.89462 292.55112 293.38770
 366.78100 356.34482 345.78664 334.66246 323.07528 311.27910 299.15891 286.97173
 274.69355 262.60037 250.61919 239.93001 230.06183 221.17565 213.36747 206.37929
 200.22311 195.17092 191.76274 189.81456 188.86138 188.93520 189.78002 191.09784
 192.83266 194.93748 197.21030 199.57912 202.03393 204.52375 206.62157 208.47339
 210.10921 211.26403 211.50285 211.74067 211.68749 211.40231 211.04513 210.68494
 210.31176 210.03158 209.84940 209.72322 209.66104 210.00186 210.39768 210.79650
 211.59932 212.78714 214.04695 215.83977 217.77759 219.83041 221.93523 224.02805
 226.09787 228.19169 230.29851 232.41433 234.55314 236.73496 239.00078 241.38060
 244.01142 246.27224 248.28406 250.05888 251.48570 252.61852 253.45034 253.77615
 253.82297 253.60679 252.97661 251.93443 250.55025 248.72107 246.63989 244.48271
 242.28353 240.09735 237.92716 235.77598 233.64580 231.52262 229.55844 227.72526
 226.01808 224.49990 223.13972 221.92154 220.81336 219.78317 218.89699 218.04781
 217.29963 216.48945 215.59727 214.97109 214.43091 214.18295 213.49303 212.65717
 212.24147 212.87119 214.46382 216.41571 218.70813 222.11365 227.23201 231.66895
 235.28993 239.48846 243.94519 248.32141 252.32750 255.76361 258.65408 261.43604
 264.22241 266.77991 269.29688 271.75818 273.83072 275.53058 277.02829 278.76785
 280.90161 282.74323 284.33685 285.73621 286.94717 288.01862 288.99612 289.88168
 290.67813 291.38739 292.00696 292.79657
 366.78100 356.34521 345.78742 334.66364 323.07685 311.28106 299.16127 286.97449
 274.69670 262.60391 250.62312 239.93434 230.06655 221.18076 213.37297 206.38519
 200.22940 195.17761 191.76982 189.82204 188.86925 188.94346 189.78867 191.10689
 192.84210 194.94731 197.22052 199.58974 202.04495 204.53516 206.63337 208.48559
 210.12180 211.27701 211.51622 211.75444 211.70165 211.41686 211.06007 210.70029
 210.32750 210.04771 209.86592 209.74014 209.67835 210.01956 210.41577 210.81499
 211.61820 212.80641 214.06662 215.85984 217.79805 219.85126 221.95647 224.04968
 226.11990 228.21411 230.32132 232.43753 234.57675 236.75896 239.02517 241.40538
 244.03660 246.29781 248.31002 250.08523 251.51245 252.64566 253.47787 253.80408
 253.85130 253.63551 253.00572 251.96393 250.58015 248.75136 246.67057 244.51378
 242.31500 240.12921 237.95942 235.80863 233.67885 231.55606 229.59227 227.75948
 226.05270 224.53491 223.17512 221.95733 220.84955 219.81976 218.93397 218.08518
 217.33740 216.52761 215.63582 215.01003 214.47025 214.19608 213.48552 212.69449
 212.37425 212.97676 214.44028 216.29298 218.57790 222.18349 227.04156 231.59874
 235.23952 239.43610 243.86969 248.19226 252.15761 255.62534 258.63086 261.44211
 264.22284 266.84409 269.38327 271.73956 273.74060 275.42352 276.87872 278.61612
 280.19073 281.74130 283.18372 284.45029 285.54639 286.51614 287.40088 288.20242
 288.92331 289.56528 290.12607 290.84073
 366.78100 356.34397 345.78493 334.65990 323.07186 311.27483 299.15379 286.96576
 274.68672 262.59269 250.61065 239.92062 230.05158 221.16455 213.35551 206.36648
 200.20944 195.15641 191.74737 189.79834 188.84430 188.91727 189.76123 191.07820
 192.81216 194.91613 197.18810 199.55606 202.01003 204.49899 206.59596 208.44692
 210.08189 211.23585 211.47382 211.71078 211.65675 211.37071 211.01268 210.65164
 210.27761 209.99657 209.81354 209.68650 209.62347 209.96343 210.35840 210.75636
 211.55833 212.74529 214.00426 215.79623 217.73319 219.78516 221.88912 223.98109
 226.05005 228.14302 230.24898 232.36395 234.50191 236.68288 238.94784 241.32681
 243.95677 246.21674 248.22770 250.00167 251.42763 252.55960 253.39056 253.71553
 253.76149 253.54446 252.91342 251.87039 250.48536 248.65532 246.57329 244.41525
 242.21522 240.02818 237.85715 235.70511 233.57408 231.45004 229.48501 227.65097
 225.94294 224.42390 223.06287 221.84383 220.73480 219.70376 218.81673 217.96669
 217.21766 216.40662 215.51359 214.88655 214.34552 214.12367 213.55487 212.76314
 212.28464 212.92133 214.43961 216.32059 218.70158 222.24802 226.96776 231.50282
 235.14749 239.33966 243.74327 248.01643 251.93208 255.38503 258.42456 261.28885
 264.11435 266.85291 269.41742 271.70059 273.64841 275.29996 276.76544 278.47357
 280.02560 281.25339 282.31586 283.55704 284.66751 285.65002 286.54639 287.35846
 288.08881 288.73920 289.30737 290.03143
 366.78100 356.34389 345.78478 334.65966 323.07155 311.27444 299.15333 286.96521
 274.68610 262.59199 250.60988 239.91976 230.05065 221.16354 213.35443 206.36532
 200.20820 195.15509 191.74598 189.79687 188.84275 188.91564 189.75953 191.07642
 192.81030 194.91419 197.18608 199.55397 202.00786 204.49674 206.59363 208.44452
 210.07941 211.23329 211.47118 211.70807 211.65396 211.36784 211.00973 210.64862
 210.27451 209.99340 209.81028 209.68317 209.62006 209.95995 210.35483 210.75272
 211.55461 212.74150 214.00038 215.79227 217.72916 219.78105 221.88494 223.97682
 226.04571 228.13860 230.24449 232.35937 234.49726 236.67815 238.94304 241.32192
 243.95181 246.21170 248.22259 249.99647 251.42236 252.55425 253.38514 253.71003
 253.75591 253.53880 252.90769 251.86458 250.47946 248.64935 246.56724 244.40913
 242.20901 240.02190 237.85079 235.69868 233.56757 231.44345 229.47834 227.64423
 225.93612 224.41700 223.05589 221.83678 220.72767 219.69655 218.80944 217.95933
 217.21022 216.39911 215.50599 214.87888 214.33777 214.12285 213.58705 212.89568
 212.22087 212.75023 214.38724 216.39182 218.79543 222.32370 227.00363 231.50929
 235.14290 239.32639 243.71042 247.95515 251.84229 255.27502 258.31973 261.23175
 264.10754 266.87332 269.42856 271.70261 273.56711 275.17932 276.67163 278.31259
 279.78720 280.88770 281.89301 283.19199 284.36041 285.39417 286.33734 287.19177
 287.96024 288.64456 289.24237 290.00421
 366.78100 356.34453 345.78605 334.66158 323.07411 311.27763 299.15716 286.96969
 274.69122 262.59774 250.61627 239.92680 230.05832 221.17185 213.36338 206.37490
 200.21843 195.16596 191.75748 189.80901 188.85554 188.92906 189.77359 191.09112
 192.82565 194.93017 197.20270 199.57123 202.02575 204.51528 206.61281 208.46433
 210.09986 211.25439 211.49291 211.73044 211.67697 211.39149 211.03402 210.67355
 210.30008 210.01960 209.83713 209.71066 209.64818 209.98871 210.38424 210.78276
 211.58529 212.77282 214.03234 215.82487 217.76240 219.81492 221.91945 224.01198
 226.08151 228.17503 230.28156 232.39709 234.53561 236.71714 238.98267 241.36219
 243.99272 246.25325 248.26477 250.03930 251.46583 252.59835 253.42988 253.75541
 253.80194 253.58546 252.95499 251.91252 250.52804 248.69857 246.61710 244.45962
 242.26015 240.07368 237.90320 235.75173 233.62126 231.49778 229.53331 227.69984
 225.99237 224.47389 223.11342 221.89495 220.78647 219.75600 218.86953 218.02005
 217.27158 216.46111 215.56863 214.94216 214.40169 214.16583 213.59428 212.98146
 212.28073 212.64188 214.25627 216.33295 218.77638 222.35661 227.04076 231.55318
 235.15884 239.35349 243.74176 247.97475 251.85339 255.30235 258.38837 261.34613
 264.22958 266.92200 269.45590 271.73877 273.55087 275.10373 276.69571 278.36197
 279.69293 280.64966 281.87689 283.29611 284.54675 285.65323 286.66275 287.57727
 288.39981 289.13229 289.77216 290.58759
 366.78100 356.34340 345.78380 334.65820 323.06960 311.27200 299.15040 286.96180
 274.68220 262.58759 250.60499 239.91439 230.04479 221.15719 213.34759 206.35799
 200.20039 195.14679 191.73719 189.78759 188.83299 188.90539 189.74879 191.06519
 192.79859 194.90199 197.17338 199.54078 201.99418 204.48258 206.57898 208.42938
 210.06378 211.21718 211.45458 211.69098 211.63638 211.34978 210.99118 210.62958
 210.25498 209.97338 209.78977 209.66217 209.59857 209.93797 210.33237 210.72977
 211.53117 212.71757 213.97597 215.76737 217.70377 219.75517 221.85857 223.94997
 226.01837 228.11077 230.21617 232.33056 234.46796 236.64836 238.91276 241.29116
 243.92056 246.17996 248.19036 249.96376 251.38916 252.52056 253.35096 253.67536
 253.72076 253.50316 252.87156 251.82796 250.44235 248.61175 246.52915 244.37055
 242.16995 239.98235 237.81075 235.65815 233.52655 231.40195 229.43635 227.60175
 225.89315 224.37355 223.01195 221.79235 220.68275 219.65114 218.76354 217.91294
 217.16334 216.35174 215.45814 214.83054 214.28894 214.11809 213.67522 212.99321
 212.34195 212.62628 214.16864 216.22920 218.70624 222.30859 227.02730 231.51961
 235.16405 239.35065 243.71606 247.93755 251.82275 255.27524 258.37222 261.36429
 264.26721 266.95642 269.47177 271.74927 273.52832 275.05096 276.76242 278.42163
 279.75977 280.76239 282.05856 283.44473 284.70761 285.82495 286.84433 287.76782
 288.59839 289.33804 289.98416 290.80759
 366.78100 356.34093 345.77886 334.65079 323.05972 311.25965 299.13558 286.94451
 274.66244 262.56537 250.58031 239.88724 230.01517 221.12510 213.31303 206.32096
 200.16089 195.10482 191.69275 189.74068 188.78361 188.85354 189.69447 191.00840
 192.73933 194.84026 197.10919 199.47412 201.92505 204.41099 206.50492 208.35285
 209.98478 211.13571 211.37064 211.60457 211.54750 211.25843 210.89736 210.53329
 210.15622 209.87215 209.68608 209.55601 209.48994 209.82687 210.21880 210.61374
 211.41267 212.59660 213.85253 215.64146 217.57539 219.62432 221.72525 223.81418
 225.88011 227.97004 230.07297 232.18490 234.31983 236.49776 238.75969 241.13562
 243.76255 246.01948 248.02742 249.79835 251.22128 252.35021 253.17814 253.50007
 253.54300 253.32293 252.68886 251.64279 250.25472 248.42165 246.33658 244.17551
 241.97244 239.78237 237.60830 235.45323 233.31916 231.19210 229.22403 227.38696
 225.67589 224.15382 222.78975 221.56768 220.45561 219.42154 218.53147 217.67840
 216.92633 216.11226 215.21619 214.58612 214.04205 213.99791 213.82689 213.02000
 212.25067 212.55937 214.15187 216.24675 218.71475 222.28461 227.01657 231.48270
 235.16072 239.33284 243.66649 247.85489 251.71725 255.17493 258.27679 261.30148
 264.22165 266.95343 269.50311 271.69910 273.43896 274.88947 276.69012 278.36356
 279.74173 280.85144 282.11075 283.46628 284.66418 285.74115 286.72372 287.61386
 288.41446 289.12738 289.75018 290.54385
 366.78100 356.33885 345.77470 334.64455 323.05140 311.24925 299.12310 286.92995
 274.64580 262.54665 250.55950 239.86435 229.99020 221.09805 213.28390 206.28975
 200.12760 195.06944 191.65529 189.70114 188.74199 188.80984 189.64869 190.96054
 192.68939 194.78824 197.05509 199.41794 201.86679 204.35064 206.44249 208.28834
 209.91819 211.06704 211.29989 211.53174 211.47259 211.18144 210.81829 210.45214
 210.07299 209.78684 209.59869 209.46654 209.39839 209.73324 210.12309 210.51594
 211.31279 212.49463 213.74848 215.53533 217.46718 219.51403 221.61288 223.69973
 225.76358 227.85143 229.95228 232.06213 234.19498 236.37083 238.63068 241.00453
 243.62938 245.88423 247.89008 249.65893 251.07978 252.20663 253.03248 253.35233
 253.39318 253.17103 252.53488 251.48673 250.09658 248.26143 246.17428 244.01113
 241.80598 239.61382 237.43767 235.28052 233.14437 231.01522 229.04507 227.20592
 225.49277 223.96862 222.60247 221.37832 220.26417 219.22802 218.33587 217.48072
 216.72657 215.91042 215.01227 214.38012 213.83397 213.89493 213.95866 213.13345
 212.10835 212.42810 214.15004 216.31255 218.74802 222.29050 227.02603 231.47127
 235.16278 239.33154 243.64661 247.81554 251.66672 255.12877 258.24649 261.30804
 264.23398 266.95139 269.47668 271.66541 273.35776 274.79425 276.66833 278.29962
 279.67676 280.82114 282.08118 283.43289 284.63287 285.71365 286.69968 287.59296
 288.39636 289.11179 289.73679 290.53326
 366.78100 356.33825 345.77351 334.64276 323.04901 311.24626 299.11952 286.92577
 274.64102 262.54127 250.55353 239.85778 229.98303 221.09028 213.27554 206.28079
 200.11804 195.05929 191.64455 189.68980 188.73005 188.79730 189.63556 190.94681
 192.67506 194.77332 197.03957 199.40182 201.85007 204.33333 206.42458 208.26983
 209.89908 211.04734 211.27959 211.51084 211.45109 211.15935 210.79560 210.42885
 210.04910 209.76236 209.57361 209.44086 209.37212 209.70637 210.09562 210.48787
 211.28413 212.46538 213.71863 215.50488 217.43614 219.48239 221.58064 223.66689
 225.73015 227.81740 229.91765 232.02690 234.15916 236.33441 238.59366 240.96691
 243.59117 245.84542 247.85067 249.61893 251.03918 252.16543 252.99068 253.30994
 253.35019 253.12744 252.49069 251.44195 250.05120 248.21545 246.12770 243.96396
 241.75821 239.56546 237.38871 235.23097 233.09422 230.96447 228.99372 227.15398
 225.44023 223.91548 222.54874 221.32399 220.20924 219.17249 218.27975 217.42400
 216.66925 215.85250 214.95376 214.32101 213.77426 213.87140 214.01088 213.23279
 212.09496 212.40501 214.16042 216.33623 218.76991 222.31044 227.02592 231.44635
 235.13278 239.30791 243.61542 247.77066 251.60809 255.06712 258.23587 261.32867
 264.26971 266.98425 269.47742 271.63095 273.29831 274.89432 276.70953 278.30081
 279.63562 280.80423 282.25287 283.64899 284.90164 286.00992 287.02103 287.93704
 288.76089 289.49454 290.13544 290.95218
 366.78100 356.33918 345.77535 334.64553 323.05270 311.25088 299.12505 286.93223
 274.64840 262.54958 250.56276 239.86793 229.99411 221.10228 213.28846 206.29463
 200.13281 195.07499 191.66116 189.70734 188.74851 188.81669 189.65586 190.96804
 192.69721 194.79639 197.06357 199.42674 201.87592 204.36009 206.45227 208.29844
 209.92862 211.07780 211.31097 211.54315 211.48432 211.19350 210.83067 210.46485
 210.08602 209.80020 209.61238 209.48055 209.41273 209.74790 210.13808 210.53125
 211.32843 212.51061 213.76478 215.55196 217.48413 219.53131 221.63048 223.71766
 225.78183 227.87001 229.97119 232.08136 234.21454 236.39071 238.65089 241.02506
 243.65024 245.90542 247.91159 249.68077 251.10194 252.22912 253.05529 253.37547
 253.41664 253.19482 252.55900 251.51117 250.12135 248.28652 246.19970 244.03687
 241.83205 239.64023 237.46440 235.30758 233.17175 231.04293 229.07310 227.23428
 225.52145 223.99763 222.63181 221.40798 220.29416 219.25833 218.36651 217.51168
 216.75786 215.94204 215.04421 214.41239 213.86656 213.93098 213.99092 213.26735
 212.20198 212.41463 214.16580 216.39931 218.81909 222.33623 227.03632 231.41812
 235.09627 239.25597 243.54224 247.66870 251.48347 254.94997 258.17599 261.29935
 264.25952 266.99997 269.48468 271.60406 273.24683 274.88245 276.73206 278.27600
 279.47073 280.97189 282.56491 284.02972 285.29739 286.41898 287.44223 288.36923
 289.20297 289.94543 290.59399 291.42056
 366.78100 356.34014 345.77727 334.64841 323.05654 311.25568 299.13081 286.93895
 274.65608 262.55822 250.57235 239.87849 230.00562 221.11476 213.30190 206.30903
 200.14817 195.09130 191.67844 189.72557 188.76771 188.83684 189.67698 190.99011
 192.72025 194.82038 197.08852 199.45266 201.90279 204.38793 206.48106 208.32820
 209.95933 211.10947 211.34360 211.57674 211.51887 211.22901 210.86715 210.50228
 210.12442 209.83955 209.65269 209.52182 209.45496 209.79109 210.18223 210.57636
 211.37450 212.55763 213.81277 215.60091 217.53404 219.58218 221.68231 223.77045
 225.83558 227.92472 230.02685 232.13799 234.27212 236.44926 238.71039 241.08553
 243.71167 245.96780 247.97494 249.74507 251.16721 252.29534 253.12248 253.44361
 253.48575 253.26488 252.63002 251.58315 250.19429 248.36043 246.27456 244.11270
 241.90883 239.71797 237.54310 235.38724 233.25237 231.12451 229.15564 227.31778
 225.60591 224.08305 222.71819 221.49532 220.38246 219.34759 218.45673 217.60286
 216.85000 216.03513 215.13827 214.50740 213.96254 214.00290 213.97455 213.23894
 212.34126 212.40208 214.09576 216.42209 218.85178 222.34154 227.09373 231.41356
 235.08282 239.21558 243.47110 247.57852 251.38728 254.87422 258.14789 261.29105
 264.26071 266.97162 269.38971 271.50537 273.20590 274.98773 276.79926 278.22101
 279.73956 281.67642 283.44955 285.00650 286.35388 287.54599 288.63361 289.61890
 290.50507 291.29419 291.98358 292.86209
 366.78100 356.34073 345.77846 334.65018 323.05891 311.25864 299.13437 286.94310
 274.66082 262.56355 250.57828 239.88501 230.01274 221.12246 213.31019 206.31792
 200.15765 195.10138 191.68910 189.73683 188.77956 188.84929 189.69002 191.00375
 192.73447 194.83520 197.10393 199.46866 201.91939 204.40511 206.49884 208.34657
 209.97830 211.12903 211.36375 211.59748 211.54021 211.25094 210.88967 210.52539
 210.14812 209.86385 209.67758 209.54731 209.48103 209.81776 210.20949 210.60422
 211.40295 212.58667 213.84240 215.63113 217.56486 219.61359 221.71431 223.80304
 225.86877 227.95850 230.06123 232.17295 234.30768 236.48541 238.74714 241.12287
 243.74960 246.00632 248.01405 249.78478 251.20751 252.33624 253.16396 253.48569
 253.52842 253.30815 252.67388 251.62760 250.23933 248.40606 246.32079 244.15952
 241.95624 239.76597 237.59170 235.43643 233.30216 231.17488 229.20661 227.36934
 225.65807 224.13580 222.77152 221.54925 220.43698 219.40271 218.51244 217.65916
 216.90689 216.09262 215.19635 214.56608 214.02180 214.05333 213.96919 213.19992
 212.44939 212.42767 214.00362 216.37889 218.88481 222.28156 227.12607 231.41740
 235.07404 239.19203 243.43520 247.53610 251.34700 254.86702 258.18475 261.35202
 264.33066 267.05432 269.45166 271.48892 273.16199 275.02182 276.80377 278.24612
 280.25800 282.35080 284.17365 285.77420 287.15936 288.38486 289.50296 290.51587
 291.42688 292.23813 292.94681 293.84995
 366.78100 356.34144 345.77988 334.65233 323.06177 311.26221 299.13865 286.94809
 274.66654 262.56998 250.58542 239.89286 230.02130 221.13175 213.32019 206.32863
 200.16907 195.11351 191.70196 189.75040 188.79384 188.86428 189.70572 191.02017
 192.75161 194.85305 197.12249 199.48793 201.93938 204.42582 206.52026 208.36870
 210.00114 211.15259 211.38803 211.62247 211.56591 211.27735 210.91680 210.55324
 210.17668 209.89312 209.70756 209.57801 209.51245 209.84989 210.24233 210.63777
 211.43722 212.62166 213.87810 215.66754 217.60198 219.65143 221.75287 223.84231
 225.90875 227.99919 230.10264 232.21508 234.35052 236.52896 238.79140 241.16785
 243.79529 246.05273 248.06117 249.83261 251.25606 252.38550 253.21394 253.53638
 253.57982 253.36027 252.72671 251.68115 250.29359 248.46103 246.37648 244.21592
 242.01336 239.82380 237.65024 235.49569 233.36213 231.23557 229.26801 227.43145
 225.72090 224.19934 222.83578 221.61422 220.50266 219.46911 218.57955 217.72699
 216.97543 216.16187 215.26632 214.63676 214.09320 214.08601 213.95819 213.21605
 212.51134 212.57008 213.97781 216.18167 218.75629 222.37743 227.08064 231.43427
 235.07573 239.17477 243.39281 247.46088 251.26569 254.82857 258.19455 261.38226
 264.37738 267.06790 269.39807 271.41220 273.14047 275.01208 276.86026 278.45624
 280.00821 281.84402 283.67435 285.28473 286.67834 287.91138 289.03632 290.05542
 290.97202 291.78824 292.50125 293.40994
 366.78100 356.34182 345.78063 334.65345 323.06326 311.26408 299.14090 286.95071
 274.66953 262.57334 250.58916 239.89698 230.02579 221.13661 213.32542 206.33424
 200.17506 195.11987 191.70869 189.75750 188.80132 188.87214 189.71395 191.02877
 192.76058 194.86240 197.13222 199.49803 201.94985 204.43666 206.53148 208.38030
 210.01311 211.16493 211.40074 211.63556 211.57938 211.29119 210.93101 210.56782
 210.19164 209.90846 209.72327 209.59409 209.52890 209.86672 210.25954 210.65535
 211.45517 212.63998 213.89680 215.68662 217.62143 219.67125 221.77306 223.86288
 225.92970 228.02051 230.12433 232.23714 234.37296 236.55178 238.81459 241.19141
 243.81922 246.07704 248.08586 249.85767 251.28149 252.41130 253.24012 253.56294
 253.60675 253.38757 252.75438 251.70920 250.32202 248.48983 246.40565 244.24546
 242.04328 239.85410 237.68091 235.52673 233.39354 231.26736 229.30018 227.46399
 225.75381 224.23262 222.86944 221.64826 220.53707 219.50389 218.61470 217.76252
 217.01134 216.19815 215.30297 214.67378 214.13060 214.09529 213.95528 213.33589
 212.49797 212.58163 213.92467 216.02902 218.68073 222.36258 227.05911 231.44031
 235.06665 239.15213 243.34268 247.37019 251.15456 254.73619 258.12726 261.31610
 264.29178 266.99203 269.35831 271.31030 273.04251 274.86102 276.78207 278.43204
 279.80692 281.25375 282.81796 284.30801 285.61386 286.76917 287.82324 288.77814
 289.63696 290.40173 291.06985 291.92126
 366.78100 356.34218 345.78137 334.65455 323.06473 311.26592 299.14310 286.95328
 274.67247 262.57665 250.59283 239.90102 230.03020 221.14138 213.33057 206.33975
 200.18093 195.12612 191.71530 189.76448 188.80867 188.87985 189.72203 191.03722
 192.76940 194.87158 197.14177 199.50795 201.96013 204.44732 206.54250 208.39168
 210.02486 211.17705 211.41323 211.64841 211.59260 211.30478 210.94496 210.58215
 210.20633 209.92351 209.73870 209.60988 209.54506 209.88325 210.27643 210.67261
 211.47280 212.65798 213.91516 215.70535 217.64053 219.69071 221.79290 223.88308
 225.95026 228.04145 230.14563 232.25881 234.39500 236.57418 238.83736 241.21455
 243.84273 246.10091 248.11010 249.88228 251.30646 252.43665 253.26583 253.58901
 253.63320 253.41438 252.78156 251.73675 250.34993 248.51811 246.43430 244.27448
 242.07266 239.88385 237.71103 235.55721 233.42440 231.29858 229.33176 227.49595
 225.78613 224.26531 222.90250 221.68168 220.57086 219.53804 218.64923 217.79741
 217.04659 216.23378 215.33896 214.71014 214.16733 214.11371 213.95415 213.45981
 212.57426 212.52969 213.83534 215.87585 218.54027 222.28810 227.04224 231.44501
 235.08171 239.15375 243.33018 247.34032 251.11601 254.72314 258.15723 261.37424
 264.35406 267.00851 269.29398 271.25229 272.99667 274.80197 276.72379 278.41577
 279.73276 280.88382 282.38861 283.87219 285.18854 286.35315 287.41568 288.37827
 289.24402 290.01495 290.68845 291.54672
 366.78100 356.34174 345.78049 334.65323 323.06297 311.26372 299.14046 286.95021
 274.66895 262.57269 250.58844 239.89618 230.02492 221.13567 213.32441 206.33316
 200.17390 195.11864 191.70739 189.75613 188.79987 188.87062 189.71236 191.02710
 192.75885 194.86059 197.13034 199.49608 201.94782 204.43457 206.52931 208.37805
 210.01080 211.16254 211.39828 211.63303 211.57677 211.28852 210.92826 210.56500
 210.18875 209.90549 209.72023 209.59098 209.52572 209.86347 210.25621 210.65195
 211.45170 212.63644 213.89318 215.68293 217.61767 219.66741 221.76916 223.85890
 225.92565 228.01639 230.12013 232.23288 234.36862 236.54736 238.81011 241.18685
 243.81460 246.07234 248.08108 249.85283 251.27657 252.40631 253.23506 253.55780
 253.60154 253.38229 252.74903 251.70378 250.31652 248.48426 246.40001 244.23975
 242.03749 239.84824 237.67498 235.52072 233.38747 231.26121 229.29396 227.45770
 225.74744 224.22619 222.86293 221.64167 220.53042 219.49716 218.60791 217.75565
 217.00439 216.19114 215.29588 214.66662 214.12337 214.09949 214.00072 213.51247
 212.69786 212.60750 213.77910 215.69550 218.36705 222.18025 226.94485 231.39769
 235.04178 239.12488 243.30269 247.32005 251.11098 254.75412 258.23871 261.49789
 264.51480 267.19110 269.37100 271.21735 273.00757 274.91672 276.74014 278.26196
 279.50455 280.92886 282.52045 284.07547 285.44623 286.65903 287.76550 288.76788
 289.66940 290.47223 291.17355 292.06732
 366.78100 356.34035 345.77771 334.64906 323.05741 311.25677 299.13212 286.94047
 274.65783 262.56018 250.57453 239.88088 230.00824 221.11759 213.30494 206.31230
 200.15165 195.09500 191.68236 189.72971 188.77206 188.84142 189.68177 190.99512
 192.72548 194.82583 197.09418 199.45853 201.90889 204.39424 206.48759 208.33495
 209.96630 211.11665 211.35101 211.58436 211.52671 211.23707 210.87542 210.51077
 210.13313 209.84848 209.66183 209.53119 209.46454 209.80089 210.19224 210.58660
 211.38495 212.56830 213.82366 215.61201 217.54536 219.59372 221.69407 223.78242
 225.84778 227.93713 230.03948 232.15084 234.28519 236.46254 238.72389 241.09925
 243.72560 245.98195 247.98931 249.75966 251.18201 252.31037 253.13772 253.45907
 253.50143 253.28078 252.64613 251.59949 250.21084 248.37719 246.29154 244.12990
 241.92625 239.73560 237.56096 235.40531 233.27066 231.14302 229.17437 227.33672
 225.62508 224.10243 222.73778 221.51514 220.40249 219.36784 218.47720 217.62355
 216.87090 216.05625 215.15961 214.52896 213.98431 214.04079 214.09966 213.51941
 212.71060 212.71431 213.84468 215.67944 218.32651 222.12630 226.86450 231.31383
 234.96286 239.03799 243.21294 247.24236 251.04555 254.71317 258.23193 261.51398
 264.55820 267.29462 269.54688 271.41550 273.17868 275.00012 276.74826 278.27097
 279.58743 281.06674 282.68741 284.33475 285.77515 287.04953 288.21219 289.26550
 290.21283 291.05643 291.79337 292.73254
 366.78100 356.33996 345.77691 334.64787 323.05583 311.25478 299.12974 286.93770
 274.65465 262.55661 250.57057 239.87652 230.00348 221.11244 213.29939 206.30635
 200.14531 195.08826 191.67522 189.72217 188.76413 188.83309 189.67304 190.98600
 192.71596 194.81591 197.08387 199.44783 201.89778 204.38274 206.47570 208.32265
 209.95361 211.10357 211.33752 211.57048 211.51244 211.22239 210.86035 210.49531
 210.11726 209.83222 209.64518 209.51413 209.44709 209.78305 210.17400 210.56796
 211.36592 212.54887 213.80383 215.59178 217.52474 219.57270 221.67265 223.76061
 225.82557 227.91452 230.01648 232.12744 234.26139 236.43835 238.69931 241.07426
 243.70022 245.95618 247.96313 249.73309 251.15505 252.28300 253.10996 253.43092
 253.47287 253.25183 252.61679 251.56974 250.18070 248.34666 246.26061 244.09857
 241.89453 239.70348 237.52844 235.37239 233.23735 231.10931 229.14026 227.30222
 225.59018 224.06713 222.70209 221.47905 220.36600 219.33096 218.43992 217.58587
 216.83283 216.01779 215.12074 214.48970 213.94466 214.03035 214.14865 213.54858
 212.66524 212.69481 213.88310 215.74365 218.39240 222.16531 226.91246 231.29472
 234.93805 238.98918 243.14836 247.17883 250.98460 254.65984 258.19177 261.47369
 264.51663 267.27460 269.61749 271.59641 273.47205 275.32281 277.10449 278.69235
 280.06137 281.38770 283.01227 284.69693 286.15488 287.44476 288.62161 289.68774
 290.64661 291.50049 292.24640 293.19702
 366.78100 356.34107 345.77913 334.65120 323.06027 311.26034 299.13640 286.94547
 274.66354 262.56660 250.58167 239.88874 230.01681 221.12687 213.31494 206.32301
 200.16307 195.10714 191.69521 189.74327 188.78634 188.85641 189.69748 191.01154
 192.74261 194.84368 197.11274 199.47781 201.92888 204.41495 206.50901 208.35708
 209.98915 211.14021 211.37528 211.60935 211.55242 211.26348 210.90255 210.53862
 210.16168 209.87775 209.69182 209.56189 209.49595 209.83302 210.22509 210.62015
 211.41922 212.60329 213.85935 215.64842 217.58249 219.63156 221.73262 223.82169
 225.88776 227.97782 230.08089 232.19296 234.32803 236.50609 238.76816 241.14423
 243.77129 246.02836 248.03643 249.80750 251.23056 252.35963 253.18770 253.50976
 253.55283 253.33290 252.69897 251.65303 250.26510 248.43217 246.34723 244.18630
 241.98337 239.79343 237.61950 235.46457 233.33064 231.20370 229.23577 227.39884
 225.68790 224.16597 222.80204 221.58011 220.46817 219.43424 218.54431 217.69137
 216.93944 216.12551 215.22958 214.59964 214.05571 214.09499 214.11932 213.57727
 212.72736 212.64581 213.81596 215.72609 218.40817 222.18655 226.98935 231.31519
 234.94206 238.96971 243.11041 247.13115 250.92883 254.60866 258.14758 261.41342
 264.43445 267.15836 269.46973 271.49182 273.58475 275.70483 277.60651 279.30069
 280.66064 281.79584 283.44415 285.04938 286.43857 287.66766 288.78900 289.80487
 290.71851 291.53214 292.24289 293.14868
 366.78100 356.34100 345.77900 334.65099 323.05999 311.25999 299.13599 286.94498
 274.66298 262.56598 250.58098 239.88797 230.01597 221.12597 213.31397 206.32196
 200.16196 195.10596 191.69396 189.74195 188.78495 188.85495 189.69595 191.00994
 192.74094 194.84194 197.11094 199.47593 201.92693 204.41293 206.50693 208.35492
 209.98692 211.13792 211.37292 211.60691 211.54991 211.26091 210.89991 210.53590
 210.15890 209.87490 209.68890 209.55889 209.49289 209.82989 210.22189 210.61688
 211.41588 212.59988 213.85588 215.64487 217.57887 219.62787 221.72887 223.81786
 225.88386 227.97386 230.07686 232.18885 234.32385 236.50185 238.76385 241.13984
 243.76684 246.02384 248.03184 249.80283 251.22583 252.35483 253.18283 253.50482
 253.54782 253.32782 252.69382 251.64781 250.25981 248.42681 246.34181 244.18080
 241.97780 239.78780 237.61380 235.45879 233.32479 231.19779 229.22979 227.39278
 225.68178 224.15978 222.79578 221.57377 220.46177 219.42777 218.53777 217.68476
 216.93276 216.11876 215.22276 214.59275 214.04875 214.10674 214.14554 213.52063
 212.81776 212.69771 213.78790 215.69365 218.38693 222.17242 227.01186 231.32002
 234.93179 238.93524 243.05440 247.06142 250.85506 254.55287 258.10983 261.36844
 264.36932 267.03354 269.18042 271.12234 273.42477 275.71329 277.71552 279.31680
 280.57095 282.08478 283.78900 285.45929 286.90479 288.18365 289.35046 290.40750
 291.35818 292.20477 292.94434 293.88681
 366.78100 356.33896 345.77492 334.64488 323.05184 311.24980 299.12376 286.93072
 274.64668 262.54764 250.56060 239.86556 229.99151 221.09947 213.28543 206.29139
 200.12935 195.07131 191.65727 189.70323 188.74419 188.81215 189.65111 190.96307
 192.69203 194.79099 197.05795 199.42091 201.86987 204.35383 206.44579 208.29175
 209.92171 211.07067 211.30362 211.53558 211.47654 211.18550 210.82246 210.45642
 210.07738 209.79134 209.60330 209.47126 209.40322 209.73818 210.12814 210.52110
 211.31806 212.50002 213.75398 215.54094 217.47290 219.51986 221.61882 223.70578
 225.76974 227.85769 229.95865 232.06861 234.20157 236.37753 238.63749 241.01145
 243.63641 245.89137 247.89733 249.66629 251.08725 252.21421 253.04017 253.36013
 253.40109 253.17905 252.54301 251.49497 250.10493 248.26989 246.18285 244.01980
 241.81476 239.62272 237.44668 235.28964 233.15360 231.02456 229.05452 227.21548
 225.50244 223.97840 222.61236 221.38832 220.27428 219.23824 218.34620 217.49116
 216.73712 215.92108 215.02304 214.39100 213.84496 214.01564 214.26791 213.47205
 212.79411 212.76271 213.81329 215.68227 218.37161 222.15950 226.99445 231.31737
 234.91763 238.89970 243.00581 247.00737 250.80495 254.53326 258.12979 261.40573
 264.41937 267.06689 269.12231 270.97015 273.20743 275.42227 277.27014 278.75327
 280.19507 281.85175 283.48184 285.05038 286.40784 287.60883 288.70453 289.69717
 290.58997 291.38498 292.07950 292.96457
 366.78100 356.33858 345.77416 334.64375 323.05033 311.24791 299.12149 286.92807
 274.64365 262.54424 250.55682 239.86140 229.98698 221.09456 213.28014 206.28573
 200.12331 195.06489 191.65047 189.69605 188.73663 188.80422 189.64280 190.95438
 192.68296 194.78154 197.04813 199.41071 201.85929 204.34287 206.43445 208.28003
 209.90962 211.05820 211.29078 211.52236 211.46294 211.17152 210.80811 210.44169
 210.06227 209.77585 209.58743 209.45502 209.38660 209.72118 210.11076 210.50334
 211.29992 212.48151 213.73509 215.52167 217.45325 219.49983 221.59841 223.68500
 225.74858 227.83616 229.93674 232.04632 234.17890 236.35449 238.61407 240.98765
 243.61223 245.86681 247.87240 249.64098 251.06156 252.18814 253.01372 253.33330
 253.37389 253.15147 252.51505 251.46663 250.07621 248.24079 246.15338 243.98996
 241.78454 239.59212 237.41570 235.25828 233.12187 230.99245 229.02203 227.18261
 225.46919 223.94478 222.57836 221.35394 220.23952 219.20310 218.31068 217.45527
 216.70085 215.88443 214.98601 214.35359 213.80717 213.99229 214.30525 213.57008
 212.74634 212.72406 213.78659 215.65115 218.35458 222.14864 226.95570 231.31372
 234.89665 238.86243 242.96161 246.96161 250.76056 254.51534 258.14688 261.44080
 264.49597 267.20050 269.27362 270.93124 273.07132 275.18845 276.92654 278.29672
 279.65109 281.30875 282.88229 284.42532 285.78534 286.98859 288.08636 289.08090
 289.97537 290.77188 291.46771 292.35446
 366.78100 356.34063 345.77825 334.64988 323.05851 311.25813 299.13376 286.94238
 274.66001 262.56264 250.57726 239.88389 230.01152 221.12114 213.30877 206.31639
 200.15602 195.09965 191.68727 189.73490 188.77753 188.84715 189.68778 191.00140
 192.73203 194.83266 197.10128 199.46591 201.91654 204.40216 206.49579 208.34341
 209.97504 211.12567 211.36029 211.59392 211.53655 211.24717 210.88580 210.52142
 210.14405 209.85968 209.67330 209.54293 209.47656 209.81318 210.20481 210.59943
 211.39806 212.58169 213.83731 215.62594 217.55957 219.60819 221.70882 223.79744
 225.86307 227.95270 230.05532 232.16695 234.30158 236.47920 238.74083 241.11646
 243.74308 245.99971 248.00733 249.77796 251.20059 252.32921 253.15684 253.47847
 253.52109 253.30072 252.66634 251.61997 250.23160 248.39822 246.31285 244.15148
 241.94810 239.75773 237.58335 235.42798 233.29361 231.16623 229.19786 227.36049
 225.64911 224.12674 222.76236 221.53999 220.42762 219.39324 218.50287 217.64950
 216.89712 216.08275 215.18637 214.55600 214.01163 214.09709 214.22458 213.70300
 212.84636 212.71680 213.72379 215.57631 218.29750 222.11263 226.93333 231.28935
 234.86453 238.81296 242.89671 246.88803 250.69594 254.47598 258.11389 261.42194
 264.50977 267.29080 269.42941 271.08490 273.03418 275.07343 276.77600 277.96799
 279.29144 280.94604 282.56659 284.09753 285.42239 286.59457 287.66403 288.63287
 289.50421 290.28018 290.95804 291.82187
 366.78100 356.34323 345.78346 334.65769 323.06891 311.27114 299.14937 286.96060
 274.68083 262.58606 250.60328 239.91251 230.04274 221.15497 213.34520 206.35543
 200.19765 195.14388 191.73411 189.78434 188.82957 188.90180 189.74502 191.06125
 192.79448 194.89771 197.16894 199.53617 201.98939 204.47762 206.57385 208.42408
 210.05831 211.21154 211.44876 211.68499 211.63022 211.34345 210.98468 210.62291
 210.24813 209.96636 209.78259 209.65482 209.59105 209.93028 210.32450 210.72173
 211.52296 212.70919 213.96742 215.75865 217.69487 219.74610 221.84933 223.94056
 226.00879 228.10102 230.20624 232.32047 234.45770 236.63793 238.90216 241.28039
 243.90961 246.16884 248.17907 249.95230 251.37753 252.50876 253.33898 253.66321
 253.70844 253.49067 252.85890 251.81513 250.42935 248.59858 246.51581 244.35704
 242.15627 239.96850 237.79672 235.64395 233.51218 231.38741 229.42164 227.58687
 225.87810 224.35832 222.99655 221.77678 220.66701 219.63524 218.74747 217.89669
 217.14692 216.33515 215.44138 214.81361 214.27184 214.24379 214.13884 213.73734
 212.99747 212.75070 213.64796 215.48840 218.22954 222.06786 226.93832 231.27231
 234.84058 238.78192 242.85568 246.83620 250.65588 254.45572 258.08517 261.39490
 264.48456 267.28534 269.51367 271.29044 273.18445 275.13956 276.73846 277.98676
 279.22192 280.91156 282.59686 284.07666 285.35730 286.49033 287.52405 288.46054
 289.30280 290.05283 290.70804 291.54306
 366.78100 356.34435 345.78570 334.66105 323.07340 311.27675 299.15610 286.96845
 274.68981 262.59616 250.61451 239.92486 230.05621 221.16956 213.36091 206.37226
 200.21561 195.16296 191.75431 189.80566 188.85201 188.92536 189.76971 191.08706
 192.82142 194.92577 197.19812 199.56647 202.02082 204.51017 206.60752 208.45887
 210.09422 211.24857 211.48692 211.72427 211.67062 211.38497 211.02732 210.66667
 210.29303 210.01238 209.82973 209.70308 209.64043 209.98078 210.37613 210.77448
 211.57683 212.76418 214.02353 215.81588 217.75323 219.80558 221.90993 224.00229
 226.07164 228.16499 230.27134 232.38669 234.52504 236.70639 238.97174 241.35109
 243.98144 246.24179 248.25314 250.02749 251.45384 252.58619 253.41754 253.74290
 253.78925 253.57260 252.94195 251.89930 250.51465 248.68500 246.60335 244.44570
 242.24605 240.05940 237.88875 235.73710 233.60645 231.48280 229.51815 227.68451
 225.97686 224.45821 223.09756 221.87891 220.77026 219.73961 218.85296 218.00331
 217.25466 216.44401 215.55136 214.92471 214.38406 214.31693 214.11307 213.70296
 213.12445 212.78889 213.60449 215.43526 218.19255 222.05611 226.91727 231.25684
 234.81982 238.76175 242.84044 246.82558 250.64392 254.44287 258.07703 261.37000
 264.43051 267.25824 269.57260 271.38086 273.26401 275.14493 276.50125 277.91614
 279.22272 280.95566 282.67114 284.17749 285.48108 286.63443 287.68668 288.63995
 289.49731 290.26080 290.92780 291.77777
 366.78100 356.34331 345.78363 334.65794 323.06926 311.27157 299.14988 286.96120
 274.68151 262.58683 250.60414 239.91345 230.04377 221.15608 213.34640 206.35671
 200.19902 195.14534 191.73565 189.78597 188.83128 188.90359 189.74691 191.06322
 192.79653 194.89985 197.17116 199.53848 201.99179 204.48010 206.57642 208.42673
 210.06105 211.21436 211.45167 211.68799 211.63330 211.34662 210.98793 210.62624
 210.25156 209.96987 209.78619 209.65850 209.59481 209.93413 210.32844 210.72576
 211.52707 212.71338 213.97170 215.76301 217.69933 219.75064 221.85395 223.94527
 226.01358 228.10590 230.21121 232.32552 234.46284 236.64315 238.90747 241.28578
 243.91509 246.17441 248.18472 249.95803 251.38335 252.51466 253.34498 253.66929
 253.71460 253.49692 252.86523 251.82155 250.43586 248.60517 246.52249 244.36380
 242.16312 239.97543 237.80374 235.65106 233.51937 231.39469 229.42900 227.59431
 225.88563 224.36594 223.00426 221.78457 220.67488 219.64320 218.75551 217.90483
 217.15514 216.34345 215.44977 214.82208 214.28040 214.27159 214.18137 213.67438
 213.19707 212.84554 213.55995 215.36182 218.15077 222.04134 226.84517 231.22002
 234.77988 238.73143 242.81865 246.80759 250.62096 254.41405 258.05981 261.35898
 264.39566 267.18185 269.55109 271.41068 273.24768 275.02069 276.37930 277.84427
 279.21075 280.80154 282.36243 283.81976 285.08096 286.19684 287.21487 288.13715
 288.96664 289.70529 290.35059 291.17291
 366.78100 356.34198 345.78096 334.65394 323.06392 311.26490 299.14188 286.95186
 274.67084 262.57482 250.59080 239.89878 230.02776 221.13874 213.32772 206.33671
 200.17769 195.12267 191.71165 189.76063 188.80461 188.87559 189.71757 191.03255
 192.76453 194.86651 197.13649 199.50247 201.95445 204.44143 206.53641 208.38539
 210.01837 211.17035 211.40633 211.64131 211.58529 211.29727 210.93725 210.57423
 210.19821 209.91519 209.73017 209.60115 209.53613 209.87412 210.26710 210.66308
 211.46306 212.64804 213.90502 215.69500 217.62998 219.67996 221.78194 223.87192
 225.93890 228.02988 230.13386 232.24684 234.38282 236.56180 238.82478 241.20176
 243.82974 246.08772 248.09670 249.86868 251.29266 252.42264 253.25162 253.57460
 253.61858 253.39956 252.76654 251.72153 250.33451 248.50249 246.41847 244.25845
 242.05643 239.86741 237.69439 235.54037 233.40735 231.28133 229.31431 227.47829
 225.76827 224.24725 222.88423 221.66321 220.55219 219.51917 218.63015 217.77813
 217.02711 216.21409 215.31907 214.69005 214.14703 214.20049 214.26656 213.70442
 213.17845 212.80675 213.46533 215.26341 218.07523 221.96130 226.79858 231.15718
 234.73241 238.68504 242.76834 246.76114 250.58035 254.36916 258.02884 261.31326
 264.30728 267.02527 269.40863 271.44019 273.31900 275.06271 276.44156 277.76294
 279.18359 280.60715 282.07886 283.38803 284.62256 285.75244 286.78329 287.71719
 288.55710 289.30508 289.95847 290.79117
 366.78100 356.34145 345.77991 334.65236 323.06182 311.26227 299.13873 286.94818
 274.66664 262.57009 250.58555 239.89300 230.02145 221.13191 213.32036 206.32882
 200.16927 195.11373 191.70218 189.75064 188.79409 188.86454 189.70600 191.02045
 192.75191 194.85336 197.12282 199.48827 201.93973 204.42618 206.52064 208.36909
 210.00154 211.15300 211.38845 211.62291 211.56636 211.27782 210.91727 210.55373
 210.17718 209.89364 209.70809 209.57854 209.51300 209.85045 210.24291 210.63836
 211.43782 212.62227 213.87873 215.66818 217.60263 219.65209 221.75354 223.84300
 225.90945 227.99991 230.10336 232.21582 234.35127 236.52973 238.79218 241.16863
 243.79609 246.05354 248.06200 249.83345 251.25691 252.38636 253.21482 253.53727
 253.58073 253.36118 252.72763 251.68209 250.29454 248.46200 246.37745 244.21691
 242.01436 239.82482 237.65127 235.49673 233.36318 231.23663 229.26909 227.43254
 225.72200 224.20045 222.83691 221.61536 220.50382 219.47027 218.58072 217.72818
 216.97663 216.16309 215.26754 214.63800 214.09445 214.17206 214.31416 213.76697
 213.07497 212.62460 213.37463 215.24680 218.05002 221.92203 226.81119 231.10960
 234.71172 238.66133 242.75038 246.74792 250.57191 254.34915 257.98843 261.28802
 264.25885 266.90067 269.23956 271.34549 273.24280 274.89108 276.25882 277.68845
 279.09894 280.55887 282.00232 283.15262 284.26163 285.33997 286.37140 287.30579
 288.14615 288.89453 289.54828 290.38141
 366.78100 356.34223 345.78146 334.65469 323.06492 311.26615 299.14338 286.95360
 274.67283 262.57706 250.59329 239.90152 230.03075 221.14198 213.33121 206.34044
 200.18167 195.12690 191.71613 189.76535 188.80958 188.88081 189.72304 191.03827
 192.77050 194.87273 197.14296 199.50919 201.96142 204.44865 206.54388 208.39311
 210.02633 211.17856 211.41479 211.65002 211.59425 211.30648 210.94671 210.58394
 210.20817 209.92540 209.74063 209.61186 209.54709 209.88531 210.27854 210.67477
 211.47500 212.66023 213.91746 215.70769 217.64292 219.69315 221.79538 223.88561
 225.95284 228.04406 230.14829 232.26152 234.39775 236.57698 238.84021 241.21744
 243.84567 246.10390 248.11313 249.88536 251.30959 252.43982 253.26904 253.59227
 253.63650 253.41773 252.78496 251.74019 250.35342 248.52165 246.43788 244.27811
 242.07634 239.88757 237.71480 235.56102 233.42825 231.30248 229.33571 227.49994
 225.79017 224.26940 222.90663 221.68586 220.57509 219.54232 218.65355 217.80177
 217.05100 216.23823 215.34346 214.71469 214.17192 214.20782 214.27733 213.97211
 212.98785 212.33067 213.15732 215.16574 218.04776 221.94133 226.89568 231.18204
 234.78159 238.73090 242.83290 246.84749 250.66968 254.42467 258.06253 261.36923
 264.32236 266.90021 269.14291 271.22800 273.08344 274.64499 276.11188 277.65384
 278.93622 280.38071 281.87827 282.94370 283.97668 285.00092 285.96878 286.85480
 287.65167 288.36130 288.98120 289.77121
 366.78100 356.34371 345.78442 334.65913 323.07084 311.27355 299.15226 286.96397
 274.68469 262.59040 250.60811 239.91782 230.04853 221.16124 213.35195 206.36266
 200.20537 195.15208 191.74279 189.79350 188.83921 188.91192 189.75564 191.07235
 192.80606 194.90977 197.18148 199.54919 202.00290 204.49161 206.58832 208.43903
 210.07374 211.22745 211.46516 211.70187 211.64758 211.36130 211.00301 210.64172
 210.26743 209.98614 209.80285 209.67556 209.61227 209.95198 210.34669 210.74440
 211.54611 212.73282 213.99153 215.78324 217.71996 219.77167 221.87538 223.96709
 226.03580 228.12851 230.23422 232.34893 234.48664 236.66735 238.93206 241.31077
 243.94048 246.20019 248.21091 249.98462 251.41033 252.54204 253.37275 253.69746
 253.74317 253.52588 252.89459 251.85130 250.46601 248.63572 246.55343 244.39514
 242.19485 240.00757 237.83628 235.68399 233.55270 231.42841 229.46312 227.62883
 225.92054 224.40125 223.03996 221.82067 220.71138 219.68009 218.79280 217.94251
 217.19323 216.38194 215.48865 214.86136 214.32007 214.28162 214.19756 214.18332
 213.23375 212.21957 212.79068 214.79350 217.82143 221.84015 226.89444 231.22714
 234.84372 238.81323 242.94127 246.98615 250.82547 254.58073 258.22516 261.54370
 264.49490 267.05185 269.22937 271.23676 273.01074 274.48206 276.02356 277.58456
 278.83044 280.24203 281.77612 282.86749 283.80389 284.76709 285.68066 286.51733
 287.26981 287.93991 288.52530 289.27130
 366.78100 356.34293 345.78286 334.65679 323.06773 311.26966 299.14759 286.95852
 274.67845 262.58338 250.60031 239.90924 230.03918 221.15111 213.34104 206.35097
 200.19290 195.13883 191.72876 189.77869 188.82363 188.89556 189.73849 191.05442
 192.78735 194.89028 197.16121 199.52814 201.98108 204.46901 206.56494 208.41487
 210.04880 211.20173 211.43866 211.67459 211.61953 211.33246 210.97339 210.61132
 210.23625 209.95418 209.77011 209.64204 209.57798 209.91691 210.31084 210.70777
 211.50870 212.69463 213.95256 215.74349 217.67943 219.73036 221.83329 223.92422
 225.99215 228.08408 230.18901 232.30294 234.43988 236.61981 238.88374 241.26167
 243.89060 246.14953 248.15946 249.93239 251.35733 252.48826 253.31819 253.64212
 253.68705 253.46898 252.83691 251.79284 250.40678 248.57571 246.49264 244.33357
 242.13250 239.94443 237.77236 235.61929 233.48723 231.36216 229.39609 227.56102
 225.85195 224.33188 222.96981 221.74975 220.63968 219.60761 218.71954 217.86847
 217.11840 216.30633 215.41226 214.78420 214.24213 214.25781 214.28365 214.08781
 213.57379 212.61653 212.69301 214.42943 217.48668 221.59424 226.68462 231.05858
 234.71251 238.72569 242.89558 246.97876 250.85468 254.65373 258.33875 261.70929
 264.71161 267.30969 269.50085 271.48685 273.21033 274.59830 275.96555 277.47293
 278.85883 280.31967 281.84705 282.90274 283.88290 284.90460 285.90479 286.81085
 287.62579 288.35150 288.98544 289.79333
 366.78100 356.34062 345.77825 334.64987 323.05850 311.25812 299.13375 286.94237
 274.65999 262.56262 250.57724 239.88387 230.01149 221.12112 213.30874 206.31636
 200.15599 195.09961 191.68724 189.73486 188.77749 188.84711 189.68773 191.00136
 192.73198 194.83261 197.10123 199.46586 201.91648 204.40210 206.49573 208.34335
 209.97498 211.12560 211.36023 211.59385 211.53647 211.24710 210.88572 210.52135
 210.14397 209.85960 209.67322 209.54284 209.47647 209.81309 210.20472 210.59934
 211.39797 212.58159 213.83721 215.62584 217.55946 219.60809 221.70871 223.79734
 225.86296 227.95258 230.05521 232.16683 234.30146 236.47908 238.74071 241.11633
 243.74295 245.99958 248.00720 249.77783 251.20045 252.32908 253.15670 253.47832
 253.52095 253.30057 252.66620 251.61982 250.23145 248.39807 246.31269 244.15132
 241.94794 239.75757 237.58319 235.42782 233.29344 231.16606 229.19769 227.36031
 225.64894 224.12656 222.76219 221.53981 220.42743 219.39306 218.50268 217.64931
 216.89693 216.08256 215.18618 214.55580 214.01143 214.16119 214.46654 213.90695
 213.51207 213.02705 213.00052 214.46977 217.39709 221.46051 226.48334 230.83881
 234.50587 238.52853 242.71317 246.80394 250.70621 254.54298 258.26956 261.70438
 264.77649 267.44424 269.70190 271.74182 273.48654 274.80432 275.99170 277.33423
 278.93182 280.39444 281.89944 283.16214 284.25653 285.32153 286.38733 287.35287
 288.22128 288.99460 289.67017 290.53107
 366.78100 356.33964 345.77627 334.64691 323.05455 311.25319 299.12782 286.93546
 274.65210 262.55373 250.56737 239.87301 229.99964 221.10828 213.29492 206.30156
 200.14019 195.08283 191.66947 189.71610 188.75774 188.82638 189.66601 190.97865
 192.70829 194.80793 197.07556 199.43920 201.88884 204.37347 206.46611 208.31275
 209.94339 211.09302 211.32666 211.55930 211.50093 211.21057 210.84821 210.48284
 210.10448 209.81912 209.63176 209.50039 209.43303 209.76867 210.15930 210.55294
 211.35058 212.53322 213.78785 215.57549 217.50813 219.55576 221.65540 223.74304
 225.80767 227.89631 229.99795 232.10859 234.24222 236.41886 238.67950 241.05413
 243.67977 245.93541 247.94204 249.71168 251.13332 252.26096 253.08759 253.40823
 253.44987 253.22850 252.59314 251.54578 250.15642 248.32205 246.23569 244.07333
 241.86896 239.67760 237.50224 235.34587 233.21051 231.08215 229.11279 227.27442
 225.56206 224.03870 222.67333 221.44997 220.33661 219.30125 218.40988 217.55552
 216.80216 215.98679 215.08943 214.45807 213.91270 214.12190 214.56032 213.90916
 213.27780 212.95526 213.15790 214.68221 217.55356 221.54814 226.52451 230.82680
 234.45316 238.46071 242.62662 246.68959 250.57040 254.38857 258.10135 261.54755
 264.64828 267.35568 269.66858 271.76804 273.47702 274.72549 275.90439 277.26294
 278.94858 280.48407 282.02017 283.39618 284.56110 285.62009 286.68112 287.64233
 288.50684 289.27667 289.94919 290.80624
 366.78100 356.34068 345.77837 334.65005 323.05874 311.25842 299.13410 286.94279
 274.66047 262.56315 250.57784 239.88452 230.01221 221.12189 213.30957 206.31726
 200.15694 195.10062 191.68831 189.73599 188.77868 188.84836 189.68904 191.00273
 192.73341 194.83409 197.10278 199.46746 201.91815 204.40383 206.49751 208.34520
 209.97688 211.12757 211.36225 211.59593 211.53862 211.24930 210.88798 210.52367
 210.14635 209.86204 209.67572 209.54540 209.47909 209.81577 210.20745 210.60214
 211.40082 212.58451 213.84019 215.62887 217.56256 219.61124 221.71193 223.80061
 225.86629 227.95598 230.05866 232.17034 234.30503 236.48271 238.74440 241.12008
 243.74676 246.00345 248.01113 249.78181 251.20450 252.33318 253.16087 253.48255
 253.52523 253.30492 252.67060 251.62428 250.23597 248.40265 246.31734 244.15602
 241.95270 239.76239 237.58807 235.43276 233.29844 231.17112 229.20281 227.36549
 225.65417 224.13186 222.76754 221.54523 220.43291 219.39859 218.50828 217.65496
 216.90264 216.08833 215.19201 214.56170 214.01738 214.17560 214.51714 214.09866
 213.19754 212.58138 212.95531 214.71959 217.67557 221.68317 226.67682 230.95926
 234.53888 238.53044 242.68001 246.72029 250.56532 254.32785 257.99103 261.40656
 264.48969 267.19901 269.54541 271.66949 273.30524 274.50928 275.76791 277.20798
 278.97104 280.55661 282.10666 283.49557 284.68671 285.74939 286.80713 287.78345
 288.66156 289.44351 290.12662 290.99713
 366.78100 356.34318 345.78336 334.65754 323.06871 311.27089 299.14907 286.96025
 274.68043 262.58561 250.60279 239.91196 230.04214 221.15432 213.34450 206.35468
 200.19686 195.14304 191.73321 189.78339 188.82857 188.90075 189.74393 191.06011
 192.79329 194.89647 197.16764 199.53482 201.98800 204.47618 206.57236 208.42254
 210.05672 211.20989 211.44707 211.68325 211.62843 211.34161 210.98279 210.62097
 210.24614 209.96432 209.78050 209.65268 209.58886 209.92804 210.32222 210.71939
 211.52057 212.70675 213.96493 215.75611 217.69229 219.74347 221.84664 223.93782
 226.00600 228.09818 230.20336 232.31754 234.45472 236.63490 238.89907 241.27725
 243.90643 246.16561 248.17579 249.94897 251.37415 252.50532 253.33550 253.65968
 253.70486 253.48704 252.85522 251.81140 250.42557 248.59475 246.51193 244.35311
 242.15229 239.96447 237.79265 235.63982 233.50800 231.38318 229.41736 227.58254
 225.87372 224.35390 222.99207 221.77225 220.66243 219.63061 218.74279 217.89197
 217.14215 216.33033 215.43650 214.80868 214.26686 214.29918 214.37656 214.36755
 213.31215 212.25894 212.64589 214.59718 217.65428 221.71530 226.75687 231.05640
 234.61728 238.61356 242.76639 246.80348 250.62427 254.33723 257.94904 261.32272
 264.37515 267.07422 269.43433 271.54218 273.10757 274.32736 275.67383 277.22690
 278.99393 280.67291 282.23093 283.61697 284.81287 285.87964 286.94067 287.93604
 288.83127 289.62848 290.32489 291.21240
 366.78100 356.34595 345.78890 334.66584 323.07979 311.28474 299.16569 286.97964
 274.70259 262.61053 250.63048 239.94243 230.07538 221.19033 213.38328 206.39622
 200.24117 195.19012 191.78307 189.83602 188.88396 188.95891 189.80486 191.12381
 192.85976 194.96571 197.23965 199.60960 202.06555 204.55650 206.65545 208.50840
 210.14534 211.30129 211.54124 211.78019 211.72814 211.44408 211.08803 210.72898
 210.35693 210.07788 209.89683 209.77177 209.71072 210.05267 210.44962 210.84957
 211.65352 212.84246 214.10341 215.89736 217.83631 219.89026 221.99620 224.09015
 226.16110 228.25605 230.36400 232.48095 234.62089 236.80384 239.07079 241.45174
 244.08369 246.34564 248.35858 250.13453 251.56248 252.69643 253.52938 253.85632
 253.90427 253.68922 253.06017 252.01912 250.63607 248.80801 246.72796 244.57191
 242.37386 240.18881 238.01976 235.86970 233.74065 231.61860 229.65555 227.82350
 226.11744 224.60039 223.24134 222.02429 220.91724 219.88819 219.00313 218.15508
 217.40803 216.59898 215.70793 215.08288 214.54382 214.44583 214.24503 214.52054
 213.59587 212.15421 212.41864 214.42300 217.55016 221.65907 226.74358 231.07957
 234.64322 238.67091 242.85124 246.90997 250.73189 254.41586 257.99063 261.33939
 264.37048 267.06259 269.42197 271.50031 272.97681 274.16528 275.58209 277.19788
 279.03583 280.79034 282.35172 283.73428 284.90851 285.95718 286.97266 287.89261
 288.71997 289.45679 290.10043 290.92068
 366.78100 356.34518 345.78735 334.66353 323.07670 311.28088 299.16105 286.97423
 274.69640 262.60358 250.62276 239.93393 230.06611 221.18028 213.37246 206.38463
 200.22881 195.17698 191.76916 189.82134 188.86851 188.94269 189.78786 191.10604
 192.84121 194.94639 197.21956 199.58874 202.04391 204.53409 206.63227 208.48444
 210.12062 211.27579 211.51497 211.75314 211.70032 211.41549 211.05867 210.69885
 210.32602 210.04620 209.86437 209.73855 209.67672 210.01790 210.41407 210.81325
 211.61643 212.80460 214.06478 215.85795 217.79613 219.84930 221.95448 224.04765
 226.11783 228.21201 230.31918 232.43536 234.57453 236.75671 239.02288 241.40306
 244.03423 246.29541 248.30758 250.08276 251.50994 252.64311 253.47529 253.80146
 253.84864 253.63281 253.00299 251.96116 250.57734 248.74852 246.66769 244.51087
 242.31204 240.12622 237.95639 235.80557 233.67574 231.55292 229.58910 227.75627
 226.04945 224.53162 223.17180 221.95397 220.84615 219.81632 218.93050 218.08168
 217.33385 216.52403 215.63220 215.00638 214.46655 214.43156 214.35522 214.35934
 213.91925 212.35599 212.30930 214.22899 217.39975 221.53743 226.63812 230.99689
 234.59184 238.66194 242.88600 246.98790 250.84795 254.54765 258.12073 261.47275
 264.50745 267.20267 269.58011 271.60629 273.04813 274.20239 275.57858 277.26529
 279.12851 280.89944 282.47531 283.87970 285.08780 286.23352 287.28500 288.23755
 289.09427 289.85718 290.52365 291.37299
 366.78100 356.34267 345.78234 334.65601 323.06669 311.26836 299.14603 286.95670
 274.67637 262.58104 250.59771 239.90639 230.03606 221.14773 213.33740 206.34707
 200.18874 195.13441 191.72409 189.77376 188.81843 188.89010 189.73277 191.04844
 192.78111 194.88379 197.15446 199.52113 201.97380 204.46147 206.55714 208.40681
 210.04049 211.19316 211.42983 211.66550 211.61017 211.32284 210.96351 210.60118
 210.22586 209.94353 209.75920 209.63087 209.56654 209.90521 210.29888 210.69556
 211.49623 212.68190 213.93957 215.73024 217.66591 219.71658 221.81926 223.90993
 225.97760 228.06927 230.17394 232.28761 234.42428 236.60396 238.86763 241.24530
 243.87397 246.13264 248.14231 249.91498 251.33966 252.47033 253.30000 253.62367
 253.66834 253.45001 252.81768 251.77336 250.38703 248.55570 246.47237 244.31304
 242.11171 239.92338 237.75106 235.59773 233.46540 231.34007 229.37374 227.53841
 225.82908 224.30876 222.94643 221.72610 220.61577 219.58344 218.69511 217.84378
 217.09346 216.28113 215.38680 214.75847 214.21614 214.33191 214.54803 214.14699
 214.02922 212.76752 212.40762 214.09010 217.21667 221.35521 226.43063 230.77959
 234.41220 238.53220 242.80362 246.94688 250.84865 254.58791 258.19659 261.58615
 264.64444 267.37683 269.80591 271.88788 273.34131 274.42517 275.80847 277.43753
 279.27625 281.04129 282.61063 284.04443 285.38290 286.65698 287.81940 288.87247
 289.81958 290.66299 291.39978 292.33871
 366.78100 356.34187 345.78074 334.65360 323.06347 311.26434 299.14121 286.95108
 274.66994 262.57381 250.58968 239.89755 230.02642 221.13728 213.32615 206.33502
 200.17589 195.12076 191.70962 189.75849 188.80236 188.87323 189.71510 191.02996
 192.76183 194.86370 197.13357 199.49944 201.95130 204.43817 206.53304 208.38191
 210.01478 211.16665 211.40251 211.63738 211.58125 211.29312 210.93299 210.56985
 210.19372 209.91059 209.72546 209.59633 209.53119 209.86906 210.26193 210.65780
 211.45767 212.64253 213.89940 215.68927 217.62414 219.67401 221.77587 223.86574
 225.93261 228.02348 230.12735 232.24021 234.37608 236.55495 238.81782 241.19469
 243.82255 246.08042 248.08929 249.86116 251.28503 252.41489 253.24376 253.56663
 253.61050 253.39137 252.75823 251.71310 250.32597 248.49384 246.40971 244.24957
 242.04744 239.85831 237.68518 235.53105 233.39791 231.27178 229.30465 227.46852
 225.75839 224.23725 222.87412 221.65299 220.54186 219.50873 218.61960 217.76746
 217.01633 216.20320 215.30807 214.67894 214.13580 214.30093 214.62981 214.10603
 213.90738 213.05371 212.59404 214.12727 217.17688 221.25487 226.25734 230.58473
 234.23193 238.35226 242.62029 246.77031 250.70427 254.48131 258.11209 261.51355
 264.59402 267.35245 269.80954 271.90256 273.40649 274.59363 275.99106 277.64651
 279.44824 281.20435 282.75790 284.17545 285.45300 286.67078 287.80191 288.82663
 289.74826 290.56897 291.28592 292.19958
 366.78100 356.34351 345.78401 334.65852 323.07003 311.27253 299.15104 286.96255
 274.68305 262.58856 250.60607 239.91557 230.04608 221.15858 213.34909 206.35960
 200.20210 195.14861 191.73912 189.78962 188.83513 188.90764 189.75114 191.06765
 192.80116 194.90466 197.17617 199.54368 201.99718 204.48569 206.58220 208.43270
 210.06721 211.22072 211.45822 211.69473 211.64023 211.35374 210.99525 210.63375
 210.25926 209.97777 209.79427 209.66678 209.60329 209.94279 210.33730 210.73481
 211.53631 212.72282 213.98133 215.77283 217.70934 219.76085 221.86435 223.95586
 226.02437 228.11687 230.22238 232.33688 234.47439 236.65490 238.91940 241.29791
 243.92742 246.18692 248.19743 249.97094 251.39644 252.52795 253.35846 253.68296
 253.72847 253.51098 252.87948 251.83599 250.45050 248.62000 246.53751 244.37902
 242.17852 239.99103 237.81953 235.66704 233.53555 231.41105 229.44556 227.61107
 225.90257 224.38308 223.02159 221.80209 220.69260 219.66111 218.77361 217.92312
 217.17363 216.36213 215.46864 214.84115 214.29965 214.38837 214.56525 214.26689
 213.79645 213.00510 212.63409 214.26723 217.34343 221.36644 226.33450 230.57999
 234.16190 238.26526 242.52281 246.65504 250.56804 254.33252 257.96439 261.37262
 264.44617 267.19131 269.63388 271.68350 273.08279 274.23737 275.78970 277.61819
 279.57217 281.36151 282.92654 284.34909 285.63950 286.84750 287.94965 288.94809
 289.84610 290.64578 291.34436 292.23462
 366.78100 356.34714 345.79129 334.66943 323.08458 311.29072 299.17287 286.98801
 274.71215 262.62130 250.64244 239.95559 230.08973 221.20588 213.40002 206.41417
 200.26031 195.21045 191.80460 189.85874 188.90789 188.98403 189.83118 191.15132
 192.88846 194.99561 197.27075 199.64190 202.09904 204.59119 206.69133 208.54548
 210.18362 211.34076 211.58191 211.82205 211.77120 211.48834 211.13349 210.77563
 210.40477 210.12692 209.94706 209.82321 209.76335 210.10650 210.50464 210.90579
 211.71093 212.90107 214.16322 215.95836 217.89851 219.95365 222.06080 224.15594
 226.22808 228.32423 230.43337 232.55152 234.69266 236.87681 239.14495 241.52710
 244.16024 246.42338 248.43753 250.21467 251.64382 252.77896 253.61311 253.94125
 253.99039 253.77654 253.14868 252.10883 250.72697 248.90012 246.82126 244.66641
 242.46955 240.28569 238.11784 235.96898 233.84113 231.72027 229.75842 227.92756
 226.22270 224.70685 223.34899 222.13314 221.02728 219.99943 219.11557 218.26872
 217.52286 216.71500 215.82515 215.20129 214.66344 214.59195 214.44220 214.38223
 213.85362 212.90730 212.62675 214.32008 217.42758 221.47995 226.49472 230.65945
 234.20340 238.29314 242.54778 246.67589 250.58624 254.33975 257.95529 261.34512
 264.42236 267.18152 269.63812 271.55475 272.87573 274.12616 275.75974 277.74103
 279.74179 281.55994 283.22070 284.84225 286.24554 287.48709 288.61984 289.64603
 290.56894 291.39084 292.10880 293.02377
 366.78100 356.34844 345.79388 334.67332 323.08975 311.29719 299.18063 286.99707
 274.72251 262.63295 250.65539 239.96982 230.10526 221.22270 213.41814 206.43358
 200.28102 195.23246 191.82790 189.88333 188.93377 189.01121 189.85965 191.18109
 192.91953 195.02797 197.30440 199.67684 202.13528 204.62872 206.73016 208.58560
 210.22504 211.38347 211.62591 211.86735 211.81779 211.53623 211.18267 210.82611
 210.45654 210.17998 210.00142 209.87886 209.82030 210.16474 210.56418 210.96662
 211.77305 212.96449 214.22793 216.02437 217.96581 220.02225 222.13069 224.22712
 226.30056 228.39800 230.50844 232.62788 234.77032 236.95576 239.22519 241.60863
 244.24307 246.50751 248.52295 250.30139 251.73183 252.86826 253.70370 254.03314
 254.08358 253.87102 253.24446 252.20590 250.82534 248.99977 246.92221 244.76865
 242.57309 240.39053 238.22397 236.07641 233.94984 231.83028 229.86972 228.04016
 226.33660 224.82204 223.46548 222.25091 221.14635 220.11979 219.23723 218.39167
 217.64711 216.84055 215.95198 215.32942 214.79286 214.68289 214.44032 214.37027
 213.99295 212.91119 212.51385 214.11252 217.26518 221.40355 226.54956 230.68964
 234.23920 238.33629 242.60854 246.76321 250.69678 254.45319 258.07056 261.48685
 264.61835 267.43469 269.92822 271.90970 273.24698 274.40045 275.92270 277.92773
 280.03665 281.92249 283.80930 285.48010 286.92606 288.20532 289.37250 290.42984
 291.38083 292.22769 292.96747 293.91025
 366.78100 356.34739 345.79178 334.67017 323.08556 311.29195 299.17433 286.98972
 274.71411 262.62350 250.64489 239.95828 230.09267 221.20906 213.40345 206.41784
 200.26423 195.21462 191.80900 189.86339 188.91278 188.98917 189.83656 191.15695
 192.89434 195.00173 197.27712 199.64851 202.10590 204.59828 206.69867 208.55306
 210.19145 211.34884 211.59023 211.83062 211.78001 211.49740 211.14279 210.78518
 210.41456 210.13695 209.95734 209.83373 209.77412 210.11751 210.51590 210.91729
 211.72268 212.91307 214.17546 215.97085 217.91123 219.96662 222.07401 224.16940
 226.24179 228.33818 230.44757 232.56596 234.70735 236.89174 239.16013 241.54251
 244.17590 246.43929 248.45368 250.23107 251.66046 252.79585 253.63024 253.95863
 254.00802 253.79441 253.16679 252.12718 250.74557 248.91896 246.84035 244.68574
 242.48913 240.30552 238.13791 235.98930 233.86169 231.74108 229.77946 227.94885
 226.24424 224.72863 223.37102 222.15541 221.04980 220.02219 219.13858 218.29197
 217.54636 216.73874 215.84913 215.22552 214.68791 214.64838 214.51566 214.32285
 214.22101 213.08189 212.54272 213.91040 217.00391 221.21802 226.26450 230.52225
 234.10985 238.25372 242.55991 246.74174 250.69447 254.45407 258.06613 261.49591
 264.67398 267.57419 270.15585 272.29962 273.78769 274.89319 276.22308 278.08896
 280.14951 281.99121 283.73016 285.34406 286.74075 287.97647 289.10388 290.12524
 291.04382 291.86185 292.57645 293.48712
 366.78100 356.34659 345.79019 334.66778 323.08238 311.28797 299.16956 286.98416
 274.70775 262.61635 250.63694 239.94954 230.08313 221.19872 213.39232 206.40591
 200.25151 195.20110 191.79469 189.84829 188.89688 188.97248 189.81907 191.13867
 192.87526 194.98185 197.25645 199.62704 202.08364 204.57523 206.67482 208.52842
 210.16601 211.32261 211.56320 211.80279 211.75139 211.46798 211.11258 210.75417
 210.38277 210.10436 209.92395 209.79955 209.73914 210.08174 210.47933 210.87992
 211.68452 212.87411 214.13571 215.93030 217.86990 219.92449 222.03108 224.12568
 226.19727 228.29287 230.40146 232.51905 234.65965 236.84324 239.11084 241.49243
 244.12502 246.38762 248.40121 250.17781 251.60640 252.74100 253.57459 253.90218
 253.95078 253.73637 253.10797 252.06756 250.68515 248.85775 246.77834 244.62294
 242.42553 240.24113 238.07272 235.92331 233.79491 231.67350 229.71110 227.87969
 226.17428 224.65788 223.29947 222.08307 220.97666 219.94825 219.06385 218.21644
 217.47004 216.66163 215.77123 215.14682 214.60841 214.62057 214.58237 214.21758
 214.32329 213.38841 212.74667 213.88580 216.83646 221.02370 225.95685 230.27182
 233.90231 238.09666 242.43091 246.62564 250.58418 254.33824 257.93567 261.36572
 264.56662 267.51535 270.20316 272.48044 274.04276 275.17911 276.51749 278.26355
 280.26239 282.06888 283.68399 285.23907 286.61584 287.83395 288.94531 289.95209
 290.85760 291.66394 292.36835 293.26605
 366.78100 356.34591 345.78881 334.66572 323.07962 311.28453 299.16543 286.97934
 274.70224 262.61015 250.63005 239.94196 230.07486 221.18977 213.38267 206.39558
 200.24048 195.18939 191.78229 189.83520 188.88310 188.95801 189.80391 191.12282
 192.85872 194.96463 197.23853 199.60844 202.06434 204.55525 206.65415 208.50706
 210.14396 211.29987 211.53977 211.77868 211.72658 211.44249 211.08639 210.72730
 210.35520 210.07611 209.89501 209.76992 209.70882 210.05073 210.44763 210.84754
 211.65144 212.84035 214.10125 215.89516 217.83406 219.88797 221.99387 224.08778
 226.15868 228.25359 230.36149 232.47840 234.61830 236.80121 239.06811 241.44902
 244.08092 246.34283 248.35573 250.13164 251.55954 252.69345 253.52635 253.85326
 253.90116 253.68607 253.05697 252.01588 250.63278 248.80469 246.72459 244.56850
 242.37040 240.18531 238.01621 235.86612 233.73702 231.61493 229.65183 227.81974
 226.11364 224.59655 223.23745 222.02036 220.91326 219.88417 218.99907 218.15098
 217.40388 216.59479 215.70369 215.07860 214.53951 214.58199 214.64291 214.18286
 214.05893 213.41974 212.93495 214.03011 216.87799 220.97440 225.91338 230.17355
 233.83821 237.99637 242.31418 246.51112 250.47507 254.21483 257.77286 261.16260
 264.34283 267.28448 269.94489 272.19827 273.90793 275.28018 276.75485 278.54633
 280.42505 282.18384 283.73605 285.12506 286.34570 287.40366 288.36063 289.22760
 290.00732 290.70166 291.30826 292.08127
 366.78100 356.34643 345.78986 334.66728 323.08171 311.28714 299.16857 286.98300
 274.70642 262.61485 250.63528 239.94771 230.08114 221.19657 213.38999 206.40342
 200.24885 195.19828 191.79171 189.84513 188.89356 188.96899 189.81542 191.13485
 192.87127 194.97770 197.25213 199.62256 202.07899 204.57042 206.66984 208.52327
 210.16070 211.31713 211.55756 211.79698 211.74541 211.46184 211.10627 210.74770
 210.37612 210.09755 209.91698 209.79241 209.73184 210.07427 210.47169 210.87212
 211.67655 212.86598 214.12741 215.92183 217.86126 219.91569 222.02212 224.11655
 226.18797 228.28340 230.39183 232.50926 234.64969 236.83312 239.10054 241.48197
 244.11440 246.37683 248.39026 250.16668 251.59511 252.72954 253.56297 253.89040
 253.93882 253.72425 253.09568 252.05511 250.67254 248.84497 246.76539 244.60982
 242.41225 240.22768 238.05911 235.90953 233.78096 231.65939 229.69682 227.86525
 226.15967 224.64310 223.28453 222.06796 220.96139 219.93282 219.04824 218.20067
 217.45410 216.64553 215.75496 215.13038 214.59181 214.60173 214.61795 214.36230
 213.97900 213.25659 212.84131 214.02028 216.94923 221.02869 226.02782 230.12289
 233.81076 237.93912 242.26549 246.47021 250.44516 254.17874 257.70535 261.04395
 264.17346 267.06476 269.66846 271.87442 273.60205 275.07327 276.66159 278.53989
 280.42505 282.15433 283.68179 285.04309 286.21991 287.14105 287.98654 288.80966
 289.55994 290.22806 290.81168 291.55548
 366.78100 356.34824 345.79348 334.67272 323.08896 311.29621 299.17945 286.99569
 274.72093 262.63117 250.65341 239.96765 230.10289 221.22014 213.41538 206.43062
 200.27786 195.22910 191.82434 189.87958 188.92982 189.00706 189.85531 191.17655
 192.91479 195.02303 197.29927 199.67151 202.12975 204.62299 206.72424 208.57948
 210.21872 211.37696 211.61920 211.86044 211.81068 211.52892 211.17516 210.81841
 210.44865 210.17189 209.99313 209.87037 209.81161 210.15585 210.55509 210.95734
 211.76358 212.95482 214.21806 216.01430 217.95554 220.01178 222.12002 224.21626
 226.28951 228.38675 230.49699 232.61623 234.75847 236.94371 239.21295 241.59619
 244.23043 246.49468 248.50992 250.28816 251.71840 252.85464 253.68988 254.01912
 254.06936 253.85661 253.22985 252.19109 250.81033 248.98457 246.90681 244.75305
 242.55729 240.37453 238.20778 236.06002 233.93326 231.81350 229.85274 228.02298
 226.31922 224.80446 223.44771 222.23295 221.12819 220.10143 219.21867 218.37291
 217.62815 216.82139 215.93263 215.30988 214.77312 214.70050 214.53117 214.49619
 214.09875 213.12971 212.67004 213.91292 216.98257 221.09625 226.09822 230.15012
 233.78455 237.90775 242.23946 246.45973 250.45937 254.20862 257.73413 261.06311
 264.18076 267.04932 269.62155 271.79935 273.49686 274.97418 276.63513 278.54172
 280.43652 282.13541 283.59122 284.91559 286.11298 286.93607 287.46799 288.29755
 289.07462 289.76660 290.37109 291.14145
 366.78100 356.34838 345.79376 334.67313 323.08951 311.29689 299.18027 286.99665
 274.72203 262.63240 250.65478 239.96916 230.10454 221.22192 213.41729 206.43267
 200.28005 195.23143 191.82681 189.88219 188.93256 189.00994 189.85832 191.17970
 192.91808 195.02645 197.30283 199.67521 202.13359 204.62697 206.72835 208.58372
 210.22310 211.38148 211.62386 211.86524 211.81562 211.53399 211.18037 210.82375
 210.45413 210.17751 209.99888 209.87626 209.81764 210.16202 210.56140 210.96378
 211.77015 212.96153 214.22491 216.02129 217.96267 220.01904 222.12742 224.22380
 226.29718 228.39456 230.50494 232.62431 234.76669 236.95207 239.22145 241.60483
 244.23920 246.50358 248.51896 250.29734 251.72772 252.86410 253.69947 254.02885
 254.07923 253.86661 253.23999 252.20136 250.82074 248.99512 246.91750 244.76388
 242.56826 240.38563 238.21901 236.07139 233.94477 231.82515 229.86452 228.03490
 226.33128 224.81666 223.46004 222.24542 221.14079 220.11417 219.23155 218.38593
 217.64131 216.83468 215.94606 215.32344 214.78682 214.72157 214.56784 214.47002
 214.22778 213.12883 212.58527 213.77097 216.91933 221.10089 226.11548 230.15930
 233.75226 237.87445 242.20811 246.43839 250.45747 254.22313 257.75665 261.09317
 264.21973 267.09201 269.66626 271.85684 273.55649 275.02841 276.69897 278.59180
 280.44446 282.09027 283.47754 284.75647 285.92844 286.70773 287.55634 288.45642
 289.29913 290.04959 290.70517 291.54062
 366.78100 356.34684 345.79068 334.66852 323.08336 311.28920 299.17104 286.98588
 274.70972 262.61856 250.63940 239.95224 230.08608 221.20192 213.39576 206.40960
 200.25544 195.20528 191.79912 189.85296 188.90180 188.97764 189.82448 191.14432
 192.88116 194.98800 197.26283 199.63367 202.09051 204.58235 206.68219 208.53603
 210.17387 211.33071 211.57155 211.81139 211.76023 211.47707 211.12191 210.76375
 210.39259 210.11443 209.93427 209.81011 209.74995 210.09279 210.49063 210.89147
 211.69631 212.88615 214.14799 215.94283 217.88267 219.93751 222.04435 224.13919
 226.21103 228.30687 230.41571 232.53355 234.67439 236.85823 239.12607 241.50791
 244.14075 246.40359 248.41743 250.19427 251.62311 252.75795 253.59179 253.91963
 253.96847 253.75431 253.12615 252.08599 250.70383 248.87666 246.79750 244.64234
 242.44518 240.26102 238.09286 235.94370 233.81554 231.69438 229.73222 227.90106
 226.19590 224.67974 223.32158 222.10542 220.99926 219.97110 219.08694 218.23978
 217.49362 216.68546 215.79530 215.17114 214.63298 214.66148 214.71588 214.37424
 214.26816 213.18837 212.58881 213.69345 216.80186 221.03818 226.06221 230.14207
 233.70399 237.83583 242.16965 246.40825 250.43623 254.20384 257.73608 261.07220
 264.19989 267.06805 269.64410 271.85294 273.55981 275.06067 276.79797 278.67654
 280.46490 282.05762 283.41132 284.64526 285.80997 286.68021 287.58347 288.49948
 289.32440 290.05902 290.70074 291.51855
 366.78100 356.34632 345.78964 334.66695 323.08127 311.28659 299.16791 286.98222
 274.70554 262.61386 250.63418 239.94650 230.07981 221.19513 213.38845 206.40177
 200.24708 195.19640 191.78972 189.84304 188.89136 188.96667 189.81299 191.13231
 192.86863 194.97495 197.24926 199.61958 202.07590 204.56722 206.66653 208.51985
 210.15717 211.31349 211.55381 211.79312 211.74144 211.45776 211.10208 210.74339
 210.37171 210.09303 209.91235 209.78767 209.72698 210.06930 210.46662 210.86694
 211.67125 212.86057 214.12189 215.91621 217.85553 219.90984 222.01616 224.11048
 226.18180 228.27711 230.38543 232.50275 234.64307 236.82639 239.09370 241.47502
 244.10734 246.36966 248.38297 250.15929 251.58761 252.72193 253.55525 253.88256
 253.93088 253.71620 253.08752 252.04684 250.66415 248.83647 246.75679 244.60111
 242.40342 240.21874 238.05006 235.90038 233.77170 231.65001 229.68733 227.85565
 226.14997 224.63328 223.27460 222.05792 220.95124 219.92256 219.03787 218.19019
 217.44351 216.63483 215.74414 215.11946 214.58078 214.64841 214.78766 214.38197
 214.18697 213.16904 212.64162 213.71602 216.74446 220.99471 226.03229 230.14041
 233.68582 237.82385 242.16260 246.41229 250.44971 254.21338 257.73190 261.05396
 264.17313 267.03207 269.60437 271.82254 273.54117 275.09741 276.84488 278.68488
 280.41766 281.93991 283.23779 284.49127 285.64746 286.58310 287.53232 288.43344
 289.24390 289.96561 290.59607 291.39957
 366.78100 356.34655 345.79011 334.66766 323.08221 311.28777 299.16932 286.98388
 274.70743 262.61598 250.63654 239.94909 230.08264 221.19820 213.39175 206.40531
 200.25086 195.20041 191.79397 189.84752 188.89607 188.97163 189.81818 191.13774
 192.87429 194.98084 197.25540 199.62595 202.08250 204.57406 206.67361 208.52716
 210.16472 211.32127 211.56183 211.80138 211.74993 211.46649 211.11104 210.75259
 210.38115 210.10270 209.92226 209.79781 209.73736 210.07992 210.47747 210.87802
 211.68258 212.87213 214.13369 215.92824 217.86779 219.92235 222.02890 224.12345
 226.19501 228.29056 230.39911 232.51667 234.65722 236.84078 239.10833 241.48988
 244.12244 246.38499 248.39854 250.17510 251.60365 252.73821 253.57176 253.89931
 253.94787 253.73342 253.10497 252.06453 250.68208 248.85463 246.77519 244.61974
 242.42230 240.23785 238.06940 235.91996 233.79151 231.67006 229.70762 227.87617
 226.17073 224.65428 223.29583 222.07939 220.97294 219.94449 219.06005 218.21260
 217.46616 216.65771 215.76726 215.14282 214.60437 214.66629 214.79878 214.49089
 214.15977 213.10753 212.59941 213.71710 216.72667 220.97975 226.04047 230.14374
 233.68037 237.81668 242.16014 246.41415 250.45367 254.21109 257.71631 261.03058
 264.14783 267.01077 269.59299 271.82999 273.59064 275.14880 276.84607 278.60019
 280.21365 281.62170 282.91641 284.21387 285.38913 286.33881 287.24979 288.14313
 288.94656 289.66202 290.28705 291.08356
 366.78100 356.34699 345.79098 334.66896 323.08395 311.28994 299.17193 286.98691
 274.71090 262.61989 250.64088 239.95386 230.08785 221.20384 213.39783 206.41181
 200.25780 195.20779 191.80178 189.85577 188.90475 188.98074 189.82773 191.14772
 192.88470 194.99169 197.26668 199.63767 202.09465 204.58664 206.68663 208.54062
 210.17861 211.33559 211.57658 211.81657 211.76556 211.48254 211.12753 210.76952
 210.39851 210.12049 209.94048 209.81647 209.75646 210.09944 210.49743 210.89842
 211.70341 212.89340 214.15538 215.95037 217.89036 219.94535 222.05233 224.14732
 226.21931 228.31530 230.42428 232.54227 234.68326 236.86725 239.13523 241.51722
 244.15021 246.41320 248.42719 250.20417 251.63316 252.76815 253.60214 253.93012
 253.97911 253.76510 253.13709 252.09707 250.71506 248.88805 246.80904 244.65403
 242.45701 240.27300 238.10499 235.95598 233.82796 231.70695 229.74494 227.91393
 226.20891 224.69290 223.33489 222.11888 221.01286 219.98485 219.10084 218.25383
 217.50782 216.69980 215.80979 215.18578 214.64777 214.69742 214.80211 214.58888
 214.16962 212.97601 212.45357 213.69228 216.74907 220.98138 226.03247 230.15880
 233.66899 237.80179 242.13940 246.39561 250.43307 254.17610 257.67291 260.98355
 264.10583 266.97348 269.57401 271.85699 273.65491 275.25348 276.92645 278.60910
 280.11099 281.42621 282.59897 283.75098 284.90710 285.91876 286.87579 287.76050
 288.55618 289.26477 289.88376 290.67258
 366.78100 356.34775 345.79249 334.67124 323.08699 311.29374 299.17648 286.99223
 274.71698 262.62672 250.64847 239.96222 230.09697 221.21371 213.40846 206.42321
 200.26995 195.22070 191.81545 189.87019 188.91994 188.99669 189.84444 191.16518
 192.90293 195.01068 197.28642 199.65817 202.11592 204.60867 206.70941 208.56416
 210.20291 211.36065 211.60240 211.84315 211.79290 211.51064 211.15639 210.79914
 210.42888 210.15163 209.97238 209.84912 209.78987 210.13362 210.53237 210.93411
 211.73986 212.93061 214.19335 215.98910 217.92985 219.98560 222.09334 224.18909
 226.26184 228.35858 230.46833 232.58708 234.72883 236.91357 239.18232 241.56507
 244.19881 246.46256 248.47731 250.25506 251.68480 252.82055 253.65530 253.98404
 254.03379 253.82054 253.19328 252.15403 250.77278 248.94653 246.86827 244.71402
 242.51777 240.33451 238.16726 236.01901 233.89176 231.77150 229.81025 227.98000
 226.27574 224.76049 223.40324 222.18799 221.08273 220.05548 219.17223 218.32597
 217.58072 216.77347 215.88421 215.26096 214.72371 214.75359 214.80481 214.58583
 214.30673 213.03807 212.45094 213.73462 216.79500 220.98727 226.02974 230.16017
 233.65666 237.78381 242.11789 246.38075 250.42238 254.14882 257.63519 260.94223
 264.07416 266.94772 269.56244 271.87308 273.75854 275.39551 277.03949 278.64468
 279.99384 281.08005 282.00162 283.27780 284.48792 285.64221 286.70953 287.67648
 288.54611 289.32053 289.99704 290.85919
 366.78100 356.34766 345.79231 334.67097 323.08662 311.29328 299.17593 286.99159
 274.71624 262.62590 250.64755 239.96121 230.09586 221.21252 213.40717 206.42183
 200.26848 195.21914 191.81379 189.86845 188.91810 188.99476 189.84242 191.16307
 192.90073 195.00838 197.28404 199.65569 202.11335 204.60600 206.70666 208.56131
 210.19997 211.35762 211.59928 211.83993 211.78959 211.50724 211.15290 210.79555
 210.42521 210.14786 209.96852 209.84518 209.78583 210.12949 210.52814 210.92980
 211.73545 212.92611 214.18876 215.98442 217.92507 219.98073 222.08838 224.18404
 226.25669 228.35335 230.46300 232.58166 234.72331 236.90797 239.17662 241.55928
 244.19293 246.45659 248.47125 250.24890 251.67856 252.81421 253.64887 253.97752
 254.02718 253.81383 253.18649 252.14714 250.76580 248.93945 246.86111 244.70676
 242.51042 240.32707 238.15973 236.01138 233.88404 231.76369 229.80235 227.97201
 226.26766 224.75232 223.39497 222.17963 221.07428 220.04694 219.16359 218.31725
 217.57190 216.76456 215.87521 215.25187 214.71452 214.77615 214.86732 214.51721
 214.32329 213.26651 212.60925 213.73344 216.76295 220.94414 226.00107 230.07477
 233.59917 237.74020 242.08827 246.37093 250.43051 254.14392 257.62225 260.92245
 264.03894 266.91809 269.56882 271.92691 273.86749 275.56216 277.20187 278.66632
 279.78314 280.54868 281.42834 282.84369 284.20142 285.40265 286.49860 287.49146
 288.38443 289.17963 289.87430 290.75955
 366.78100 356.34739 345.79178 334.67017 323.08556 311.29195 299.17433 286.98972
 274.71411 262.62350 250.64489 239.95828 230.09267 221.20906 213.40345 206.41784
 200.26423 195.21462 191.80900 189.86339 188.91278 188.98917 189.83656 191.15695
 192.89434 195.00173 197.27712 199.64851 202.10590 204.59828 206.69867 208.55306
 210.19145 211.34884 211.59023 211.83062 211.78001 211.49740 211.14279 210.78518
 210.41456 210.13695 209.95734 209.83373 209.77412 210.11751 210.51590 210.91729
 211.72268 212.91307 214.17546 215.97085 217.91123 219.96662 222.07401 224.16940
 226.24179 228.33818 230.44757 232.56596 234.70735 236.89174 239.16013 241.54251
 244.17590 246.43929 248.45368 250.23107 251.66046 252.79585 253.63024 253.95863
 254.00802 253.79441 253.16679 252.12718 250.74557 248.91896 246.84035 244.68574
 242.48913 240.30552 238.13791 235.98930 233.86169 231.74108 229.77946 227.94885
 226.24424 224.72863 223.37102 222.15541 221.04980 220.02219 219.13858 218.29197
 217.54636 216.73874 215.84913 215.22552 214.68791 214.77942 214.92430 214.50627
 214.18132 213.41740 212.74406 213.66888 216.69286 220.90067 225.97047 230.00766
 233.54303 237.70142 242.06744 246.36188 250.42604 254.14764 257.61801 260.90903
 264.01895 266.89896 269.57489 272.00156 274.01477 275.75708 277.35135 278.68246
 279.49124 279.82806 281.17822 282.79474 284.24927 285.53613 286.71021 287.77386
 288.73047 289.58237 290.32654 291.27490
 366.78100 356.34788 345.79277 334.67165 323.08754 311.29442 299.17731 286.99319
 274.71808 262.62796 250.64985 239.96373 230.09861 221.21550 213.41038 206.42527
 200.27215 195.22304 191.81792 189.87281 188.92269 188.99958 189.84746 191.16835
 192.90623 195.01411 197.29000 199.66188 202.11977 204.61265 206.71354 208.56842
 210.20731 211.36519 211.60708 211.84796 211.79784 211.51573 211.16161 210.80450
 210.43438 210.15727 209.97815 209.85504 209.79592 210.13981 210.53869 210.94057
 211.74646 212.93734 214.20023 215.99611 217.93700 219.99288 222.10077 224.19665
 226.26954 228.36642 230.47631 232.59519 234.73707 236.92196 239.19084 241.57373
 244.20761 246.47150 248.48638 250.26427 251.69415 252.83004 253.66492 253.99380
 254.04369 253.83057 253.20346 252.16434 250.78323 248.95711 246.87900 244.72488
 242.52877 240.34565 238.17853 236.03042 233.90330 231.78319 229.82207 227.99196
 226.28784 224.77273 223.41561 222.20050 221.09538 220.06827 219.18515 218.33903
 217.59392 216.78680 215.89769 215.27457 214.73746 214.80467 214.91914 214.56805
 214.10301 213.32933 212.72343 213.60475 216.63872 220.88698 225.92749 230.04100
 233.56369 237.69913 242.05382 246.35316 250.42833 254.13742 257.57928 260.84229
 263.93759 266.82187 269.52002 271.99918 274.10345 275.86395 277.41205 278.57770
 279.19745 279.46622 280.45676 281.87656 283.26840 284.49979 285.62329 286.64108
 287.55646 288.37161 289.08374 289.99124
 366.78100 356.34735 345.79169 334.67004 323.08539 311.29173 299.17408 286.98943
 274.71377 262.62312 250.64447 239.95781 230.09216 221.20851 213.40285 206.41720
 200.26354 195.21389 191.80824 189.86258 188.91193 188.98828 189.83562 191.15597
 192.89332 195.00066 197.27601 199.64736 202.10470 204.59705 206.69740 208.55174
 210.19009 211.34744 211.58878 211.82913 211.77848 211.49582 211.14117 210.78352
 210.41286 210.13521 209.95556 209.83190 209.77225 210.11559 210.51394 210.91529
 211.72063 212.91098 214.17333 215.96867 217.90902 219.96437 222.07171 224.16706
 226.23941 228.33575 230.44510 232.56345 234.70479 236.88914 239.15749 241.53983
 244.17318 246.43653 248.45087 250.22822 251.65757 252.79291 253.62726 253.95560
 254.00495 253.79130 253.16364 252.12399 250.74234 248.91568 246.83703 244.68238
 242.48572 240.30207 238.13442 235.98576 233.85811 231.73746 229.77580 227.94515
 226.24050 224.72484 223.36719 222.15154 221.04588 220.01823 219.13458 218.28792
 217.54227 216.73462 215.84496 215.22131 214.68365 214.78235 214.96721 214.54416
 214.12143 213.24744 212.61243 213.48953 216.56619 220.86424 225.89865 230.04996
 233.57501 237.70535 242.06859 246.38411 250.46025 254.16049 257.56656 260.78644
 263.84415 266.70660 269.40848 271.92664 274.10309 275.94348 277.42734 278.37408
 278.68851 278.80750 279.73917 281.11838 282.44711 283.70566 284.85385 285.89404
 286.82959 287.66269 288.39047 289.31796
 366.78100 356.34610 345.78920 334.66630 323.08039 311.28549 299.16659 286.98069
 274.70379 262.61189 250.63199 239.94408 230.07718 221.19228 213.38538 206.39848
 200.24358 195.19268 191.78577 189.83887 188.88697 188.96207 189.80817 191.12727
 192.86336 194.96946 197.24356 199.61366 202.06976 204.56086 206.65996 208.51305
 210.15015 211.30625 211.54635 211.78545 211.73355 211.44965 211.09374 210.73484
 210.36294 210.08404 209.90314 209.77824 209.71734 210.05943 210.45653 210.85663
 211.66073 212.84983 214.11093 215.90503 217.84412 219.89822 222.00432 224.09842
 226.16952 228.26462 230.37271 232.48981 234.62991 236.81301 239.08011 241.46121
 244.09331 246.35540 248.36850 250.14460 251.57270 252.70680 253.53990 253.86700
 253.91509 253.70019 253.07129 252.03039 250.64749 248.81959 246.73969 244.58378
 242.38588 240.20098 238.03208 235.88218 233.75328 231.63138 229.66847 227.83657
 226.13067 224.61377 223.25487 222.03797 220.93106 219.90216 219.01726 218.16936
 217.42246 216.61356 215.72266 215.09775 214.55885 214.71585 215.05048 214.55052
 214.03006 213.07771 212.43779 213.32689 216.48000 220.83824 225.90787 230.06822
 233.60313 237.71858 242.08549 246.40962 250.48727 254.19495 257.58359 260.76730
 263.78641 266.63660 269.34518 271.92346 274.16296 275.99792 277.38223 278.17813
 278.38470 278.49274 279.09146 280.37424 281.57080 282.64658 283.72235 284.69696
 285.57349 286.35403 287.03592 287.90488
 366.78100 356.34590 345.78879 334.66569 323.07958 311.28448 299.16537 286.97927
 274.70216 262.61006 250.62995 239.94185 230.07474 221.18964 213.38253 206.39543
 200.24032 195.18922 191.78212 189.83501 188.88291 188.95780 189.80370 191.12259
 192.85849 194.96438 197.23828 199.60817 202.06407 204.55496 206.65386 208.50675
 210.14365 211.29954 211.53944 211.77833 211.72623 211.44213 211.08602 210.72692
 210.35481 210.07571 209.89460 209.76950 209.70839 210.05029 210.44718 210.84708
 211.65097 212.83987 214.10076 215.89466 217.83355 219.88745 221.99335 224.08724
 226.15814 228.25303 230.36093 232.47782 234.61772 236.80061 239.06751 241.44840
 244.08030 246.34219 248.35509 250.13098 251.55888 252.69277 253.52567 253.85257
 253.90046 253.68536 253.05625 252.01515 250.63204 248.80394 246.72383 244.56773
 242.36962 240.18452 238.01541 235.86531 233.73620 231.61410 229.65099 227.81889
 226.11279 224.59568 223.23658 222.01947 220.91237 219.88326 218.99816 218.15005
 217.40295 216.59384 215.70274 215.07763 214.53853 214.70146 215.06718 214.63222
 214.08275 212.96941 212.24904 213.17888 216.43669 220.84869 225.94724 230.06725
 233.60870 237.71249 242.08261 246.41338 250.49146 254.18806 257.54501 260.69507
 263.68530 266.52740 269.26395 271.87814 274.18054 276.05594 277.37753 278.04663
 278.15799 278.19431 278.74033 279.89459 281.08221 282.13470 283.11188 284.07639
 284.94385 285.71634 286.39117 287.25116
 366.78100 356.34597 345.78894 334.66591 323.07988 311.28485 299.16582 286.97980
 274.70277 262.61074 250.63071 239.94268 230.07565 221.19062 213.38359 206.39656
 200.24153 195.19050 191.78347 189.83645 188.88442 188.95939 189.80536 191.12433
 192.86030 194.96627 197.24024 199.61021 202.06618 204.55715 206.65612 208.50910
 210.14607 211.30204 211.54201 211.78098 211.72895 211.44492 211.08889 210.72986
 210.35783 210.07880 209.89777 209.77275 209.71172 210.05369 210.45066 210.85063
 211.65460 212.84357 214.10454 215.89851 217.83748 219.89145 221.99742 224.09139
 226.16237 228.25734 230.36531 232.48228 234.62225 236.80522 239.07219 241.45316
 244.08513 246.34710 248.36007 250.13604 251.56402 252.69799 253.53096 253.85793
 253.90590 253.69087 253.06184 252.02081 250.63778 248.80975 246.72972 244.57369
 242.37567 240.19064 238.02161 235.87158 233.74255 231.62052 229.65749 227.82546
 226.11943 224.60240 223.24337 222.02634 220.91932 219.89029 219.00526 218.15723
 217.41020 216.60117 215.71014 215.08511 214.54608 214.71335 215.08063 214.66829
 214.04558 212.74498 212.14809 213.22986 216.48409 220.87277 225.95149 230.11433
 233.62607 237.73241 242.10353 246.44763 250.53485 254.22350 257.55780 260.67319
 263.62891 266.44083 269.17862 271.83615 274.18152 276.03445 277.26413 277.82831
 277.87228 277.92990 278.74255 279.63525 280.78729 281.84961 282.85577 283.77740
 284.60632 285.34445 285.98929 286.81107
 366.78100 356.34555 345.78810 334.66466 323.07821 311.28276 299.16331 286.97686
 274.69942 262.60697 250.62652 239.93807 230.07062 221.18518 213.37773 206.39028
 200.23483 195.18338 191.77594 189.82849 188.87604 188.95059 189.79614 191.11470
 192.85025 194.95580 197.22935 199.59890 202.05445 204.54501 206.64356 208.49611
 210.13266 211.28821 211.52777 211.76632 211.71387 211.42942 211.07297 210.71353
 210.34108 210.06163 209.88018 209.75473 209.69329 210.03484 210.43139 210.83094
 211.63449 212.82305 214.08360 215.87715 217.81570 219.86925 221.97481 224.06836
 226.13891 228.23346 230.34101 232.45757 234.59712 236.77967 239.04622 241.42677
 244.05833 246.31988 248.33243 250.10798 251.53553 252.66909 253.50164 253.82819
 253.87574 253.66029 253.03085 251.98940 250.60595 248.77750 246.69705 244.54060
 242.34216 240.15671 237.98726 235.83681 233.70736 231.58492 229.62147 227.78902
 226.08257 224.56512 223.20568 221.98823 220.88078 219.85133 218.96588 218.11744
 217.36999 216.56054 215.66909 215.04364 214.50420 214.70447 215.12872 214.67052
 214.06659 212.76254 212.16708 213.20415 216.43462 220.83131 225.91547 230.10983
 233.63036 237.74873 242.13583 246.50880 250.62447 254.32753 257.66022 260.75262
 263.68076 266.45737 269.18182 271.84885 274.21701 276.06055 277.23242 277.64166
 277.50345 277.75461 278.73944 279.63605 280.83298 281.96121 283.00073 283.94247
 284.78946 285.54370 286.20261 287.04227
 366.78100 356.34536 345.78772 334.66408 323.07744 311.28180 299.16216 286.97552
 274.69788 262.60524 250.62460 239.93596 230.06832 221.18268 213.37504 206.38740
 200.23176 195.18012 191.77248 189.82484 188.87220 188.94656 189.79192 191.11028
 192.84564 194.95100 197.22436 199.59372 202.04908 204.53944 206.63780 208.49016
 210.12652 211.28188 211.52124 211.75960 211.70696 211.42232 211.06568 210.70604
 210.33340 210.05376 209.87212 209.74648 209.68484 210.02620 210.42256 210.82192
 211.62528 212.81364 214.07400 215.86736 217.80572 219.85908 221.96444 224.05780
 226.12816 228.22252 230.32988 232.44624 234.58560 236.76796 239.03432 241.41468
 244.04604 246.30740 248.31976 250.09512 251.52248 252.65584 253.48820 253.81456
 253.86192 253.64628 253.01664 251.97500 250.59136 248.76272 246.68208 244.52544
 242.32680 240.14116 237.97152 235.82088 233.69124 231.56860 229.60496 227.77232
 226.06568 224.54804 223.18840 221.97076 220.86312 219.83348 218.94784 218.09920
 217.35156 216.54192 215.65028 215.02464 214.48500 214.70929 215.16443 214.64618
 214.08469 213.00264 212.22760 213.07417 216.29813 220.71017 225.80328 230.00682
 233.56569 237.70612 242.11682 246.52621 250.67921 254.40942 257.75528 260.84216
 263.75620 266.52811 269.25409 271.92715 274.32993 276.20346 277.26651 277.64407
 277.55661 277.77225 278.67786 279.76080 281.08917 282.29788 283.40070 284.39975
 285.29828 286.09842 286.79742 287.68820
 366.78100 356.34593 345.78886 334.66578 323.07971 311.28464 299.16557 286.97949
 274.70242 262.61035 250.63028 239.94221 230.07513 221.19006 213.38299 206.39592
 200.24084 195.18977 191.78270 189.83563 188.88356 188.95848 189.80441 191.12334
 192.85927 194.96519 197.23912 199.60905 202.06498 204.55591 206.65483 208.50776
 210.14469 211.30062 211.54054 211.77947 211.72740 211.44333 211.08726 210.72818
 210.35611 210.07704 209.89597 209.77089 209.70982 210.05175 210.44868 210.84861
 211.65253 212.84146 214.10239 215.89632 217.83524 219.88917 221.99510 224.08903
 226.15996 228.25488 230.36281 232.47974 234.61967 236.80259 239.06952 241.45045
 244.08238 246.34431 248.35723 250.13316 251.56109 252.69502 253.52794 253.85487
 253.90280 253.68773 253.05866 252.01758 250.63451 248.80644 246.72637 244.57030
 242.37222 240.18715 238.01808 235.86801 233.73893 231.61686 229.65379 227.82172
 226.11565 224.59857 223.23950 222.02243 220.91536 219.88628 219.00121 218.15314
 217.40607 216.59700 215.70592 215.08085 214.54178 214.74451 215.15207 214.64513
 213.96432 213.19044 212.36684 213.02501 216.20201 220.62062 225.69347 229.90804
 233.49055 237.63672 242.05405 246.47575 250.64102 254.38690 257.75629 260.86588
 263.79178 266.56598 269.30234 272.01608 274.49564 276.41309 277.51834 277.92520
 277.83557 277.87149 278.66080 279.91870 281.28934 282.52512 283.65256 284.67392
 285.59256 286.41058 287.12521 288.03592
 366.78100 356.34572 345.78845 334.66517 323.07890 311.28362 299.16434 286.97807
 274.70079 262.60852 250.62824 239.93996 230.07269 221.18741 213.38014 206.39286
 200.23759 195.18631 191.77903 189.83176 188.87948 188.95421 189.79993 191.11865
 192.85438 194.96010 197.23383 199.60355 202.05927 204.55000 206.64872 208.50145
 210.13817 211.29389 211.53362 211.77234 211.72007 211.43579 211.07952 210.72024
 210.34796 210.06869 209.88741 209.76214 209.70086 210.04258 210.43931 210.83903
 211.64276 212.83148 214.09220 215.88593 217.82465 219.87838 221.98410 224.07782
 226.14855 228.24327 230.35100 232.46772 234.60744 236.79017 239.05689 241.43762
 244.06934 246.33107 248.34379 250.11951 251.54724 252.68096 253.51369 253.84041
 253.88813 253.67286 253.04358 252.00231 250.61903 248.79075 246.71048 244.55420
 242.35593 240.17065 238.00137 235.85110 233.72182 231.59955 229.63627 227.80400
 226.09772 224.58044 223.22117 222.00389 220.89662 219.86734 218.98206 218.13379
 217.38651 216.57724 215.68596 215.06068 214.52141 214.72772 215.16728 214.69438
 213.78542 213.05243 212.38414 213.03554 216.17099 220.61298 225.68019 229.90863
 233.48174 237.59592 241.97934 246.37135 250.51605 254.27907 257.69452 260.83725
 263.78159 266.56821 269.31952 272.06897 274.54828 276.47586 277.64188 278.05945
 278.03152 278.04047 278.74774 279.94385 281.19574 282.39355 283.50253 284.50717
 285.41074 286.21536 286.91827 287.81406
 366.78100 356.34505 345.78710 334.66315 323.07620 311.28025 299.16030 286.97335
 274.69540 262.60245 250.62150 239.93255 230.06460 221.17866 213.37071 206.38276
 200.22681 195.17486 191.76691 189.81896 188.86601 188.94006 189.78511 191.10316
 192.83821 194.94326 197.21631 199.58536 202.04041 204.53046 206.62851 208.48056
 210.11661 211.27166 211.51071 211.74876 211.69581 211.41086 211.05392 210.69397
 210.32102 210.04107 209.85912 209.73317 209.67122 210.01227 210.40832 210.80737
 211.61042 212.79847 214.05852 215.85157 217.78962 219.84267 221.94772 224.04077
 226.11082 228.20487 230.31192 232.42797 234.56702 236.74907 239.01513 241.39518
 244.02623 246.28728 248.29933 250.07438 251.50143 252.63448 253.46653 253.79258
 253.83963 253.62368 252.99373 251.95178 250.56783 248.73888 246.65793 244.50098
 242.30203 240.11608 237.94613 235.79518 233.66523 231.54228 229.57833 227.74539
 226.03844 224.52049 223.16054 221.94259 220.83464 219.80469 218.91874 218.06979
 217.32184 216.51189 215.61994 214.99399 214.45404 214.68893 215.20638 214.73134
 213.80734 212.79689 212.16254 212.95467 216.15385 220.62749 225.72044 229.94084
 233.50798 237.59058 241.94475 246.31360 250.44182 254.20822 257.64359 260.80695
 263.76120 266.55978 269.31354 272.09607 274.60117 276.50217 277.61923 278.07623
 278.10495 278.22217 278.78656 280.01544 281.21579 282.31067 283.42505 284.43460
 285.34259 286.15115 286.85751 287.75766
 366.78100 356.34447 345.78593 334.66140 323.07387 311.27734 299.15680 286.96927
 274.69074 262.59721 250.61567 239.92614 230.05761 221.17108 213.36254 206.37401
 200.21748 195.16495 191.75641 189.80788 188.85435 188.92781 189.77228 191.08975
 192.82422 194.92868 197.20115 199.56962 202.02409 204.51355 206.61102 208.46249
 210.09796 211.25242 211.49089 211.72836 211.67483 211.38929 211.03176 210.67123
 210.29769 210.01716 209.83463 209.70810 209.64556 209.98603 210.38150 210.77997
 211.58243 212.76990 214.02937 215.82184 217.75930 219.81177 221.91624 224.00871
 226.07817 228.17164 230.27811 232.39357 234.53204 236.71351 238.97898 241.35844
 243.98891 246.24938 248.26085 250.03531 251.46178 252.59425 253.42572 253.75118
 253.79765 253.58112 252.95059 251.90805 250.52352 248.69399 246.61245 244.45492
 242.25539 240.06886 237.89832 235.74679 233.61626 231.49273 229.52819 227.69466
 225.98713 224.46860 223.10806 221.88953 220.78100 219.75047 218.86393 218.01440
 217.26587 216.45533 215.56280 214.93627 214.39574 214.65944 215.24367 214.71628
 213.86957 212.69254 211.96886 212.85966 216.13202 220.62134 225.73506 229.97017
 233.53783 237.60744 241.94902 246.30969 250.42682 254.19075 257.63855 260.81717
 263.78055 266.58850 269.35327 272.14346 274.66690 276.55594 277.62338 278.04620
 278.13245 278.35617 278.93738 280.07928 281.26849 282.34830 283.44727 284.45755
 285.36621 286.17535 286.88220 287.78302
 366.78100 356.34355 345.78411 334.65866 323.07021 311.27277 299.15132 286.96287
 274.68343 262.58898 250.60653 239.91609 230.04664 221.15919 213.34975 206.36030
 200.20285 195.14941 191.73996 189.79051 188.83607 188.90862 189.75217 191.06873
 192.80228 194.90583 197.17739 199.54494 201.99849 204.48705 206.58360 208.43415
 210.06871 211.22226 211.45981 211.69637 211.64192 211.35547 210.99703 210.63558
 210.26113 209.97969 209.79624 209.66879 209.60535 209.94490 210.33945 210.73701
 211.53856 212.72511 213.98367 215.77522 217.71178 219.76333 221.86688 223.95844
 226.02699 228.11954 230.22510 232.33965 234.47720 236.65776 238.92231 241.30086
 243.93042 246.18997 248.20052 249.97408 251.39963 252.53118 253.36174 253.68629
 253.73184 253.51440 252.88295 251.83950 250.45406 248.62361 246.54116 244.38272
 242.18227 239.99482 237.82338 235.67093 233.53948 231.41504 229.44959 227.61514
 225.90670 224.38725 223.02580 221.80636 220.69691 219.66546 218.77802 217.92757
 217.17812 216.36668 215.47323 214.84578 214.30434 214.60883 215.29550 214.74071
 213.83009 212.68661 211.91148 212.75221 216.04208 220.55069 225.69519 229.94685
 233.54333 237.60782 241.94330 246.30367 250.41684 254.19151 257.66101 260.86325
 263.83826 266.65256 269.42090 272.19156 274.72354 276.61734 277.60281 277.99524
 278.14825 278.46863 279.18015 280.21231 281.38214 282.43024 283.45288 284.43091
 285.31055 286.09384 286.77814 287.65018
 366.78100 356.34332 345.78364 334.65796 323.06929 311.27161 299.14993 286.96125
 274.68157 262.58689 250.60422 239.91354 230.04386 221.15618 213.34650 206.35682
 200.19915 195.14547 191.73579 189.78611 188.83143 188.90375 189.74707 191.06340
 192.79672 194.90004 197.17136 199.53868 201.99200 204.48033 206.57665 208.42697
 210.06129 211.21461 211.45193 211.68826 211.63358 211.34690 210.98822 210.62654
 210.25186 209.97018 209.78651 209.65883 209.59515 209.93447 210.32879 210.72611
 211.52744 212.71376 213.97208 215.76340 217.69972 219.75104 221.85437 223.94569
 226.01401 228.10633 230.21165 232.32597 234.46330 236.64362 238.90794 241.28626
 243.91558 246.17490 248.18522 249.95855 251.38387 252.51519 253.34551 253.66983
 253.71515 253.49748 252.86580 251.82212 250.43644 248.60576 246.52308 244.36441
 242.16373 239.97605 237.80437 235.65169 233.52001 231.39533 229.42966 227.59498
 225.88630 224.36662 223.00494 221.78526 220.67559 219.64391 218.75623 217.90555
 217.15587 216.34419 215.45052 214.82284 214.28116 214.59731 215.30157 214.81546
 213.75589 212.73959 211.94928 212.68735 215.95413 220.44748 225.59274 229.90042
 233.50385 237.57896 241.92703 246.28836 250.39597 254.17744 257.67401 260.90128
 263.89304 266.71304 269.48325 272.25552 274.76471 276.62186 277.61966 278.04080
 278.32190 278.79825 279.53363 280.61441 281.77817 282.85333 283.92557 284.89691
 285.77054 286.54849 287.22812 288.09421
 366.78100 356.34436 345.78571 334.66107 323.07343 311.27679 299.15614 286.96850
 274.68986 262.59621 250.61457 239.92493 230.05629 221.16964 213.36100 206.37236
 200.21572 195.16307 191.75443 189.80579 188.85214 188.92550 189.76986 191.08722
 192.82157 194.92593 197.19829 199.56664 202.02100 204.51036 206.60772 208.45907
 210.09443 211.24879 211.48714 211.72450 211.67086 211.38522 211.02757 210.66693
 210.29329 210.01265 209.83000 209.70336 209.64072 209.98107 210.37643 210.77479
 211.57715 212.76450 214.02386 215.81622 217.75357 219.80593 221.91029 224.00265
 226.07200 228.16536 230.27172 232.38707 234.52543 236.70679 238.97215 241.35150
 243.98186 246.24222 248.25358 250.02793 251.45429 252.58665 253.41800 253.74336
 253.78972 253.57308 252.94243 251.89979 250.51515 248.68550 246.60386 244.44622
 242.24658 240.05993 237.88929 235.73765 233.60700 231.48336 229.51872 227.68508
 225.97743 224.45879 223.09815 221.87951 220.77086 219.74022 218.85358 218.00393
 217.25529 216.44465 215.55201 214.92536 214.38472 214.65244 215.23772 214.87250
 213.79364 212.75778 212.01097 212.69955 215.93797 220.40306 225.54887 229.89703
 233.50041 237.56367 241.91022 246.26537 250.35815 254.13475 257.65558 260.92090
 263.94568 266.79221 269.59570 272.36670 274.87320 276.77444 277.84320 278.25787
 278.54364 279.01114 279.73929 281.00162 282.23050 283.42361 284.51587 285.50537
 286.39536 287.18787 287.88019 288.76248
 366.78100 356.34425 345.78551 334.66076 323.07301 311.27626 299.15552 286.96777
 274.68902 262.59527 250.61353 239.92378 230.05503 221.16828 213.35954 206.37079
 200.21404 195.16129 191.75255 189.80380 188.85005 188.92330 189.76756 191.08481
 192.81906 194.92331 197.19557 199.56382 202.01807 204.50732 206.60458 208.45583
 210.09108 211.24533 211.48359 211.72084 211.66709 211.38134 211.02360 210.66285
 210.28910 210.00835 209.82561 209.69886 209.63611 209.97636 210.37162 210.76987
 211.57212 212.75937 214.01863 215.81088 217.74813 219.80038 221.90464 223.99689
 226.06614 228.15939 230.26565 232.38090 234.51915 236.70040 238.96566 241.34491
 243.97516 246.23541 248.24667 250.02092 251.44717 252.57942 253.41068 253.73593
 253.78218 253.56543 252.93469 251.89194 250.50719 248.67744 246.59570 244.43795
 242.23820 240.05145 237.88071 235.72896 233.59821 231.47446 229.50972 227.67597
 225.96822 224.44947 223.08873 221.86998 220.76123 219.73048 218.84374 217.99399
 217.24524 216.43449 215.54175 214.91500 214.37425 214.65411 215.24574 214.83925
 213.95711 212.71599 211.91992 212.69228 215.93672 220.36540 225.55193 229.90698
 233.50937 237.56316 241.91844 246.26208 250.32651 254.09033 257.62057 260.90225
 263.94226 266.82291 269.66180 272.45001 274.99786 276.95020 277.96506 278.34912
 278.59784 279.08237 279.92334 281.24567 282.60666 283.83813 284.96164 285.97949
 286.89493 287.71014 288.42227 289.32983
 366.78100 356.34297 345.78294 334.65691 323.06788 311.26985 299.14782 286.95879
 274.67876 262.58373 250.60070 239.90967 230.03963 221.15160 213.34157 206.35154
 200.19351 195.13948 191.72945 189.77942 188.82439 188.89636 189.73933 191.05530
 192.78827 194.89124 197.16221 199.52918 201.98215 204.47012 206.56609 208.41606
 210.05003 211.20300 211.43997 211.67593 211.62090 211.33387 210.97484 210.61281
 210.23778 209.95575 209.77172 209.64369 209.57966 209.91863 210.31260 210.70957
 211.51054 212.69651 213.95448 215.74545 217.68142 219.73239 221.83536 223.92633
 225.99430 228.08627 230.19123 232.30520 234.44217 236.62214 238.88611 241.26408
 243.89305 246.15202 248.16199 249.93496 251.35993 252.49090 253.32087 253.64484
 253.68981 253.47178 252.83975 251.79572 250.40969 248.57866 246.49563 244.33660
 242.13557 239.94753 237.77550 235.62247 233.49044 231.36541 229.39938 227.56435
 225.85532 224.33529 222.97326 221.75323 220.64320 219.61117 218.72314 217.87211
 217.12208 216.31005 215.41602 214.78799 214.24596 214.60213 215.31920 214.78996
 214.02438 212.80424 211.82347 212.58885 215.89024 220.29826 225.48497 229.86285
 233.50735 237.53757 241.90038 246.29698 250.33563 254.07632 257.60663 260.92126
 263.98206 266.86652 269.69781 272.50815 275.04330 277.04678 278.07529 278.45340
 278.83868 279.46182 280.72064 282.18774 283.48239 284.62784 285.67291 286.61963
 287.47113 288.22940 288.89178 289.73593
 366.78100 356.34265 345.78230 334.65595 323.06660 311.26825 299.14590 286.95656
 274.67621 262.58086 250.59751 239.90616 230.03581 221.14746 213.33711 206.34676
 200.18841 195.13406 191.72371 189.77337 188.81802 188.88967 189.73232 191.04797
 192.78062 194.88327 197.15392 199.52057 201.97322 204.46087 206.55652 208.40618
 210.03983 211.19248 211.42913 211.66478 211.60943 211.32208 210.96273 210.60038
 210.22503 209.94268 209.75833 209.62998 209.56564 209.90429 210.29794 210.69459
 211.49524 212.68089 213.93854 215.72919 217.66484 219.71549 221.81814 223.90879
 225.97645 228.06810 230.17275 232.28640 234.42305 236.60270 238.86635 241.24400
 243.87265 246.13130 248.14095 249.91360 251.33825 252.46891 253.29856 253.62221
 253.66686 253.44851 252.81616 251.77181 250.38546 248.55411 246.47076 244.31141
 242.11006 239.92172 237.74937 235.59602 233.46367 231.33832 229.37197 227.53662
 225.82727 224.30692 222.94457 221.72422 220.61387 219.58153 218.69318 217.84183
 217.09148 216.27913 215.38478 214.75643 214.21408 214.55656 215.26389 214.76936
 214.02325 212.79308 211.73074 212.47990 215.83458 220.25175 225.38895 229.88522
 233.53537 237.53682 241.89636 246.33490 250.34607 254.06708 257.61456 260.98074
 264.05084 266.92139 269.74194 272.52670 275.07901 277.04846 278.12042 278.58569
 279.13904 279.96701 281.18121 282.55426 283.79471 284.89221 285.89349 286.80060
 287.61642 288.34293 288.97760 289.78641
 354.97500 345.04800 334.58700 324.11500 313.32600 302.53700 291.65000 280.76700
 269.93100 259.19300 248.62200 238.61700 229.08700 220.35500 212.54000 205.53500
 199.46400 194.49300 191.14300 189.19000 188.08900 188.01400 188.72400 189.90600
 191.46900 193.38200 195.40300 197.55600 199.80700 202.06000 204.28800 206.47900
 208.55200 210.37800 212.02500 213.65900 214.99800 216.11800 217.17200 218.25900
 219.49400 220.64500 221.67900 222.61400 223.54500 224.98200 226.57100 228.19000
 229.79700 231.81100 233.86500 235.97200 238.24200 240.55300 242.89900 245.25300
 247.48800 249.53500 251.36600 252.84800 254.09800 255.16700 256.02700 256.25300
 256.09500 255.54300 253.93500 252.56600 251.38400 250.24500 249.05200 247.70100
 246.01600 243.99600 241.78400 239.39300 236.81300 234.22300 231.65800 229.14400
 226.74000 224.47300 222.33500 220.32500 218.44000 216.67700 214.96200 213.47200
 212.20000 211.10800 210.26000 209.63900 209.24400 209.03100 209.05800 209.33300
 209.78400 210.62600 211.33100 212.39100 213.62500 214.84668 217.72949 219.47640
 220.32566 220.86828 220.88710 220.27371 219.43733 218.84250 219.04934 220.86203
 222.60583 225.72206 229.03064 232.61777 236.12270 239.51333 242.70767 245.68587
 248.41061 250.90679 253.19353 254.91714 256.48655 257.94920 259.39966 260.69384
 261.81714 262.77997 263.71679 264.54570 265.26305 265.89772 266.47676 267.00133
 267.47312 267.89325 268.26027 268.72800
