|-------------------------------------------------------------------------|
|   File Name : in_temp.dat
|   Subject   : temperature profiles used for initial guess atmosphere
|   File Type : input of gmtr
|   Data Type : atmospherical data
|   Author/s  : WRF-Chem
|   Date      : Fri Jul 26 15:39:24 2024
|-------------------------------------------------------------------------|

 WRF-Chem temperature
#
 values of T (K)    (8f10.5)
#
 354.97500 345.04800 334.58700 324.11500 313.32600 302.53700 291.65000 280.76700
 269.93100 259.19300 248.62200 238.61700 229.08700 220.35500 212.54000 205.53500
 199.46400 194.49300 191.14300 189.19000 188.08900 188.01400 188.72400 189.90600
 191.46900 193.38200 195.40300 197.55600 199.80700 202.06000 204.28800 206.47900
 208.55200 210.37800 212.02500 213.65900 214.99800 216.11800 217.17200 218.25900
 219.49400 220.64500 221.67900 222.61400 223.54500 224.98200 226.57100 228.19000
 229.79700 231.81100 233.86500 235.97200 238.24200 240.55300 242.89900 245.25300
 247.48800 249.53500 251.36600 252.84800 254.09800 255.16700 256.02700 256.25300
 256.09500 255.54300 253.93500 252.56600 251.38400 250.24500 249.05200 247.70100
 246.01600 243.99600 241.78400 239.39300 236.81300 234.22300 231.65800 229.14400
 226.74000 224.47300 222.33500 220.32500 218.44000 216.67700 214.96200 213.47200
 212.20000 211.10800 210.26000 209.63900 209.24400 209.03100 209.05800 209.33300
 209.78400 210.62600 211.33100 212.39100 213.62500 214.84668 217.72949 219.47640
 220.32566 220.86828 220.88710 220.27371 219.43733 218.84250 219.04934 220.86203
 222.60583 225.72206 229.03064 232.61777 236.12270 239.51333 242.70767 245.68587
 248.41061 250.90679 253.19353 254.91714 256.48655 257.94920 259.39966 260.69384
 261.81714 262.77997 263.71679 264.54570 265.26305 265.89772 266.47676 267.00133
 267.47312 267.89325 268.26027 268.72800
 366.78100 356.33500 345.76700 334.63300 323.03600 311.23000 299.10000 286.90300
 274.61500 262.51200 250.52100 239.82200 229.94400 221.04800 213.23000 206.23200
 200.06600 195.00400 191.58600 189.62800 188.66500 188.72900 189.56400 190.87200
 192.59700 194.69200 196.95500 199.31400 201.75900 204.23900 206.32700 208.16900
 209.79500 210.94000 211.16900 211.39700 211.33400 211.03900 210.67200 210.30200
 209.91900 209.62900 209.43700 209.30100 209.22900 209.56000 209.94600 210.33500
 211.12800 212.30600 213.55600 215.33900 217.26700 219.31000 221.40500 223.48800
 225.54800 227.63200 229.72900 231.83500 233.96400 236.13600 238.39200 240.76200
 243.38300 245.63400 247.63600 249.40100 250.81800 251.94100 252.76300 253.07900
 253.11600 252.89000 252.25000 251.19800 249.80400 247.96500 245.87400 243.70700
 241.49800 239.30200 237.12200 234.96100 232.82100 230.68800 228.71400 226.87100
 225.15400 223.62600 222.25600 221.02800 219.91000 218.87000 217.97400 217.11500
 216.35700 215.53700 214.63500 213.99900 213.44900 212.85855 212.01316 212.61654
 214.26826 216.08686 218.14273 220.53346 223.40855 226.78828 231.49734 235.90155
 239.42278 243.28576 247.23140 251.11907 254.80144 258.23331 261.38913 264.27520
 266.89312 269.26852 271.44504 273.08845 274.58484 275.98591 277.39845 278.65879
 279.75272 280.69038 281.56708 282.34086 283.01050 283.60295 284.14348 284.63317
 285.07358 285.46577 285.80838 286.24500
 381.81900 372.39900 361.20600 349.77600 337.62200 324.85300 311.81000 298.35300
 284.86000 271.32400 258.56100 246.30400 236.08700 226.79600 218.44800 211.29000
 205.52200 200.89400 197.38100 194.84800 193.01500 192.31500 192.25000 192.43100
 192.91200 193.53700 194.13600 194.71200 195.26200 195.83100 196.39300 196.97600
 197.60400 198.14900 198.58400 199.05700 199.69500 200.37800 201.05400 201.70800
 202.31300 202.85700 203.35500 203.86200 204.56900 205.29700 206.02600 206.98700
 208.19300 209.44100 210.96900 212.57600 214.46200 216.51300 218.63000 220.85300
 223.34100 225.96200 228.73900 231.69700 234.70600 237.70600 240.69200 243.65700
 246.73700 249.69900 252.52100 255.06300 257.29000 259.23300 260.63300 261.68000
 262.46100 262.79800 262.69100 262.22400 261.06900 259.52500 257.70700 255.50700
 253.00100 250.30200 247.39800 244.45200 241.65400 239.05400 236.73300 234.59000
 232.59500 230.72500 228.83400 226.82600 224.66600 222.38700 220.10400 217.71500
 215.45900 213.06600 210.54600 208.09300 205.35400 202.08130 196.05959 200.71215
 209.01611 216.90438 223.84126 229.78593 235.00632 240.20838 245.98943 250.68668
 254.32982 257.93487 261.55666 264.96801 268.15192 271.06452 273.76717 276.25691
 278.57680 280.74479 282.77456 284.60533 286.27232 287.81705 289.31715 290.65561
 291.81734 292.81312 293.70701 294.49387 295.17482 295.77730 296.32696 296.82492
 297.27278 297.67160 298.02000 298.46400
 399.33000 389.90700 379.81300 368.66800 357.52200 345.30100 333.07400 320.22700
 307.21600 293.84800 280.37600 267.29600 254.61000 242.98700 232.15100 221.97700
 212.67200 204.28600 197.66900 192.82100 189.48600 187.45200 186.81400 187.08900
 187.78100 189.05400 190.64800 192.54200 194.63000 196.75200 198.67100 200.15800
 201.53500 202.48700 202.97500 203.34000 203.53900 203.49700 203.38500 203.24700
 203.00500 202.78600 202.60300 202.43700 202.42600 202.88800 203.42000 203.95100
 204.89500 205.99200 207.30100 208.95800 210.73800 213.10000 215.56400 218.18000
 220.96600 223.91800 226.96100 230.09200 233.29300 236.55700 239.95500 243.53700
 246.84500 249.39000 251.54200 253.47400 255.19500 256.48400 257.43100 258.05900
 258.21200 258.04000 257.58200 256.64300 255.23900 253.50700 251.40800 249.05600
 246.57600 243.99400 241.38900 238.83000 236.34400 233.98600 231.96900 230.11800
 228.42300 226.89900 225.54800 224.29700 223.10500 221.96500 220.95800 220.11300
 219.49000 218.92000 218.32500 217.88100 217.42300 216.96366 216.35568 216.80261
 217.73415 218.28582 218.64258 219.10077 220.44626 222.53987 226.38451 230.35736
 233.59734 237.39164 241.29814 245.22796 248.98002 252.51130 255.78595 258.80109
 261.54781 264.05210 266.34239 268.04198 269.58951 271.01303 272.35754 273.55718
 274.59842 275.49092 276.28989 276.99307 277.60161 278.14001 278.63122 279.07623
 279.47646 279.83287 280.14422 280.54100
 399.73800 389.78500 379.66200 368.15100 356.64100 344.35000 331.79200 318.88800
 305.72600 292.49300 279.20900 266.73800 254.69600 244.21100 234.45700 225.43300
 217.56900 210.45100 204.30000 199.30600 195.45800 192.57600 191.02700 190.38600
 190.23900 190.53400 191.16600 191.92500 192.79500 193.76600 194.73200 195.31200
 195.80000 196.05200 196.11500 196.11500 196.03900 195.72300 195.34000 194.98900
 194.75100 194.79200 195.13300 195.59800 196.50600 198.13600 199.85800 201.56600
 204.17900 206.82300 209.89300 213.28400 216.82800 220.60500 224.38700 228.20900
 232.03200 235.82500 239.56000 243.25800 246.84500 250.20100 253.70900 257.46800
 261.53000 264.22100 266.60100 268.68100 270.32900 271.74100 272.83600 273.47400
 273.89800 274.00200 273.75700 273.28800 272.37100 271.10000 269.58900 267.77900
 265.81600 263.72100 261.39300 258.91600 256.29800 253.42300 250.33100 247.11400
 243.83700 240.52900 237.24900 233.99900 230.72800 227.51500 224.25400 220.95200
 217.62700 213.65600 210.12100 206.78900 204.01000 201.99491 199.07309 198.76551
 199.40006 200.48994 201.46112 202.31912 203.45100 204.96110 207.47502 210.85391
 213.70530 217.29629 220.99574 224.72316 228.28753 231.64854 234.68024 237.40893
 239.70644 241.60899 243.46854 245.67368 247.68154 249.52395 251.24767 252.78566
 254.12057 255.26479 256.23740 257.09036 257.82852 258.48160 259.07744 259.61723
 260.10271 260.53504 260.91270 261.39400
 399.73800 389.78500 379.66200 368.15100 356.64100 344.35000 331.79200 318.88800
 305.72600 292.49300 279.20900 266.73800 254.69600 244.21100 234.45700 225.43300
 217.56900 210.45100 204.30000 199.30600 195.45800 192.57600 191.02700 190.38600
 190.23900 190.53400 191.16600 191.92500 192.79500 193.76600 194.73200 195.31200
 195.80000 196.05200 196.11500 196.11500 196.03900 195.72300 195.34000 194.98900
 194.75100 194.79200 195.13300 195.59800 196.50600 198.13600 199.85800 201.56600
 204.17900 206.82300 209.89300 213.28400 216.82800 220.60500 224.38700 228.20900
 232.03200 235.82500 239.56000 243.25800 246.84500 250.20100 253.70900 257.46800
 261.53000 264.22100 266.60100 268.68100 270.32900 271.74100 272.83600 273.47400
 273.89800 274.00200 273.75700 273.28800 272.37100 271.10000 269.58900 267.77900
 265.81600 263.72100 261.39300 258.91600 256.29800 253.42300 250.33100 247.11400
 243.83700 240.52900 237.24900 233.99900 230.72800 227.51500 224.25400 220.95200
 217.62700 213.65600 210.12100 206.78900 204.01000 201.99491 199.07309 198.76551
 199.40006 200.48994 201.46112 202.31912 203.45100 204.96110 207.47502 210.85391
 213.70530 217.29629 220.99574 224.72316 228.28753 231.64854 234.68024 237.40893
 239.70644 241.60899 243.46854 245.67368 247.68154 249.52395 251.24767 252.78566
 254.12057 255.26479 256.23740 257.09036 257.82852 258.48160 259.07744 259.61723
 260.10271 260.53504 260.91270 261.39400
 399.33000 389.90700 379.81300 368.66800 357.52200 345.30100 333.07400 320.22700
 307.21600 293.84800 280.37600 267.29600 254.61000 242.98700 232.15100 221.97700
 212.67200 204.28600 197.66900 192.82100 189.48600 187.45200 186.81400 187.08900
 187.78100 189.05400 190.64800 192.54200 194.63000 196.75200 198.67100 200.15800
 201.53500 202.48700 202.97500 203.34000 203.53900 203.49700 203.38500 203.24700
 203.00500 202.78600 202.60300 202.43700 202.42600 202.88800 203.42000 203.95100
 204.89500 205.99200 207.30100 208.95800 210.73800 213.10000 215.56400 218.18000
 220.96600 223.91800 226.96100 230.09200 233.29300 236.55700 239.95500 243.53700
 246.84500 249.39000 251.54200 253.47400 255.19500 256.48400 257.43100 258.05900
 258.21200 258.04000 257.58200 256.64300 255.23900 253.50700 251.40800 249.05600
 246.57600 243.99400 241.38900 238.83000 236.34400 233.98600 231.96900 230.11800
 228.42300 226.89900 225.54800 224.29700 223.10500 221.96500 220.95800 220.11300
 219.49000 218.92000 218.32500 217.88100 217.42300 216.96366 216.35568 216.80261
 217.73415 218.28582 218.64258 219.10077 220.44626 222.53987 226.38451 230.35736
 233.59734 237.39164 241.29814 245.22796 248.98002 252.51130 255.78595 258.80109
 261.54781 264.05210 266.34239 268.04198 269.58951 271.01303 272.35754 273.55718
 274.59842 275.49092 276.28989 276.99307 277.60161 278.14001 278.63122 279.07623
 279.47646 279.83287 280.14422 280.54100
 381.81900 372.39900 361.20600 349.77600 337.62200 324.85300 311.81000 298.35300
 284.86000 271.32400 258.56100 246.30400 236.08700 226.79600 218.44800 211.29000
 205.52200 200.89400 197.38100 194.84800 193.01500 192.31500 192.25000 192.43100
 192.91200 193.53700 194.13600 194.71200 195.26200 195.83100 196.39300 196.97600
 197.60400 198.14900 198.58400 199.05700 199.69500 200.37800 201.05400 201.70800
 202.31300 202.85700 203.35500 203.86200 204.56900 205.29700 206.02600 206.98700
 208.19300 209.44100 210.96900 212.57600 214.46200 216.51300 218.63000 220.85300
 223.34100 225.96200 228.73900 231.69700 234.70600 237.70600 240.69200 243.65700
 246.73700 249.69900 252.52100 255.06300 257.29000 259.23300 260.63300 261.68000
 262.46100 262.79800 262.69100 262.22400 261.06900 259.52500 257.70700 255.50700
 253.00100 250.30200 247.39800 244.45200 241.65400 239.05400 236.73300 234.59000
 232.59500 230.72500 228.83400 226.82600 224.66600 222.38700 220.10400 217.71500
 215.45900 213.06600 210.54600 208.09300 205.35400 202.08130 196.05959 200.71215
 209.01611 216.90438 223.84126 229.78593 235.00632 240.20838 245.98943 250.68668
 254.32982 257.93487 261.55666 264.96801 268.15192 271.06452 273.76717 276.25691
 278.57680 280.74479 282.77456 284.60533 286.27232 287.81705 289.31715 290.65561
 291.81734 292.81312 293.70701 294.49387 295.17482 295.77730 296.32696 296.82492
 297.27278 297.67160 298.02000 298.46400
 366.78100 356.34098 345.77895 334.65093 323.05990 311.25988 299.13586 286.94483
 274.66281 262.56578 250.58076 239.88774 230.01571 221.12569 213.31366 206.32164
 200.16162 195.10559 191.69357 189.74154 188.78452 188.85450 189.69547 191.00945
 192.74042 194.84140 197.11038 199.47535 201.92633 204.41230 206.50628 208.35426
 209.98623 211.13721 211.37218 211.60616 211.54914 211.26011 210.89909 210.53506
 210.15804 209.87402 209.68799 209.55797 209.49194 209.82892 210.22090 210.61587
 211.41485 212.59882 213.85480 215.64378 217.57775 219.62673 221.72770 223.81668
 225.88266 227.97263 230.07561 232.18758 234.32256 236.50054 238.76251 241.13849
 243.76546 246.02244 248.03042 249.80139 251.22437 252.35334 253.18132 253.50330
 253.54627 253.32625 252.69222 251.64620 250.25818 248.42515 246.34013 244.17910
 241.97608 239.78606 237.61203 235.45701 233.32298 231.19596 229.22794 227.39091
 225.67989 224.15786 222.79384 221.57182 220.45979 219.42577 218.53574 217.68272
 216.93070 216.11667 215.22065 214.59062 214.04660 213.11038 210.90501 209.97058
 210.29947 210.76155 212.07671 215.12971 219.41017 224.16235 229.84328 234.89165
 238.76804 242.76833 247.01228 251.19411 254.99991 258.72064 261.59113 263.59018
 266.25809 268.97803 271.48865 273.81006 275.82175 277.53894 279.00620 280.55966
 282.32086 284.01071 285.54950 286.90906 288.08710 289.13034 290.08197 290.94662
 291.72263 292.41632 293.02573 293.81088
 366.78100 356.34084 345.77867 334.65051 323.05935 311.25918 299.13502 286.94386
 274.66169 262.56453 250.57937 239.88621 230.01404 221.12388 213.31172 206.31955
 200.15939 195.10323 191.69106 189.73890 188.78174 188.85157 189.69241 191.00625
 192.73708 194.83792 197.10676 199.47159 201.92243 204.40827 206.50211 208.34994
 209.98178 211.13262 211.36745 211.60129 211.54413 211.25496 210.89380 210.52964
 210.15247 209.86831 209.68215 209.55198 209.48582 209.82266 210.21449 210.60933
 211.40817 212.59201 213.84784 215.63668 217.57052 219.61935 221.72019 223.80903
 225.87486 227.96470 230.06754 232.17937 234.31421 236.49205 238.75388 241.12972
 243.75656 246.01339 248.02123 249.79207 251.21491 252.34374 253.17158 253.49342
 253.53625 253.31609 252.68193 251.63576 250.24760 248.41444 246.32927 244.16811
 241.96495 239.77478 237.60062 235.44546 233.31129 231.18413 229.21597 227.37881
 225.66764 224.14548 222.78132 221.55915 220.44699 219.41283 218.52266 217.66950
 216.91734 216.10317 215.20701 214.57685 214.03268 213.13060 211.00499 210.07381
 210.30325 210.81369 212.13052 215.07567 219.30913 224.08502 229.75841 234.80238
 238.67352 242.66978 246.92659 251.12453 254.93573 258.67419 261.56415 263.57623
 266.25613 268.97174 271.45575 273.73703 275.76279 277.52112 278.97437 280.50186
 282.24725 283.91537 285.44647 286.80557 287.98413 289.02856 289.98032 290.84439
 291.62292 292.31485 292.92596 293.71729
 366.78100 356.34056 345.77811 334.64967 323.05822 311.25778 299.13334 286.94189
 274.65945 262.56200 250.57656 239.88312 230.01067 221.12023 213.30779 206.31534
 200.15490 195.09845 191.68601 189.73357 188.77612 188.84568 189.68623 190.99979
 192.73035 194.83090 197.09946 199.46401 201.91457 204.40013 206.49368 208.34124
 209.97279 211.12335 211.35791 211.59146 211.53402 211.24458 210.88313 210.51869
 210.14124 209.85680 209.67036 209.53991 209.47347 209.81002 210.20158 210.59614
 211.39469 212.57825 213.83380 215.62236 217.55592 219.60447 221.70503 223.79358
 225.85914 227.94870 230.05125 232.16281 234.29736 236.47492 238.73648 241.11203
 243.73859 245.99515 248.00270 249.77326 251.19581 252.32437 253.15193 253.47348
 253.51604 253.29559 252.66115 251.61471 250.22626 248.39282 246.30737 244.14593
 241.94249 239.75204 237.57760 235.42215 233.28771 231.16027 229.19182 227.35438
 225.64294 224.12049 222.75605 221.53360 220.42116 219.38672 218.49627 217.64283
 216.89038 216.07594 215.17950 214.54905 214.00461 213.14247 211.11018 210.17035
 210.32504 210.86139 212.17503 215.03680 219.19983 223.99521 229.67972 234.72028
 238.58394 242.57457 246.84166 251.05423 254.87018 258.62442 261.53061 263.55725
 266.25058 268.96326 271.42319 273.66479 275.70749 277.50583 278.94800 280.44861
 282.17688 283.82239 285.34637 286.70523 287.88470 288.92838 289.88144 290.74655
 291.52466 292.21774 292.82855 293.62402
 366.78100 356.34025 345.77751 334.64876 323.05701 311.25627 299.13152 286.93978
 274.65703 262.55928 250.57354 239.87979 230.00704 221.11630 213.30355 206.31080
 200.15006 195.09331 191.68057 189.72782 188.77007 188.83933 189.67958 190.99283
 192.72309 194.82334 197.09159 199.45585 201.90610 204.39136 206.48461 208.33186
 209.96312 211.11337 211.34762 211.58088 211.52313 211.23339 210.87164 210.50689
 210.12915 209.84440 209.65765 209.52691 209.46016 209.79641 210.18767 210.58192
 211.38018 212.56343 213.81868 215.60694 217.54019 219.58844 221.68870 223.77695
 225.84220 227.93146 230.03371 232.14497 234.27922 236.45647 238.71773 241.09298
 243.71923 245.97549 247.98274 249.75299 251.17525 252.30350 253.13076 253.45201
 253.49426 253.27352 252.63877 251.59202 250.20328 248.36953 246.28378 244.12204
 241.91829 239.72755 237.55280 235.39705 233.26231 231.13456 229.16581 227.32807
 225.61632 224.09358 222.72883 221.50608 220.39334 219.35859 218.46784 217.61410
 216.86135 216.04660 215.14986 214.51911 213.97437 213.15186 211.21227 210.26904
 210.35818 210.90561 212.20477 215.00876 219.09592 223.90283 229.60516 234.63953
 238.49400 242.47838 246.75587 250.98280 254.80579 258.57364 261.49399 263.53513
 266.24112 268.95126 271.38925 273.59390 275.65308 277.49240 278.92581 280.40051
 282.11108 283.73737 285.25000 286.60962 287.78876 288.83359 289.78647 290.65277
 291.43301 292.12656 292.73709 293.53583
 366.78100 356.34003 345.77705 334.64808 323.05611 311.25513 299.13016 286.93818
 274.65521 262.55724 250.57126 239.87729 230.00432 221.11334 213.30037 206.30739
 200.14642 195.08945 191.67647 189.72350 188.76553 188.83455 189.67458 190.98760
 192.71763 194.81766 197.08568 199.44971 201.89974 204.38476 206.47779 208.32482
 209.95584 211.10587 211.33989 211.57292 211.51495 211.22497 210.86300 210.49803
 210.12005 209.83508 209.64810 209.51713 209.45016 209.78618 210.17721 210.57124
 211.36926 212.55229 213.80731 215.59534 217.52837 219.57639 221.67642 223.76445
 225.82947 227.91850 230.02053 232.13155 234.26558 236.44260 238.70363 241.07866
 243.70468 245.96071 247.96774 249.73776 251.15979 252.28781 253.11484 253.43587
 253.47789 253.25692 252.62195 251.57497 250.18600 248.35202 246.26605 244.10408
 241.90010 239.70913 237.53416 235.37818 233.24321 231.11524 229.14626 227.30829
 225.59631 224.07334 222.70837 221.48539 220.37242 219.33745 218.44647 217.59250
 216.83952 216.02455 215.12758 214.49660 213.95163 213.16405 211.30640 210.37630
 210.39764 210.94644 212.22850 214.98456 218.99858 223.80893 229.53375 234.55771
 238.40202 242.38196 246.66965 250.91202 254.74406 258.52408 261.45532 263.50943
 266.22653 268.93445 271.35266 273.52435 275.59769 277.47809 278.90689 280.35962
 282.05035 283.65778 285.16016 286.51932 287.69846 288.74530 289.69913 290.56592
 291.34320 292.03986 292.65286 293.45297
 366.78100 356.33989 345.77679 334.64768 323.05557 311.25447 299.12936 286.93725
 274.65415 262.55604 250.56994 239.87583 230.00272 221.11162 213.29851 206.30540
 200.14430 195.08719 191.67408 189.72098 188.76287 188.83176 189.67166 190.98455
 192.71445 194.81434 197.08223 199.44613 201.89602 204.38091 206.47381 208.32070
 209.95159 211.10149 211.33538 211.56827 211.51017 211.22006 210.85795 210.49285
 210.11474 209.82964 209.64253 209.51142 209.44432 209.78021 210.17110 210.56500
 211.36289 212.54578 213.80068 215.58857 217.52146 219.56936 221.66925 223.75714
 225.82204 227.91093 230.01283 232.12372 234.25761 236.43451 238.69540 241.07029
 243.69619 245.95208 247.95897 249.72887 251.15076 252.27865 253.10555 253.42644
 253.46834 253.24723 252.61212 251.56502 250.17591 248.34180 246.25570 244.09359
 241.88948 239.69838 237.52327 235.36716 233.23206 231.10395 229.13484 227.29674
 225.58463 224.06153 222.69642 221.47331 220.36021 219.32510 218.43399 217.57989
 216.82678 216.01167 215.11457 214.48346 213.93835 213.17998 211.39093 210.49211
 210.44067 210.98727 212.24797 214.95978 218.90599 223.71176 229.46326 234.47267
 238.30998 242.28786 246.58525 250.84259 254.68661 258.47577 261.41400 263.47852
 266.20547 268.91183 271.31284 273.45599 275.54428 277.45987 278.89072 280.32584
 281.99655 283.58826 285.07965 286.43683 287.61731 288.66364 289.61807 290.48282
 291.26422 291.95911 292.57343 293.37787
 366.78100 356.33983 345.77667 334.64750 323.05533 311.25416 299.12900 286.93683
 274.65366 262.55550 250.56933 239.87516 230.00199 221.11083 213.29766 206.30449
 200.14333 195.08616 191.67299 189.71982 188.76166 188.83049 189.67032 190.98315
 192.71299 194.81282 197.08065 199.44449 201.89432 204.37915 206.47198 208.31882
 209.94965 211.09948 211.33332 211.56615 211.50798 211.21781 210.85565 210.49048
 210.11231 209.82715 209.63998 209.50881 209.44164 209.77748 210.16831 210.56214
 211.35998 212.54281 213.79764 215.58547 217.51831 219.56614 221.66597 223.75380
 225.81864 227.90747 230.00930 232.12014 234.25397 236.43080 238.69163 241.06647
 243.69230 245.94813 247.95497 249.72480 251.14663 252.27446 253.10130 253.42213
 253.46396 253.24280 252.60763 251.56046 250.17129 248.33713 246.25096 244.08879
 241.88463 239.69346 237.51829 235.36212 233.22696 231.09879 229.12962 227.29145
 225.57929 224.05612 222.69095 221.46779 220.35462 219.31945 218.42828 217.57412
 216.82095 216.00578 215.10862 214.47745 213.93228 213.19907 211.46925 210.61188
 210.49449 211.02362 212.26398 214.93640 218.81696 223.61253 229.39415 234.38768
 238.21773 242.19421 246.50009 250.77109 254.63123 258.42831 261.37097 263.44424
 266.17957 268.88467 271.27188 273.38931 275.48938 277.43835 278.87628 280.29886
 281.94888 283.52612 285.00467 286.36346 287.54373 288.58978 289.54550 290.41052
 291.19186 291.89066 292.50168 293.30981
 366.78100 356.33971 345.77642 334.64713 323.05484 311.25355 299.12826 286.93597
 274.65268 262.55439 250.56810 239.87381 230.00053 221.10924 213.29595 206.30266
 200.14137 195.08408 191.67079 189.71750 188.75921 188.82792 189.66763 190.98034
 192.71005 194.80976 197.07747 199.44118 201.89089 204.37560 206.46831 208.31502
 209.94573 211.09544 211.32915 211.56187 211.50358 211.21329 210.85100 210.48571
 210.10742 209.82213 209.63484 209.50355 209.43626 209.77197 210.16268 210.55639
 211.35410 212.53681 213.79152 215.57923 217.51194 219.55965 221.65936 223.74707
 225.81178 227.90050 230.00221 232.11292 234.24663 236.42334 238.68405 241.05876
 243.68447 245.94018 247.94689 249.71660 251.13831 252.26602 253.09273 253.41344
 253.45515 253.23386 252.59857 251.55128 250.16199 248.32770 246.24141 244.07912
 241.87484 239.68355 237.50826 235.35197 233.21668 231.08839 229.11910 227.28081
 225.56852 224.04523 222.67994 221.45665 220.34336 219.30807 218.41678 217.56249
 216.80920 215.99391 215.09662 214.46533 213.92004 213.21461 211.55017 210.72595
 210.55865 211.06966 212.26756 214.91203 218.73586 223.50803 229.32091 234.29785
 238.12363 242.10130 246.41563 250.70132 254.57976 258.38419 261.32819 263.40631
 266.14780 268.85165 271.22775 273.32303 275.43396 277.41360 278.86533 280.27914
 281.90866 283.47171 284.93771 286.29568 287.47708 288.52164 289.47849 290.34473
 291.12534 291.82346 292.43729 293.24722
 366.78100 356.33993 345.77685 334.64778 323.05571 311.25463 299.12956 286.93749
 274.65441 262.55634 250.57027 239.87619 230.00312 221.11204 213.29897 206.30590
 200.14482 195.08775 191.67468 189.72160 188.76353 188.83246 189.67238 190.98531
 192.71524 194.81516 197.08309 199.44702 201.89694 204.38187 206.47480 208.32172
 209.95265 211.10257 211.33650 211.56943 211.51135 211.22128 210.85921 210.49413
 210.11606 209.83099 209.64391 209.51284 209.44577 209.78169 210.17262 210.56655
 211.36447 212.54740 213.80233 215.59025 217.52318 219.57110 221.67103 223.75896
 225.82388 227.91281 230.01474 232.12566 234.25959 236.43652 238.69744 241.07237
 243.69830 245.95422 247.96115 249.73108 251.15300 252.28093 253.10786 253.42878
 253.47071 253.24963 252.61456 251.56749 250.17841 248.34434 246.25827 244.09619
 241.89212 239.70105 237.52597 235.36990 233.23483 231.10675 229.13768 227.29961
 225.58753 224.06446 222.69939 221.47631 220.36324 219.32816 218.43709 217.58302
 216.82994 216.01487 215.11780 214.48672 213.94165 213.24481 211.60094 210.87393
 210.65291 211.07152 212.27080 214.89270 218.64124 223.40201 229.24904 234.21144
 238.03241 242.01070 246.33096 250.62947 254.52950 258.33972 261.28223 263.36517
 266.11188 268.81586 271.18381 273.25977 275.37970 277.38721 278.85834 280.26923
 281.87717 283.42410 284.87579 286.23419 287.41452 288.46039 289.41656 290.28207
 291.06485 291.76514 292.37540 293.19299
 366.78100 356.33973 345.77647 334.64720 323.05494 311.25367 299.12841 286.93614
 274.65287 262.55461 250.56834 239.87408 230.00081 221.10955 213.29628 206.30301
 200.14175 195.08448 191.67122 189.71795 188.75968 188.82842 189.66815 190.98089
 192.71062 194.81036 197.07809 199.44182 201.89156 204.37629 206.46903 208.31576
 209.94650 211.09623 211.32996 211.56270 211.50443 211.21417 210.85190 210.48664
 210.10837 209.82310 209.63584 209.50457 209.43731 209.77304 210.16378 210.55751
 211.35524 212.53798 213.79271 215.58045 217.51318 219.56091 221.66065 223.74838
 225.81312 227.90185 230.00359 232.11432 234.24805 236.42479 238.68552 241.06026
 243.68599 245.94173 247.94846 249.71819 251.13993 252.26766 253.09440 253.41513
 253.45687 253.23560 252.60033 251.55307 250.16380 248.32954 246.24327 244.08101
 241.87674 239.68547 237.51021 235.35394 233.21868 231.09041 229.12114 227.28288
 225.57061 224.04735 222.68208 221.45882 220.34555 219.31028 218.41902 217.56475
 216.81149 215.99622 215.09896 214.46769 213.92242 213.25467 211.67917 210.97971
 210.76978 211.12529 212.24243 214.86829 218.56226 223.29132 229.17140 234.11432
 237.93065 241.91240 246.24071 250.55438 254.48187 258.30170 261.24585 263.33102
 266.07681 268.77924 271.13916 273.19806 275.32330 277.35501 278.84821 280.26144
 281.84961 283.38049 284.81921 286.17792 287.35855 288.40350 289.35815 290.22696
 291.00925 291.70816 292.32440 293.13486
 366.78100 356.34004 345.77709 334.64813 323.05617 311.25522 299.13026 286.93830
 274.65535 262.55739 250.57143 239.87748 230.00452 221.11356 213.30061 206.30765
 200.14669 195.08973 191.67678 189.72382 188.76586 188.83491 189.67495 190.98799
 192.71804 194.81808 197.08612 199.45017 201.90021 204.38525 206.47830 208.32534
 209.95638 211.10643 211.34047 211.57351 211.51556 211.22560 210.86364 210.49869
 210.12073 209.83577 209.64882 209.51786 209.45090 209.78695 210.17799 210.57203
 211.37008 212.55312 213.80816 215.59620 217.52925 219.57729 221.67733 223.76538
 225.83042 227.91946 230.02151 232.13255 234.26659 236.44364 238.70468 241.07972
 243.70577 245.96181 247.96885 249.73890 251.16094 252.28898 253.11603 253.43707
 253.47911 253.25816 252.62320 251.57624 250.18729 248.35333 246.26737 244.10542
 241.90146 239.71050 237.53555 235.37959 233.24463 231.11667 229.14772 227.30976
 225.59780 224.07485 222.70989 221.48693 220.37398 219.33902 218.44806 217.59411
 216.84115 216.02619 215.12924 214.49828 213.95332 213.28883 211.72119 211.11612
 210.87724 211.19691 212.25247 214.81857 218.44403 223.16302 229.08083 234.00856
 237.82780 241.81937 246.15788 250.49011 254.44757 258.27744 261.22165 263.30084
 266.03793 268.73459 271.08609 273.12915 275.25888 277.31259 278.83026 280.25302
 281.82532 283.34113 284.76675 286.12485 287.30511 288.35068 289.30780 290.17474
 290.95584 291.65845 292.27188 293.08713
 366.78100 356.34097 345.77894 334.65092 323.05989 311.25986 299.13583 286.94481
 274.66278 262.56575 250.58072 239.88770 230.01567 221.12564 213.31361 206.32159
 200.16156 195.10553 191.69350 189.74148 188.78445 188.85442 189.69539 191.00937
 192.74034 194.84131 197.11028 199.47526 201.92623 204.41220 206.50617 208.35415
 209.98612 211.13709 211.37206 211.60604 211.54901 211.25998 210.89895 210.53493
 210.15790 209.87387 209.68784 209.55782 209.49179 209.82876 210.22073 210.61571
 211.41468 212.59865 213.85462 215.64360 217.57757 219.62654 221.72751 223.81649
 225.88246 227.97243 230.07540 232.18738 234.32235 236.50032 238.76229 241.13827
 243.76524 246.02221 248.03018 249.80116 251.22413 252.35310 253.18107 253.50305
 253.54602 253.32599 252.69196 251.64594 250.25791 248.42488 246.33985 244.17883
 241.97580 239.78577 237.61174 235.45672 233.32269 231.19566 229.22763 227.39061
 225.67958 224.15755 222.79352 221.57150 220.45947 219.42544 218.53541 217.68239
 216.93036 216.11633 215.22030 214.59028 214.04625 213.35458 211.72318 211.24712
 211.06313 211.27068 212.23897 214.71400 218.26640 223.03162 229.00444 233.92957
 237.75731 241.75383 246.09398 250.44003 254.42227 258.25403 261.18579 263.25430
 265.98431 268.67673 271.02222 273.05325 275.19238 277.26614 278.81265 280.24908
 281.80551 283.30472 284.71805 286.07693 287.25641 288.30194 289.25708 290.12460
 290.91016 291.60904 292.22446 293.04105
 366.78100 356.34150 345.77999 334.65249 323.06199 311.26248 299.13898 286.94848
 274.66697 262.57047 250.58597 239.89346 230.02196 221.13246 213.32095 206.32945
 200.16995 195.11444 191.70294 189.75144 188.79493 188.86543 189.70693 191.02142
 192.75292 194.85442 197.12391 199.48941 201.94091 204.42740 206.52190 208.37040
 210.00289 211.15439 211.38989 211.62438 211.56788 211.27938 210.91887 210.55537
 210.17887 209.89536 209.70986 209.58036 209.51485 209.85235 210.24485 210.64034
 211.43984 212.62434 213.88083 215.67033 217.60482 219.65432 221.75582 223.84531
 225.91181 228.00231 230.10580 232.21830 234.35380 236.53229 238.79479 241.17129
 243.79878 246.05628 248.06478 249.83627 251.25977 252.38927 253.21776 253.54026
 253.58376 253.36425 252.73075 251.68525 250.29774 248.46524 246.38074 244.22023
 242.01773 239.82823 237.65472 235.50022 233.36672 231.24021 229.27271 227.43621
 225.72570 224.20420 222.84070 221.61919 220.50769 219.47419 218.58468 217.73218
 216.98068 216.16717 215.27167 214.64217 214.09866 213.40388 211.76476 211.29509
 211.26642 211.32854 212.19258 214.63034 218.14893 222.92715 228.97221 233.89296
 237.71288 241.70157 246.03162 250.38383 254.38766 258.21240 261.12079 263.18484
 265.91809 268.61255 270.95670 272.98355 275.13120 277.22412 278.80560 280.25644
 281.79449 283.27463 284.67355 286.03091 287.21085 288.25589 289.21252 290.08069
 290.86423 291.56586 292.18091 292.99866
 366.78100 356.34158 345.78016 334.65275 323.06233 311.26291 299.13949 286.94907
 274.66766 262.57124 250.58682 239.89440 230.02298 221.13357 213.32215 206.33073
 200.17131 195.11590 191.70448 189.75306 188.79664 188.86722 189.70881 191.02339
 192.75497 194.85655 197.12613 199.49172 201.94330 204.42988 206.52446 208.37304
 210.00563 211.15721 211.39279 211.62737 211.57095 211.28254 210.92212 210.55870
 210.18228 209.89887 209.71345 209.58403 209.51861 209.85619 210.24878 210.64436
 211.44394 212.62852 213.88510 215.67469 217.60927 219.65885 221.76043 223.85001
 225.91660 228.00718 230.11076 232.22334 234.35892 236.53751 238.80009 241.17667
 243.80425 246.06184 248.07042 249.84200 251.26558 252.39516 253.22375 253.54633
 253.58991 253.37049 252.73707 251.69166 250.30424 248.47182 246.38740 244.22698
 242.02457 239.83515 237.66173 235.50731 233.37389 231.24748 229.28006 227.44364
 225.73322 224.21181 222.84839 221.62697 220.51555 219.48213 218.59272 217.74030
 216.98888 216.17546 215.28004 214.65063 214.10721 213.43109 211.83546 211.33389
 211.40631 211.37025 212.16307 214.60945 218.09956 222.85048 228.94084 233.84724
 237.65112 241.63152 245.95358 250.31126 254.34099 258.15784 261.04532 263.11179
 265.85349 268.55154 270.89847 272.92328 275.07645 277.18674 278.80493 280.27127
 281.78860 283.24857 284.63129 285.98938 287.16782 288.21405 289.16885 290.03836
 290.82312 291.52173 292.14166 292.95850
 366.78100 356.34174 345.78047 334.65321 323.06294 311.26368 299.14041 286.95015
 274.66888 262.57262 250.58835 239.89609 230.02483 221.13556 213.32430 206.33303
 200.17377 195.11850 191.70724 189.75597 188.79971 188.87044 189.71218 191.02691
 192.75865 194.86039 197.13012 199.49586 201.94759 204.43433 206.52906 208.37780
 210.01053 211.16227 211.39800 211.63274 211.57648 211.28821 210.92795 210.56468
 210.18842 209.90515 209.71989 209.59062 209.52536 209.86309 210.25583 210.65157
 211.45130 212.63604 213.89277 215.68251 217.61724 219.66698 221.76871 223.85845
 225.92518 228.01592 230.11966 232.23239 234.36813 236.54686 238.80960 241.18633
 243.81407 246.07180 248.08054 249.85227 251.27601 252.40574 253.23448 253.55722
 253.60095 253.38169 252.74842 251.70316 250.31589 248.48363 246.39936 244.23910
 242.03683 239.84757 237.67431 235.52004 233.38678 231.26051 229.29325 227.45698
 225.74672 224.22545 222.86219 221.64092 220.52966 219.49640 218.60713 217.75487
 217.00360 216.19034 215.29507 214.66581 214.12254 213.46063 211.89816 211.39607
 211.50479 211.41643 212.17636 214.60553 218.04370 222.79196 228.89441 233.78041
 237.57100 241.54825 245.86737 250.23424 254.29373 258.10382 260.97580 263.04684
 265.79291 268.49402 270.84192 272.86517 275.02252 277.14618 278.79971 280.28265
 281.78323 283.22369 284.59183 285.94925 287.12976 288.17297 289.12988 289.99863
 290.78207 291.48511 292.10092 292.92126
 366.78100 356.34210 345.78121 334.65431 323.06441 311.26552 299.14262 286.95273
 274.67183 262.57593 250.59204 239.90014 230.02924 221.14035 213.32945 206.33855
 200.17966 195.12476 191.71387 189.76297 188.80707 188.87818 189.72028 191.03538
 192.76749 194.86959 197.13969 199.50580 201.95790 204.44501 206.54011 208.38921
 210.02232 211.17442 211.41052 211.64563 211.58973 211.30183 210.94194 210.57904
 210.20315 209.92025 209.73535 209.60646 209.54156 209.87966 210.27277 210.66887
 211.46897 212.65408 213.91118 215.70129 217.63639 219.68649 221.78860 223.87870
 225.94580 228.03691 230.14101 232.25411 234.39022 236.56932 238.83242 241.20953
 243.83763 246.09574 248.10484 249.87694 251.30105 252.43115 253.26025 253.58336
 253.62746 253.40856 252.77567 251.73077 250.34388 248.51198 246.42808 244.26819
 242.06629 239.87739 237.70450 235.55060 233.41770 231.29181 229.32491 227.48902
 225.77912 224.25822 222.89533 221.67443 220.56353 219.53064 218.64174 217.78984
 217.03895 216.22605 215.33116 214.70226 214.15936 213.50058 211.94521 211.46802
 211.59473 211.47362 212.21014 214.59317 217.97495 222.74548 228.84425 233.70570
 237.48627 241.46254 245.78152 250.15984 254.25029 258.05283 260.90973 262.98422
 265.73120 268.43304 270.78156 272.80478 274.96594 277.10147 278.78824 280.29092
 281.77673 283.19864 284.55438 285.91168 287.09131 288.13617 289.09192 289.96051
 290.74500 291.44714 292.06348 292.88943
 366.78100 356.34266 345.78232 334.65598 323.06664 311.26830 299.14596 286.95662
 274.67628 262.58094 250.59760 239.90626 230.03592 221.14758 213.33724 206.34690
 200.18856 195.13422 191.72388 189.77354 188.81820 188.88986 189.73252 191.04818
 192.78084 194.88350 197.15416 199.52081 201.97347 204.46113 206.55679 208.40645
 210.04011 211.19277 211.42943 211.66509 211.60975 211.32241 210.96307 210.60073
 210.22539 209.94305 209.75871 209.63037 209.56603 209.90469 210.29835 210.69501
 211.49567 212.68133 213.93899 215.72965 217.66531 219.71597 221.81863 223.90929
 225.97695 228.06861 230.17327 232.28693 234.42359 236.60325 238.86691 241.24457
 243.87323 246.13189 248.14155 249.91421 251.33887 252.46953 253.29919 253.62285
 253.66751 253.44917 252.81683 251.77249 250.38615 248.55481 246.47147 244.31213
 242.11078 239.92244 237.75010 235.59676 233.46442 231.33908 229.37274 227.53740
 225.82806 224.30772 222.94538 221.72504 220.61470 219.58236 218.69402 217.84268
 217.09234 216.28000 215.38566 214.75732 214.21498 213.54939 211.97766 211.54251
 211.67661 211.54669 212.25179 214.57260 217.91110 222.70622 228.79391 233.62862
 237.40073 241.37781 245.69788 250.08899 254.20824 257.99905 260.83762 262.91711
 265.66589 268.36905 270.71613 272.74185 274.90891 277.05621 278.77481 280.29675
 281.76990 283.17413 284.51907 285.87622 287.05420 288.09979 289.05655 289.92444
 290.70898 291.41092 292.02725 292.85196
 366.78100 356.34334 345.78368 334.65803 323.06937 311.27171 299.15005 286.96139
 274.68173 262.58708 250.60442 239.91376 230.04410 221.15644 213.34678 206.35713
 200.19947 195.14581 191.73615 189.78649 188.83183 188.90418 189.74752 191.06386
 192.79720 194.90054 197.17188 199.53923 201.99257 204.48091 206.57725 208.42759
 210.06194 211.21528 211.45262 211.68896 211.63430 211.34764 210.98899 210.62733
 210.25267 209.97101 209.78735 209.65969 209.59604 209.93538 210.32972 210.72706
 211.52840 212.71474 213.97309 215.76443 217.70077 219.75211 221.85545 223.94679
 226.01514 228.10748 230.21282 232.32716 234.46450 236.64485 238.90919 241.28753
 243.91687 246.17621 248.18655 249.95990 251.38524 252.51658 253.34692 253.67126
 253.71660 253.49895 252.86729 251.82363 250.43797 248.60731 246.52465 244.36600
 242.16534 239.97768 237.80602 235.65336 233.52170 231.39705 229.43139 227.59673
 225.88807 224.36841 223.00676 221.78710 220.67744 219.64578 218.75812 217.90746
 217.15781 216.34615 215.45249 214.82483 214.28317 213.60391 211.99960 211.61823
 211.74783 211.63531 212.29930 214.54976 217.86079 222.66945 228.73984 233.54810
 237.31454 241.29419 245.61661 250.02058 254.16615 257.94031 260.75848 262.84601
 265.59772 268.30124 270.64975 272.67969 274.85345 277.01071 278.76001 280.30093
 281.76224 283.14981 284.48383 285.84058 287.01944 288.06433 289.01993 289.88824
 290.67419 291.37665 291.99405 292.81790
 366.78100 356.34407 345.78514 334.66021 323.07228 311.27535 299.15442 286.96650
 274.68757 262.59364 250.61171 239.92178 230.05285 221.16592 213.35699 206.36806
 200.21113 195.15820 191.74927 189.80035 188.84642 188.91949 189.76356 191.08063
 192.81470 194.91877 197.19084 199.55891 202.01298 204.50205 206.59912 208.45019
 210.08527 211.23934 211.47741 211.71448 211.66055 211.37462 211.01669 210.65576
 210.28183 210.00090 209.81797 209.69104 209.62811 209.96819 210.36326 210.76133
 211.56340 212.75047 214.00954 215.80161 217.73868 219.79075 221.89482 223.98689
 226.05596 228.14904 230.25511 232.37018 234.50825 236.68932 238.95439 241.33346
 243.96353 246.22360 248.23467 250.00874 251.43481 252.56688 253.39796 253.72303
 253.76910 253.55217 252.92124 251.87831 250.49338 248.66345 246.58152 244.42359
 242.22366 240.03673 237.86580 235.71388 233.58295 231.45902 229.49409 227.66016
 225.95223 224.43330 223.07237 221.85344 220.74451 219.71358 218.82665 217.97673
 217.22780 216.41687 215.52394 214.89701 214.35608 213.66029 212.01654 211.69092
 211.81364 211.73341 212.35458 214.52817 217.82532 222.63016 228.68118 233.46870
 237.23027 241.21213 245.53682 249.95375 254.12221 257.87540 260.67288 262.77277
 265.52808 268.23218 270.58069 272.61829 274.79861 276.96625 278.74252 280.30045
 281.75034 283.12314 284.44727 285.80444 286.98453 288.02859 288.98376 289.85287
 290.63696 291.34280 291.96005 292.78430
 366.78100 356.34482 345.78663 334.66245 323.07526 311.27908 299.15889 286.97171
 274.69352 262.60034 250.61915 239.92997 230.06179 221.17560 213.36742 206.37923
 200.22305 195.17086 191.76268 189.81449 188.86131 188.93512 189.77994 191.09775
 192.83257 194.93739 197.21020 199.57902 202.03383 204.52365 206.62146 208.47328
 210.10909 211.26391 211.50272 211.74054 211.68736 211.40217 211.04499 210.68480
 210.31162 210.03143 209.84925 209.72306 209.66088 210.00169 210.39751 210.79632
 211.59914 212.78696 214.04677 215.83959 217.77740 219.83022 221.93503 224.02785
 226.09766 228.19148 230.29829 232.41411 234.55293 236.73474 239.00056 241.38037
 244.01119 246.27200 248.28382 250.05863 251.48545 252.61826 253.45008 253.77589
 253.82271 253.60653 252.97634 251.93416 250.54997 248.72079 246.63960 244.48242
 242.28323 240.09705 237.92686 235.77568 233.64550 231.52231 229.55813 227.72494
 226.01776 224.49957 223.13939 221.92120 220.81302 219.78283 218.89665 218.04746
 217.29928 216.48910 215.59691 214.97073 214.43054 213.71695 212.03101 211.75557
 211.88516 211.82857 212.41481 214.51794 217.80406 222.59372 228.61926 233.38721
 237.14569 241.12918 245.45665 249.88745 254.07559 257.80389 260.58130 262.69833
 265.45844 268.16153 270.51044 272.55624 274.74387 276.92072 278.72137 280.29443
 281.73563 283.09473 284.41147 285.76947 286.94870 287.99329 288.94836 289.81793
 290.60263 291.30566 291.92459 292.75119
 366.78100 356.34555 345.78810 334.66464 323.07819 311.28274 299.16329 286.97683
 274.69938 262.60693 250.62648 239.93803 230.07057 221.18512 213.37767 206.39022
 200.23477 195.18331 191.77586 189.82841 188.87596 188.95050 189.79605 191.11460
 192.85015 194.95570 197.22924 199.59879 202.05434 204.54489 206.64344 208.49598
 210.13253 211.28808 211.52763 211.76617 211.71372 211.42927 211.07282 210.71337
 210.34091 210.06146 209.88001 209.75456 209.69311 210.03465 210.43120 210.83075
 211.63430 212.82284 214.08339 215.87694 217.81549 219.86904 221.97458 224.06813
 226.13868 228.23323 230.34077 232.45732 234.59687 236.77942 239.04597 241.42651
 244.05806 246.31961 248.33216 250.10771 251.53525 252.66880 253.50135 253.82790
 253.87544 253.65999 253.03054 251.98909 250.60564 248.77718 246.69673 244.54028
 242.34183 240.15638 237.98692 235.83647 233.70702 231.58457 229.62111 227.78866
 226.08221 224.56476 223.20531 221.98785 220.88040 219.85095 218.96550 218.11704
 217.36959 216.56014 215.66869 215.04324 214.50378 213.77217 212.04369 211.81035
 211.96492 211.92551 212.48032 214.52229 217.78108 222.54535 228.55956 233.30949
 237.06401 241.04678 245.37788 249.82321 254.02768 257.72665 260.48489 262.62448
 265.38910 268.08820 270.43607 272.49237 274.68936 276.87582 278.69861 280.28638
 281.71848 283.06494 284.37717 285.73428 286.91266 287.95840 288.91211 289.78052
 290.56805 291.27023 291.88904 292.71240
 366.78100 356.34639 345.78978 334.66717 323.08156 311.28696 299.16835 286.98274
 274.70613 262.61452 250.63491 239.94730 230.08069 221.19608 213.38947 206.40287
 200.24826 195.19765 191.79104 189.84443 188.89282 188.96821 189.81460 191.13399
 192.87039 194.97678 197.25117 199.62156 202.07795 204.56934 206.66873 208.52212
 210.15951 211.31590 211.55630 211.79569 211.74408 211.46047 211.10486 210.74625
 210.37464 210.09603 209.91542 209.79081 209.73021 210.07260 210.46999 210.87038
 211.67477 212.86416 214.12555 215.91994 217.85933 219.91373 222.02012 224.11451
 226.18590 228.28129 230.38968 232.50707 234.64746 236.83085 239.09824 241.47964
 244.11203 246.37442 248.38781 250.16420 251.59259 252.72698 253.56037 253.88776
 253.93616 253.72155 253.09294 252.05233 250.66972 248.84211 246.76250 244.60689
 242.40928 240.22467 238.05607 235.90646 233.77785 231.65624 229.69363 227.86202
 226.15641 224.63980 223.28119 222.06458 220.95798 219.92937 219.04476 218.19715
 217.45054 216.64193 215.75132 215.12671 214.58810 213.83212 212.04602 211.86305
 212.05415 212.01801 212.55606 214.53310 217.74634 222.49855 228.50616 233.23462
 236.98016 240.96266 245.30026 249.76169 253.97931 257.64465 260.38461 262.55161
 265.32114 268.01270 270.35648 272.42493 274.63348 276.83023 278.67267 280.27481
 281.69891 283.03561 284.34268 285.69894 286.87823 287.92136 288.87778 289.74698
 290.53217 291.23581 291.85254 292.67938
 366.78100 356.34709 345.79118 334.66926 323.08435 311.29044 299.17253 286.98762
 274.71170 262.62079 250.64188 239.95497 230.08905 221.20514 213.39923 206.41332
 200.25941 195.20949 191.80358 189.85767 188.90676 188.98285 189.82993 191.15002
 192.88711 194.99420 197.26929 199.64037 202.09746 204.58955 206.68964 208.54373
 210.18181 211.33890 211.57999 211.82008 211.76916 211.48625 211.13134 210.77343
 210.40252 210.12460 209.94469 209.82078 209.76087 210.10396 210.50204 210.90313
 211.70822 212.89831 214.16040 215.95548 217.89557 219.95066 222.05775 224.15284
 226.22492 228.32101 230.43010 232.54819 234.68927 236.87336 239.14145 241.52354
 244.15663 246.41971 248.43380 250.21089 251.63998 252.77507 253.60915 253.93724
 253.98633 253.77242 253.14451 252.10459 250.72268 248.89577 246.81686 244.66194
 242.46503 240.28112 238.11321 235.96430 233.83638 231.71547 229.75356 227.92265
 226.21774 224.70182 223.34391 222.12800 221.02209 219.99418 219.11026 218.26335
 217.51744 216.70953 215.81962 215.19570 214.65779 213.88391 212.05554 211.89999
 212.15276 212.11557 212.62773 214.54453 217.71484 222.45839 228.45470 233.15990
 236.89467 240.87813 245.22569 249.70563 253.93315 257.56009 260.28079 262.47830
 265.25162 267.93121 270.26984 272.35205 274.57431 276.78177 278.64233 280.25806
 281.67542 283.00491 284.30911 285.66653 286.84464 287.88922 288.84457 289.71359
 290.49899 291.20145 291.82343 292.64511
 366.78100 356.34775 345.79251 334.67126 323.08702 311.29377 299.17652 286.99228
 274.71703 262.62679 250.64854 239.96229 230.09705 221.21380 213.40856 206.42331
 200.27006 195.22082 191.81557 189.87033 188.92008 188.99683 189.84459 191.16534
 192.90309 195.01085 197.28660 199.65836 202.11611 204.60886 206.70962 208.56437
 210.20313 211.36088 211.60263 211.84339 211.79314 211.51090 211.15665 210.79940
 210.42916 210.15191 209.97267 209.84942 209.79017 210.13393 210.53268 210.93444
 211.74019 212.93094 214.19370 215.98945 217.93021 219.98596 222.09371 224.18947
 226.26222 228.35898 230.46873 232.58748 234.72924 236.91399 239.18275 241.56550
 244.19925 246.46301 248.47776 250.25552 251.68527 252.82102 253.65578 253.98453
 254.03428 253.82104 253.19379 252.15455 250.77330 248.94705 246.86881 244.71456
 242.51832 240.33507 238.16782 236.01958 233.89233 231.77209 229.81084 227.98059
 226.27635 224.76110 223.40386 222.18861 221.08336 220.05612 219.17287 218.32663
 217.58138 216.77413 215.88489 215.26164 214.72440 213.93216 212.06041 211.95526
 212.23302 212.20570 212.70119 214.57358 217.70561 222.41299 228.39799 233.08246
 236.80783 240.79324 245.15262 249.65254 253.88724 257.46951 260.16998 262.40326
 265.18143 267.84680 270.17923 272.27847 274.51617 276.73502 278.61359 280.24332
 281.65173 282.97473 284.27805 285.63535 286.81241 287.85739 288.81268 289.68329
 290.46786 291.17154 291.79071 292.61752
 366.78100 356.34847 345.79394 334.67342 323.08989 311.29736 299.18083 286.99731
 274.72278 262.63325 250.65572 239.97019 230.10567 221.22314 213.41861 206.43408
 200.28156 195.23303 191.82850 189.88397 188.93444 189.01192 189.86039 191.18186
 192.92033 195.02880 197.30528 199.67775 202.13622 204.62969 206.73117 208.58664
 210.22611 211.38458 211.62705 211.86853 211.81900 211.53747 211.18394 210.82742
 210.45789 210.18136 210.00283 209.88030 209.82178 210.16625 210.56572 210.96819
 211.77467 212.96614 214.22961 216.02608 217.96755 220.02403 222.13250 224.22897
 226.30244 228.39991 230.51039 232.62986 234.77233 236.95780 239.22728 241.61075
 244.24522 246.50969 248.52516 250.30364 251.73411 252.87058 253.70605 254.03553
 254.08600 253.87347 253.24694 252.20841 250.82789 249.00236 246.92483 244.77130
 242.57578 240.39325 238.22672 236.07919 233.95266 231.83314 229.87261 228.04308
 226.33955 224.82502 223.46850 222.25397 221.14944 220.12291 219.24039 218.39486
 217.65033 216.84380 215.95527 215.33275 214.79622 213.98126 212.05583 212.01114
 212.37364 212.28789 212.73663 214.55663 217.65234 222.38370 228.36090 233.01659
 236.72682 240.71101 245.08261 249.60239 253.84061 257.37396 260.05438 262.32806
 265.11090 267.76053 270.08679 272.20422 274.45874 276.69003 278.58505 280.22662
 281.62939 282.94678 284.24619 285.60297 286.78210 287.82516 288.78143 289.65063
 290.43713 291.14120 291.75992 292.58118
 366.78100 356.34887 345.79475 334.67462 323.09150 311.29937 299.18325 287.00012
 274.72600 262.63687 250.65974 239.97462 230.11049 221.22837 213.42424 206.44012
 200.28799 195.23986 191.83574 189.89161 188.94249 189.02036 189.86924 191.19111
 192.92999 195.03886 197.31573 199.68861 202.14748 204.64136 206.74323 208.59911
 210.23898 211.39786 211.64073 211.88260 211.83348 211.55235 211.19923 210.84310
 210.47398 210.19785 210.01973 209.89760 209.83947 210.18435 210.58422 210.98710
 211.79397 212.98585 214.24972 216.04659 217.98847 220.04534 222.15422 224.25109
 226.32497 228.42284 230.53372 232.65359 234.79646 236.98234 239.25221 241.63609
 244.27096 246.53584 248.55171 250.33059 251.76146 252.89833 253.73421 254.06408
 254.11496 253.90283 253.27671 252.23858 250.85846 249.03333 246.95620 244.80308
 242.60795 240.42583 238.25970 236.11258 233.98645 231.86732 229.90720 228.07807
 226.37495 224.86082 223.50470 222.29057 221.18645 220.16032 219.27819 218.43307
 217.68894 216.88282 215.99469 215.37257 214.83644 214.01483 212.07370 212.01752
 212.44777 212.40936 212.84427 214.65538 217.68346 222.28790 228.29904 232.93039
 236.62819 240.61836 245.00957 249.55229 253.79231 257.27475 259.93518 262.25345
 265.03824 267.66531 269.98251 272.12076 274.39590 276.63751 278.54620 280.19940
 281.59650 282.91187 284.21579 285.57315 286.75229 287.79526 288.75323 289.62021
 290.40829 291.11023 291.73160 292.55460
 366.78100 356.34936 345.79571 334.67607 323.09343 311.30178 299.18614 287.00350
 274.72985 262.64121 250.66457 239.97992 230.11628 221.23464 213.43099 206.44735
 200.29571 195.24806 191.84442 189.90078 188.95213 189.03049 189.87985 191.20221
 192.94156 195.05092 197.32828 199.70163 202.16099 204.65535 206.75770 208.61406
 210.25442 211.41377 211.65713 211.89949 211.85084 211.57020 211.21756 210.86191
 210.49327 210.21763 210.03998 209.91834 209.86070 210.20605 210.60641 211.00977
 211.81712 213.00948 214.27384 216.07119 218.01355 220.07091 222.18026 224.27762
 226.35198 228.45033 230.56169 232.68205 234.82540 237.01176 239.28212 241.66647
 244.30183 246.56719 248.58354 250.36290 251.79426 252.93162 253.76797 254.09833
 254.14969 253.93804 253.31240 252.27476 250.89511 249.07047 246.99383 244.84118
 242.64654 240.46490 238.29925 236.15261 234.02697 231.90832 229.94868 228.12004
 226.41739 224.90375 223.54811 222.33446 221.23082 220.20518 219.32353 218.47889
 217.73525 216.92960 216.04196 215.42032 214.88467 214.05191 212.08443 212.02673
 212.52809 212.56166 212.88853 214.71313 217.74944 222.22197 228.23460 232.84615
 236.53218 240.52745 244.93649 249.50031 253.73703 257.16187 259.80405 262.16733
 264.94897 267.56009 269.87292 272.03473 274.32870 276.58322 278.50824 280.17136
 281.56299 282.87820 284.18762 285.54605 286.72458 287.76971 288.72592 289.59552
 290.38177 291.08527 291.70303 292.53018
 366.78100 356.35020 345.79740 334.67860 323.09680 311.30599 299.19119 287.00939
 274.73659 262.64879 250.67299 239.98919 230.12639 221.24559 213.44278 206.45998
 200.30918 195.26238 191.85958 189.91678 188.96898 189.04818 189.89838 191.22157
 192.96177 195.07197 197.35017 199.72437 202.18457 204.67977 206.78297 208.64017
 210.28136 211.44156 211.68576 211.92896 211.88116 211.60136 211.24956 210.89476
 210.52695 210.25215 210.07535 209.95455 209.89775 210.24395 210.64515 211.04935
 211.85755 213.05074 214.31594 216.11414 218.05734 220.11554 222.22574 224.32394
 226.39914 228.49834 230.61053 232.73173 234.87593 237.06313 239.33433 241.71953
 244.35573 246.62193 248.63913 250.41932 251.85152 252.98972 253.82692 254.15812
 254.21032 253.99952 253.37472 252.33792 250.95911 249.13531 247.05951 244.90771
 242.71391 240.53311 238.36831 236.22251 234.09771 231.97990 230.02110 228.19330
 226.49150 224.97870 223.62390 222.41110 221.30830 220.28350 219.40269 218.55889
 217.81609 217.01129 216.12449 215.50369 214.96889 214.10904 212.07756 212.02927
 212.60124 212.72276 212.96991 214.76730 217.80861 222.18932 228.19659 232.78812
 236.46165 240.45284 244.87544 249.45775 253.68872 257.05099 259.64517 262.05719
 264.84692 267.41544 269.70862 271.90100 274.23105 276.49115 278.42288 280.09897
 281.50201 282.82968 284.15436 285.50989 286.68683 287.72983 288.68652 289.55457
 290.33899 291.04163 291.65878 292.48029
 366.78100 356.35028 345.79756 334.67883 323.09711 311.30639 299.19167 287.00995
 274.73723 262.64950 250.67378 239.99006 230.12734 221.24662 213.44390 206.46117
 200.31045 195.26373 191.86101 189.91829 188.97056 189.04984 189.90012 191.22340
 192.96368 195.07396 197.35223 199.72651 202.18679 204.68207 206.78535 208.64262
 210.28390 211.44418 211.68846 211.93174 211.88402 211.60429 211.25257 210.89785
 210.53013 210.25541 210.07869 209.95796 209.90124 210.24752 210.64880 211.05308
 211.86135 213.05463 214.31991 216.11819 218.06147 220.11975 222.23002 224.32830
 226.40358 228.50286 230.61514 232.73641 234.88069 237.06797 239.33925 241.72453
 244.36081 246.62708 248.64436 250.42464 251.85692 252.99520 253.83248 254.16375
 254.21603 254.00531 253.38059 252.34387 250.96514 249.14142 247.06570 244.91398
 242.72026 240.53954 238.37481 236.22909 234.10437 231.98665 230.02793 228.20021
 226.49848 224.98576 223.63104 222.41832 221.31560 220.29087 219.41015 218.56643
 217.82371 217.01899 216.13227 215.51154 214.97682 214.13268 212.15222 212.02687
 212.56795 212.78415 213.09120 214.83318 217.85634 222.18600 228.12379 232.76808
 236.39116 240.40930 244.83360 249.41431 253.62759 256.97394 259.62653 262.06564
 264.74542 267.28937 269.58902 271.81308 274.12326 276.35263 278.28735 279.93149
 281.34808 282.72534 284.14191 285.50919 286.69397 287.74487 288.70828 289.58923
 290.39017 291.11890 291.77771 292.61728
 366.78100 356.34928 345.79555 334.67583 323.09311 311.30138 299.18566 287.00294
 274.72921 262.64049 250.66377 239.97904 230.11532 221.23360 213.42987 206.44615
 200.29443 195.24671 191.84298 189.89926 188.95054 189.02881 189.87809 191.20037
 192.93964 195.04892 197.32620 199.69947 202.15875 204.65303 206.75530 208.61158
 210.25186 211.41113 211.65441 211.89669 211.84796 211.56724 211.21452 210.85879
 210.49007 210.21435 210.03662 209.91490 209.85718 210.20246 210.60273 211.00601
 211.81329 213.00556 214.26984 216.06712 218.00939 220.06667 222.17595 224.27322
 226.34750 228.44578 230.55705 232.67733 234.82061 237.00688 239.27716 241.66144
 244.29671 246.56199 248.57827 250.35754 251.78882 252.92610 253.76237 254.09265
 254.14393 253.93221 253.30648 252.26876 250.88904 249.06431 246.98759 244.83487
 242.64014 240.45842 238.29270 236.14597 234.02025 231.90153 229.94180 228.11308
 226.41036 224.89663 223.54091 222.32719 221.22346 220.19774 219.31602 218.47129
 217.72757 216.92185 216.03412 215.41240 214.87668 214.09627 212.28885 212.06355
 212.47348 212.71786 213.13625 214.85573 217.86633 222.18842 228.02750 232.71725
 236.31854 240.37479 244.81380 249.38206 253.54932 256.89633 259.62344 262.24054
 264.89264 267.36905 269.65759 271.89233 274.15482 276.30478 278.20047 279.79187
 281.17651 282.59286 284.04910 285.39310 286.56839 287.61493 288.57108 289.42529
 290.14484 290.77689 291.32904 292.03268
 366.78100 356.34892 345.79483 334.67475 323.09166 311.29958 299.18349 287.00041
 274.72632 262.63724 250.66015 239.97507 230.11098 221.22890 213.42481 206.44073
 200.28864 195.24056 191.83648 189.89239 188.94331 189.02122 189.87014 191.19205
 192.93097 195.03988 197.31680 199.68971 202.14863 204.64254 206.74446 208.60037
 210.24029 211.39921 211.64212 211.88404 211.83495 211.55387 211.20078 210.84470
 210.47561 210.19953 210.02144 209.89936 209.84127 210.18619 210.58610 210.98902
 211.79593 212.98785 214.25177 216.04868 217.99060 220.04751 222.15643 224.25334
 226.32726 228.42517 230.53609 232.65600 234.79892 236.98483 239.25475 241.63866
 244.27358 246.53849 248.55441 250.33333 251.76424 252.90116 253.73707 254.06699
 254.11790 253.90582 253.27973 252.24165 250.86156 249.03648 246.95939 244.80631
 242.61122 240.42914 238.26305 236.11597 233.98989 231.87080 229.91072 228.08163
 226.37855 224.86446 223.50838 222.29429 221.19021 220.16412 219.28204 218.43695
 217.69287 216.88678 215.99870 215.37662 214.84053 214.07394 212.29465 212.17468
 212.56171 212.79633 213.18504 214.82381 217.79123 222.10327 227.97607 232.60669
 236.20959 240.27057 244.74426 249.35625 253.54440 256.86279 259.58777 262.25497
 264.95419 267.43152 269.69409 271.91199 274.18552 276.37045 278.30179 279.90891
 281.27692 282.59955 284.04181 285.37686 286.54565 287.58206 288.53061 289.37601
 290.10016 290.71167 291.24585 291.92661
 366.78100 356.34873 345.79447 334.67420 323.09093 311.29867 299.18240 286.99913
 274.72487 262.63560 250.65833 239.97307 230.10880 221.22653 213.42227 206.43800
 200.28573 195.23747 191.83320 189.88893 188.93967 189.01740 189.86613 191.18787
 192.92660 195.03533 197.31206 199.68480 202.14353 204.63726 206.73900 208.59473
 210.23446 211.39320 211.63593 211.87766 211.82840 211.54713 211.19386 210.83760
 210.46833 210.19206 210.01380 209.89153 209.83326 210.17800 210.57773 210.98046
 211.78720 212.97893 214.24266 216.03940 217.98113 220.03786 222.14660 224.24333
 226.31706 228.41480 230.52553 232.64526 234.78800 236.97373 239.24346 241.62720
 244.26193 246.52666 248.54240 250.32113 251.75186 252.88860 253.72433 254.05406
 254.10480 253.89253 253.26626 252.22799 250.84773 249.02246 246.94519 244.79193
 242.59666 240.41439 238.24813 236.10086 233.97459 231.85533 229.89506 228.06579
 226.36253 224.84826 223.49199 222.27773 221.17346 220.14719 219.26493 218.41966
 217.67539 216.86913 215.98086 215.35859 214.82233 214.05067 212.22757 212.31322
 212.76733 212.98097 213.29407 214.83922 217.72194 222.01028 227.98141 232.48648
 236.10909 240.14818 244.65358 249.29880 253.48790 256.70001 259.33298 262.02670
 264.75507 267.21362 269.48355 271.75159 274.07986 276.32520 278.29837 279.98843
 281.39984 282.72372 284.04865 285.37201 286.52686 287.56885 288.52200 289.38586
 290.16397 290.85968 291.47321 292.28680
 366.78100 356.34901 345.79502 334.67503 323.09204 311.30004 299.18405 287.00106
 274.72707 262.63808 250.66109 239.97610 230.11211 221.23012 213.42613 206.44213
 200.29014 195.24215 191.83816 189.89417 188.94518 189.02319 189.87220 191.19421
 192.93322 195.04222 197.31923 199.69224 202.15125 204.64526 206.74727 208.60328
 210.24329 211.40230 211.64531 211.88731 211.83832 211.55733 211.20434 210.84835
 210.47936 210.20337 210.02538 209.90339 209.84540 210.19040 210.59041 210.99342
 211.80043 212.99244 214.25645 216.05346 217.99547 220.05248 222.16149 224.25849
 226.33250 228.43051 230.54152 232.66153 234.80454 236.99055 239.26056 241.64457
 244.27958 246.54458 248.56059 250.33960 251.77061 252.90762 253.74363 254.07364
 254.12465 253.91266 253.28667 252.24867 250.86868 249.04369 246.96670 244.81371
 242.61872 240.43673 238.27074 236.12375 233.99776 231.87876 229.91877 228.08978
 226.38679 224.87280 223.51681 222.30282 221.19883 220.17284 219.29085 218.44585
 217.70186 216.89587 216.00788 215.38589 214.84990 214.06729 212.22334 212.35776
 212.87688 213.07390 213.38092 214.87762 217.69481 221.98143 227.90924 232.42786
 236.01561 240.07109 244.59070 249.25641 253.45459 256.64984 259.32303 261.91245
 264.54514 267.02185 269.31506 271.56421 273.89496 276.15912 278.13748 279.79779
 281.18213 282.56607 284.00433 285.37674 286.56589 287.61731 288.57718 289.44977
 290.24094 290.95029 291.58630 292.40369
 366.78100 356.35046 345.79791 334.67937 323.09783 311.30728 299.19274 287.01119
 274.73865 262.65111 250.67556 239.99202 230.12948 221.24893 213.44639 206.46384
 200.31330 195.26676 191.86421 189.92167 188.97413 189.05358 189.90404 191.22749
 192.96795 195.07841 197.35686 199.73132 202.19178 204.68723 206.79069 208.64814
 210.28960 211.45006 211.69451 211.93797 211.89043 211.61088 211.25934 210.90480
 210.53725 210.26271 210.08616 209.96562 209.90908 210.25553 210.65699 211.06145
 211.86990 213.06336 214.32881 216.12727 218.07073 220.12918 222.23964 224.33810
 226.41355 228.51301 230.62546 232.74692 234.89138 237.07883 239.35029 241.73575
 244.37220 246.63866 248.65612 250.43657 251.86903 253.00748 253.84494 254.17640
 254.22885 254.01831 253.39377 252.35722 250.97868 249.15513 247.07959 244.92805
 242.73450 240.55396 238.38942 236.24387 234.11933 232.00178 230.04324 228.21570
 226.51415 225.00161 223.64707 222.43452 221.33198 220.30743 219.42689 218.58335
 217.84080 217.03626 216.14972 215.52917 214.99463 214.17366 212.30754 212.23314
 212.79405 212.97314 213.44257 215.00565 217.81551 222.06090 227.76125 232.38420
 235.95116 240.05315 244.57195 249.18080 253.26482 256.46802 259.32974 262.16141
 264.80716 267.24692 269.55957 271.78751 274.00714 276.09506 277.94315 279.49490
 280.90851 282.36606 283.77222 285.10120 286.28015 287.33347 288.30762 289.19022
 289.98401 290.69089 291.30841 292.09537
 366.78100 356.35156 345.80012 334.68267 323.10223 311.31279 299.19935 287.01891
 274.74747 262.66102 250.68658 240.00414 230.14270 221.26326 213.46182 206.48037
 200.33093 195.28549 191.88405 189.94261 188.99617 189.07672 189.92828 191.25284
 192.99440 195.10596 197.38552 199.76107 202.22263 204.71919 206.82375 208.68231
 210.32486 211.48642 211.73198 211.97654 211.93010 211.65166 211.30121 210.94777
 210.58133 210.30789 210.13245 210.01301 209.95756 210.30512 210.70768 211.11324
 211.92280 213.11736 214.38391 216.18347 218.12803 220.18759 222.29915 224.39871
 226.47526 228.57582 230.68938 232.81194 234.95750 237.14606 239.41861 241.80517
 244.44273 246.71029 248.72885 250.51040 251.94396 253.08352 253.92208 254.25464
 254.30820 254.09875 253.47531 252.43987 251.06243 249.23999 247.16555 245.01510
 242.82266 240.64322 238.47978 236.33534 234.21190 232.09545 230.13801 228.31157
 226.61113 225.09969 223.74625 222.53480 221.43336 220.40992 219.53048 218.68804
 217.94659 217.14315 216.25771 215.63827 215.10483 214.24930 212.31754 212.18840
 212.83717 213.10863 213.61824 215.10197 217.83582 222.05544 227.70479 232.29831
 235.86383 239.98827 244.55748 249.19911 253.22934 256.36639 259.36365 262.29984
 264.97345 267.43634 269.76001 271.96609 274.16589 276.26126 278.14221 279.65543
 280.99393 282.33173 283.65286 284.97241 286.16153 287.24808 288.28021 289.21527
 290.05624 290.80515 291.45935 292.29309
 366.78100 356.35146 345.79992 334.68238 323.10184 311.31230 299.19876 287.01822
 274.74668 262.66013 250.68559 240.00305 230.14151 221.26197 213.46043 206.47889
 200.32935 195.28381 191.88227 189.94073 188.99419 189.07465 189.92611 191.25057
 192.99203 195.10349 197.38294 199.75840 202.21986 204.71632 206.82078 208.67924
 210.32170 211.48316 211.72862 211.97308 211.92654 211.64800 211.29746 210.94392
 210.57738 210.30384 210.12829 210.00875 209.95321 210.30067 210.70313 211.10859
 211.91805 213.11251 214.37897 216.17843 218.12289 220.18235 222.29381 224.39327
 226.46973 228.57019 230.68365 232.80610 234.95156 237.14002 239.41248 241.79894
 244.43640 246.70386 248.72232 250.50378 251.93724 253.07670 253.91516 254.24762
 254.30108 254.09154 253.46800 252.43246 251.05491 249.23237 247.15783 245.00729
 242.81475 240.63521 238.47167 236.32713 234.20359 232.08705 230.12951 228.30297
 226.60243 225.09089 223.73735 222.52581 221.42426 220.40072 219.52118 218.67864
 217.93710 217.13356 216.24802 215.62848 215.09494 214.22289 212.21049 212.36926
 213.08614 213.35641 213.82541 215.11768 217.74547 221.91722 227.59230 232.11998
 235.71786 239.85403 244.40118 248.94171 252.87428 256.01974 258.90625 261.86212
 264.61136 267.17322 269.60251 271.93893 274.21872 276.40433 278.38589 280.07504
 281.43262 282.66544 283.86691 285.03497 286.16336 287.20370 288.16544 289.05316
 289.92798 290.73843 291.44644 292.34872
 366.78100 356.35352 345.80405 334.68857 323.11010 311.32262 299.21114 287.03267
 274.76319 262.67872 250.70624 240.02576 230.16629 221.28881 213.48934 206.50986
 200.36239 195.31891 191.91943 189.97996 189.03548 189.11801 189.97153 191.29805
 193.04158 195.15510 197.43663 199.81415 202.27767 204.77620 206.88272 208.74325
 210.38777 211.55129 211.79882 212.04534 212.00087 211.72439 211.37591 211.02444
 210.65996 210.38849 210.21501 210.09753 210.04406 210.39358 210.79811 211.20563
 212.01716 213.21368 214.48220 216.28373 218.23025 220.29178 222.40530 224.50682
 226.58535 228.68787 230.80340 232.92792 235.07544 237.26597 239.54049 241.92902
 244.56854 246.83806 248.85859 250.64211 252.07764 253.21916 254.05968 254.39421
 254.44973 254.24226 253.62078 252.58731 251.21183 249.39135 247.31888 245.17040
 242.97993 240.80245 238.64097 236.49850 234.37702 232.26255 230.30707 228.48259
 226.78412 225.27464 223.92317 222.71369 221.61421 220.59274 219.71526 218.87479
 218.13531 217.33383 216.45036 215.83288 215.30141 214.32098 212.01630 212.35539
 213.41115 213.67465 214.13983 215.22720 217.69566 221.82658 227.54622 231.96613
 235.58212 239.72223 244.28755 248.81149 252.65656 255.67865 258.48196 261.41290
 264.15482 266.74835 269.23441 271.65146 274.01907 276.28012 278.32339 280.06754
 281.50922 282.76035 283.95020 285.09329 286.17969 287.20731 288.15884 289.02707
 289.81754 290.53271 291.19351 292.03561
 366.78100 356.35531 345.80761 334.69392 323.11723 311.33154 299.22184 287.04515
 274.77746 262.69477 250.72407 240.04538 230.18769 221.31200 213.51430 206.53661
 200.39092 195.34923 191.95153 190.01384 189.07115 189.15545 190.01076 191.33907
 193.08438 195.19968 197.48299 199.86230 202.32761 204.82791 206.93622 208.79853
 210.44484 211.61014 211.85945 212.10776 212.06507 211.79037 211.44368 211.09399
 210.73129 210.46160 210.28991 210.17422 210.12252 210.47383 210.88014 211.28945
 212.10275 213.30106 214.57137 216.37468 218.32298 220.38629 222.50160 224.60490
 226.68521 228.78952 230.90683 233.03313 235.18244 237.37475 239.65106 242.04136
 244.68267 246.95398 248.97629 250.76159 252.19890 253.34221 254.18452 254.52082
 254.57813 254.37244 253.75274 252.72105 251.34736 249.52867 247.45797 245.31128
 243.12259 240.94690 238.78720 236.64651 234.52682 232.41413 230.46043 228.63774
 226.94105 225.43336 224.08366 222.87597 221.77828 220.75858 219.88289 219.04420
 218.30651 217.50681 216.62512 216.00943 215.47974 214.42685 211.94586 212.21706
 213.51308 213.80954 214.30965 215.38046 217.75221 221.80667 227.55391 231.93910
 235.54294 239.69011 244.27075 248.82462 252.69424 255.68863 258.44931 261.34097
 264.04129 266.61407 269.10284 271.54071 273.93414 276.21848 278.27026 280.01804
 281.46078 282.71524 283.91446 285.08371 286.18936 287.22086 288.17047 289.03946
 289.83051 290.54468 291.17877 291.98804
 366.78100 356.35338 345.80376 334.68814 323.10952 311.32190 299.21028 287.03166
 274.76204 262.67742 250.70480 240.02418 230.16456 221.28694 213.48732 206.50770
 200.36008 195.31646 191.91683 189.97721 189.03259 189.11497 189.96835 191.29473
 193.03811 195.15149 197.43287 199.81025 202.27363 204.77201 206.87839 208.73877
 210.38315 211.54653 211.79391 212.04029 211.99567 211.71905 211.37043 211.01881
 210.65419 210.38257 210.20895 210.09133 210.03771 210.38709 210.79147 211.19885
 212.01023 213.20661 214.47499 216.27637 218.22275 220.28413 222.39750 224.49888
 226.57726 228.67964 230.79502 232.91940 235.06678 237.25716 239.53154 241.91992
 244.55930 246.82868 248.84906 250.63244 252.06782 253.20920 254.04958 254.38396
 254.43934 254.23172 253.61010 252.57648 251.20086 249.38024 247.30762 245.15900
 242.96838 240.79076 238.62914 236.48652 234.36490 232.25028 230.29466 228.47004
 226.77142 225.26180 223.91017 222.70055 221.60093 220.57931 219.70169 218.86107
 218.12145 217.31983 216.43621 215.81859 215.28697 214.33202 212.07581 212.21025
 213.47366 213.83691 214.40517 215.38403 217.71355 221.76547 227.55699 231.88963
 235.50087 239.65813 244.26575 248.85727 252.74727 255.74745 258.47812 261.33258
 263.98312 266.52322 269.00354 271.44321 273.84897 276.13931 278.17801 279.91202
 281.35129 282.62436 283.85907 285.06189 286.17441 287.20325 288.14996 289.01575
 289.80463 290.51202 291.12799 291.91006
 366.78100 356.35121 345.79941 334.68162 323.10082 311.31103 299.19723 287.01644
 274.74464 262.65785 250.68305 240.00026 230.13847 221.25867 213.45688 206.47508
 200.32529 195.27949 191.87770 189.93590 188.98911 189.06932 189.92052 191.24473
 192.98593 195.09714 197.37634 199.75155 202.21275 204.70896 206.81316 208.67137
 210.31358 211.47478 211.71999 211.96419 211.91740 211.63860 211.28781 210.93401
 210.56722 210.29343 210.11763 209.99784 209.94204 210.28925 210.69145 211.09666
 211.90586 213.10007 214.36627 216.16548 218.10969 220.16889 222.28010 224.37930
 226.45551 228.55571 230.66892 232.79112 234.93633 237.12454 239.39674 241.78295
 244.42015 246.68736 248.70556 250.48677 251.91997 253.05918 253.89738 254.22959
 254.28280 254.07300 253.44921 252.41341 251.03562 249.21282 247.13803 244.98723
 242.79444 240.61465 238.45085 236.30606 234.18226 232.06547 230.10767 228.28088
 226.58008 225.06829 223.71449 222.50270 221.40091 220.37711 219.49732 218.65452
 217.91273 217.10893 216.22314 215.60334 215.06955 214.22333 212.22403 212.24469
 213.57866 213.80994 214.27573 215.38397 217.67982 221.72778 227.50470 231.82521
 235.44328 239.61545 244.24998 248.87027 252.80452 255.78508 258.50452 261.31693
 263.90927 266.41168 268.88544 271.32907 273.73679 276.00430 277.99710 279.70215
 281.14532 282.48996 283.79776 285.05084 286.17957 287.20575 288.15005 289.01837
 289.81613 290.52808 291.13919 291.88129
 366.78100 356.35132 345.79963 334.68195 323.10127 311.31158 299.19790 287.01722
 274.74553 262.65885 250.68417 240.00148 230.13980 221.26012 213.45843 206.47675
 200.32707 195.28138 191.87970 189.93802 188.99133 189.07165 189.92296 191.24728
 192.98860 195.09991 197.37923 199.75455 202.21586 204.71218 206.81650 208.67481
 210.31713 211.47845 211.72376 211.96808 211.92140 211.64271 211.29203 210.93835
 210.57166 210.29798 210.12230 210.00261 209.94693 210.29425 210.69656 211.10188
 211.91120 213.10551 214.37183 216.17115 218.11546 220.17478 222.28610 224.38541
 226.46173 228.56205 230.67536 232.79768 234.94299 237.13131 239.40363 241.78994
 244.42726 246.69458 248.71289 250.49421 251.92753 253.06684 253.90516 254.23748
 254.29079 254.08111 253.45743 252.42174 251.04406 249.22138 247.14669 244.99601
 242.80333 240.62364 238.45996 236.31528 234.19159 232.07491 230.11723 228.29054
 226.58986 225.07818 223.72449 222.51281 221.41113 220.38744 219.50776 218.66508
 217.92339 217.11971 216.23402 215.61434 215.08066 214.24629 212.27638 212.17751
 213.74803 213.91432 214.11470 215.40785 217.77776 221.73711 227.39719 231.76863
 235.37199 239.56389 244.20593 248.81432 252.73817 255.77252 258.53522 261.30557
 263.89148 266.42004 268.91882 271.33490 273.69547 275.90442 277.82852 279.47839
 280.92386 282.31274 283.67517 284.95200 286.09140 287.11603 288.05740 288.91797
 289.69888 290.39194 290.97400 291.70889
 366.78100 356.35133 345.79966 334.68199 323.10132 311.31165 299.19798 287.01731
 274.74564 262.65897 250.68430 240.00163 230.13996 221.26029 213.45862 206.47695
 200.32728 195.28161 191.87994 189.93827 188.99160 189.07193 189.92326 191.24759
 192.98892 195.10025 197.37958 199.75491 202.21624 204.71257 206.81690 208.67523
 210.31756 211.47889 211.72422 211.96854 211.92187 211.64320 211.29253 210.93886
 210.57219 210.29852 210.12285 210.00318 209.94751 210.29484 210.69717 211.10250
 211.91183 213.10616 214.37249 216.17182 218.11615 220.17548 222.28681 224.38614
 226.46247 228.56280 230.67613 232.79846 234.94379 237.13212 239.40445 241.79078
 244.42811 246.69544 248.71377 250.49510 251.92843 253.06776 253.90609 254.23842
 254.29175 254.08208 253.45841 252.42274 251.04507 249.22240 247.14773 244.99706
 242.80439 240.62472 238.46105 236.31638 234.19271 232.07604 230.11837 228.29170
 226.59103 225.07936 223.72569 222.51402 221.41235 220.38868 219.50901 218.66634
 217.92467 217.12100 216.23533 215.61566 215.08199 214.26648 212.35347 212.21727
 213.67601 213.92296 214.13460 215.54132 217.98703 221.78651 227.31419 231.76236
 235.33954 239.53430 244.15378 248.70158 252.55893 255.67586 258.49191 261.23367
 263.86072 266.46970 269.01974 271.41891 273.72903 275.88171 277.77609 279.41693
 280.86322 282.24661 283.60190 284.85849 285.97662 286.98422 287.91589 288.77310
 289.55017 290.24042 290.83984 291.60376
 366.78100 356.34959 345.79618 334.67677 323.09436 311.30295 299.18755 287.00514
 274.73173 262.64332 250.66691 239.98250 230.11909 221.23768 213.43427 206.45086
 200.29946 195.25205 191.84864 189.90523 188.95682 189.03541 189.88500 191.20759
 192.94718 195.05677 197.33437 199.70796 202.16755 204.66214 206.76473 208.62132
 210.26191 211.42150 211.66509 211.90768 211.85927 211.57887 211.22646 210.87105
 210.50264 210.22723 210.04982 209.92841 209.87100 210.21659 210.61718 211.02078
 211.82837 213.02096 214.28555 216.08314 218.02573 220.08332 222.19291 224.29050
 226.36509 228.46368 230.57528 232.69587 234.83946 237.02605 239.29664 241.68123
 244.31682 246.58241 248.59900 250.37859 251.81019 252.94778 253.78437 254.11496
 254.16655 253.95514 253.32973 252.29232 250.91291 249.08850 247.01210 244.85969
 242.66528 240.48387 238.31846 236.17205 234.04664 231.92823 229.96882 228.14041
 226.43800 224.92460 223.56919 222.35578 221.25237 220.22696 219.34555 218.50114
 217.75773 216.95232 216.06491 215.44351 214.90810 214.18054 212.47435 212.39468
 213.59579 213.85034 214.16902 215.62523 218.06982 221.76228 227.28494 231.71654
 235.29837 239.50887 244.12788 248.65031 252.47215 255.56796 258.38757 261.12769
 263.78702 266.44443 269.00848 271.40741 273.71344 275.86597 277.77563 279.43747
 280.89835 282.27606 283.59680 284.81595 285.91180 286.90485 287.82678 288.67554
 289.44141 290.11588 290.70041 291.44531
 366.78100 356.34747 345.79194 334.67041 323.08588 311.29235 299.17482 286.99029
 274.71476 262.62423 250.64570 239.95917 230.09364 221.21011 213.40458 206.41905
 200.26552 195.21599 191.81046 189.86493 188.91440 188.99087 189.83834 191.15881
 192.89628 195.00375 197.27922 199.65069 202.10816 204.60063 206.70110 208.55557
 210.19404 211.35151 211.59298 211.83346 211.78293 211.50040 211.14587 210.78834
 210.41781 210.14028 209.96075 209.83722 209.77769 210.12116 210.51963 210.92110
 211.72657 212.91704 214.17951 215.97498 217.91545 219.97092 222.07839 224.17386
 226.24633 228.34280 230.45227 232.57074 234.71221 236.89668 239.16515 241.54762
 244.18109 246.44456 248.45903 250.23650 251.66597 252.80144 253.63591 253.96438
 254.01385 253.80032 253.17279 252.13326 250.75173 248.92520 246.84667 244.69214
 242.49561 240.31208 238.14455 235.99602 233.86849 231.74796 229.78643 227.95590
 226.25137 224.73584 223.37831 222.16278 221.05725 220.02972 219.14619 218.29966
 217.55413 216.74660 215.85707 215.23354 214.69601 214.06693 212.58205 212.50980
 213.70067 213.85225 214.11412 215.58925 218.00104 221.64418 227.26984 231.61258
 235.22681 239.46770 244.10522 248.62315 252.42001 255.41653 258.46451 261.14032
 263.74963 266.36667 268.89740 271.28485 273.60406 275.77335 277.69443 279.36749
 280.85620 282.21021 283.51199 284.69818 285.76263 286.72620 287.61609 288.43890
 289.18280 289.80246 290.20569 290.70059
 366.78100 356.34586 345.78872 334.66559 323.07945 311.28431 299.16517 286.97903
 274.70189 262.60976 250.62962 239.94148 230.07434 221.18920 213.38206 206.39493
 200.23979 195.18865 191.78151 189.83437 188.88223 188.95710 189.80296 191.12182
 192.85768 194.96354 197.23740 199.60727 202.06313 204.55399 206.65285 208.50571
 210.14257 211.29844 211.53830 211.77716 211.72502 211.44088 211.08475 210.72561
 210.35347 210.07433 209.89319 209.76805 209.70692 210.04878 210.44564 210.84550
 211.64936 212.83822 214.09909 215.89295 217.83181 219.88567 221.99153 224.08539
 226.15626 228.25112 230.35898 232.47584 234.61570 236.79856 239.06543 241.44629
 244.07815 246.34001 248.35287 250.12873 251.55660 252.69046 253.52332 253.85018
 253.89804 253.68291 253.05377 252.01263 250.62949 248.80135 246.72121 244.56508
 242.36694 240.18180 238.01266 235.86252 233.73338 231.61125 229.64811 227.81597
 226.10983 224.59269 223.23355 222.01642 220.90928 219.88014 218.99500 218.14686
 217.39972 216.59059 215.69945 215.07431 214.53517 213.98140 212.67307 212.58359
 213.79143 213.88110 214.05753 215.56316 217.95781 221.55536 227.25391 231.53760
 235.16512 239.42871 244.09183 248.62231 252.42984 255.43462 258.51672 261.14337
 263.68045 266.25452 268.76373 271.14444 273.46457 275.60544 277.49594 279.20407
 280.68353 282.10883 283.43661 284.62595 285.68744 286.63824 287.51468 288.32513
 289.05151 289.63342 289.98856 290.26135
 366.78100 356.34465 345.78630 334.66195 323.07460 311.27825 299.15790 286.97055
 274.69221 262.59886 250.61751 239.92816 230.05981 221.17346 213.36511 206.37676
 200.22041 195.16806 191.75971 189.81136 188.85801 188.93166 189.77631 191.09396
 192.82862 194.93327 197.20592 199.57457 202.02922 204.51887 206.61652 208.46817
 210.10382 211.25847 211.49712 211.73477 211.68142 211.39607 211.03872 210.67837
 210.30503 210.02468 209.84233 209.71598 209.65363 209.99428 210.38993 210.78858
 211.59123 212.77888 214.03853 215.83118 217.76883 219.82148 221.92613 224.01878
 226.08844 228.18209 230.28874 232.40439 234.54304 236.72469 238.99034 241.36999
 244.00064 246.26129 248.27294 250.04759 251.47424 252.60689 253.43854 253.76419
 253.81085 253.59450 252.96415 251.92180 250.53745 248.70810 246.62675 244.46940
 242.27005 240.08370 237.91335 235.76200 233.63165 231.50830 229.54395 227.71060
 226.00325 224.48491 223.12456 221.90621 220.79786 219.76751 218.88116 218.03181
 217.28346 216.47311 215.58076 214.95441 214.41406 213.91652 212.74104 212.70894
 213.83264 213.88527 214.05569 215.57661 217.96564 221.51921 227.20569 231.49590
 235.11511 239.38780 244.05905 248.57921 252.38049 255.43811 258.47440 261.08087
 263.58929 266.17291 268.72217 271.08383 273.36661 275.46454 277.33368 278.93277
 280.53604 281.98969 283.33148 284.52664 285.58142 286.52029 287.37460 288.14471
 288.81812 289.34729 289.63620 289.88776
 366.78100 356.34457 345.78614 334.66171 323.07428 311.27784 299.15741 286.96998
 274.69155 262.59812 250.61669 239.92726 230.05883 221.17239 213.36396 206.37553
 200.21910 195.16667 191.75824 189.80981 188.85638 188.92995 189.77451 191.09208
 192.82665 194.93122 197.20379 199.57236 202.02693 204.51650 206.61407 208.46563
 210.10120 211.25577 211.49434 211.73191 211.67848 211.39305 211.03562 210.67518
 210.30175 210.02132 209.83889 209.71246 209.65003 209.99060 210.38617 210.78474
 211.58730 212.77487 214.03444 215.82701 217.76458 219.81715 221.92172 224.01429
 226.08385 228.17742 230.28399 232.39956 234.53813 236.71970 238.98527 241.36484
 243.99541 246.25597 248.26754 250.04211 251.46868 252.60125 253.43282 253.75839
 253.80496 253.58853 252.95809 251.91566 250.53123 248.70180 246.62037 244.46294
 242.26351 240.07708 237.90664 235.75521 233.62478 231.50135 229.53692 227.70349
 225.99606 224.47763 223.11720 221.89876 220.79033 219.75990 218.87347 218.02404
 217.27561 216.46518 215.57275 214.94631 214.40588 213.91382 212.75127 212.78975
 213.95171 213.96973 214.10165 215.58864 217.95486 221.46733 227.12216 231.41463
 235.04570 239.33012 244.00638 248.51534 252.28200 255.38898 258.35095 260.96326
 263.50037 266.10309 268.66901 271.05423 273.31271 275.35532 277.11972 278.93021
 280.41553 281.92447 283.22504 284.41736 285.46771 286.37521 287.18573 287.91360
 288.53046 288.95880 289.20856 289.48663
 366.78100 356.34603 345.78907 334.66610 323.08013 311.28517 299.16620 286.98023
 274.70326 262.61130 250.63133 239.94336 230.07640 221.19143 213.38446 206.39750
 200.24253 195.19156 191.78460 189.83763 188.88566 188.96069 189.80673 191.12576
 192.86179 194.96783 197.24186 199.61189 202.06793 204.55896 206.65799 208.51103
 210.14806 211.30409 211.54412 211.78316 211.73119 211.44722 211.09126 210.73229
 210.36032 210.08136 209.90039 209.77542 209.71446 210.05649 210.45352 210.85355
 211.65759 212.84662 214.10765 215.90169 217.84072 219.89475 222.00079 224.09482
 226.16585 228.26089 230.36892 232.48595 234.62598 236.80902 239.07605 241.45708
 244.08912 246.35115 248.36418 250.14022 251.56825 252.70228 253.53531 253.86235
 253.91038 253.69541 253.06645 252.02548 250.64251 248.81455 246.73458 244.57861
 242.38065 240.19568 238.02671 235.87674 233.74778 231.62581 229.66284 227.83088
 226.12491 224.60794 223.24898 222.03201 220.92504 219.89608 219.01111 218.16314
 217.41617 216.60721 215.71624 215.09127 214.55231 214.00607 212.71553 212.76321
 214.11772 214.14688 214.17702 215.60919 217.94226 221.43228 227.01160 231.29785
 234.94044 239.24159 243.90637 248.35934 252.07079 255.32195 258.35132 260.94153
 263.50034 266.19055 268.77893 271.06223 273.25446 275.24094 277.16241 278.97748
 280.41095 281.65106 282.99918 284.13507 285.10556 285.95370 286.70361 287.33490
 287.81516 288.15887 288.44455 288.81824
 366.78100 356.34798 345.79296 334.67194 323.08792 311.29490 299.17788 286.99386
 274.71884 262.62882 250.65080 239.96478 230.09976 221.21674 213.41172 206.42670
 200.27368 195.22466 191.81964 189.87462 188.92460 189.00158 189.84956 191.17054
 192.90852 195.01650 197.29248 199.66446 202.12244 204.61542 206.71640 208.57138
 210.21036 211.36834 211.61032 211.85130 211.80128 211.51926 211.16524 210.80822
 210.43820 210.16118 209.98216 209.85914 209.80012 210.14410 210.54308 210.94506
 211.75104 212.94202 214.20500 216.00098 217.94196 219.99794 222.10593 224.20191
 226.27489 228.37187 230.48185 232.60083 234.74281 236.92779 239.19677 241.57975
 244.21373 246.47771 248.49269 250.27067 251.70065 252.83663 253.67161 254.00059
 254.05057 253.83755 253.21053 252.17151 250.79049 248.96447 246.88645 244.73243
 242.53641 240.35339 238.18637 236.03835 233.91133 231.79131 229.83029 228.00027
 226.29625 224.78123 223.42421 222.20919 221.10417 220.07715 219.19413 218.34811
 217.60309 216.79607 215.90705 215.28403 214.74701 214.13657 212.71143 212.74223
 214.18222 214.25311 214.33766 215.70441 217.99419 221.46841 226.87329 231.24213
 234.87305 239.17062 243.78079 248.12598 251.77863 255.07266 258.14090 261.00024
 263.68427 266.39484 268.97812 271.24136 273.27719 275.23770 277.21341 278.89725
 280.28821 281.38165 282.53922 283.62268 284.52994 285.32684 285.99173 286.44705
 286.87543 287.09937 287.29501 287.54434
 366.78100 356.34753 345.79206 334.67060 323.08613 311.29266 299.17519 286.99072
 274.71525 262.62479 250.64632 239.95985 230.09438 221.21091 213.40545 206.41998
 200.26651 195.21704 191.81157 189.86610 188.91564 188.99217 189.83970 191.16023
 192.89776 195.00529 197.28083 199.65236 202.10989 204.60242 206.70295 208.55749
 210.19602 211.35355 211.59508 211.83561 211.78514 211.50268 211.14821 210.79074
 210.42027 210.14280 209.96334 209.83987 209.78040 210.12393 210.52246 210.92399
 211.72953 212.92006 214.18259 215.97812 217.91865 219.97418 222.08172 224.17725
 226.24978 228.34631 230.45584 232.57438 234.71591 236.90044 239.16897 241.55150
 244.18503 246.44857 248.46310 250.24063 251.67016 252.80569 253.64023 253.96876
 254.01829 253.80482 253.17735 252.13788 250.75642 248.92995 246.85148 244.69701
 242.50054 240.31707 238.14961 236.00114 233.87367 231.75320 229.79173 227.96127
 226.25680 224.74133 223.38386 222.16839 221.06292 220.03546 219.15199 218.30552
 217.56005 216.75258 215.86312 215.23965 214.70218 214.15730 212.90657 212.73227
 213.98201 214.23012 214.54117 215.85051 218.07980 221.57773 226.74809 231.18947
 234.83372 239.13803 243.69739 247.92361 251.55934 254.84247 257.97516 260.92084
 263.74173 266.49484 269.00708 271.25375 273.11456 275.38098 277.21399 278.79694
 280.10825 281.18515 282.21783 283.17740 283.98343 284.63306 285.18835 285.68652
 286.13455 286.53354 286.88208 287.32626
 366.78100 356.34566 345.78833 334.66499 323.07866 311.28332 299.16399 286.97765
 274.70032 262.60798 250.62765 239.93931 230.07198 221.18664 213.37931 206.39197
 200.23664 195.18530 191.77797 189.83063 188.87830 188.95296 189.79863 191.11729
 192.85296 194.95862 197.23229 199.60195 202.05762 204.54828 206.64695 208.49961
 210.13628 211.29194 211.53161 211.77027 211.71794 211.43360 211.07727 210.71793
 210.34560 210.06626 209.88492 209.75959 209.69825 210.03992 210.43658 210.83625
 211.63991 212.82858 214.08924 215.88291 217.82157 219.87524 221.98090 224.07457
 226.14523 228.23990 230.34756 232.46423 234.60389 236.78656 239.05322 241.43389
 244.06555 246.32722 248.33988 250.11555 251.54321 252.67688 253.50954 253.83621
 253.88387 253.66854 253.03920 251.99787 250.61453 248.78620 246.70586 244.54953
 242.35119 240.16586 237.99652 235.84618 233.71685 231.59451 229.63118 227.79884
 226.09251 224.57517 223.21584 221.99850 220.89117 219.86183 218.97650 218.12816
 217.38083 216.57149 215.68016 215.05482 214.51549 214.10153 213.12842 212.79222
 213.88298 214.34227 214.80264 216.07590 218.18057 221.65424 226.74547 231.12291
 234.77777 239.09195 243.66472 247.87506 251.48170 254.75885 257.87839 260.82544
 263.71408 266.47345 269.02521 271.09518 273.27222 275.38120 277.08417 278.66568
 279.94653 281.02130 282.03049 282.87463 283.75049 284.55280 285.28476 285.94788
 286.54428 287.07538 287.53934 288.13058
 366.78100 356.34522 345.78744 334.66365 323.07687 311.28109 299.16131 286.97453
 274.69674 262.60396 250.62318 239.93440 230.06662 221.18083 213.37305 206.38527
 200.22949 195.17771 191.76992 189.82214 188.86936 188.94358 189.78879 191.10701
 192.84223 194.94745 197.22067 199.58988 202.04510 204.53532 206.63354 208.48576
 210.12197 211.27719 211.51641 211.75463 211.70185 211.41706 211.06028 210.70050
 210.32772 210.04794 209.86615 209.74037 209.67859 210.01981 210.41603 210.81524
 211.61846 212.80668 214.06690 215.86012 217.79833 219.85155 221.95677 224.04999
 226.12021 228.21442 230.32164 232.43786 234.57708 236.75929 239.02551 241.40573
 244.03695 246.29817 248.31038 250.08560 251.51282 252.64604 253.47826 253.80447
 253.85169 253.63591 253.00613 251.96435 250.58056 248.75178 246.67100 244.51422
 242.31544 240.12965 237.95987 235.80909 233.67931 231.55653 229.59274 227.75996
 226.05318 224.53540 223.17562 221.95783 220.85005 219.82027 218.93449 218.08570
 217.33792 216.52814 215.63636 215.01058 214.47079 214.10506 213.22293 212.83717
 213.81107 214.36378 214.94708 216.24445 218.30870 221.72307 226.75725 231.09946
 234.73882 239.04706 243.61218 247.80864 251.40572 254.68365 257.78860 260.79071
 263.74805 266.52988 269.12512 271.14816 273.30835 275.27872 276.99261 278.52896
 279.79333 280.90826 281.87021 283.01041 284.03906 284.94916 285.77948 286.53171
 287.20825 287.81073 288.33701 289.00772
 366.78100 356.34589 345.78877 334.66566 323.07954 311.28443 299.16531 286.97920
 274.70208 262.60997 250.62985 239.94174 230.07462 221.18951 213.38239 206.39528
 200.24016 195.18905 191.78193 189.83482 188.88270 188.95759 189.80347 191.12236
 192.85825 194.96413 197.23802 199.60790 202.06379 204.55467 206.65356 208.50644
 210.14333 211.29921 211.53910 211.77798 211.72587 211.44175 211.08564 210.72652
 210.35441 210.07529 209.89418 209.76906 209.70795 210.04983 210.44672 210.84661
 211.65049 212.83938 214.10026 215.89415 217.83303 219.88692 221.99280 224.08669
 226.15757 228.25246 230.36034 232.47723 234.61711 236.80000 239.06688 241.44777
 244.07965 246.34154 248.35442 250.13031 251.55819 252.69208 253.52496 253.85185
 253.89974 253.68462 253.05551 252.01439 250.63128 248.80316 246.72305 244.56693
 242.36882 240.18370 238.01459 235.86447 233.73536 231.61324 229.65013 227.81801
 226.11190 224.59478 223.23567 222.01855 220.91144 219.88232 218.99721 218.14910
 217.40198 216.59287 215.70175 215.07664 214.53752 214.15718 213.24263 212.85193
 213.77350 214.42104 215.08366 216.38426 218.38866 221.75534 226.74655 231.08572
 234.72624 239.02408 243.55403 247.72281 251.31441 254.57968 257.69308 260.72586
 263.74026 266.58948 269.25385 271.18692 273.31662 275.18805 276.87100 278.38333
 279.72247 280.82129 282.02237 283.27435 284.35785 285.31644 286.19101 286.98331
 287.69592 288.33047 288.88483 289.59128
 366.78100 356.34573 345.78845 334.66518 323.07891 311.28363 299.16436 286.97809
 274.70081 262.60854 250.62827 239.93999 230.07272 221.18744 213.38017 206.39290
 200.23762 195.18635 191.77908 189.83180 188.87953 188.95426 189.79998 191.11871
 192.85444 194.96016 197.23389 199.60362 202.05934 204.55007 206.64880 208.50152
 210.13825 211.29398 211.53370 211.77243 211.72015 211.43588 211.07961 210.72033
 210.34806 210.06879 209.88751 209.76224 209.70097 210.04269 210.43942 210.83915
 211.64287 212.83160 214.09233 215.88605 217.82478 219.87851 221.98423 224.07796
 226.14869 228.24341 230.35114 232.46786 234.60759 236.79032 239.05704 241.43777
 244.06950 246.33122 248.34395 250.11968 251.54740 252.68113 253.51386 253.84058
 253.88831 253.67304 253.04376 252.00249 250.61922 248.79094 246.71067 244.55440
 242.35612 240.17085 238.00157 235.85130 233.72203 231.59975 229.63648 227.80421
 226.09793 224.58066 223.22139 222.00411 220.89684 219.86757 218.98229 218.13402
 217.38675 216.57747 215.68620 215.06093 214.52165 214.15240 213.27246 212.84193
 213.68582 214.47594 215.18036 216.46678 218.47734 221.80080 226.66943 231.06976
 234.73878 239.01212 243.48016 247.62494 251.22705 254.49097 257.63556 260.67807
 263.65939 266.44720 268.90375 271.04254 273.41245 275.19269 276.83661 278.29123
 279.71515 280.89575 281.95804 283.02740 283.94943 284.76523 285.50949 286.18375
 286.79016 287.33020 287.80194 288.40314
 366.78100 356.34481 345.78662 334.66243 323.07524 311.27905 299.15886 286.97167
 274.69348 262.60029 250.61909 239.92990 230.06171 221.17552 213.36733 206.37914
 200.22295 195.17076 191.76257 189.81438 188.86119 188.93500 189.77981 191.09762
 192.83243 194.93724 197.21005 199.57886 202.03367 204.52347 206.62128 208.47309
 210.10890 211.26371 211.50252 211.74033 211.68714 211.40195 211.04476 210.68457
 210.31138 210.03119 209.84900 209.72281 209.66062 210.00143 210.39724 210.79605
 211.59885 212.78666 214.04647 215.83928 217.77709 219.82990 221.93471 224.02752
 226.09733 228.19114 230.29795 232.41376 234.55257 236.73438 239.00019 241.38000
 244.01081 246.27162 248.28342 250.05823 251.48504 252.61785 253.44966 253.77547
 253.82228 253.60609 252.97590 251.93371 250.54952 248.72033 246.63914 244.48195
 242.28276 240.09657 237.92638 235.77519 233.64500 231.52180 229.55761 227.72442
 226.01723 224.49904 223.13885 221.92066 220.81247 219.78228 218.89609 218.04690
 217.29871 216.48852 215.59633 214.97014 214.42995 214.11598 213.35318 212.85678
 213.62311 214.44432 215.23105 216.57855 218.56529 221.81107 226.64734 231.04132
 234.71133 238.96233 243.37379 247.45680 251.03674 254.31827 257.64020 260.60852
 263.51337 266.24710 268.75192 271.12119 273.40506 275.12097 276.67700 278.10773
 279.43661 280.63980 281.66702 282.69995 283.74368 284.67361 285.52200 286.29062
 286.98190 287.59747 288.13525 288.82056
 366.78100 356.34373 345.78445 334.65918 323.07091 311.27363 299.15236 286.96409
 274.68481 262.59054 250.60827 239.91800 230.04872 221.16145 213.35218 206.36290
 200.20563 195.15236 191.74308 189.79381 188.83954 188.91226 189.75599 191.07272
 192.80644 194.91017 197.18190 199.54963 202.00335 204.49208 206.58881 208.43953
 210.07426 211.22799 211.46571 211.70244 211.64817 211.36189 211.00362 210.64235
 210.26807 209.98680 209.80353 209.67625 209.61298 209.95271 210.34744 210.74516
 211.54689 212.73362 213.99234 215.78407 217.72080 219.77252 221.87625 223.96798
 226.03670 228.12943 230.23516 232.34988 234.48761 236.66834 238.93307 241.31179
 243.94152 246.20125 248.21197 249.98570 251.41143 252.54315 253.37388 253.69861
 253.74433 253.52706 252.89579 251.85251 250.46724 248.63697 246.55469 244.39642
 242.19615 240.00888 237.83760 235.68533 233.55406 231.42978 229.46451 227.63024
 225.92196 224.40269 223.04142 221.82214 220.71287 219.68160 218.79432 217.94405
 217.19478 216.38351 215.49023 214.86296 214.32169 214.09993 213.48335 212.81969
 213.60675 214.40289 215.33551 216.81342 218.72406 221.90916 226.70270 231.02765
 234.68997 238.93196 243.30095 247.31772 250.88202 254.25095 257.61179 260.61502
 263.48178 266.24664 268.79059 271.19366 273.31415 275.05673 276.63202 278.04712
 279.29037 280.27548 281.33212 282.65106 283.79248 284.80234 285.72369 286.55835
 287.30905 287.97757 288.56155 289.30579
 366.78100 356.34240 345.78181 334.65521 323.06562 311.26702 299.14443 286.95483
 274.67424 262.57864 250.59505 239.90345 230.03285 221.14426 213.33366 206.34307
 200.18447 195.12988 191.71928 189.76869 188.81309 188.88450 189.72690 191.04230
 192.77471 194.87711 197.14752 199.51392 201.96633 204.45373 206.54914 208.39854
 210.03194 211.18435 211.42075 211.65616 211.60056 211.31297 210.95337 210.59078
 210.21518 209.93259 209.74799 209.61939 209.55480 209.89320 210.28661 210.68301
 211.48342 212.66882 213.92623 215.71663 217.65204 219.70244 221.80484 223.89525
 225.96265 228.05406 230.15846 232.27187 234.40827 236.58768 238.85108 241.22849
 243.85689 246.11529 248.12470 249.89710 251.32151 252.45191 253.28132 253.60472
 253.64913 253.43053 252.79794 251.75334 250.36674 248.53515 246.45155 244.29196
 242.09036 239.90177 237.72917 235.57558 233.44298 231.31739 229.35079 227.51519
 225.80560 224.28500 222.92241 221.70181 220.59122 219.55862 218.67003 217.81843
 217.06783 216.25524 215.36064 214.73205 214.18945 214.07204 213.61546 212.81824
 213.49008 214.28459 215.42990 217.07655 218.92448 221.98070 226.78020 231.08618
 234.73711 238.92836 243.24161 247.24300 250.80603 254.24591 257.63196 260.60483
 263.46506 266.26398 268.81390 271.23694 273.29813 275.01199 276.53171 277.88211
 278.99985 279.89340 281.29276 282.57260 283.68021 284.66019 285.55423 286.36420
 287.09265 287.74136 288.30804 289.03024
 366.78100 356.33927 345.77553 334.64580 323.05306 311.25133 299.12560 286.93286
 274.64913 262.55039 250.56366 239.86893 229.99519 221.10346 213.28973 206.29599
 200.13426 195.07652 191.66279 189.70906 188.75032 188.81859 189.65785 190.97012
 192.69939 194.79865 197.06592 199.42918 201.87845 204.36272 206.45498 208.30125
 209.93152 211.08078 211.31405 211.54631 211.48758 211.19685 210.83411 210.46838
 210.08964 209.80391 209.61618 209.48444 209.41671 209.75197 210.14224 210.53551
 211.33277 212.51504 213.76931 215.55657 217.48884 219.53610 221.63537 223.72264
 225.78690 227.87517 229.97643 232.08670 234.21997 236.39623 238.65650 241.03076
 243.65603 245.91130 247.91756 249.68683 251.10810 252.23536 253.06163 253.38189
 253.42316 253.20143 252.56569 251.51796 250.12822 248.29349 246.20676 244.04402
 241.83929 239.64755 237.47182 235.31509 233.17935 231.05062 229.08088 227.24215
 225.52942 224.00568 222.63995 221.41622 220.30248 219.26675 218.37501 217.52028
 216.76655 215.95081 215.05308 214.42134 213.87561 213.95924 213.80200 212.85948
 213.27113 214.12003 215.41856 217.23941 219.15634 222.01201 226.83176 231.13348
 234.79120 238.94983 243.20110 247.18359 250.71310 254.18140 257.60300 260.63501
 263.51334 266.32312 268.89978 271.29449 273.25137 274.91440 276.37866 277.64011
 278.52051 279.16711 279.72665 280.21796 280.64313 281.01932 281.36252 281.67343
 281.95306 282.20209 282.41965 282.69687
 366.78100 356.33885 345.77471 334.64456 323.05141 311.24927 299.12312 286.92997
 274.64583 262.54668 250.55954 239.86439 229.99024 221.09810 213.28395 206.28980
 200.12766 195.06951 191.65536 189.70122 188.74207 188.80992 189.64878 190.96063
 192.68948 194.78834 197.05519 199.41804 201.86690 204.35075 206.44261 208.28846
 209.91831 211.06717 211.30002 211.53187 211.47273 211.18158 210.81843 210.45229
 210.07314 209.78699 209.59885 209.46670 209.39855 209.73341 210.12326 210.51611
 211.31297 212.49482 213.74868 215.53553 217.46738 219.51424 221.61309 223.69994
 225.76380 227.85165 229.95250 232.06236 234.19521 236.37106 238.63092 241.00477
 243.62962 245.88448 247.89033 249.65918 251.08004 252.20689 253.03275 253.35260
 253.39345 253.17131 252.53516 251.48701 250.09687 248.26172 246.17457 244.01143
 241.80628 239.61413 237.43799 235.28084 233.14469 231.01555 229.04540 227.20626
 225.49311 223.96896 222.60282 221.37867 220.26452 219.22838 218.33623 217.48108
 216.72694 215.91079 215.01264 214.38050 213.83435 213.94485 213.87376 212.97192
 213.02824 213.87741 215.35129 217.22247 219.26056 222.20729 226.89255 231.22639
 234.89111 239.05615 243.31857 247.31720 250.88170 254.34230 257.77658 260.88068
 263.70734 266.38162 269.03156 271.34238 273.24881 274.83002 276.20917 277.34985
 278.14709 278.83047 279.42178 279.94104 280.39038 280.78793 281.15063 281.47925
 281.77478 282.03796 282.26785 282.56085
 366.78100 356.34267 345.78234 334.65600 323.06667 311.26834 299.14601 286.95667
 274.67634 262.58101 250.59768 239.90634 230.03601 221.14768 213.33735 206.34701
 200.18868 195.13435 191.72402 189.77368 188.81835 188.89002 189.73269 191.04835
 192.78102 194.88369 197.15436 199.52103 201.97369 204.46136 206.55703 208.40670
 210.04036 211.19303 211.42970 211.66537 211.61003 211.32270 210.96337 210.60104
 210.22570 209.94337 209.75904 209.63071 209.56637 209.90504 210.29871 210.69538
 211.49604 212.68171 213.93938 215.73005 217.66571 219.71638 221.81905 223.90972
 225.97739 228.06905 230.17372 232.28739 234.42406 236.60372 238.86739 241.24506
 243.87373 246.13239 248.14206 249.91473 251.33940 252.47006 253.29973 253.62340
 253.66807 253.44973 252.81740 251.77307 250.38674 248.55540 246.47207 244.31274
 242.11141 239.92308 237.75074 235.59741 233.46508 231.33975 229.37341 227.53808
 225.82875 224.30842 222.94608 221.72575 220.61542 219.58309 218.69475 217.84342
 217.09309 216.28076 215.38642 214.75809 214.21576 214.11195 213.76122 213.22330
 213.16388 213.85583 215.19011 217.04271 219.09407 222.06877 226.79248 231.16479
 234.84660 239.00441 243.25082 247.25888 250.85461 254.32291 257.78036 260.95721
 263.86935 266.52435 269.07791 271.39548 273.23627 274.72028 276.10492 277.38342
 279.49231 281.29993 282.86414 284.23761 285.42624 286.47787 287.43735 288.30655
 289.08829 289.78445 290.39258 291.16760
 366.78100 356.34444 345.78588 334.66132 323.07376 311.27720 299.15664 286.96909
 274.69053 262.59697 250.61541 239.92585 230.05729 221.17073 213.36217 206.37361
 200.21705 195.16449 191.75593 189.80738 188.85382 188.92726 189.77170 191.08914
 192.82358 194.92802 197.20046 199.56890 202.02334 204.51278 206.61022 208.46167
 210.09711 211.25155 211.48999 211.72743 211.67387 211.38831 211.03075 210.67019
 210.29663 210.01607 209.83351 209.70696 209.64440 209.98484 210.38028 210.77872
 211.58116 212.76860 214.02804 215.82048 217.75792 219.81036 221.91480 224.00724
 226.07669 228.17013 230.27657 232.39201 234.53045 236.71189 238.97733 241.35677
 243.98721 246.24765 248.25909 250.03353 251.45998 252.59242 253.42386 253.74930
 253.79574 253.57918 252.94862 251.90606 250.52150 248.69194 246.61038 244.45282
 242.25327 240.06671 237.89615 235.74459 233.61403 231.49047 229.52591 227.69235
 225.98479 224.46623 223.10567 221.88711 220.77856 219.74800 218.86144 218.01188
 217.26332 216.45276 215.56020 214.93364 214.39308 214.21964 213.71191 213.28319
 213.30754 213.90567 215.19965 217.00731 219.03177 222.03067 226.63257 231.01183
 234.68105 238.81027 242.99800 246.96451 250.58904 254.14154 257.65024 260.86166
 263.86191 266.62167 269.14621 271.41028 273.28217 274.66830 276.04376 278.13522
 280.39691 282.33554 284.01309 285.48611 286.76089 287.88873 288.91772 289.84991
 290.68832 291.43494 292.08713 292.91830
 366.78100 356.34288 345.78277 334.65665 323.06754 311.26942 299.14730 286.95819
 274.67807 262.58296 250.59984 239.90873 230.03861 221.15049 213.34038 206.35026
 200.19215 195.13803 191.72791 189.77780 188.82268 188.89457 189.73745 191.05333
 192.78622 194.88910 197.15999 199.52687 201.97976 204.46764 206.56352 208.41341
 210.04729 211.20018 211.43706 211.67294 211.61783 211.33071 210.97160 210.60948
 210.23436 209.95225 209.76813 209.64002 209.57590 209.91479 210.30867 210.70555
 211.50644 212.69232 213.95021 215.74109 217.67697 219.72786 221.83074 223.92163
 225.98951 228.08139 230.18628 232.30016 234.43705 236.61693 238.88082 241.25870
 243.88758 246.14647 248.15635 249.92924 251.35412 252.48500 253.31489 253.63877
 253.68366 253.46554 252.83342 251.78931 250.40319 248.57208 246.48896 244.32985
 242.12873 239.94061 237.76850 235.61538 233.48327 231.35815 229.39203 227.55692
 225.84780 224.32769 222.96557 221.74545 220.63534 219.60322 218.71511 217.86399
 217.11388 216.30176 215.40764 214.77953 214.23741 214.15358 213.79146 213.21762
 213.27071 213.92784 215.23454 217.14970 219.20464 222.10362 226.75601 231.06572
 234.70628 238.77299 242.90660 246.88454 250.56364 254.11845 257.63321 260.87366
 263.89807 266.69525 269.21414 271.44965 273.29114 274.77881 276.26596 278.26953
 280.50882 282.46091 284.15012 285.63336 286.91699 288.05267 289.08881 290.02747
 290.87170 291.62347 292.28024 293.11719
 366.78100 356.34153 345.78007 334.65260 323.06214 311.26267 299.13921 286.94874
 274.66728 262.57081 250.58634 239.89388 230.02241 221.13295 213.32148 206.33002
 200.17055 195.11509 191.70362 189.75216 188.79569 188.86622 189.70776 191.02229
 192.75383 194.85536 197.12490 199.49043 201.94197 204.42850 206.52303 208.37157
 210.00410 211.15564 211.39117 211.62571 211.56924 211.28078 210.92031 210.55684
 210.18038 209.89691 209.71145 209.58198 209.51652 209.85405 210.24659 210.64212
 211.44165 212.62619 213.88272 215.67226 217.60679 219.65633 221.75786 223.84740
 225.91393 228.00447 230.10800 232.22053 234.35607 236.53460 238.79714 241.17367
 243.80121 246.05874 248.06728 249.83881 251.26234 252.39188 253.22041 253.54295
 253.58648 253.36702 252.73355 251.68809 250.30062 248.46815 246.38369 244.22322
 242.02076 239.83129 237.65783 235.50336 233.36990 231.24343 229.27596 227.43950
 225.72903 224.20757 222.84410 221.62264 220.51117 219.47771 218.58824 217.73578
 216.98431 216.17084 215.27538 214.64591 214.10245 214.08719 213.89177 213.23625
 213.24124 213.96336 215.27112 217.12546 219.18831 222.08005 226.84297 231.12781
 234.73613 238.75876 242.83286 246.72894 250.38179 253.99161 257.54865 260.79175
 263.81747 266.63116 269.15112 271.30420 273.12305 274.65958 276.00101 277.60953
 279.43839 281.16159 282.65274 283.96210 285.09521 286.09775 287.01239 287.84100
 288.58624 289.24988 289.82962 290.56845
 366.78100 356.34063 345.77826 334.64989 323.05851 311.25814 299.13377 286.94240
 274.66003 262.56266 250.57729 239.88391 230.01154 221.12117 213.30880 206.31643
 200.15606 195.09969 191.68731 189.73494 188.77757 188.84720 189.68783 191.00146
 192.73209 194.83271 197.10134 199.46597 201.91660 204.40223 206.49586 208.34349
 209.97511 211.12574 211.36037 211.59400 211.53663 211.24726 210.88589 210.52151
 210.14414 209.85977 209.67340 209.54303 209.47666 209.81329 210.20491 210.59954
 211.39817 212.58180 213.83743 215.62606 217.55969 219.60831 221.70894 223.79757
 225.86320 227.95283 230.05546 232.16709 234.30171 236.47934 238.74097 241.11660
 243.74323 245.99986 248.00749 249.77811 251.20074 252.32937 253.15700 253.47863
 253.52126 253.30088 252.66651 251.62014 250.23177 248.39840 246.31303 244.15166
 241.94828 239.75791 237.58354 235.42817 233.29380 231.16643 229.19806 227.36068
 225.64931 224.12694 222.76257 221.54020 220.42783 219.39346 218.50308 217.64971
 216.89734 216.08297 215.18660 214.55623 214.01186 214.06561 213.98891 213.25070
 213.11279 213.86006 215.24690 217.15668 219.27048 222.23138 226.91888 231.18820
 234.79184 238.80122 242.83940 246.70226 250.31213 253.97252 257.54156 260.83377
 263.87540 266.63663 269.11990 271.20667 272.91171 274.38928 275.75925 277.20590
 279.34308 281.17496 282.76016 284.15207 285.35666 286.42239 287.39474 288.27560
 289.06784 289.77335 290.38965 291.17508
 366.78100 356.34051 345.77802 334.64953 323.05804 311.25755 299.13306 286.94157
 274.65908 262.56159 250.57610 239.88260 230.01011 221.11962 213.30713 206.31464
 200.15415 195.09766 191.68517 189.73268 188.77519 188.84470 189.68521 190.99872
 192.72923 194.82974 197.09825 199.46276 201.91327 204.39878 206.49229 208.33980
 209.97131 211.12181 211.35632 211.58983 211.53234 211.24285 210.88136 210.51687
 210.13938 209.85489 209.66840 209.53791 209.47142 209.80793 210.19944 210.59395
 211.39246 212.57597 213.83148 215.61999 217.55350 219.60201 221.70252 223.79102
 225.85653 227.94604 230.04855 232.16006 234.29457 236.47208 238.73359 241.10910
 243.73561 245.99212 247.99963 249.77014 251.19265 252.32116 253.14867 253.47018
 253.51269 253.29220 252.65771 251.61122 250.22273 248.38923 246.30374 244.14225
 241.93876 239.74827 237.57378 235.41829 233.28380 231.15631 229.18782 227.35033
 225.63884 224.11635 222.75186 221.52937 220.41688 219.38239 218.49190 217.63841
 216.88592 216.07143 215.17494 214.54444 213.99995 214.06075 214.04631 213.34470
 212.96806 213.71562 215.20085 217.07292 219.26042 222.32397 226.92476 231.26427
 234.88240 238.88998 242.94070 246.80473 250.44110 254.12239 257.71786 261.02890
 264.11130 266.84122 269.15790 271.17914 272.86798 274.20926 275.63196 277.19128
 279.38870 281.28516 282.92624 284.36722 285.61426 286.71756 287.72415 288.63608
 289.45624 290.18661 290.82465 291.63773
 366.78100 356.34152 345.78003 334.65255 323.06206 311.26258 299.13909 286.94861
 274.66712 262.57064 250.58616 239.89367 230.02219 221.13270 213.32122 206.32973
 200.17025 195.11476 191.70328 189.75180 188.79531 188.86583 189.70734 191.02186
 192.75337 194.85489 197.12440 199.48992 201.94144 204.42795 206.52247 208.37098
 210.00350 211.15501 211.39053 211.62504 211.56856 211.28008 210.91959 210.55611
 210.17962 209.89614 209.71065 209.58117 209.51568 209.85320 210.24572 210.64123
 211.44075 212.62526 213.88178 215.67129 217.60581 219.65532 221.75684 223.84636
 225.91287 228.00339 230.10690 232.21942 234.35493 236.53345 238.79596 241.17248
 243.80000 246.05751 248.06603 249.83754 251.26106 252.39057 253.21909 253.54160
 253.58512 253.36564 252.73215 251.68667 250.29918 248.46670 246.38221 244.22173
 242.01924 239.82976 237.65628 235.50179 233.36831 231.24182 229.27434 227.43785
 225.72737 224.20588 222.84240 221.62092 220.50943 219.47595 218.58646 217.73398
 216.98249 216.16901 215.27352 214.64404 214.10056 214.09650 214.02014 213.52631
 213.07831 213.76147 215.22626 216.89255 219.05571 222.25700 226.72472 231.17270
 234.76901 238.74232 242.76730 246.64020 250.35593 254.06836 257.68280 261.01013
 264.10983 266.90259 269.23309 271.14432 272.82919 274.19977 275.60428 277.02936
 278.79346 280.76950 282.47946 283.98093 285.28030 286.42993 287.47882 288.42902
 289.28360 290.04462 290.70944 291.55667
 366.78100 356.34237 345.78175 334.65512 323.06549 311.26686 299.14424 286.95461
 274.67398 262.57836 250.59473 239.90310 230.03248 221.14385 213.33322 206.34259
 200.18397 195.12934 191.71871 189.76809 188.81246 188.88383 189.72620 191.04158
 192.77395 194.87632 197.14670 199.51307 201.96544 204.45282 206.54819 208.39756
 210.03093 211.18331 211.41968 211.65505 211.59943 211.31180 210.95217 210.58954
 210.21392 209.93129 209.74666 209.61804 209.55341 209.89178 210.28516 210.68153
 211.48190 212.66727 213.92465 215.71502 217.65039 219.70077 221.80314 223.89351
 225.96088 228.05226 230.15663 232.27000 234.40638 236.58575 238.84912 241.22650
 243.85487 246.11324 248.12261 249.89499 251.31936 252.44973 253.27911 253.60248
 253.64685 253.42823 252.79560 251.75097 250.36434 248.53272 246.44909 244.28946
 242.08784 239.89921 237.72658 235.57295 233.44033 231.31470 229.34807 227.51245
 225.80282 224.28219 222.91957 221.69894 220.58831 219.55568 218.66706 217.81543
 217.06480 216.25218 215.35755 214.72892 214.18629 214.13651 213.99736 213.63271
 213.17105 213.81252 215.30382 216.91298 219.00305 222.27916 226.62170 231.10559
 234.65726 238.57782 242.56145 246.42909 250.19699 253.96913 257.60504 260.95447
 264.07312 266.87033 269.19876 271.08588 272.74985 274.16153 275.64597 277.00089
 278.33670 280.07022 281.70895 283.14789 284.39316 285.49490 286.50006 287.41068
 288.22968 288.95898 289.59613 290.40805
 366.78100 356.34162 345.78023 334.65285 323.06247 311.26309 299.13970 286.94932
 274.66794 262.57156 250.58717 239.89479 230.02341 221.13403 213.32264 206.33126
 200.17188 195.11650 191.70511 189.75373 188.79735 188.86797 189.70958 191.02420
 192.75582 194.85744 197.12705 199.49267 201.94429 204.43091 206.52552 208.37414
 210.00676 211.15838 211.39399 211.62861 211.57223 211.28385 210.92346 210.56008
 210.18370 209.90032 209.71493 209.58555 209.52017 209.85779 210.25040 210.64602
 211.44564 212.63026 213.88687 215.67649 217.61111 219.66073 221.76234 223.85196
 225.91858 228.00920 230.11281 232.22543 234.36105 236.53967 238.80228 241.17890
 243.80652 246.06414 248.07275 249.84437 251.26799 252.39761 253.22622 253.54884
 253.59246 253.37308 252.73969 251.69431 250.30693 248.47455 246.39016 244.22978
 242.02740 239.83802 237.66463 235.51025 233.37687 231.25049 229.28310 227.44672
 225.73634 224.21496 222.85157 221.63019 220.51881 219.48543 218.59604 217.74366
 216.99228 216.17890 215.28351 214.65413 214.11075 214.11165 214.07275 213.66266
 213.14085 213.80476 215.32059 216.93427 219.00049 222.26753 226.72122 231.14264
 234.67001 238.53606 242.47906 246.33104 250.12625 253.94743 257.59976 260.94589
 264.07767 266.89194 269.23288 271.10373 272.74762 274.14062 275.71967 277.11594
 278.39319 280.19589 281.87381 283.34714 284.62219 285.75027 286.77948 287.71188
 288.55045 289.29721 289.94958 290.78091
 366.78100 356.34010 345.77720 334.64830 323.05641 311.25551 299.13061 286.93871
 274.65581 262.55791 250.57201 239.87812 230.00522 221.11432 213.30142 206.30852
 200.14762 195.09072 191.67782 189.72493 188.76703 188.83613 189.67623 190.98933
 192.71943 194.81953 197.08764 199.45174 201.90184 204.38694 206.48004 208.32714
 209.95824 211.10835 211.34245 211.57555 211.51765 211.22775 210.86585 210.50095
 210.12305 209.83816 209.65126 209.52036 209.45346 209.78956 210.18066 210.57476
 211.37287 212.55597 213.81107 215.59917 217.53227 219.58037 221.68047 223.76858
 225.83368 227.92278 230.02488 232.13598 234.27008 236.44718 238.70828 241.08339
 243.70949 245.96559 247.97269 249.74279 251.16489 252.29299 253.12010 253.44120
 253.48330 253.26240 252.62750 251.58060 250.19170 248.35781 246.27191 244.11001
 241.90611 239.71521 237.54031 235.38441 233.24952 231.12162 229.15272 227.31482
 225.60292 224.08002 222.71512 221.49222 220.37933 219.34443 218.45353 217.59963
 216.84673 216.03183 215.13493 214.50404 213.95914 214.06117 214.18069 213.60529
 213.12868 213.84178 215.34494 216.92059 218.96823 222.17014 226.80452 231.15532
 234.67126 238.49712 242.41130 246.25555 250.08121 253.93616 257.58499 260.92291
 264.05765 266.87012 269.23068 271.10684 272.73206 274.16068 275.88116 277.29123
 278.91867 280.94131 282.71466 284.27179 285.61932 286.81155 287.89929 288.88470
 289.77097 290.56018 291.24963 292.12827
 366.78100 356.33927 345.77555 334.64582 323.05309 311.25137 299.12564 286.93292
 274.64919 262.55046 250.56374 239.86901 229.99528 221.10356 213.28983 206.29611
 200.13438 195.07665 191.66293 189.70920 188.75047 188.81875 189.65802 190.97030
 192.69957 194.79884 197.06612 199.42939 201.87866 204.36294 206.45521 208.30149
 209.93176 211.08103 211.31431 211.54658 211.48785 211.19713 210.83440 210.46868
 210.08995 209.80422 209.61650 209.48477 209.41704 209.75232 210.14259 210.53587
 211.33314 212.51541 213.76969 215.55696 217.48923 219.53651 221.63578 223.72306
 225.78733 227.87560 229.97688 232.08715 234.22042 236.39670 238.65697 241.03125
 243.65652 245.91179 247.91807 249.68734 251.10861 252.23589 253.06216 253.38244
 253.42371 253.20198 252.56626 251.51853 250.12880 248.29408 246.20735 244.04462
 241.83990 239.64817 237.47245 235.31572 233.17999 231.05127 229.08154 227.24281
 225.53009 224.00636 222.64064 221.41691 220.30318 219.26746 218.37573 217.52100
 216.76728 215.95155 215.05383 214.42210 213.87637 214.03543 214.25513 213.59508
 213.07376 213.81421 215.38087 216.96797 218.97424 222.18306 226.84207 231.16943
 234.67300 238.46799 242.35797 246.20518 250.06735 253.93655 257.57214 260.91284
 264.06433 266.85959 269.16574 270.95401 272.61542 274.15649 276.03351 277.52325
 279.34534 281.33737 283.09058 284.63000 285.96225 287.14096 288.21634 289.19055
 290.06677 290.84702 291.52866 292.39731
 366.78100 356.33944 345.77589 334.64633 323.05378 311.25222 299.12667 286.93411
 274.65056 262.55200 250.56545 239.87089 229.99734 221.10578 213.29223 206.29867
 200.13712 195.07956 191.66601 189.71245 188.75390 188.82234 189.66179 190.97423
 192.70367 194.80312 197.07056 199.43401 201.88345 204.36790 206.46034 208.30679
 209.93723 211.08668 211.32012 211.55257 211.49401 211.20346 210.84090 210.47535
 210.09679 209.81124 209.62368 209.49213 209.42457 209.76002 210.15046 210.54390
 211.34135 212.52379 213.77824 215.56568 217.49813 219.54557 221.64502 223.73246
 225.79691 227.88535 229.98680 232.09724 234.23069 236.40713 238.66758 241.04202
 243.66747 245.92291 247.92936 249.69880 251.12025 252.24769 253.07413 253.39458
 253.43602 253.21447 252.57891 251.53136 250.14180 248.30725 246.22069 244.05814
 241.85358 239.66203 237.48647 235.32992 233.19436 231.06581 229.09625 227.25770
 225.54514 224.02159 222.65603 221.43248 220.31892 219.28336 218.39181 217.53725
 216.78370 215.96814 215.07059 214.43903 213.89348 214.03526 214.28770 213.79214
 213.01244 213.60583 215.21436 216.92763 219.04631 222.33316 226.86693 231.20990
 234.71176 238.48291 242.34177 246.19930 250.07288 253.94017 257.57251 260.92618
 264.08276 266.83749 269.04257 270.80515 272.50385 274.13730 276.09720 277.84500
 279.61691 281.47745 283.27313 284.84991 286.21445 287.42172 288.52316 289.52103
 290.41846 291.21765 291.91580 292.80551
 366.78100 356.34054 345.77808 334.64961 323.05815 311.25769 299.13323 286.94176
 274.65930 262.56184 250.57638 239.88291 230.01045 221.11999 213.30753 206.31506
 200.15460 195.09814 191.68568 189.73321 188.77575 188.84529 189.68583 190.99937
 192.72990 194.83044 197.09898 199.46352 201.91405 204.39959 206.49313 208.34067
 209.97220 211.12274 211.35728 211.59082 211.53335 211.24389 210.88243 210.51797
 210.14050 209.85604 209.66958 209.53912 209.47266 209.80919 210.20073 210.59527
 211.39381 212.57734 213.83288 215.62142 217.55496 219.60349 221.70403 223.79257
 225.85811 227.94764 230.05018 232.16172 234.29626 236.47379 238.73533 241.11087
 243.73741 245.99395 248.00148 249.77202 251.19456 252.32310 253.15063 253.47217
 253.51471 253.29425 252.65978 251.61332 250.22486 248.39140 246.30593 244.14447
 241.94101 239.75055 237.57608 235.42062 233.28616 231.15870 229.19024 227.35277
 225.64131 224.11885 222.75439 221.53192 220.41946 219.38500 218.49454 217.64107
 216.88861 216.07415 215.17769 214.54722 214.00276 214.08192 214.25450 214.02797
 213.16896 213.45206 214.94594 216.71581 218.97417 222.34192 226.83481 231.19975
 234.69035 238.43813 242.27570 246.14198 250.03500 253.91859 257.55206 260.91425
 264.07010 266.85968 269.01163 270.72479 272.43008 274.14990 276.22119 278.05984
 279.82654 281.61755 283.27835 284.78308 286.08533 287.23746 288.28860 289.24088
 290.09732 290.86002 291.52628 292.37537
 366.78100 356.34095 345.77890 334.65085 323.05980 311.25975 299.13570 286.94465
 274.66260 262.56555 250.58050 239.88745 230.01540 221.12535 213.31330 206.32125
 200.16120 195.10515 191.69310 189.74105 188.78400 188.85395 189.69490 191.00885
 192.73980 194.84075 197.10970 199.47465 201.92560 204.41155 206.50550 208.35345
 209.98540 211.13635 211.37130 211.60525 211.54820 211.25915 210.89810 210.53405
 210.15700 209.87295 209.68690 209.55685 209.49080 209.82775 210.21970 210.61465
 211.41360 212.59755 213.85350 215.64245 217.57640 219.62535 221.72630 223.81525
 225.88120 227.97115 230.07410 232.18605 234.32100 236.49895 238.76090 241.13685
 243.76380 246.02075 248.02870 249.79965 251.22260 252.35155 253.17950 253.50145
 253.54440 253.32435 252.69030 251.64425 250.25620 248.42315 246.33810 244.17706
 241.97401 239.78396 237.60991 235.45486 233.32081 231.19376 229.22571 227.38866
 225.67761 224.15556 222.79151 221.56946 220.45741 219.42336 218.53331 217.68026
 216.92821 216.11416 215.21811 214.58806 214.04401 214.12177 214.26781 213.99483
 213.36298 213.60365 214.92911 216.61884 218.85651 222.25026 226.75307 231.11224
 234.58861 238.30348 242.12334 246.00966 249.95232 253.85139 257.49091 260.85690
 264.04034 266.82126 268.96176 270.66031 272.40414 274.24710 276.42264 278.23209
 280.19052 282.01321 283.70480 285.19568 286.48590 287.62744 288.66891 289.61243
 290.46100 291.21664 291.87677 292.71802
 366.78100 356.33994 345.77687 334.64781 323.05575 311.25468 299.12962 286.93756
 274.65450 262.55643 250.57037 239.87631 230.00324 221.11218 213.29912 206.30605
 200.14499 195.08793 191.67486 189.72180 188.76374 188.83267 189.67261 190.98555
 192.71549 194.81542 197.08336 199.44730 201.89723 204.38217 206.47511 208.32204
 209.95298 211.10292 211.33685 211.56979 211.51173 211.22166 210.85960 210.49454
 210.11648 209.83141 209.64435 209.51329 209.44622 209.78216 210.17310 210.56703
 211.36497 212.54791 213.80284 215.59078 217.52372 219.57165 221.67159 223.75953
 225.82447 227.91340 230.01534 232.12628 234.26021 236.43715 238.69809 241.07302
 243.69896 245.95490 247.96183 249.73177 251.15371 252.28164 253.10858 253.42952
 253.47146 253.25039 252.61533 251.56827 250.17920 248.34514 246.25908 244.09701
 241.89295 239.70189 237.52682 235.37076 233.23570 231.10763 229.13857 227.30051
 225.58845 224.06538 222.70032 221.47726 220.36419 219.32913 218.43807 217.58400
 216.83094 216.01588 215.11881 214.48775 213.94269 214.09851 214.35596 213.88103
 213.33923 213.74588 215.06682 216.71387 218.88248 222.23270 226.77184 231.07101
 234.51494 238.19066 241.99156 245.89764 249.88744 253.80238 257.44717 260.80945
 263.99478 266.76477 268.87225 270.54752 272.36871 274.23471 276.40695 278.47073
 280.39172 282.21591 283.85223 285.28903 286.53247 287.63257 288.63626 289.54553
 290.36334 291.09158 291.72775 292.53851
 366.78100 356.33958 345.77616 334.64675 323.05433 311.25291 299.12749 286.93507
 274.65165 262.55324 250.56682 239.87240 229.99898 221.10756 213.29415 206.30073
 200.13931 195.08189 191.66847 189.71505 188.75664 188.82522 189.66480 190.97738
 192.70696 194.80655 197.07413 199.43771 201.88729 204.37187 206.46445 208.31104
 209.94162 211.09120 211.32478 211.55736 211.49895 211.20853 210.84611 210.48069
 210.10227 209.81685 209.62944 209.49802 209.43060 209.76618 210.15676 210.55034
 211.34793 212.53051 213.78509 215.57267 217.50525 219.55284 221.65242 223.74000
 225.80458 227.89316 229.99474 232.10533 234.23891 236.41549 238.67607 241.05065
 243.67624 245.93182 247.93840 249.70798 251.12956 252.25714 253.08373 253.40431
 253.44589 253.22447 252.58905 251.54164 250.15222 248.31780 246.23138 244.06896
 241.86454 239.67313 237.49771 235.34129 233.20587 231.07745 229.10804 227.26962
 225.55720 224.03378 222.66836 221.44494 220.33153 219.29611 218.40469 217.55027
 216.79685 215.98144 215.08402 214.45260 213.90718 214.09979 214.42055 213.90936
 213.28180 213.71605 215.07220 216.78806 218.99606 222.20229 226.81816 231.05914
 234.45959 238.10062 241.89130 245.81708 249.84897 253.78108 257.42523 260.79633
 263.96429 266.70416 268.73889 270.46988 272.38174 274.32224 276.23679 278.32654
 280.37540 282.26437 283.89899 285.33429 286.57642 287.67538 288.67801 289.58633
 290.40329 291.13077 291.76627 292.57617
 366.78100 356.33991 345.77682 334.64773 323.05564 311.25455 299.12946 286.93737
 274.65428 262.55619 250.57010 239.87601 230.00291 221.11182 213.29873 206.30564
 200.14455 195.08746 191.67437 189.72128 188.76319 188.83210 189.67201 190.98492
 192.71483 194.81474 197.08265 199.44656 201.89647 204.38138 206.47429 208.32120
 209.95211 211.10202 211.33593 211.56883 211.51074 211.22065 210.85856 210.49347
 210.11538 209.83029 209.64320 209.51211 209.44502 209.78093 210.17184 210.56575
 211.36366 212.54657 213.80148 215.58939 217.52230 219.57021 221.67012 223.75803
 225.82294 227.91185 230.01375 232.12466 234.25857 236.43548 238.69639 241.07130
 243.69721 245.95312 247.96003 249.72994 251.15185 252.27976 253.10667 253.42758
 253.46949 253.24840 252.61331 251.56622 250.17713 248.34304 246.25695 244.09486
 241.89077 239.69967 237.52458 235.36849 233.23340 231.10531 229.13622 227.29813
 225.58604 224.06295 222.69786 221.47477 220.36168 219.32659 218.43550 217.58141
 216.82832 216.01323 215.11614 214.48505 213.93996 214.13130 214.44806 213.98724
 213.28247 213.58025 214.94139 216.80550 219.09209 222.26233 226.85942 231.07245
 234.43542 238.04533 241.83913 245.79333 249.86655 253.80183 257.44424 260.82904
 264.01181 266.73242 268.70895 270.41867 272.40103 274.32034 276.06049 278.00922
 280.21011 282.15100 283.83051 285.30524 286.58151 287.71066 288.74084 289.67413
 290.51349 291.26096 291.91394 292.74609
 366.78100 356.34026 345.77752 334.64878 323.05704 311.25630 299.13156 286.93982
 274.65708 262.55934 250.57360 239.87986 230.00712 221.11638 213.30364 206.31090
 200.15016 195.09342 191.68068 189.72794 188.77020 188.83945 189.67971 190.99297
 192.72323 194.82349 197.09175 199.45601 201.90627 204.39153 206.48479 208.33205
 209.96331 211.11357 211.34783 211.58109 211.52335 211.23361 210.87187 210.50713
 210.12939 209.84465 209.65791 209.52717 209.46043 209.79669 210.18795 210.58221
 211.38047 212.56373 213.81899 215.60725 217.54051 219.58877 221.68903 223.77729
 225.84255 227.93181 230.03407 232.14533 234.27959 236.45685 238.71810 241.09336
 243.71962 245.97588 247.98314 249.75340 251.17566 252.30392 253.13118 253.45244
 253.49470 253.27396 252.63922 251.59248 250.20374 248.37000 246.28426 244.12252
 241.91878 239.72804 237.55330 235.39756 233.26282 231.13508 229.16634 227.32860
 225.61686 224.09412 222.72938 221.50664 220.39390 219.35916 218.46842 217.61468
 216.86194 216.04720 215.15046 214.51972 213.97498 214.15025 214.46490 214.08804
 213.34372 213.47418 214.79791 216.68941 219.06418 222.32547 226.89516 231.10463
 234.45755 238.06360 241.86668 245.85069 249.91199 253.84010 257.47827 260.86017
 264.01773 266.75912 268.80881 270.46542 272.36707 274.22595 275.95636 277.61035
 279.67303 281.66714 283.39273 284.90790 286.21918 287.37930 288.43774 289.39664
 290.25903 291.02701 291.69791 292.55286
 366.78100 356.34192 345.78085 334.65377 323.06369 311.26462 299.14154 286.95146
 274.67039 262.57431 250.59023 239.89816 230.02708 221.13800 213.32693 206.33585
 200.17677 195.12170 191.71062 189.75955 188.80347 188.87439 189.71632 191.03124
 192.76316 194.86509 197.13501 199.50093 201.95286 204.43978 206.53470 208.38363
 210.01655 211.16847 211.40440 211.63932 211.58324 211.29517 210.93509 210.57201
 210.19594 209.91286 209.72778 209.59871 209.53363 209.87155 210.26448 210.66040
 211.46032 212.64525 213.90217 215.69209 217.62702 219.67694 221.77886 223.86879
 225.93571 228.02664 230.13056 232.24348 234.37941 236.55833 238.82125 241.19818
 243.82610 246.08402 248.09295 249.86487 251.28879 252.41872 253.24764 253.57056
 253.61449 253.39541 252.76233 251.71726 250.33018 248.49810 246.41403 244.25395
 242.05187 239.86280 237.68972 235.53564 233.40257 231.27649 229.30941 227.47334
 225.76326 224.24218 222.87911 221.65803 220.54695 219.51388 218.62480 217.77273
 217.02165 216.20857 215.31350 214.68442 214.14134 214.23062 214.42931 214.25381
 213.45880 213.41980 214.62582 216.48062 218.92358 222.32068 226.85820 231.06799
 234.40620 238.00679 241.82382 245.83261 249.89043 253.81195 257.46094 260.84393
 263.97998 266.69086 268.81601 270.48947 272.33356 274.15326 276.02545 277.51764
 279.30585 281.30661 283.06122 284.60193 285.93527 287.11493 288.19119 289.16620
 290.04312 290.82404 291.50620 292.37555
 366.78100 356.34252 345.78204 334.65556 323.06608 311.26761 299.14513 286.95565
 274.67517 262.57969 250.59621 239.90473 230.03425 221.14577 213.33530 206.34482
 200.18634 195.13186 191.72138 189.77090 188.81542 188.88694 189.72946 191.04499
 192.77751 194.88003 197.15055 199.51707 201.96959 204.45711 206.55263 208.40215
 210.03568 211.18820 211.42472 211.66024 211.60476 211.31728 210.95780 210.59532
 210.21984 209.93737 209.75289 209.62441 209.55993 209.89845 210.29197 210.68849
 211.48901 212.67453 213.93206 215.72258 217.65810 219.70862 221.81114 223.90166
 225.96918 228.06070 230.16522 232.27875 234.41527 236.59479 238.85831 241.23583
 243.86435 246.12287 248.13239 249.90491 251.32944 252.45996 253.28948 253.61300
 253.65752 253.43904 252.80656 251.76208 250.37560 248.54413 246.46065 244.30117
 242.09969 239.91121 237.73873 235.58525 233.45277 231.32729 229.36082 227.52534
 225.81586 224.29538 222.93290 221.71242 220.60194 219.56946 218.68098 217.82951
 217.07903 216.26655 215.37207 214.74359 214.20111 214.27284 214.43254 214.28990
 213.57678 213.46094 214.54652 216.33623 218.77888 222.28036 226.82646 231.02136
 234.34419 237.93900 241.77190 245.81129 249.87640 253.79138 257.43860 260.83011
 263.95523 266.63464 268.79608 270.58328 272.39050 274.19363 276.21521 277.63055
 279.42816 281.35590 283.06812 284.57156 285.87265 287.02377 288.07404 289.02548
 289.88120 290.64322 291.30890 292.15723
 366.78100 356.34116 345.77933 334.65149 323.06065 311.26082 299.13698 286.94614
 274.66430 262.56747 250.58263 239.88979 230.01796 221.12812 213.31628 206.32445
 200.16461 195.10877 191.69694 189.74510 188.78826 188.85842 189.69959 191.01375
 192.74491 194.84608 197.11524 199.48040 201.93157 204.41773 206.51189 208.36006
 209.99222 211.14338 211.37854 211.61271 211.55587 211.26703 210.90620 210.54236
 210.16552 209.88169 209.69585 209.56601 209.50018 209.83734 210.22950 210.62466
 211.42383 212.60799 213.86415 215.65332 217.58748 219.63664 221.73781 223.82697
 225.89313 227.98330 230.08646 232.19862 234.33378 236.51195 238.77411 241.15027
 243.77744 246.03460 248.04276 249.81393 251.23709 252.36625 253.19442 253.51658
 253.55974 253.33990 252.70607 251.66023 250.27239 248.43956 246.35472 244.19388
 241.99105 239.80121 237.62737 235.47254 233.33870 231.21186 229.24402 227.40719
 225.69635 224.17451 222.81068 221.58884 220.47700 219.44317 218.55333 217.70049
 216.94866 216.13482 215.23898 214.60914 214.06531 214.22141 214.51805 214.24567
 213.65646 213.53943 214.52728 216.28014 218.74771 222.28236 226.78316 230.99013
 234.30345 237.89424 241.74252 245.80180 249.86050 253.75377 257.39246 260.77713
 263.88272 266.50543 268.67758 270.53574 272.35464 274.20840 276.16205 277.71143
 279.36459 281.10944 282.75607 284.20193 285.45319 286.56024 287.57025 288.48526
 289.30820 290.04105 290.68124 291.49710
 366.78100 356.34071 345.77843 334.65014 323.05886 311.25857 299.13429 286.94300
 274.66072 262.56343 250.57814 239.88486 230.01257 221.12229 213.31000 206.31772
 200.15743 195.10115 191.68886 189.73657 188.77929 188.84900 189.68972 191.00343
 192.73415 194.83486 197.10358 199.46829 201.91901 204.40472 206.49843 208.34615
 209.97786 211.12858 211.36329 211.59701 211.53972 211.25044 210.88915 210.52486
 210.14758 209.86329 209.67701 209.54672 209.48044 209.81715 210.20887 210.60358
 211.40229 212.58601 213.84172 215.63044 217.56415 219.61287 221.71358 223.80230
 225.86801 227.95772 230.06044 232.17215 234.30687 236.48458 238.74630 241.12201
 243.74873 246.00544 248.01315 249.78387 251.20658 252.33530 253.16301 253.48473
 253.52744 253.30716 252.67287 251.62659 250.23830 248.40501 246.31973 244.15844
 241.95516 239.76487 237.59059 235.43530 233.30102 231.17373 229.20544 227.36816
 225.65687 224.13459 222.77030 221.54802 220.43573 219.40145 218.51116 217.65787
 216.90559 216.09130 215.19502 214.56473 214.02045 214.22183 214.58081 214.21445
 213.70407 213.65213 214.52855 216.18301 218.65601 222.21835 226.81291 230.92868
 234.22728 237.82214 241.69319 245.76814 249.82588 253.71704 257.36279 260.74728
 263.78836 266.35059 268.49884 270.42258 272.39468 274.28952 275.99173 277.41168
 279.15802 281.01755 282.71588 284.20715 285.49774 286.63956 287.68127 288.62503
 289.47382 290.22968 290.88998 291.73145
 366.78100 356.34098 345.77896 334.65094 323.05992 311.25990 299.13588 286.94486
 274.66283 262.56581 250.58079 239.88777 230.01575 221.12573 213.31371 206.32169
 200.16167 195.10565 191.69363 189.74161 188.78459 188.85457 189.69555 191.00953
 192.74050 194.84148 197.11046 199.47544 201.92642 204.41240 206.50638 208.35436
 209.98634 211.13732 211.37230 211.60628 211.54926 211.26024 210.89922 210.53520
 210.15817 209.87415 209.68813 209.55811 209.49209 209.82907 210.22105 210.61603
 211.41501 212.59899 213.85497 215.64395 217.57793 219.62691 221.72789 223.81686
 225.88284 227.97282 230.07580 232.18778 234.32276 236.50074 238.76272 241.13870
 243.76568 246.02266 248.03064 249.80162 251.22460 252.35358 253.18156 253.50353
 253.54651 253.32649 252.69247 251.64645 250.25843 248.42541 246.34039 244.17937
 241.97635 239.78633 237.61231 235.45729 233.32327 231.19625 229.22822 227.39120
 225.68018 224.15816 222.79414 221.57212 220.46010 219.42608 218.53606 217.68304
 216.93102 216.11700 215.22098 214.59096 214.04694 214.25713 214.61815 214.19629
 213.65433 213.67661 214.47655 216.08105 218.65427 222.19780 226.91751 230.97714
 234.25833 237.85149 241.73271 245.81960 249.88405 253.78867 257.44525 260.82343
 263.84357 266.35297 268.43021 270.42691 272.49704 274.37387 275.99423 277.38736
 278.98022 280.77664 282.33115 283.69611 284.87735 285.92245 286.87595 287.73975
 288.51666 289.20850 289.81287 290.58307
 366.78100 356.34104 345.77909 334.65113 323.06017 311.26022 299.13626 286.94530
 274.66335 262.56639 250.58143 239.88847 230.01652 221.12656 213.31460 206.32265
 200.16269 195.10673 191.69478 189.74282 188.78586 188.85591 189.69695 191.01099
 192.74204 194.84308 197.11212 199.47716 201.92821 204.41425 206.50829 208.35634
 209.98838 211.13942 211.37447 211.60851 211.55155 211.26260 210.90164 210.53768
 210.16073 209.87677 209.69081 209.56086 209.49490 209.83194 210.22398 210.61903
 211.41807 212.60211 213.85816 215.64720 217.58124 219.63029 221.73133 223.82037
 225.88642 227.97646 230.07950 232.19155 234.32659 236.50463 238.76667 241.14272
 243.76976 246.02680 248.03485 249.80589 251.22893 252.35798 253.18602 253.50806
 253.55111 253.33115 252.69719 251.65124 250.26328 248.43032 246.34537 244.18441
 241.98145 239.79149 237.61754 235.46258 233.32862 231.20167 229.23371 227.39675
 225.68580 224.16384 222.79988 221.57793 220.46597 219.43201 218.54206 217.68910
 216.93714 216.12318 215.22723 214.59727 214.05331 214.27148 214.66656 214.25723
 213.63899 213.65059 214.34908 215.88068 218.54938 222.21892 226.92651 231.00475
 234.29007 237.88588 241.78061 245.88556 249.96376 253.88353 257.55731 260.93555
 263.94861 266.44919 268.46027 270.43134 272.48120 274.31192 275.95789 277.29108
 278.76453 280.52295 282.04971 283.39032 284.55051 285.57697 286.51346 287.36185
 288.12488 288.80438 289.39795 290.15442
 366.78100 356.34156 345.78013 334.65269 323.06226 311.26282 299.13939 286.94895
 274.66752 262.57108 250.58665 239.89421 230.02278 221.13334 213.32191 206.33047
 200.17104 195.11560 191.70417 189.75273 188.79630 188.86686 189.70843 191.02299
 192.75456 194.85612 197.12569 199.49125 201.94282 204.42938 206.52395 208.37251
 210.00508 211.15664 211.39221 211.62677 211.57034 211.28190 210.92147 210.55803
 210.18160 209.89816 209.71273 209.58329 209.51786 209.85542 210.24799 210.64355
 211.44312 212.62768 213.88425 215.67381 217.60838 219.65794 221.75951 223.84907
 225.91564 228.00620 230.10977 232.22233 234.35790 236.53646 238.79903 241.17559
 243.80316 246.06072 248.06929 249.84085 251.26442 252.39398 253.22255 253.54511
 253.58868 253.36924 252.73581 251.69037 250.30294 248.47050 246.38607 244.22563
 242.02320 239.83376 237.66033 235.50589 233.37246 231.24602 229.27859 227.44215
 225.73172 224.21028 222.84685 221.62541 220.51398 219.48054 218.59111 217.73867
 216.98724 216.17380 215.27837 214.64893 214.10550 214.31007 214.68855 214.32243
 213.68831 213.67415 214.26332 215.68042 218.40842 222.14407 226.81364 230.91571
 234.19397 237.80069 241.72284 245.86461 249.96802 253.90746 257.59595 260.99582
 264.03412 266.54303 268.56128 270.48190 272.46429 274.25107 275.91183 277.31207
 278.79855 280.71933 282.38391 283.84552 285.11044 286.22955 287.25058 288.17557
 289.00748 289.74832 290.39548 291.22021
 366.78100 356.34259 345.78219 334.65578 323.06637 311.26797 299.14556 286.95616
 274.67575 262.58034 250.59694 239.90553 230.03512 221.14672 213.33631 206.34590
 200.18750 195.13309 191.72268 189.77228 188.81687 188.88847 189.73106 191.04665
 192.77925 194.88184 197.15243 199.51903 201.97162 204.45921 206.55481 208.40440
 210.03799 211.19059 211.42718 211.66278 211.60737 211.31996 210.96056 210.59815
 210.22274 209.94034 209.75593 209.62752 209.56312 209.90171 210.29531 210.69190
 211.49249 212.67809 213.93568 215.72627 217.66187 219.71246 221.81505 223.90565
 225.97324 228.06483 230.16943 232.28302 234.41962 236.59921 238.86280 241.24040
 243.86899 246.12758 248.13718 249.90977 251.33436 252.46496 253.29455 253.61814
 253.66274 253.44433 252.81193 251.76752 250.38111 248.54971 246.46630 244.30689
 242.10549 239.91708 237.74467 235.59127 233.45886 231.33345 229.36705 227.53164
 225.82224 224.30183 222.93942 221.71902 220.60861 219.57620 218.68780 217.83639
 217.08598 216.27358 215.37917 214.75077 214.20836 214.37015 214.68317 214.36768
 213.67273 213.67380 214.27205 215.62297 218.35439 222.17493 226.72746 230.84772
 234.10504 237.71133 241.65231 245.81635 249.92592 253.85208 257.54581 260.96341
 263.99524 266.50842 268.60031 270.60568 272.54468 274.22842 275.94000 277.43103
 279.09079 281.02188 282.80078 284.36276 285.71454 286.91049 288.00162 288.99014
 289.87918 290.67087 291.36249 292.24387
 366.78100 356.34315 345.78331 334.65746 323.06862 311.27077 299.14892 286.96008
 274.68023 262.58539 250.60254 239.91169 230.04185 221.15400 213.34416 206.35431
 200.19646 195.14262 191.73277 189.78293 188.82808 188.90023 189.74339 191.05954
 192.79270 194.89585 197.16701 199.53416 201.98731 204.47547 206.57162 208.42178
 210.05593 211.20908 211.44624 211.68239 211.62755 211.34070 210.98185 210.62001
 210.24516 209.96332 209.77947 209.65162 209.58778 209.92693 210.32109 210.71824
 211.51939 212.70555 213.96370 215.75486 217.69101 219.74216 221.84532 223.93647
 226.00463 228.09678 230.20193 232.31609 234.45324 236.63340 238.89755 241.27570
 243.90486 246.16401 248.17417 249.94732 251.37247 252.50363 253.33378 253.65794
 253.70309 253.48525 252.85340 251.80955 250.42371 248.59286 246.51002 244.35117
 242.15032 239.96248 237.79063 235.63779 233.50594 231.38109 229.41525 227.58040
 225.87156 224.35171 222.98986 221.77002 220.66017 219.62833 218.74048 217.88963
 217.13979 216.32794 215.43410 214.80625 214.26440 214.40050 214.68391 214.44963
 213.65903 213.53415 214.21646 215.67560 218.41237 222.21613 226.71332 230.84486
 234.07564 237.68198 241.62726 245.79930 249.88976 253.76376 257.41315 260.77173
 263.74222 266.25476 268.41827 270.52081 272.52060 274.32401 275.97931 277.50031
 279.09973 280.70483 282.23871 283.68887 284.94687 286.05991 287.07535 287.99530
 288.82266 289.55945 290.20309 291.02335
 366.78100 356.34262 345.78225 334.65587 323.06650 311.26812 299.14575 286.95637
 274.67599 262.58062 250.59724 239.90587 230.03549 221.14712 213.33674 206.34636
 200.18799 195.13361 191.72324 189.77286 188.81749 188.88911 189.73173 191.04736
 192.77998 194.88261 197.15323 199.51985 201.97248 204.46010 206.55573 208.40535
 210.03898 211.19160 211.42822 211.66385 211.60847 211.32110 210.96172 210.59935
 210.22397 209.94159 209.75722 209.62884 209.56447 209.90309 210.29672 210.69334
 211.49396 212.67959 213.93721 215.72784 217.66346 219.71409 221.81671 223.90733
 225.97496 228.06658 230.17121 232.28483 234.42146 236.60108 238.86470 241.24233
 243.87095 246.12958 248.13920 249.91183 251.33645 252.46707 253.29670 253.62032
 253.66495 253.44657 252.81420 251.76982 250.38344 248.55207 246.46869 244.30932
 242.10794 239.91956 237.74719 235.59381 233.46144 231.33606 229.36969 227.53431
 225.82493 224.30456 222.94218 221.72181 220.61143 219.57906 218.69068 217.83930
 217.08893 216.27655 215.38218 214.75380 214.21143 214.38232 214.74487 214.46582
 213.68864 213.31874 214.06563 215.64983 218.41133 222.23923 226.79846 230.83183
 234.09016 237.70015 241.64853 245.79303 249.84146 253.70117 257.35233 260.69473
 263.59189 266.08224 268.35577 270.52625 272.54953 274.37326 276.00394 277.39038
 278.65268 280.03662 281.28967 282.44293 283.49350 284.46918 285.35934 286.16577
 286.89105 287.53693 288.10114 288.82019
 366.78100 356.34158 345.78016 334.65275 323.06233 311.26291 299.13949 286.94907
 274.66766 262.57124 250.58682 239.89440 230.02298 221.13357 213.32215 206.33073
 200.17131 195.11589 191.70447 189.75306 188.79664 188.86722 189.70880 191.02338
 192.75497 194.85655 197.12613 199.49171 201.94329 204.42988 206.52446 208.37304
 210.00562 211.15720 211.39279 211.62737 211.57095 211.28253 210.92211 210.55870
 210.18228 209.89886 209.71344 209.58402 209.51860 209.85619 210.24877 210.64435
 211.44393 212.62851 213.88510 215.67468 217.60926 219.65884 221.76042 223.85001
 225.91659 228.00717 230.11075 232.22333 234.35892 236.53750 238.80008 241.17666
 243.80424 246.06183 248.07041 249.84199 251.26557 252.39515 253.22374 253.54632
 253.58990 253.37048 252.73706 251.69164 250.30423 248.47181 246.38739 244.22697
 242.02455 239.83514 237.66172 235.50730 233.37388 231.24746 229.28005 227.44363
 225.73321 224.21179 222.84837 221.62696 220.51554 219.48212 218.59270 217.74028
 216.98887 216.17545 215.28003 214.65061 214.10719 214.35706 214.86374 214.43733
 213.63562 213.30083 214.02724 215.70251 218.47108 222.28656 226.92921 230.93253
 234.14131 237.72797 241.66029 245.81627 249.86900 253.71800 257.35092 260.65347
 263.51532 265.99701 268.27618 270.55792 272.63168 274.31860 275.93307 277.25031
 278.45032 279.68835 280.76160 281.77545 282.85980 283.81918 284.69449 285.48743
 286.20059 286.83569 287.39047 288.09750
 366.78100 356.34200 345.78101 334.65401 323.06402 311.26502 299.14203 286.95203
 274.67104 262.57504 250.59105 239.89905 230.02806 221.13906 213.32807 206.33707
 200.17808 195.12308 191.71209 189.76109 188.80510 188.87610 189.71810 191.03311
 192.76511 194.86712 197.13712 199.50313 201.95513 204.44214 206.53714 208.38615
 210.01915 211.17116 211.40716 211.64217 211.58617 211.29818 210.93818 210.57519
 210.19919 209.91619 209.73120 209.60220 209.53721 209.87521 210.26822 210.66422
 211.46423 212.64923 213.90624 215.69624 217.63125 219.68125 221.78326 223.87326
 225.94027 228.03127 230.13528 232.24828 234.38429 236.56329 238.82629 241.20330
 243.83130 246.08931 248.09831 249.87032 251.29432 252.42433 253.25333 253.57634
 253.62034 253.40135 252.76835 251.72336 250.33636 248.50437 246.42037 244.26038
 242.05838 239.86938 237.69639 235.54239 233.40940 231.28340 229.31641 227.48041
 225.77042 224.24942 222.88643 221.66543 220.55444 219.52144 218.63245 217.78045
 217.02946 216.21646 215.32147 214.69247 214.14948 214.41080 214.91101 214.48456
 213.59943 213.19926 213.78419 215.50439 218.32173 222.19057 227.08846 231.04974
 234.29582 237.92578 241.87816 246.00706 250.07127 253.96625 257.62866 260.92450
 263.73016 266.11252 268.27286 270.49689 272.56128 274.27509 275.79846 277.27954
 278.61963 279.58704 280.31693 280.95782 281.51248 282.00320 282.45093 282.85651
 283.22128 283.54614 283.82993 284.19156
 366.78100 356.34421 345.78542 334.66064 323.07285 311.27606 299.15527 286.96748
 274.68870 262.59491 250.61312 239.92333 230.05454 221.16776 213.35897 206.37018
 200.21339 195.16060 191.75181 189.80303 188.84924 188.92245 189.76666 191.08387
 192.81809 194.92230 197.19451 199.56272 202.01693 204.50615 206.60336 208.45457
 210.08978 211.24399 211.48221 211.71942 211.66563 211.37984 211.02205 210.66127
 210.28748 210.00669 209.82390 209.69711 209.63433 209.97454 210.36975 210.76796
 211.57017 212.75738 214.01660 215.80881 217.74602 219.79823 221.90244 223.99466
 226.06387 228.15708 230.26329 232.37850 234.51672 236.69793 238.96314 241.34235
 243.97256 246.23278 248.24399 250.01820 251.44441 252.57662 253.40784 253.73305
 253.77926 253.56247 252.93168 251.88890 250.50411 248.67432 246.59253 244.43474
 242.23495 240.04817 237.87738 235.72559 233.59480 231.47101 229.50623 227.67244
 225.96465 224.44586 223.08507 221.86629 220.75750 219.72671 218.83992 217.99013
 217.24135 216.43056 215.53777 214.91098 214.37019 214.52876 214.85030 214.61699
 213.79134 213.16133 213.49570 215.09384 217.97824 222.03697 226.84976 230.94920
 234.23784 237.93643 241.97452 246.19319 250.33684 254.29219 258.00226 261.36838
 264.23108 266.58670 268.65533 270.72400 272.53406 274.19058 275.79291 277.25482
 278.51367 279.79214 281.33087 282.68201 283.85126 284.88577 285.82962 286.68466
 287.45367 288.13849 288.73672 289.49911
 366.78100 356.34462 345.78623 334.66185 323.07447 311.27809 299.15770 286.97032
 274.69194 262.59855 250.61717 239.92779 230.05940 221.17302 213.36464 206.37626
 200.21987 195.16749 191.75911 189.81072 188.85734 188.93096 189.77558 191.09319
 192.82781 194.93243 197.20504 199.57366 202.02828 204.51789 206.61551 208.46713
 210.10275 211.25736 211.49598 211.73360 211.68021 211.39483 211.03745 210.67707
 210.30368 210.02330 209.84092 209.71453 209.65215 209.99277 210.38838 210.78700
 211.58962 212.77724 214.03685 215.82947 217.76709 219.81970 221.92432 224.01694
 226.08656 228.18017 230.28679 232.40241 234.54102 236.72264 238.98826 241.36787
 243.99849 246.25911 248.27073 250.04534 251.47196 252.60458 253.43619 253.76181
 253.80843 253.59205 252.96166 251.91928 250.53490 248.70551 246.62413 244.46675
 242.26736 240.08098 237.91060 235.75922 233.62883 231.50545 229.54107 227.70768
 226.00030 224.48192 223.12154 221.90315 220.79477 219.76439 218.87800 218.02862
 217.28024 216.46985 215.57747 214.95109 214.41071 214.54742 214.83638 214.67242
 213.99420 213.32294 213.58105 215.04955 217.81172 221.76926 226.44917 230.62608
 233.93181 237.69525 241.80092 246.08049 250.24637 254.20140 257.90109 261.26370
 264.17874 266.61411 268.71988 270.71912 272.56827 274.18607 275.73218 277.15643
 278.46289 279.84097 281.19000 282.56015 283.82983 284.95316 285.97803 286.90649
 287.74152 288.48514 289.13477 289.96259
 366.78100 356.34277 345.78254 334.65631 323.06708 311.26885 299.14663 286.95740
 274.67717 262.58194 250.59871 239.90748 230.03725 221.14902 213.33879 206.34856
 200.19033 195.13611 191.72588 189.77565 188.82042 188.89219 189.73496 191.05073
 192.78350 194.88627 197.15704 199.52381 201.97659 204.46436 206.56013 208.40990
 210.04367 211.19644 211.43321 211.66898 211.61375 211.32652 210.96729 210.60506
 210.22984 209.94761 209.76338 209.63515 209.57092 209.90969 210.30346 210.70023
 211.50100 212.68677 213.94454 215.73532 217.67109 219.72186 221.82463 223.91540
 225.98317 228.07494 230.17971 232.29348 234.43025 236.61002 238.87380 241.25157
 243.88034 246.13911 248.14888 249.92165 251.34642 252.47719 253.30696 253.63073
 253.67550 253.45728 252.82505 251.78082 250.39459 248.56336 246.48013 244.32090
 242.11967 239.93144 237.75921 235.60598 233.47376 231.34853 229.38230 227.54707
 225.83784 224.31761 222.95538 221.73515 220.62492 219.59269 218.70446 217.85324
 217.10301 216.29078 215.39655 214.76832 214.22609 214.45798 214.95810 214.71616
 213.90453 213.27304 213.63365 215.16945 217.87111 221.75481 226.40073 230.48349
 233.78543 237.53874 241.66756 245.94891 250.09209 254.01401 257.69717 261.07278
 263.99899 266.44824 268.57050 270.58691 272.45337 274.13321 275.73114 277.16757
 278.45776 279.80249 281.14993 282.42773 283.64453 284.75281 285.76392 286.67993
 287.50375 288.23740 288.87830 289.69504
 366.78100 356.34190 345.78080 334.65369 323.06359 311.26449 299.14139 286.95128
 274.67018 262.57408 250.58998 239.89788 230.02677 221.13767 213.32657 206.33547
 200.17636 195.12126 191.71016 189.75906 188.80296 188.87385 189.71575 191.03065
 192.76255 194.86444 197.13434 199.50024 201.95214 204.43904 206.53393 208.38283
 210.01573 211.16763 211.40352 211.63842 211.58232 211.29422 210.93412 210.57101
 210.19491 209.91181 209.72671 209.59760 209.53250 209.87040 210.26330 210.65920
 211.45909 212.64399 213.90089 215.69079 217.62568 219.67558 221.77748 223.86738
 225.93428 228.02517 230.12907 232.24197 234.37787 236.55676 238.81966 241.19656
 243.82446 246.08236 248.09125 249.86315 251.28705 252.41695 253.24585 253.56874
 253.61264 253.39354 252.76044 251.71533 250.32823 248.49613 246.41203 244.25193
 242.04982 239.86072 237.68762 235.53352 233.40041 231.27431 229.30721 227.47111
 225.76101 224.23990 222.87680 221.65570 220.54460 219.51149 218.62239 217.77029
 217.01919 216.20609 215.31098 214.68188 214.13878 214.42244 215.03648 214.78923
 213.80602 213.04271 213.48143 215.23100 218.00978 221.87679 226.55650 230.60532
 233.86734 237.59402 241.70845 245.98985 250.10886 253.97995 257.61197 260.96735
 263.91895 266.42679 268.60516 270.63403 272.47873 274.10349 275.70645 277.22449
 278.55972 279.95328 281.32553 282.66617 283.95712 285.12720 286.19470 287.16180
 288.03162 288.80618 289.48282 290.34512
 366.78100 356.34273 345.78246 334.65620 323.06693 311.26866 299.14639 286.95712
 274.67686 262.58159 250.59832 239.90705 230.03678 221.14852 213.33825 206.34798
 200.18971 195.13544 191.72518 189.77491 188.81964 188.89137 189.73410 191.04984
 192.78257 194.88530 197.15603 199.52276 201.97550 204.46323 206.55896 208.40869
 210.04242 211.19516 211.43189 211.66762 211.61235 211.32508 210.96582 210.60355
 210.22828 209.94601 209.76174 209.63348 209.56921 209.90794 210.30167 210.69840
 211.49914 212.68487 213.94260 215.73333 217.66906 219.71980 221.82253 223.91326
 225.98099 228.07272 230.17746 232.29119 234.42792 236.60765 238.87138 241.24912
 243.87785 246.13658 248.14631 249.91904 251.34377 252.47451 253.30424 253.62797
 253.67270 253.45443 252.82217 251.77790 250.39163 248.56036 246.47709 244.31783
 242.11656 239.92829 237.75602 235.60275 233.47049 231.34522 229.37895 227.54368
 225.83441 224.31415 222.95188 221.73161 220.62134 219.58907 218.70081 217.84954
 217.09927 216.28700 215.39273 214.76447 214.22220 214.47549 215.02553 214.83783
 213.87704 213.04205 213.32101 214.97617 217.89296 221.88342 226.64017 230.70247
 233.96106 237.68228 241.79301 246.08403 250.18996 254.01553 257.59076 260.90991
 263.86636 266.41852 268.63779 270.66962 272.49063 274.07617 275.73306 277.21448
 278.62491 280.04828 281.48779 282.86304 284.16544 285.31772 286.36899 287.32138
 288.17795 288.94073 289.60709 290.45627
 366.78100 356.34389 345.78478 334.65966 323.07155 311.27444 299.15333 286.96522
 274.68611 262.59199 250.60988 239.91977 230.05066 221.16355 213.35444 206.36532
 200.20821 195.15510 191.74599 189.79688 188.84277 188.91565 189.75954 191.07643
 192.81032 194.91421 197.18610 199.55398 202.00787 204.49676 206.59365 208.44454
 210.07943 211.23331 211.47120 211.70809 211.65398 211.36787 211.00976 210.64864
 210.27453 209.99342 209.81031 209.68320 209.62009 209.95997 210.35486 210.75275
 211.55464 212.74153 214.00041 215.79230 217.72919 219.78108 221.88497 223.97686
 226.04574 228.13863 230.24452 232.35941 234.49730 236.67819 238.94307 241.32196
 243.95185 246.21174 248.22263 249.99652 251.42240 252.55429 253.38518 253.71007
 253.75596 253.53885 252.90773 251.86462 250.47951 248.64940 246.56729 244.40918
 242.20906 240.02195 237.85084 235.69873 233.56762 231.44351 229.47839 227.64428
 225.93617 224.41706 223.05595 221.83683 220.72772 219.69661 218.80950 217.95939
 217.21028 216.39916 215.50605 214.87894 214.33783 214.54637 215.00307 214.89191
 214.00912 213.12097 213.23886 214.73689 217.70917 221.78337 226.58374 230.67302
 233.95052 237.69783 241.84024 246.15794 250.26338 254.06131 257.60162 260.88654
 263.83102 266.39935 268.63626 270.65448 272.43759 274.04468 275.72986 277.21063
 278.65067 280.14816 281.63303 283.04889 284.32837 285.46036 286.49313 287.42874
 288.27023 289.01959 289.67419 290.50842
 366.78100 356.34539 345.78779 334.66418 323.07758 311.28197 299.16237 286.97576
 274.69816 262.60555 250.62495 239.93634 230.06874 221.18313 213.37553 206.38792
 200.23231 195.18071 191.77310 189.82550 188.87289 188.94729 189.79268 191.11108
 192.84647 194.95187 197.22526 199.59466 202.05005 204.54044 206.63884 208.49123
 210.12763 211.28302 211.52242 211.76081 211.70821 211.42360 211.06700 210.70739
 210.33479 210.05518 209.87358 209.74797 209.68636 210.02776 210.42415 210.82355
 211.62694 212.81534 214.07573 215.86913 217.80752 219.86092 221.96631 224.05971
 226.13010 228.22449 230.33189 232.44828 234.58768 236.77007 239.03647 241.41686
 244.04826 246.30965 248.32205 250.09744 251.52484 252.65823 253.49063 253.81702
 253.86441 253.64881 253.01920 251.97760 250.59399 248.76539 246.68478 244.52818
 242.32957 240.14397 237.97436 235.82376 233.69415 231.57154 229.60794 227.77533
 226.06873 224.55112 223.19152 221.97391 220.86631 219.83670 218.95110 218.10249
 217.35489 216.54528 215.65368 215.02807 214.48846 214.63507 214.96402 214.92953
 214.13531 213.21689 213.21303 214.60599 217.57587 221.67058 226.47044 230.57585
 233.86903 237.65649 241.85394 246.20119 250.31653 254.11554 257.64255 260.90924
 263.85123 266.44110 268.69968 270.70370 272.47614 274.02054 275.66101 277.21426
 278.70172 280.29001 281.79446 283.18158 284.38602 285.45163 286.42386 287.30463
 288.09677 288.80219 289.41843 290.20377
 366.78100 356.34723 345.79147 334.66970 323.08494 311.29117 299.17340 286.98864
 274.71287 262.62211 250.64334 239.95657 230.09081 221.20704 213.40128 206.41551
 200.26174 195.21198 191.80621 189.86044 188.90968 188.98591 189.83315 191.15338
 192.89061 194.99785 197.27308 199.64432 202.10155 204.59378 206.69402 208.54825
 210.18649 211.34372 211.58495 211.82519 211.77442 211.49166 211.13689 210.77912
 210.40836 210.13059 209.95083 209.82706 209.76729 210.11053 210.50876 210.91000
 211.71523 212.90546 214.16770 215.96293 217.90316 219.95840 222.06563 224.16087
 226.23310 228.32933 230.43857 232.55680 234.69804 236.88227 239.15050 241.53274
 244.16597 246.42921 248.44344 250.22067 251.64991 252.78514 253.61938 253.94761
 253.99684 253.78308 253.15531 252.11555 250.73378 248.90701 246.82825 244.67348
 242.47672 240.29295 238.12518 235.97642 233.84865 231.72788 229.76612 227.93535
 226.23059 224.71482 223.35705 222.14129 221.03552 220.00776 219.12399 218.27722
 217.53146 216.72369 215.83393 215.21016 214.67239 214.73631 214.89902 214.96599
 214.25618 213.30338 213.17044 214.51212 217.48970 221.58659 226.36462 230.47867
 233.78195 237.61223 241.85394 246.23079 250.35461 254.14413 257.65253 260.91095
 263.85681 266.46271 268.73962 270.74097 272.51434 274.00751 275.63330 277.19788
 278.82690 280.45853 281.97195 283.35608 284.56088 285.62683 286.59933 287.48035
 288.27274 288.97836 289.59476 290.38031
 366.78100 356.34854 345.79409 334.67363 323.09018 311.29772 299.18126 286.99781
 274.72335 262.63389 250.65644 239.97098 230.10653 221.22407 213.41961 206.43516
 200.28270 195.23424 191.82979 189.88533 188.93588 189.01342 189.86196 191.18351
 192.92205 195.03059 197.30714 199.67968 202.13823 204.63177 206.73331 208.58886
 210.22840 211.38694 211.62949 211.87103 211.82158 211.54012 211.18666 210.83021
 210.46075 210.18429 210.00584 209.88338 209.82493 210.16947 210.56901 210.97156
 211.77810 212.96964 214.23319 216.02973 217.97128 220.02782 222.13636 224.23291
 226.30645 228.40399 230.51454 232.63408 234.77663 236.96217 239.23171 241.61526
 244.24980 246.51434 248.52989 250.30843 251.73898 252.87552 253.71106 254.04061
 254.09115 253.87869 253.25224 252.21378 250.83333 249.00787 246.93041 244.77696
 242.58150 240.39904 238.23259 236.08513 233.95868 231.83922 229.87876 228.04931
 226.34585 224.83139 223.47494 222.26048 221.15603 220.12957 219.24711 218.40166
 217.65720 216.85074 215.96229 215.33983 214.80338 214.80794 214.85143 215.02228
 214.36546 213.35634 213.10805 214.41331 217.42065 221.52686 226.29843 230.39981
 233.70906 237.56819 241.84070 246.23422 250.35658 254.12294 257.60532 260.85284
 263.79187 266.39377 268.66208 270.65366 272.44418 273.99915 275.61362 277.20746
 278.93628 280.57428 282.07565 283.44080 284.64584 285.71204 286.68475 287.56595
 288.35852 289.06427 289.68085 290.46655
 366.78100 356.34898 345.79497 334.67495 323.09193 311.29992 299.18390 287.00088
 274.72687 262.63785 250.66083 239.97582 230.11180 221.22978 213.42577 206.44175
 200.28973 195.24172 191.83770 189.89368 188.94467 189.02265 189.87163 191.19362
 192.93260 195.04158 197.31857 199.69155 202.15053 204.64452 206.74650 208.60248
 210.24247 211.40145 211.64443 211.88642 211.83740 211.55638 211.20337 210.84735
 210.47833 210.20232 210.02430 209.90228 209.84427 210.18925 210.58923 210.99222
 211.79920 212.99118 214.25517 216.05215 217.99413 220.05112 222.16010 224.25708
 226.33107 228.42905 230.54003 232.66002 234.80300 236.98898 239.25897 241.64295
 244.27793 246.54292 248.55890 250.33788 251.76887 252.90585 253.74184 254.07182
 254.12280 253.91079 253.28477 252.24675 250.86674 249.04172 246.96470 244.81169
 242.61667 240.43465 238.26864 236.12162 233.99560 231.87659 229.91657 228.08755
 226.38454 224.87052 223.51450 222.30049 221.19647 220.17045 219.28844 218.44342
 217.69940 216.89339 216.00537 215.38335 214.84734 214.83620 214.84737 215.06131
 214.42805 213.35712 213.06195 214.33876 217.37666 221.50308 226.28909 230.36546
 233.66846 237.54086 241.83521 246.24480 250.37099 254.11728 257.57523 260.81375
 263.75082 266.34473 268.60086 270.57858 272.38916 273.98364 275.57220 277.21799
 278.98477 280.61285 282.10681 283.46921 284.69141 285.77274 286.75928 287.65305
 288.45688 289.17270 289.79800 290.59491
 366.78100 356.34891 345.79482 334.67473 323.09164 311.29954 299.18345 287.00036
 274.72627 262.63718 250.66009 239.97500 230.11091 221.22882 213.42472 206.44063
 200.28854 195.24045 191.83636 189.89227 188.94318 189.02109 189.87000 191.19190
 192.93081 195.03972 197.31663 199.68954 202.14845 204.64236 206.74427 208.60018
 210.24008 211.39899 211.64190 211.88381 211.83472 211.55363 211.20054 210.84445
 210.47536 210.19926 210.02117 209.89908 209.84099 210.18590 210.58581 210.98872
 211.79563 212.98754 214.25144 216.04835 217.99026 220.04717 222.15608 224.25299
 226.32690 228.42481 230.53572 232.65562 234.79853 236.98444 239.25435 241.63826
 244.27317 246.53808 248.55399 250.33290 251.76380 252.90071 253.73662 254.06653
 254.11744 253.90535 253.27926 252.24117 250.86108 249.03598 246.95889 244.80580
 242.61071 240.42862 238.26253 236.11544 233.98935 231.87026 229.91016 228.08107
 226.37798 224.86389 223.50780 222.29371 221.18962 220.16353 219.28144 218.43635
 217.69225 216.88616 215.99807 215.37598 214.83989 214.84091 214.86972 215.05273
 214.53404 213.34943 212.99405 214.25145 217.30991 221.46555 226.28116 230.34251
 233.64240 237.52769 241.84253 246.27394 250.40611 254.14716 257.58865 260.82303
 263.76801 266.36768 268.61194 270.56839 272.40518 274.06668 275.58990 277.23453
 278.99936 280.64276 282.13516 283.48450 284.71228 285.79855 286.78961 287.68744
 288.49493 289.21402 289.84219 290.64273
 366.78100 356.34837 345.79374 334.67312 323.08949 311.29686 299.18023 286.99661
 274.72198 262.63235 250.65472 239.96909 230.10447 221.22184 213.41721 206.43258
 200.27996 195.23133 191.82670 189.88207 188.93244 189.00982 189.85819 191.17956
 192.91793 195.02631 197.30268 199.67505 202.13342 204.62680 206.72817 208.58354
 210.22291 211.38128 211.62366 211.86503 211.81540 211.53377 211.18015 210.82352
 210.45389 210.17726 209.99863 209.87601 209.81738 210.16175 210.56112 210.96350
 211.76987 212.96124 214.22461 216.02098 217.96236 220.01873 222.12710 224.22347
 226.29685 228.39422 230.50459 232.62396 234.76633 236.95171 239.22108 241.60445
 244.23882 246.50320 248.51857 250.29694 251.72731 252.86368 253.69906 254.02843
 254.07880 253.86617 253.23955 252.20092 250.82029 248.99466 246.91704 244.76341
 242.56778 240.38515 238.21852 236.07090 233.94427 231.82464 229.86401 228.03439
 226.33076 224.81613 223.45950 222.24487 221.14025 220.11362 219.23099 218.38536
 217.64074 216.83411 215.94548 215.32285 214.78622 214.82768 214.92105 214.96194
 214.75790 213.47919 212.92255 214.09897 217.16202 221.35461 226.19653 230.25319
 233.56532 237.48022 241.82927 246.28329 250.42560 254.17065 257.60797 260.84781
 263.81335 266.43405 268.67795 270.61423 272.45032 274.17545 275.70297 277.29611
 279.02368 280.65048 282.10193 283.41721 284.62918 285.70444 286.68546 287.57416
 288.37347 289.08527 289.70706 290.49948
 366.78100 356.34729 345.79158 334.66987 323.08516 311.29145 299.17374 286.98903
 274.71332 262.62261 250.64389 239.95718 230.09147 221.20776 213.40205 206.41634
 200.26263 195.21292 191.80721 189.86150 188.91079 188.98708 189.83437 191.15466
 192.89195 194.99924 197.27453 199.64582 202.10311 204.59539 206.69568 208.54997
 210.18826 211.34555 211.58684 211.82713 211.77642 211.49371 211.13900 210.78129
 210.41058 210.13287 209.95316 209.82945 209.76974 210.11303 210.51132 210.91261
 211.71790 212.90818 214.17047 215.96576 217.90605 219.96134 222.06863 224.16392
 226.23621 228.33250 230.44179 232.56008 234.70137 236.88566 239.15395 241.53624
 244.16953 246.43282 248.44711 250.22440 251.65368 252.78897 253.62326 253.95155
 254.00084 253.78713 253.15942 252.11971 250.73800 248.91129 246.83258 244.67787
 242.48116 240.29745 238.12974 235.98103 233.85332 231.73261 229.77090 227.94018
 226.23547 224.71976 223.36205 222.14634 221.04063 220.01292 219.12921 218.28250
 217.53679 216.72908 215.83937 215.21566 214.67795 214.78558 215.00262 214.82245
 214.90761 213.75925 212.95023 213.95154 216.98547 221.20609 226.06596 230.10757
 233.45578 237.40495 241.78574 246.25116 250.39241 254.13478 257.58151 260.83200
 263.82626 266.48413 268.74478 270.67267 272.50671 274.27527 275.85172 277.41647
 279.07355 280.68945 282.16699 283.51730 284.76224 285.92050 286.97723 287.93454
 288.79556 289.56229 290.23209 291.08566
 366.78100 356.34637 345.78975 334.66712 323.08149 311.28687 299.16824 286.98261
 274.70598 262.61436 250.63473 239.94710 230.08048 221.19585 213.38922 206.40260
 200.24797 195.19734 191.79071 189.84409 188.89246 188.96783 189.81421 191.13358
 192.86995 194.97633 197.25070 199.62107 202.07745 204.56882 206.66819 208.52156
 210.15894 211.31531 211.55568 211.79506 211.74343 211.45980 211.10418 210.74555
 210.37392 210.09529 209.91467 209.79004 209.72941 210.07179 210.46916 210.86953
 211.67391 212.86328 214.12465 215.91902 217.85840 219.91277 222.01914 224.11352
 226.18489 228.28026 230.38864 232.50601 234.64638 236.82976 239.09713 241.47850
 244.11087 246.37325 248.38662 250.16299 251.59137 252.72574 253.55911 253.88649
 253.93486 253.72023 253.09160 252.05098 250.66835 248.84072 246.76110 244.60547
 242.40784 240.22322 238.05459 235.90496 233.77634 231.65471 229.69208 227.86045
 226.15483 224.63820 223.27957 222.06295 220.95632 219.92769 219.04307 218.19544
 217.44881 216.64018 215.74956 215.12493 214.58630 214.74329 215.07442 214.78462
 214.83530 213.98213 213.05571 213.87120 216.85072 221.08218 225.97107 229.97557
 233.36682 237.33577 241.74205 246.20706 250.34985 254.09303 257.54782 260.80005
 263.81799 266.51608 268.77924 270.67963 272.49060 274.25348 275.85934 277.46042
 279.09729 280.70450 282.17014 283.46521 284.62872 285.73172 286.76318 287.69760
 288.53799 289.28641 289.94019 290.77335
 366.78100 356.34677 345.79054 334.66831 323.08307 311.28884 299.17061 286.98538
 274.70915 262.61792 250.63869 239.95145 230.08522 221.20099 213.39476 206.40853
 200.25430 195.20407 191.79783 189.85160 188.90037 188.97614 189.82291 191.14268
 192.87945 194.98621 197.26098 199.63175 202.08852 204.58029 206.68006 208.53382
 210.17159 211.32836 211.56913 211.80890 211.75767 211.47444 211.11920 210.76097
 210.38974 210.11151 209.93128 209.80705 209.74682 210.08958 210.48735 210.88812
 211.69289 212.88266 214.14443 215.93920 217.87896 219.93373 222.04050 224.13527
 226.20704 228.30281 230.41158 232.52934 234.67011 236.85388 239.12165 241.50342
 244.13619 246.39896 248.41272 250.18949 251.61826 252.75303 253.58680 253.91457
 253.96334 253.74910 253.12087 252.08064 250.69841 248.87118 246.79195 244.63672
 242.43948 240.25525 238.08702 235.93779 233.80956 231.68833 229.72609 227.89486
 226.18963 224.67340 223.31517 222.09894 220.99271 219.96447 219.08024 218.23301
 217.48678 216.67855 215.78832 215.16409 214.62585 214.76324 215.06386 214.92136
 214.70351 214.04236 213.14545 213.84172 216.78677 221.01680 225.89754 229.88445
 233.28835 237.28525 241.72913 246.21658 250.36839 254.11205 257.56802 260.82477
 263.86490 266.60904 268.91739 270.80206 272.55032 274.27130 275.86438 277.42960
 279.00549 280.51157 281.78793 282.99088 284.12720 285.14273 286.08148 286.93195
 287.69681 288.37796 288.97296 289.73126
 366.78100 356.34918 345.79536 334.67554 323.09272 311.30090 299.18508 287.00226
 274.72844 262.63962 250.66280 239.97798 230.11416 221.23234 213.42852 206.44471
 200.29289 195.24507 191.84125 189.89743 188.94861 189.02679 189.87597 191.19815
 192.93733 195.04651 197.32369 199.69687 202.15605 204.65023 206.75241 208.60859
 210.24877 211.40795 211.65113 211.89331 211.84449 211.56367 211.21085 210.85503
 210.48621 210.21039 210.03257 209.91076 209.85294 210.19812 210.59830 211.00148
 211.80866 213.00084 214.26502 216.06220 218.00438 220.06156 222.17074 224.26792
 226.34210 228.44028 230.55146 232.67164 234.81482 237.00100 239.27118 241.65536
 244.29054 246.55572 248.57190 250.35108 251.78226 252.91944 253.75562 254.08580
 254.13699 253.92517 253.29935 252.26153 250.88171 249.05689 246.98007 244.82725
 242.63243 240.45061 238.28479 236.13797 234.01215 231.89333 229.93351 228.10469
 226.40187 224.88805 223.53223 222.31841 221.21459 220.18877 219.30695 218.46213
 217.71831 216.91249 216.02467 215.40285 214.86703 214.88940 214.95503 215.07228
 214.70218 214.03705 213.21431 213.87595 216.76373 220.95877 225.80522 229.81723
 233.21019 237.23981 241.72354 246.24001 250.40257 254.14709 257.60129 260.86407
 263.91574 266.68506 269.07059 271.04745 272.82953 274.52576 276.12808 277.65860
 279.16898 280.55063 281.69986 282.90897 284.12189 285.22678 286.23480 287.14801
 287.96936 288.70074 289.33969 290.15393
 366.78100 356.35060 345.79821 334.67981 323.09841 311.30801 299.19362 287.01222
 274.73982 262.65242 250.67703 239.99363 230.13123 221.25084 213.44844 206.46604
 200.31564 195.26925 191.86685 189.92445 188.97706 189.05666 189.90726 191.23086
 192.97147 195.08207 197.36067 199.73527 202.19588 204.69148 206.79508 208.65269
 210.29429 211.45489 211.69949 211.94310 211.89570 211.61630 211.26491 210.91051
 210.54311 210.26871 210.09232 209.97192 209.91552 210.26212 210.66373 211.06833
 211.87693 213.07054 214.33614 216.13474 218.07834 220.13695 222.24755 224.34615
 226.42176 228.52136 230.63396 232.75556 234.90017 237.08777 239.35937 241.74497
 244.38158 246.64818 248.66578 250.44639 251.87899 253.01759 253.85519 254.18680
 254.23940 254.02900 253.40461 252.36821 250.98981 249.16641 247.09102 244.93962
 242.74622 240.56582 238.40143 236.25603 234.13163 232.01424 230.05584 228.22844
 226.52704 225.01465 223.66025 222.44785 221.34546 220.32106 219.44066 218.59726
 217.85487 217.05047 216.16407 215.54367 215.00928 214.96643 214.88908 215.05980
 214.77544 213.99232 213.25932 213.87871 216.75633 220.94081 225.76653 229.75189
 233.14810 237.20683 241.71341 246.22751 250.35826 254.06761 257.50415 260.77167
 263.84583 266.67551 269.13712 271.18924 273.04953 274.81769 276.45929 278.01279
 279.44553 280.67896 281.86365 283.14618 284.33728 285.41638 286.40091 287.29282
 288.09500 288.80936 289.43338 290.22864
 366.78100 356.34917 345.79535 334.67552 323.09270 311.30087 299.18505 287.00222
 274.72840 262.63957 250.66274 239.97792 230.11409 221.23227 213.42844 206.44462
 200.29279 195.24496 191.84114 189.89731 188.94849 189.02666 189.87584 191.19801
 192.93719 195.04636 197.32353 199.69671 202.15588 204.65006 206.75223 208.60841
 210.24858 211.40776 211.65093 211.89310 211.84428 211.56345 211.21063 210.85480
 210.48598 210.21015 210.03232 209.91050 209.85267 210.19785 210.59802 211.00120
 211.80837 213.00055 214.26472 216.06189 218.00407 220.06124 222.17042 224.26759
 226.34177 228.43994 230.55112 232.67129 234.81446 237.00064 239.27081 241.65499
 244.29016 246.55534 248.57151 250.35068 251.78186 252.91903 253.75521 254.08538
 254.13656 253.92473 253.29891 252.26108 250.88125 249.05643 246.97960 244.82678
 242.63195 240.45013 238.28430 236.13748 234.01165 231.89282 229.93300 228.10417
 226.40135 224.88752 223.53170 222.31787 221.21404 220.18822 219.30639 218.46157
 217.71774 216.91192 216.02409 215.40227 214.86644 214.89055 214.94781 214.99593
 214.90033 213.82666 213.19354 213.80603 216.68553 220.90579 225.81631 229.70480
 233.15472 237.20137 241.68513 246.15858 250.27179 253.96086 257.36780 260.58533
 263.61768 266.43378 268.93613 271.07516 273.00333 274.83624 276.51120 278.04807
 279.44040 280.66937 281.80621 282.93753 284.01874 284.89801 285.74234 286.54425
 287.26550 287.90778 288.46884 289.18387
 366.78100 356.34840 345.79379 334.67319 323.08958 311.29698 299.18038 286.99677
 274.72217 262.63256 250.65496 239.96936 230.10475 221.22215 213.41754 206.43294
 200.28034 195.23173 191.82713 189.88252 188.93292 189.01032 189.85871 191.18011
 192.91851 195.02690 197.30330 199.67569 202.13409 204.62749 206.72888 208.58428
 210.22367 211.38207 211.62447 211.86586 211.81626 211.53465 211.18105 210.82445
 210.45484 210.17824 209.99963 209.87703 209.81843 210.16282 210.56222 210.96461
 211.77101 212.96241 214.22580 216.02220 217.96359 220.01999 222.12839 224.22478
 226.29818 228.39557 230.50597 232.62537 234.76776 236.95316 239.22255 241.60595
 244.24035 246.50474 248.52014 250.29854 251.72893 252.86533 253.70072 254.03012
 254.08052 253.86791 253.24131 252.20270 250.82210 248.99650 246.91889 244.76529
 242.56968 240.38708 238.22048 236.07287 233.94627 231.82666 229.86606 228.03646
 226.33285 224.81825 223.46164 222.24704 221.14244 220.11583 219.23323 218.38762
 217.64302 216.83642 215.94781 215.32521 214.78860 214.84814 214.98759 214.96967
 215.23549 213.96222 213.07054 213.62415 216.54041 220.80730 225.78456 229.57187
 233.08087 237.15433 241.68855 246.17757 250.31425 254.00436 257.39117 260.56836
 263.54688 266.31937 268.81894 270.98917 272.95502 274.80673 276.49365 278.01819
 279.38382 280.57797 281.60266 282.55887 283.52502 284.29437 284.97760 285.79099
 286.58890 287.30457 287.92978 288.72653
 366.78100 356.34811 345.79322 334.67233 323.08844 311.29555 299.17866 286.99477
 274.71988 262.62999 250.65210 239.96621 230.10132 221.21843 213.41354 206.42865
 200.27576 195.22687 191.82198 189.87709 188.92721 189.00432 189.85243 191.17354
 192.91165 195.01976 197.29587 199.66798 202.12609 204.61920 206.72031 208.57542
 210.21453 211.37264 211.61475 211.85586 211.80597 211.52408 211.17019 210.81330
 210.44341 210.16652 209.98763 209.86474 209.80585 210.14996 210.54907 210.95118
 211.75729 212.94840 214.21151 216.00762 217.94873 220.00484 222.11295 224.20906
 226.28217 228.37928 230.48939 232.60850 234.75062 236.93573 239.20484 241.58795
 244.22206 246.48617 248.50128 250.27939 251.70950 252.84561 253.68072 254.00983
 254.05994 253.84705 253.22016 252.18127 250.80038 248.97449 246.89660 244.74271
 242.54682 240.36393 238.19704 236.04915 233.92226 231.80237 229.84148 228.01159
 226.30770 224.79281 223.43592 222.22103 221.11614 220.08925 219.20636 218.36047
 217.61558 216.80869 215.91980 215.29691 214.76003 214.83910 215.02313 214.90059
 215.27208 214.11392 213.05627 213.57288 216.45955 220.71475 225.67020 229.46165
 232.99361 237.11815 241.69356 246.21693 250.38651 254.10503 257.49738 260.65732
 263.59531 266.32751 268.81375 270.99600 272.98749 274.86151 276.54709 278.05463
 279.40024 280.56250 281.53387 282.39844 283.26578 284.01740 284.61896 285.34528
 286.11255 286.80145 287.40326 288.17020
 366.78100 356.34742 345.79185 334.67027 323.08569 311.29211 299.17454 286.98996
 274.71438 262.62380 250.64523 239.95865 230.09307 221.20949 213.40392 206.41834
 200.26476 195.21519 191.80961 189.86403 188.91345 188.98988 189.83730 191.15772
 192.89514 195.00257 197.27799 199.64941 202.10684 204.59926 206.69968 208.55410
 210.19253 211.34995 211.59137 211.83179 211.78122 211.49864 211.14406 210.78648
 210.41591 210.13833 209.95875 209.83518 209.77560 210.11902 210.51744 210.91887
 211.72429 212.91471 214.17713 215.97256 217.91298 219.96840 222.07583 224.17125
 226.24367 228.34009 230.44952 232.56794 234.70936 236.89378 239.16221 241.54463
 244.17805 246.44147 248.45590 250.23332 251.66274 252.79817 253.63259 253.96101
 254.01043 253.79686 253.16928 252.12970 250.74812 248.92155 246.84297 244.68839
 242.49182 240.30824 238.14066 235.99208 233.86451 231.74393 229.78235 227.95177
 226.24720 224.73162 223.37404 222.15846 221.05289 220.02531 219.14173 218.29516
 217.54958 216.74200 215.85242 215.22885 214.69127 214.80644 215.07568 214.90038
 215.15768 214.16512 213.05463 213.56905 216.44414 220.67720 225.61540 229.39798
 232.94257 237.09729 241.69839 246.25685 250.45172 254.18950 257.58307 260.73010
 263.64194 266.34711 268.83136 271.03329 273.04285 274.91730 276.56894 278.01596
 279.27332 280.33188 281.22641 282.08499 282.96979 283.81580 284.49380 285.17841
 285.89328 286.54346 287.11148 287.83533
 366.78100 356.34753 345.79206 334.67059 323.08611 311.29264 299.17517 286.99070
 274.71523 262.62476 250.64629 239.95981 230.09434 221.21087 213.40540 206.41993
 200.26646 195.21699 191.81151 189.86604 188.91557 188.99210 189.83963 191.16016
 192.89769 195.00521 197.28074 199.65227 202.10980 204.60233 206.70286 208.55739
 210.19591 211.35344 211.59497 211.83550 211.78503 211.50256 211.14809 210.79061
 210.42014 210.14267 209.96320 209.83973 209.78026 210.12379 210.52231 210.92384
 211.72937 212.91990 214.18243 215.97796 217.91849 219.97402 222.08154 224.17707
 226.24960 228.34613 230.45566 232.57419 234.71572 236.90024 239.16877 241.55130
 244.18483 246.44836 248.46289 250.24042 251.66994 252.80547 253.64000 253.96853
 254.01806 253.80459 253.17712 252.13764 250.75617 248.92970 246.85123 244.69676
 242.50029 240.31682 238.14934 236.00087 233.87340 231.75293 229.79146 227.96099
 226.25652 224.74104 223.38357 222.16810 221.06263 220.03516 219.15169 218.30522
 217.55974 216.75227 215.86280 215.23933 214.70186 214.81128 215.06799 214.99792
 215.05681 214.12730 213.01843 213.54521 216.44110 220.65813 225.56755 229.34378
 232.89488 237.07303 241.69139 246.27524 250.48544 254.23723 257.63620 260.78040
 263.68231 266.37750 268.87103 271.10657 273.14383 275.02304 276.64377 278.01581
 279.16132 280.09656 280.90662 281.74261 282.66904 283.59671 284.34442 285.02762
 285.73260 286.37451 286.93527 287.64990
 366.78100 356.34870 345.79440 334.67411 323.09081 311.29851 299.18221 286.99891
 274.72462 262.63532 250.65802 239.97272 230.10843 221.22613 213.42183 206.43753
 200.28523 195.23694 191.83264 189.88834 188.93904 189.01674 189.86545 191.18715
 192.92585 195.03455 197.31126 199.68396 202.14266 204.63636 206.73806 208.59377
 210.23347 211.39217 211.63487 211.87657 211.82728 211.54598 211.19268 210.83638
 210.46709 210.19079 210.01249 209.89019 209.83189 210.17660 210.57630 210.97900
 211.78570 212.97740 214.24111 216.03781 217.97951 220.03621 222.14492 224.24162
 226.31532 228.41302 230.52372 232.64343 234.78613 236.97183 239.24153 241.62523
 244.25994 246.52464 248.54034 250.31904 251.74975 252.88645 253.72215 254.05185
 254.10255 253.89026 253.26396 252.22566 250.84536 249.02006 246.94277 244.78947
 242.59417 240.41187 238.24558 236.09828 233.97198 231.85268 229.89238 228.06309
 226.35979 224.84549 223.48919 222.27489 221.17060 220.14430 219.26200 218.41670
 217.67241 216.86611 215.97781 215.35551 214.81921 214.86783 214.98280 215.13098
 215.03459 214.09888 213.01537 213.48499 216.40784 220.62422 225.51277 229.26033
 232.82652 237.03200 241.66792 246.26266 250.47255 254.22757 257.63422 260.78687
 263.69714 266.40527 268.93079 271.22626 273.31674 275.23309 276.86057 278.19193
 279.26898 280.13980 280.91498 281.68964 282.44849 283.27264 284.12112 284.83340
 285.51962 286.14960 286.69995 287.40131
 366.78100 356.34918 345.79537 334.67555 323.09273 311.30091 299.18510 287.00228
 274.72846 262.63964 250.66283 239.97801 230.11419 221.23237 213.42856 206.44474
 200.29292 195.24510 191.84129 189.89747 188.94865 189.02684 189.87602 191.19820
 192.93738 195.04657 197.32375 199.69693 202.15611 204.65030 206.75248 208.60866
 210.24884 211.40803 211.65121 211.89339 211.84457 211.56376 211.21094 210.85512
 210.48631 210.21049 210.03267 209.91085 209.85304 210.19822 210.59840 211.00158
 211.80877 213.00095 214.26513 216.06231 218.00450 220.06168 222.17086 224.26805
 226.34223 228.44041 230.55159 232.67178 234.81496 237.00114 239.27132 241.65551
 244.29069 246.55587 248.57205 250.35124 251.78242 252.91960 253.75578 254.08597
 254.13715 253.92533 253.29952 252.26170 250.88188 249.05706 246.98025 244.82743
 242.63261 240.45079 238.28498 236.13816 234.01234 231.89352 229.93371 228.10489
 226.40207 224.88825 223.53244 222.31862 221.21480 220.18899 219.30717 218.46235
 217.71853 216.91272 216.02490 215.40308 214.86726 214.89255 214.95229 215.15459
 215.09567 214.13779 213.01318 213.37193 216.35272 220.58348 225.45459 229.17097
 232.76393 236.98785 241.64047 246.23048 250.42438 254.16707 257.56927 260.72202
 263.63205 266.35254 268.92178 271.28491 273.44733 275.42322 277.08069 278.41235
 279.47690 280.34680 281.15851 281.97546 282.70398 283.38007 284.10690 284.85065
 285.55368 286.17792 286.72321 287.41815
 366.78100 356.34864 345.79427 334.67391 323.09055 311.29818 299.18182 286.99846
 274.72409 262.63473 250.65737 239.97201 230.10764 221.22528 213.42092 206.43655
 200.28419 195.23583 191.83146 189.88710 188.93774 189.01537 189.86401 191.18565
 192.92428 195.03292 197.30956 199.68219 202.14083 204.63447 206.73610 208.59174
 210.23138 211.39002 211.63265 211.87429 211.82493 211.54356 211.19020 210.83384
 210.46447 210.18811 210.00975 209.88738 209.82902 210.17366 210.57329 210.97593
 211.78257 212.97420 214.23784 216.03448 217.97612 220.03275 222.14139 224.23803
 226.31166 228.40930 230.51994 232.63957 234.78221 236.96785 239.23748 241.62112
 244.25576 246.52039 248.53603 250.31467 251.74530 252.88194 253.71758 254.04722
 254.09785 253.88549 253.25913 252.22076 250.84040 249.01504 246.93767 244.78431
 242.58895 240.40658 238.24022 236.09286 233.96649 231.84713 229.88677 228.05740
 226.35404 224.83968 223.48331 222.26895 221.16459 220.13823 219.25586 218.41050
 217.66614 216.85977 215.97141 215.34905 214.81268 214.87170 215.01108 215.07729
 215.10367 214.16258 213.00920 213.31854 216.31874 220.55424 225.40364 229.19576
 232.74275 236.98161 241.63037 246.21609 250.39906 254.13104 257.52243 260.66071
 263.55316 266.26987 268.85446 271.26477 273.50183 275.52505 277.19681 278.52023
 279.57529 280.48596 281.39734 282.24530 282.90967 283.49179 284.22528 284.98981
 285.65045 286.21890 286.71552 287.34836
 366.78100 356.34802 345.79304 334.67206 323.08809 311.29511 299.17813 286.99415
 274.71917 262.62919 250.65121 239.96523 230.10026 221.21728 213.41230 206.42732
 200.27434 195.22536 191.82038 189.87540 188.92543 189.00245 189.85047 191.17149
 192.90951 195.01753 197.29355 199.66557 202.12360 204.61662 206.71764 208.57266
 210.21168 211.36970 211.61172 211.85275 211.80277 211.52079 211.16681 210.80983
 210.43985 210.16287 209.98389 209.86092 209.80194 210.14596 210.54498 210.94700
 211.75302 212.94404 214.20706 216.00309 217.94411 220.00013 222.10815 224.20417
 226.27719 228.37421 230.48423 232.60326 234.74528 236.93030 239.19932 241.58234
 244.21636 246.48038 248.49541 250.27343 251.70345 252.83947 253.67449 254.00351
 254.05353 253.84055 253.21358 252.17460 250.79362 248.96764 246.88966 244.73568
 242.53970 240.35672 238.18975 236.04177 233.91479 231.79481 229.83383 228.00385
 226.29987 224.78489 223.42792 222.21294 221.10796 220.08098 219.19800 218.35202
 217.60704 216.80007 215.91109 215.28811 214.75113 214.84642 215.06946 215.06190
 214.97636 214.10432 213.00734 213.32487 216.30751 220.54161 225.38318 229.26981
 232.76201 237.00056 241.63274 246.21797 250.40166 254.13290 257.52002 260.64313
 263.51483 266.21796 268.80923 271.25729 273.55469 275.61099 277.26764 278.55508
 279.59991 280.59320 281.56448 282.36957 282.91025 283.54901 284.37274 285.12326
 285.75699 286.32135 286.81433 287.44260
 366.78100 356.34795 345.79290 334.67186 323.08781 311.29476 299.17771 286.99366
 274.71861 262.62857 250.65052 239.96447 230.09942 221.21637 213.41132 206.42628
 200.27323 195.22418 191.81913 189.87408 188.92403 189.00099 189.84894 191.16989
 192.90784 195.01579 197.29174 199.66370 202.12165 204.61460 206.71555 208.57050
 210.20945 211.36741 211.60936 211.85031 211.80026 211.51821 211.16417 210.80712
 210.43707 210.16002 209.98097 209.85792 209.79888 210.14283 210.54178 210.94373
 211.74968 212.94063 214.20359 215.99954 217.94049 219.99644 222.10439 224.20034
 226.27330 228.37025 230.48020 232.59915 234.74110 236.92605 239.19501 241.57796
 244.21191 246.47586 248.49081 250.26876 251.69872 252.83467 253.66962 253.99857
 254.04852 253.83547 253.20843 252.16938 250.78833 248.96228 246.88423 244.73019
 242.53414 240.35109 238.18404 236.03599 233.90894 231.78890 229.82785 227.99780
 226.29375 224.77870 223.42165 222.20661 221.10156 220.07451 219.19146 218.34541
 217.60036 216.79332 215.90427 215.28122 214.74417 214.84569 215.08284 215.11343
 214.86021 213.96988 213.00043 213.35532 216.29741 220.51703 225.35030 229.29510
 232.76988 237.00368 241.62419 246.20819 250.39490 254.13263 257.52487 260.64276
 263.50366 266.19540 268.79205 271.27734 273.62534 275.71210 277.34241 278.58969
 279.67447 280.73447 281.63010 282.20782 282.78821 283.62222 284.48282 285.23209
 285.88919 286.47430 286.98547 287.63690
 366.78100 356.34744 345.79188 334.67032 323.08576 311.29220 299.17463 286.99007
 274.71451 262.62395 250.64539 239.95883 230.09327 221.20971 213.40415 206.41859
 200.26502 195.21546 191.80990 189.86434 188.91378 188.99022 189.83766 191.15810
 192.89554 195.00298 197.27841 199.64985 202.10729 204.59973 206.70017 208.55461
 210.19305 211.35049 211.59193 211.83237 211.78180 211.49924 211.14468 210.78712
 210.41656 210.13900 209.95944 209.83588 209.77632 210.11976 210.51819 210.91963
 211.72507 212.91551 214.17795 215.97339 217.91383 219.96927 222.07671 224.17215
 226.24458 228.34102 230.45046 232.56890 234.71034 236.89478 239.16322 241.54566
 244.17910 246.44254 248.45698 250.23441 251.66385 252.79929 253.63373 253.96217
 254.01161 253.79805 253.17049 252.13093 250.74937 248.92280 246.84424 244.68968
 242.49312 240.30956 238.14200 235.99344 233.86588 231.74532 229.78376 227.95319
 226.24863 224.73307 223.37551 222.15995 221.05439 220.02683 219.14327 218.29671
 217.55115 216.74358 215.85402 215.23046 214.69290 214.82266 215.12402 215.08665
 214.87294 213.83585 212.97919 213.37630 216.29541 220.50247 225.32318 229.28235
 232.75629 236.98466 241.59967 246.17497 250.35625 254.09807 257.50110 260.62595
 263.48682 266.17670 268.78903 271.31815 273.71899 275.84589 277.47684 278.74850
 279.89835 280.91800 281.60114 282.00494 282.58603 283.45032 284.34164 285.12167
 285.80750 286.41824 286.95178 287.63171
 366.78100 356.34629 345.78957 334.66686 323.08114 311.28643 299.16771 286.98200
 274.70528 262.61357 250.63385 239.94614 230.07942 221.19471 213.38799 206.40128
 200.24656 195.19585 191.78914 189.84242 188.89071 188.96599 189.81228 191.13156
 192.86785 194.97413 197.24842 199.61870 202.07499 204.56627 206.66556 208.51884
 210.15613 211.31241 211.55270 211.79199 211.74027 211.45656 211.10084 210.74213
 210.37041 210.09170 209.91098 209.78627 209.72555 210.06784 210.46512 210.86541
 211.66969 212.85898 214.12026 215.91455 217.85384 219.90812 222.01441 224.10869
 226.17998 228.27526 230.38355 232.50083 234.64112 236.82440 239.09169 241.47297
 244.10526 246.36754 248.38083 250.15712 251.58540 252.71969 253.55297 253.88026
 253.92854 253.71383 253.08511 252.04440 250.66168 248.83397 246.75425 244.59854
 242.40082 240.21611 238.04739 235.89768 233.76897 231.64725 229.68454 227.85282
 226.14711 224.63039 223.27168 222.05496 220.94825 219.91953 219.03482 218.18710
 217.44039 216.63167 215.74096 215.11624 214.57753 214.76553 215.20465 215.00029
 214.99483 213.78799 212.89226 213.33742 216.26749 220.50418 225.33472 229.27005
 232.74300 236.96031 241.56987 246.13054 250.29865 254.03392 257.43402 260.55652
 263.41876 266.11713 268.75323 271.33395 273.78094 275.92932 277.60791 278.96014
 280.16245 281.14139 281.74924 282.08194 282.39484 283.12228 284.00339 284.80252
 285.46216 286.04956 286.56271 287.21664
 366.78100 356.34568 345.78836 334.66504 323.07873 311.28341 299.16409 286.97777
 274.70045 262.60813 250.62781 239.93949 230.07218 221.18686 213.37954 206.39222
 200.23690 195.18558 191.77826 189.83095 188.87863 188.95331 189.79899 191.11767
 192.85335 194.95903 197.23272 199.60240 202.05808 204.54876 206.64744 208.50012
 210.13680 211.29248 211.53217 211.77085 211.71853 211.43421 211.07789 210.71857
 210.34625 210.06694 209.88562 209.76030 209.69898 210.04066 210.43734 210.83702
 211.64071 212.82939 214.09007 215.88375 217.82243 219.87611 221.98179 224.07547
 226.14616 228.24084 230.34852 232.46520 234.60488 236.78756 239.05424 241.43493
 244.06661 246.32829 248.34097 250.11665 251.54433 252.67801 253.51069 253.83738
 253.88506 253.66974 253.04042 251.99910 250.61578 248.78746 246.70715 244.55083
 242.35251 240.16719 237.99787 235.84755 233.71823 231.59592 229.63260 227.80028
 226.09396 224.57664 223.21732 222.00000 220.89268 219.86337 218.97805 218.12973
 217.38241 216.57309 215.68177 215.05645 214.51714 214.73813 215.25728 214.93665
 215.05734 213.83221 212.74498 213.23477 216.22174 220.49255 225.34010 229.28171
 232.74237 236.94537 241.55701 246.11150 250.27582 254.00572 257.39468 260.50031
 263.34183 266.02676 268.67624 271.29886 273.78094 275.93762 277.64529 279.06470
 280.30591 281.24951 281.81723 282.11908 282.36282 283.01001 283.90579 284.69995
 285.34714 285.90732 286.39667 287.02032
 366.78100 356.34563 345.78826 334.66489 323.07852 311.28315 299.16378 286.97741
 274.70004 262.60767 250.62730 239.93893 230.07156 221.18619 213.37882 206.39145
 200.23608 195.18471 191.77734 189.82997 188.87760 188.95223 189.79786 191.11649
 192.85212 194.95775 197.23138 199.60101 202.05664 204.54727 206.64590 208.49853
 210.13516 211.29079 211.53042 211.76905 211.71668 211.43231 211.07594 210.71657
 210.34420 210.06483 209.88346 209.75809 209.69672 210.03835 210.43498 210.83461
 211.63824 212.82687 214.08750 215.88113 217.81976 219.87339 221.97902 224.07265
 226.14328 228.23791 230.34554 232.46217 234.60180 236.78443 239.05106 241.43169
 244.06332 246.32495 248.33758 250.11321 251.54084 252.67447 253.50710 253.83373
 253.88136 253.66599 253.03662 251.99525 250.61187 248.78350 246.70313 244.54676
 242.34839 240.16302 237.99365 235.84328 233.71391 231.59154 229.62817 227.79580
 226.08943 224.57206 223.21269 221.99532 220.88795 219.85858 218.97321 218.12484
 217.37747 216.56810 215.67673 215.05136 214.51199 214.73932 215.27159 214.94897
 214.95085 213.86685 212.68307 213.16393 216.16197 220.47504 225.32610 229.31024
 232.75688 236.94572 241.55455 246.10710 250.27719 254.01077 257.39743 260.49243
 263.31815 265.98746 268.63608 271.28351 273.80045 275.97437 277.70721 279.17123
 280.39114 281.21973 281.70734 281.99454 282.24310 282.99936 283.89481 284.68829
 285.33325 285.90335 286.40137 287.03601
 366.78100 356.34550 345.78800 334.66450 323.07801 311.28251 299.16301 286.97651
 274.69901 262.60651 250.62601 239.93751 230.07002 221.18452 213.37702 206.38952
 200.23402 195.18252 191.77502 189.82752 188.87503 188.94953 189.79503 191.11353
 192.84903 194.95453 197.22803 199.59754 202.05304 204.54354 206.64204 208.49454
 210.13104 211.28654 211.52604 211.76455 211.71205 211.42755 211.07105 210.71155
 210.33905 210.05955 209.87805 209.75256 209.69106 210.03256 210.42906 210.82856
 211.63206 212.82056 214.08107 215.87457 217.81307 219.86657 221.97207 224.06557
 226.13607 228.23057 230.33808 232.45458 234.59408 236.77658 239.04308 241.42358
 244.05508 246.31658 248.32909 250.10459 251.53209 252.66559 253.49809 253.82459
 253.87209 253.65660 253.02710 251.98560 250.60210 248.77360 246.69310 244.53660
 242.33810 240.15261 237.98311 235.83261 233.70311 231.58061 229.61711 227.78461
 226.07811 224.56062 223.20112 221.98362 220.87612 219.84662 218.96112 218.11262
 217.36513 216.55563 215.66413 215.03863 214.49913 214.73117 215.27802 215.01431
 214.83028 213.88222 212.67038 213.09062 216.10068 220.42276 225.31560 229.32022
 232.76537 236.93810 241.54092 246.09177 250.26225 253.99884 257.38913 260.48300
 263.30325 265.96262 268.61163 271.28638 273.83423 276.03937 277.81848 279.29233
 280.44421 281.20929 281.65451 281.99066 282.34457 282.99039 283.84344 284.60638
 285.25308 285.81885 286.31311 286.94296
 366.78100 356.34500 345.78699 334.66299 323.07599 311.27998 299.15998 286.97298
 274.69497 262.60197 250.62097 239.93196 230.06396 221.17796 213.36995 206.38195
 200.22594 195.17394 191.76594 189.81793 188.86493 188.93893 189.78392 191.10192
 192.83692 194.94191 197.21491 199.58391 202.03890 204.52890 206.62690 208.47889
 210.11489 211.26989 211.50888 211.74688 211.69388 211.40887 211.05187 210.69187
 210.31886 210.03886 209.85685 209.73085 209.66885 210.00984 210.40584 210.80484
 211.60783 212.79583 214.05583 215.84882 217.78682 219.83982 221.94481 224.03781
 226.10781 228.20180 230.30880 232.42480 234.56379 236.74579 239.01179 241.39178
 244.02278 246.28378 248.29577 250.07077 251.49776 252.63076 253.46276 253.78875
 253.83575 253.61975 252.98974 251.94774 250.56374 248.73473 246.65373 244.49673
 242.29772 240.11172 237.94172 235.79071 233.66071 231.53771 229.57370 227.74070
 226.03370 224.51569 223.15569 221.93769 220.82968 219.79968 218.91367 218.06467
 217.31667 216.50666 215.61466 214.98866 214.44865 214.70209 215.30081 215.06601
 214.75313 213.84894 212.67393 213.02988 216.04236 220.35469 225.28578 229.29799
 232.75328 236.92545 241.52492 246.07626 250.24577 253.98402 257.37732 260.47174
 263.28708 265.93652 268.58432 271.27612 273.85342 276.08929 277.88974 279.32825
 280.38910 281.08945 281.55023 281.95709 282.42346 283.10007 283.93414 284.68082
 285.33926 285.91583 286.41953 287.06143
 366.78100 356.34427 345.78555 334.66082 323.07310 311.27637 299.15565 286.96792
 274.68919 262.59547 250.61374 239.92402 230.05529 221.16857 213.35984 206.37112
 200.21439 195.16166 191.75294 189.80421 188.85049 188.92376 189.76804 191.08531
 192.81958 194.92386 197.19613 199.56441 202.01868 204.50796 206.60523 208.45650
 210.09178 211.24605 211.48433 211.72160 211.66788 211.38215 211.02443 210.66370
 210.28997 210.00925 209.82652 209.69980 209.63707 209.97735 210.37262 210.77089
 211.57317 212.76044 214.01972 215.81199 217.74927 219.80154 221.90581 223.99809
 226.06736 228.16064 230.26691 232.38219 234.52046 236.70173 238.96701 241.34628
 243.97656 246.23683 248.24811 250.02238 251.44866 252.58093 253.41220 253.73748
 253.78375 253.56703 252.93630 251.89358 250.50885 248.67912 246.59740 244.43967
 242.23995 240.05322 237.88250 235.73077 233.60004 231.47632 229.51159 227.67787
 225.97014 224.45142 223.09069 221.87197 220.76324 219.73251 218.84579 217.99606
 217.24734 216.43661 215.54389 214.91716 214.37643 214.66136 215.33455 215.09441
 214.73143 213.77251 212.68938 212.97867 215.95479 220.26076 225.24266 229.26814
 232.75528 236.92754 241.52257 246.08136 250.25015 253.99352 257.39627 260.50027
 263.31393 265.94916 268.58325 271.29770 273.90439 276.13190 277.92432 279.30457
 280.29962 280.97998 281.48627 281.95834 282.50034 283.19247 284.03867 284.75256
 285.36963 285.89774 286.35675 286.94174
 366.78100 356.34398 345.78497 334.65995 323.07194 311.27492 299.15391 286.96589
 274.68688 262.59286 250.61085 239.92083 230.05181 221.16480 213.35578 206.36677
 200.20975 195.15674 191.74772 189.79871 188.84469 188.91768 189.76166 191.07865
 192.81263 194.91661 197.18860 199.55658 202.01057 204.49955 206.59654 208.44752
 210.08251 211.23649 211.47448 211.71146 211.65744 211.37143 211.01341 210.65240
 210.27838 209.99737 209.81435 209.68734 209.62432 209.96431 210.35929 210.75728
 211.55926 212.74624 214.00523 215.79721 217.73420 219.78618 221.89017 223.98215
 226.05114 228.14412 230.25011 232.36509 234.50307 236.68406 238.94904 241.32803
 243.95801 246.21800 248.22898 250.00297 251.42895 252.56094 253.39192 253.71691
 253.76289 253.54587 252.91486 251.87184 250.48683 248.65681 246.57480 244.41678
 242.21677 240.02975 237.85874 235.70672 233.57570 231.45169 229.48667 227.65266
 225.94464 224.42563 223.06461 221.84560 220.73658 219.70557 218.81855 217.96853
 217.21952 216.40850 215.51549 214.88847 214.34746 214.64418 215.34520 215.13506
 214.75970 213.68405 212.62315 212.88188 215.85616 220.17445 225.19197 229.26414
 232.75691 236.93192 241.52319 246.08264 250.25923 254.01802 257.43347 260.54208
 263.35095 265.97244 268.59018 271.32278 273.97137 276.19537 278.01208 279.39099
 280.37549 281.06787 281.60150 282.10471 282.64972 283.28055 284.05176 284.74423
 285.37595 285.89523 286.34888 286.92697
 366.78100 356.34375 345.78449 334.65924 323.07099 311.27373 299.15248 286.96423
 274.68498 262.59072 250.60847 239.91822 230.04896 221.16171 213.35246 206.36320
 200.20595 195.15270 191.74345 189.79419 188.83994 188.91269 189.75643 191.07318
 192.80693 194.91067 197.18242 199.55017 202.00392 204.49266 206.58941 208.44016
 210.07490 211.22865 211.46640 211.70314 211.64889 211.36264 211.00439 210.64313
 210.26888 209.98763 209.80437 209.67712 209.61387 209.95361 210.34836 210.74611
 211.54786 212.73460 213.99335 215.78510 217.72184 219.77359 221.87734 223.96908
 226.03783 228.13058 230.23633 232.35107 234.48882 236.66957 238.93431 241.31306
 243.94281 246.20255 248.21330 249.98705 251.41280 252.54454 253.37529 253.70004
 253.74578 253.52853 252.89728 251.85402 250.46877 248.63852 246.55627 244.39801
 242.19776 240.01051 237.83925 235.68700 233.55575 231.43149 229.46624 227.63199
 225.92374 224.40448 223.04323 221.82398 220.71472 219.68347 218.79622 217.94596
 217.19671 216.38546 215.49221 214.86495 214.32370 214.63536 215.37027 215.14980
 214.77654 213.55348 212.52444 212.88789 215.81831 220.09694 225.10188 229.27740
 232.80206 236.97832 241.54248 246.08566 250.23470 253.97713 257.40482 260.54568
 263.38770 266.03842 268.68439 271.42059 274.05359 276.32324 278.08722 279.39462
 280.40399 281.19907 281.87125 282.48907 283.10001 283.81424 284.64255 285.32217
 285.89200 286.41315 286.86844 287.44861
 366.78100 356.34330 345.78361 334.65791 323.06922 311.27152 299.14983 286.96113
 274.68144 262.58674 250.60405 239.91335 230.04366 221.15596 213.34627 206.35657
 200.19887 195.14518 191.73548 189.78579 188.83109 188.90340 189.74670 191.06301
 192.79631 194.89962 197.17092 199.53823 201.99153 204.47983 206.57614 208.42644
 210.06075 211.21405 211.45136 211.68766 211.63297 211.34627 210.98758 210.62588
 210.25119 209.96949 209.78580 209.65810 209.59440 209.93371 210.32801 210.72532
 211.52662 212.71293 213.97123 215.76254 217.69884 219.75015 221.85345 223.94476
 226.01306 228.10536 230.21067 232.32497 234.46228 236.64258 238.90689 241.28519
 243.91450 246.17380 248.18411 249.95741 251.38272 252.51402 253.34433 253.66863
 253.71393 253.49624 252.86454 251.82085 250.43515 248.60446 246.52176 244.36307
 242.16237 239.97468 237.80298 235.65029 233.51859 231.39390 229.42820 227.59350
 225.88481 224.36511 223.00342 221.78372 220.67403 219.64233 218.75464 217.90394
 217.15425 216.34255 215.44886 214.82116 214.27946 214.59698 215.34717 215.18680
 214.76228 213.43518 212.50891 212.87018 215.74768 220.02109 225.02477 229.28076
 232.88098 237.03664 241.57155 246.10596 250.21237 253.92619 257.36337 260.54239
 263.41544 266.09686 268.77026 271.50797 274.14383 276.40704 278.11115 279.38245
 280.44669 281.34915 282.11230 282.80795 283.51813 284.29535 285.11246 285.75491
 286.14603 286.64243 287.07605 287.62869
 354.97500 345.04800 334.58700 324.11500 313.32600 302.53700 291.65000 280.76700
 269.93100 259.19300 248.62200 238.61700 229.08700 220.35500 212.54000 205.53500
 199.46400 194.49300 191.14300 189.19000 188.08900 188.01400 188.72400 189.90600
 191.46900 193.38200 195.40300 197.55600 199.80700 202.06000 204.28800 206.47900
 208.55200 210.37800 212.02500 213.65900 214.99800 216.11800 217.17200 218.25900
 219.49400 220.64500 221.67900 222.61400 223.54500 224.98200 226.57100 228.19000
 229.79700 231.81100 233.86500 235.97200 238.24200 240.55300 242.89900 245.25300
 247.48800 249.53500 251.36600 252.84800 254.09800 255.16700 256.02700 256.25300
 256.09500 255.54300 253.93500 252.56600 251.38400 250.24500 249.05200 247.70100
 246.01600 243.99600 241.78400 239.39300 236.81300 234.22300 231.65800 229.14400
 226.74000 224.47300 222.33500 220.32500 218.44000 216.67700 214.96200 213.47200
 212.20000 211.10800 210.26000 209.63900 209.24400 209.03100 209.05800 209.33300
 209.78400 210.62600 211.33100 212.39100 213.62500 214.84668 217.72949 219.47640
 220.32566 220.86828 220.88710 220.27371 219.43733 218.84250 219.04934 220.86203
 222.60583 225.72206 229.03064 232.61777 236.12270 239.51333 242.70767 245.68587
 248.41061 250.90679 253.19353 254.91714 256.48655 257.94920 259.39966 260.69384
 261.81714 262.77997 263.71679 264.54570 265.26305 265.89772 266.47676 267.00133
 267.47312 267.89325 268.26027 268.72800
