|-------------------------------------------------------------------------|
|   File Name : in_temp.dat
|   Subject   : temperature profiles used for initial guess atmosphere
|   File Type : input of gmtr
|   Data Type : atmospherical data
|   Author/s  : WRF-Chem
|   Date      : Fri Jul 26 15:39:24 2024
|-------------------------------------------------------------------------|

 WRF-Chem temperature
#
 values of T (K)    (8f10.5)
#
 354.97500 345.04800 334.58700 324.11500 313.32600 302.53700 291.65000 280.76700
 269.93100 259.19300 248.62200 238.61700 229.08700 220.35500 212.54000 205.53500
 199.46400 194.49300 191.14300 189.19000 188.08900 188.01400 188.72400 189.90600
 191.46900 193.38200 195.40300 197.55600 199.80700 202.06000 204.28800 206.47900
 208.55200 210.37800 212.02500 213.65900 214.99800 216.11800 217.17200 218.25900
 219.49400 220.64500 221.67900 222.61400 223.54500 224.98200 226.57100 228.19000
 229.79700 231.81100 233.86500 235.97200 238.24200 240.55300 242.89900 245.25300
 247.48800 249.53500 251.36600 252.84800 254.09800 255.16700 256.02700 256.25300
 256.09500 255.54300 253.93500 252.56600 251.38400 250.24500 249.05200 247.70100
 246.01600 243.99600 241.78400 239.39300 236.81300 234.22300 231.65800 229.14400
 226.74000 224.47300 222.33500 220.32500 218.44000 216.67700 214.96200 213.47200
 212.20000 211.10800 210.26000 209.63900 209.24400 209.03100 209.05800 209.33300
 209.78400 210.62600 211.33100 212.39100 213.62500 214.84668 217.72949 219.47640
 220.32566 220.86828 220.88710 220.27371 219.43733 218.84250 219.04934 220.86203
 222.60583 225.72206 229.03064 232.61777 236.12270 239.51333 242.70767 245.68587
 248.41061 250.90679 253.19353 254.91714 256.48655 257.94920 259.39966 260.69384
 261.81714 262.77997 263.71679 264.54570 265.26305 265.89772 266.47676 267.00133
 267.47312 267.89325 268.26027 268.72800
 366.78100 356.33500 345.76700 334.63300 323.03600 311.23000 299.10000 286.90300
 274.61500 262.51200 250.52100 239.82200 229.94400 221.04800 213.23000 206.23200
 200.06600 195.00400 191.58600 189.62800 188.66500 188.72900 189.56400 190.87200
 192.59700 194.69200 196.95500 199.31400 201.75900 204.23900 206.32700 208.16900
 209.79500 210.94000 211.16900 211.39700 211.33400 211.03900 210.67200 210.30200
 209.91900 209.62900 209.43700 209.30100 209.22900 209.56000 209.94600 210.33500
 211.12800 212.30600 213.55600 215.33900 217.26700 219.31000 221.40500 223.48800
 225.54800 227.63200 229.72900 231.83500 233.96400 236.13600 238.39200 240.76200
 243.38300 245.63400 247.63600 249.40100 250.81800 251.94100 252.76300 253.07900
 253.11600 252.89000 252.25000 251.19800 249.80400 247.96500 245.87400 243.70700
 241.49800 239.30200 237.12200 234.96100 232.82100 230.68800 228.71400 226.87100
 225.15400 223.62600 222.25600 221.02800 219.91000 218.87000 217.97400 217.11500
 216.35700 215.53700 214.63500 213.99900 213.44900 212.85855 212.01316 212.61654
 214.26826 216.08686 218.14273 220.53346 223.40855 226.78828 231.49734 235.90155
 239.42278 243.28576 247.23140 251.11907 254.80144 258.23331 261.38913 264.27520
 266.89312 269.26852 271.44504 273.08845 274.58484 275.98591 277.39845 278.65879
 279.75272 280.69038 281.56708 282.34086 283.01050 283.60295 284.14348 284.63317
 285.07358 285.46577 285.80838 286.24500
 381.81900 372.39900 361.20600 349.77600 337.62200 324.85300 311.81000 298.35300
 284.86000 271.32400 258.56100 246.30400 236.08700 226.79600 218.44800 211.29000
 205.52200 200.89400 197.38100 194.84800 193.01500 192.31500 192.25000 192.43100
 192.91200 193.53700 194.13600 194.71200 195.26200 195.83100 196.39300 196.97600
 197.60400 198.14900 198.58400 199.05700 199.69500 200.37800 201.05400 201.70800
 202.31300 202.85700 203.35500 203.86200 204.56900 205.29700 206.02600 206.98700
 208.19300 209.44100 210.96900 212.57600 214.46200 216.51300 218.63000 220.85300
 223.34100 225.96200 228.73900 231.69700 234.70600 237.70600 240.69200 243.65700
 246.73700 249.69900 252.52100 255.06300 257.29000 259.23300 260.63300 261.68000
 262.46100 262.79800 262.69100 262.22400 261.06900 259.52500 257.70700 255.50700
 253.00100 250.30200 247.39800 244.45200 241.65400 239.05400 236.73300 234.59000
 232.59500 230.72500 228.83400 226.82600 224.66600 222.38700 220.10400 217.71500
 215.45900 213.06600 210.54600 208.09300 205.35400 202.08130 196.05959 200.71215
 209.01611 216.90438 223.84126 229.78593 235.00632 240.20838 245.98943 250.68668
 254.32982 257.93487 261.55666 264.96801 268.15192 271.06452 273.76717 276.25691
 278.57680 280.74479 282.77456 284.60533 286.27232 287.81705 289.31715 290.65561
 291.81734 292.81312 293.70701 294.49387 295.17482 295.77730 296.32696 296.82492
 297.27278 297.67160 298.02000 298.46400
 399.33000 389.90700 379.81300 368.66800 357.52200 345.30100 333.07400 320.22700
 307.21600 293.84800 280.37600 267.29600 254.61000 242.98700 232.15100 221.97700
 212.67200 204.28600 197.66900 192.82100 189.48600 187.45200 186.81400 187.08900
 187.78100 189.05400 190.64800 192.54200 194.63000 196.75200 198.67100 200.15800
 201.53500 202.48700 202.97500 203.34000 203.53900 203.49700 203.38500 203.24700
 203.00500 202.78600 202.60300 202.43700 202.42600 202.88800 203.42000 203.95100
 204.89500 205.99200 207.30100 208.95800 210.73800 213.10000 215.56400 218.18000
 220.96600 223.91800 226.96100 230.09200 233.29300 236.55700 239.95500 243.53700
 246.84500 249.39000 251.54200 253.47400 255.19500 256.48400 257.43100 258.05900
 258.21200 258.04000 257.58200 256.64300 255.23900 253.50700 251.40800 249.05600
 246.57600 243.99400 241.38900 238.83000 236.34400 233.98600 231.96900 230.11800
 228.42300 226.89900 225.54800 224.29700 223.10500 221.96500 220.95800 220.11300
 219.49000 218.92000 218.32500 217.88100 217.42300 216.96366 216.35568 216.80261
 217.73415 218.28582 218.64258 219.10077 220.44626 222.53987 226.38451 230.35736
 233.59734 237.39164 241.29814 245.22796 248.98002 252.51130 255.78595 258.80109
 261.54781 264.05210 266.34239 268.04198 269.58951 271.01303 272.35754 273.55718
 274.59842 275.49092 276.28989 276.99307 277.60161 278.14001 278.63122 279.07623
 279.47646 279.83287 280.14422 280.54100
 399.73800 389.78500 379.66200 368.15100 356.64100 344.35000 331.79200 318.88800
 305.72600 292.49300 279.20900 266.73800 254.69600 244.21100 234.45700 225.43300
 217.56900 210.45100 204.30000 199.30600 195.45800 192.57600 191.02700 190.38600
 190.23900 190.53400 191.16600 191.92500 192.79500 193.76600 194.73200 195.31200
 195.80000 196.05200 196.11500 196.11500 196.03900 195.72300 195.34000 194.98900
 194.75100 194.79200 195.13300 195.59800 196.50600 198.13600 199.85800 201.56600
 204.17900 206.82300 209.89300 213.28400 216.82800 220.60500 224.38700 228.20900
 232.03200 235.82500 239.56000 243.25800 246.84500 250.20100 253.70900 257.46800
 261.53000 264.22100 266.60100 268.68100 270.32900 271.74100 272.83600 273.47400
 273.89800 274.00200 273.75700 273.28800 272.37100 271.10000 269.58900 267.77900
 265.81600 263.72100 261.39300 258.91600 256.29800 253.42300 250.33100 247.11400
 243.83700 240.52900 237.24900 233.99900 230.72800 227.51500 224.25400 220.95200
 217.62700 213.65600 210.12100 206.78900 204.01000 201.99491 199.07309 198.76551
 199.40006 200.48994 201.46112 202.31912 203.45100 204.96110 207.47502 210.85391
 213.70530 217.29629 220.99574 224.72316 228.28753 231.64854 234.68024 237.40893
 239.70644 241.60899 243.46854 245.67368 247.68154 249.52395 251.24767 252.78566
 254.12057 255.26479 256.23740 257.09036 257.82852 258.48160 259.07744 259.61723
 260.10271 260.53504 260.91270 261.39400
 399.73800 389.78500 379.66200 368.15100 356.64100 344.35000 331.79200 318.88800
 305.72600 292.49300 279.20900 266.73800 254.69600 244.21100 234.45700 225.43300
 217.56900 210.45100 204.30000 199.30600 195.45800 192.57600 191.02700 190.38600
 190.23900 190.53400 191.16600 191.92500 192.79500 193.76600 194.73200 195.31200
 195.80000 196.05200 196.11500 196.11500 196.03900 195.72300 195.34000 194.98900
 194.75100 194.79200 195.13300 195.59800 196.50600 198.13600 199.85800 201.56600
 204.17900 206.82300 209.89300 213.28400 216.82800 220.60500 224.38700 228.20900
 232.03200 235.82500 239.56000 243.25800 246.84500 250.20100 253.70900 257.46800
 261.53000 264.22100 266.60100 268.68100 270.32900 271.74100 272.83600 273.47400
 273.89800 274.00200 273.75700 273.28800 272.37100 271.10000 269.58900 267.77900
 265.81600 263.72100 261.39300 258.91600 256.29800 253.42300 250.33100 247.11400
 243.83700 240.52900 237.24900 233.99900 230.72800 227.51500 224.25400 220.95200
 217.62700 213.65600 210.12100 206.78900 204.01000 201.99491 199.07309 198.76551
 199.40006 200.48994 201.46112 202.31912 203.45100 204.96110 207.47502 210.85391
 213.70530 217.29629 220.99574 224.72316 228.28753 231.64854 234.68024 237.40893
 239.70644 241.60899 243.46854 245.67368 247.68154 249.52395 251.24767 252.78566
 254.12057 255.26479 256.23740 257.09036 257.82852 258.48160 259.07744 259.61723
 260.10271 260.53504 260.91270 261.39400
 399.33000 389.90700 379.81300 368.66800 357.52200 345.30100 333.07400 320.22700
 307.21600 293.84800 280.37600 267.29600 254.61000 242.98700 232.15100 221.97700
 212.67200 204.28600 197.66900 192.82100 189.48600 187.45200 186.81400 187.08900
 187.78100 189.05400 190.64800 192.54200 194.63000 196.75200 198.67100 200.15800
 201.53500 202.48700 202.97500 203.34000 203.53900 203.49700 203.38500 203.24700
 203.00500 202.78600 202.60300 202.43700 202.42600 202.88800 203.42000 203.95100
 204.89500 205.99200 207.30100 208.95800 210.73800 213.10000 215.56400 218.18000
 220.96600 223.91800 226.96100 230.09200 233.29300 236.55700 239.95500 243.53700
 246.84500 249.39000 251.54200 253.47400 255.19500 256.48400 257.43100 258.05900
 258.21200 258.04000 257.58200 256.64300 255.23900 253.50700 251.40800 249.05600
 246.57600 243.99400 241.38900 238.83000 236.34400 233.98600 231.96900 230.11800
 228.42300 226.89900 225.54800 224.29700 223.10500 221.96500 220.95800 220.11300
 219.49000 218.92000 218.32500 217.88100 217.42300 216.96366 216.35568 216.80261
 217.73415 218.28582 218.64258 219.10077 220.44626 222.53987 226.38451 230.35736
 233.59734 237.39164 241.29814 245.22796 248.98002 252.51130 255.78595 258.80109
 261.54781 264.05210 266.34239 268.04198 269.58951 271.01303 272.35754 273.55718
 274.59842 275.49092 276.28989 276.99307 277.60161 278.14001 278.63122 279.07623
 279.47646 279.83287 280.14422 280.54100
 381.81900 372.39900 361.20600 349.77600 337.62200 324.85300 311.81000 298.35300
 284.86000 271.32400 258.56100 246.30400 236.08700 226.79600 218.44800 211.29000
 205.52200 200.89400 197.38100 194.84800 193.01500 192.31500 192.25000 192.43100
 192.91200 193.53700 194.13600 194.71200 195.26200 195.83100 196.39300 196.97600
 197.60400 198.14900 198.58400 199.05700 199.69500 200.37800 201.05400 201.70800
 202.31300 202.85700 203.35500 203.86200 204.56900 205.29700 206.02600 206.98700
 208.19300 209.44100 210.96900 212.57600 214.46200 216.51300 218.63000 220.85300
 223.34100 225.96200 228.73900 231.69700 234.70600 237.70600 240.69200 243.65700
 246.73700 249.69900 252.52100 255.06300 257.29000 259.23300 260.63300 261.68000
 262.46100 262.79800 262.69100 262.22400 261.06900 259.52500 257.70700 255.50700
 253.00100 250.30200 247.39800 244.45200 241.65400 239.05400 236.73300 234.59000
 232.59500 230.72500 228.83400 226.82600 224.66600 222.38700 220.10400 217.71500
 215.45900 213.06600 210.54600 208.09300 205.35400 202.08130 196.05959 200.71215
 209.01611 216.90438 223.84126 229.78593 235.00632 240.20838 245.98943 250.68668
 254.32982 257.93487 261.55666 264.96801 268.15192 271.06452 273.76717 276.25691
 278.57680 280.74479 282.77456 284.60533 286.27232 287.81705 289.31715 290.65561
 291.81734 292.81312 293.70701 294.49387 295.17482 295.77730 296.32696 296.82492
 297.27278 297.67160 298.02000 298.46400
 366.78100 356.32698 345.75096 334.60895 323.00393 311.18991 299.05189 286.84687
 274.55086 262.43984 250.44082 239.73380 229.84778 220.94377 213.11775 206.11173
 199.93771 194.86769 191.44168 189.47566 188.50464 188.56062 189.38760 190.68759
 192.40457 194.49155 196.74653 199.09751 201.53450 204.00648 206.08646 207.92044
 209.53842 210.67541 210.89639 211.11637 211.04535 210.74233 210.36732 209.98930
 209.59828 209.30026 209.10024 208.95623 208.87621 209.19919 209.57717 209.95815
 210.74314 211.91312 213.15510 214.93008 216.85006 218.88505 220.97203 223.04701
 225.09899 227.17497 229.26396 231.36194 233.48292 235.64690 237.89488 240.25687
 242.86985 245.11283 247.10681 248.86380 250.27278 251.38776 252.20174 252.50972
 252.53871 252.30469 251.65667 250.59665 249.19463 247.34762 245.24860 243.07358
 240.85656 238.65254 236.46453 234.29551 232.14749 230.00647 228.02445 226.17344
 224.44842 222.91240 221.53438 220.29836 219.17235 218.12433 217.22031 216.35329
 215.58727 214.75926 213.84924 213.20522 212.64720 212.52457 212.24426 213.32626
 215.21510 217.42012 218.72437 218.86263 220.06317 223.31390 228.34126 232.91463
 236.70041 240.52376 244.21466 247.71245 251.00381 253.77647 256.07413 258.39954
 261.56796 264.50491 266.71304 268.47083 270.23996 272.14780 273.96228 275.56506
 276.93579 278.26431 279.68665 281.04294 282.22784 283.28079 284.24631 285.12698
 285.92670 286.64615 287.28302 288.13251
 366.78100 356.32699 345.75098 334.60897 323.00396 311.18995 299.05194 286.84692
 274.55091 262.43990 250.44089 239.73388 229.84787 220.94386 213.11785 206.11184
 199.93783 194.86782 191.44181 189.47579 188.50478 188.56077 189.38776 190.68775
 192.40474 194.49173 196.74672 199.09771 201.53470 204.00669 206.08668 207.92066
 209.53865 210.67564 210.89663 211.11662 211.04561 210.74260 210.36759 209.98958
 209.59857 209.30056 209.10055 208.95654 208.87652 209.19951 209.57750 209.95849
 210.74348 211.91347 213.15546 214.93045 216.85044 218.88543 220.97242 223.04741
 225.09939 227.17538 229.26437 231.36236 233.48335 235.64734 237.89533 240.25732
 242.87031 245.11330 247.10729 248.86428 250.27326 251.38825 252.20224 252.51023
 252.53922 252.30521 251.65720 250.59719 249.19518 247.34817 245.24916 243.07415
 240.85713 238.65312 236.46511 234.29610 232.14809 230.00708 228.02507 226.17406
 224.44905 222.91304 221.53503 220.29902 219.17301 218.12499 217.22098 216.35397
 215.58796 214.75995 213.84994 213.20593 212.64792 212.55844 212.35501 213.44832
 215.27533 217.46001 218.88055 219.10017 220.22797 223.35658 228.27347 232.77983
 236.52071 240.33908 244.05225 247.55202 250.79930 253.53296 255.86073 258.26541
 261.41644 264.33017 266.55023 268.32639 270.09232 271.98315 273.79626 275.41864
 276.82697 278.18896 279.61682 280.97372 282.15967 283.21231 284.17749 285.05807
 285.85767 286.57724 287.21445 288.06503
 366.78100 356.32711 345.75122 334.60933 323.00444 311.19055 299.05266 286.84777
 274.55188 262.44098 250.44209 239.73520 229.84931 220.94542 213.11953 206.11364
 199.93975 194.86986 191.44397 189.47808 188.50719 188.56330 189.39041 190.69052
 192.40763 194.49474 196.74985 199.10095 201.53806 204.01017 206.09028 207.92439
 209.54250 210.67961 210.90072 211.12083 211.04994 210.74705 210.37216 209.99427
 209.60338 209.30549 209.10560 208.96171 208.88181 209.20492 209.58303 209.96414
 210.74925 211.91936 213.16147 214.93658 216.85669 218.89180 220.97891 223.05402
 225.10613 227.18224 229.27135 231.36946 233.49057 235.65468 237.90278 240.26489
 242.87800 245.12111 247.11522 248.87233 250.28144 251.39655 252.21066 252.51877
 252.54788 252.31399 251.66610 250.60621 249.20432 247.35743 245.25854 243.08364
 240.86675 238.66286 236.47497 234.30608 232.15819 230.01730 228.03541 226.18452
 224.45963 222.92374 221.54585 220.30996 219.18407 218.13618 217.23229 216.36540
 215.59950 214.77161 213.86172 213.21783 212.65994 212.59930 212.46263 213.57629
 215.33505 217.51239 219.00722 219.33829 220.41273 223.41096 228.21007 232.63278
 236.33698 240.15930 243.88754 247.37491 250.57668 253.28241 255.64670 258.13000
 261.26266 264.15359 266.38480 268.18491 269.95316 271.83041 273.64145 275.28317
 276.72656 278.11423 279.55487 280.91199 282.09796 283.15063 284.11569 284.99600
 285.79550 286.51523 287.15323 288.00366
 366.78100 356.32712 345.75124 334.60936 323.00448 311.19060 299.05272 286.84784
 274.55196 262.44108 250.44219 239.73531 229.84943 220.94555 213.11967 206.11379
 199.93991 194.87003 191.44415 189.47827 188.50739 188.56351 189.39063 190.69075
 192.40787 194.49499 196.75011 199.10123 201.53835 204.01047 206.09058 207.92470
 209.54282 210.67994 210.90106 211.12118 211.05030 210.74742 210.37254 209.99466
 209.60378 209.30590 209.10602 208.96214 208.88226 209.20538 209.58350 209.96462
 210.74974 211.91986 213.16197 214.93709 216.85721 218.89233 220.97945 223.05457
 225.10669 227.18281 229.27193 231.37005 233.49117 235.65529 237.90341 240.26553
 242.87865 245.12177 247.11589 248.87301 250.28213 251.39725 252.21136 252.51948
 252.54860 252.31472 251.66684 250.60696 249.20508 247.35820 245.25932 243.08444
 240.86756 238.66368 236.47580 234.30692 232.15904 230.01816 228.03628 226.18540
 224.46052 222.92464 221.54675 220.31087 219.18499 218.13711 217.23323 216.36635
 215.60047 214.77259 213.86271 213.21883 212.66095 212.63576 212.58144 213.70174
 215.39340 217.56479 219.12791 219.57266 220.60973 223.47701 228.15630 232.47887
 236.15408 239.98445 243.71538 247.17917 250.33490 253.01994 255.42760 257.98975
 261.10602 263.97348 266.21762 268.04535 269.82376 271.69162 273.50043 275.15939
 276.63681 278.04330 279.49762 280.85596 282.04169 283.09430 284.05917 284.93979
 285.73877 286.45837 287.09604 287.94818
 366.78100 356.32705 345.75111 334.60916 323.00422 311.19027 299.05233 286.84738
 274.55144 262.44049 250.44155 239.73460 229.84866 220.94471 213.11877 206.11282
 199.93888 194.86893 191.44299 189.47704 188.50610 188.56215 189.38921 190.68926
 192.40632 194.49337 196.74843 199.09948 201.53654 204.00859 206.08865 207.92270
 209.54076 210.67781 210.89887 211.11892 211.04798 210.74503 210.37009 209.99214
 209.60120 209.30325 209.10331 208.95936 208.87942 209.20247 209.58053 209.96158
 210.74664 211.91669 213.15875 214.93380 216.85386 218.88891 220.97597 223.05102
 225.10308 227.17913 229.26819 231.36624 233.48730 235.65135 237.89941 240.26146
 242.87452 245.11757 247.11163 248.86868 250.27774 251.39279 252.20685 252.51490
 252.54396 252.31001 251.66207 250.60212 249.20018 247.35323 245.25429 243.07934
 240.86240 238.65845 236.47051 234.30156 232.15362 230.01267 228.03073 226.17978
 224.45484 222.91889 221.54095 220.30500 219.17906 218.13111 217.22717 216.36022
 215.59428 214.76633 213.85639 213.21244 212.65450 212.66930 212.70811 213.82756
 215.44424 217.61311 219.26015 219.80148 220.81776 223.55443 228.10751 232.33713
 235.97639 239.80629 243.52802 246.96176 250.07578 252.74796 255.20227 257.84360
 260.94632 263.79025 266.04715 267.90579 269.70258 271.56940 273.37695 275.04959
 276.55655 277.97647 279.44473 280.80463 281.98999 283.04257 284.00729 284.88730
 285.68665 286.40643 287.04434 287.89728
 366.78100 356.32715 345.75130 334.60945 323.00459 311.19074 299.05289 286.84804
 274.55219 262.44134 250.44248 239.73563 229.84978 220.94593 213.12008 206.11423
 199.94038 194.87052 191.44467 189.47882 188.50797 188.56412 189.39127 190.69142
 192.40856 194.49571 196.75086 199.10201 201.53916 204.01131 206.09145 207.92560
 209.54375 210.68090 210.90205 211.12220 211.05135 210.74849 210.37364 209.99579
 209.60494 209.30709 209.10724 208.96339 208.88353 209.20668 209.58483 209.96598
 210.75113 211.92128 213.16342 214.93857 216.85872 218.89387 220.98102 223.05617
 225.10832 227.18446 229.27361 231.37176 233.49291 235.65706 237.90521 240.26735
 242.88050 245.12365 247.11780 248.87495 250.28410 251.39925 252.21339 252.52154
 252.55069 252.31684 251.66899 250.60914 249.20729 247.36043 245.26158 243.08673
 240.86988 238.66603 236.47818 234.30932 232.16147 230.02062 228.03877 226.18792
 224.46307 222.92722 221.54936 220.31351 219.18766 218.13981 217.23596 216.36911
 215.60325 214.77540 213.86555 213.22170 212.66385 212.71194 212.82829 213.95497
 215.50233 217.66302 219.39319 220.02040 221.03162 223.63809 228.06126 232.21474
 235.80917 239.62601 243.32430 246.71971 249.79771 252.46944 254.97563 257.69186
 260.78232 263.60574 265.87360 267.76526 269.58774 271.46161 273.27069 274.95499
 276.48679 277.91498 279.39444 280.75565 281.94095 282.99344 283.95743 284.83795
 285.63748 286.35736 286.99564 287.84937
 366.78100 356.32747 345.75194 334.61041 323.00588 311.19235 299.05482 286.85028
 274.55475 262.44422 250.44569 239.73916 229.85363 220.95010 213.12457 206.11904
 199.94551 194.87598 191.45045 189.48492 188.51438 188.57085 189.39832 190.69879
 192.41626 194.50373 196.75920 199.11067 201.54814 204.02061 206.10108 207.93555
 209.55402 210.69148 210.91295 211.13342 211.06289 210.76036 210.38583 210.00830
 209.61777 209.32024 209.12071 208.97718 208.89765 209.22112 209.59958 209.98105
 210.76652 211.93699 213.17946 214.95493 216.87540 218.91087 220.99834 223.07381
 225.12628 227.20275 229.29222 231.39068 233.51215 235.67662 237.92509 240.28756
 242.90103 245.14450 247.13897 248.89644 250.30591 251.42138 252.23585 252.54432
 252.57378 252.34025 251.69272 250.63319 249.23166 247.38513 245.28660 243.11207
 240.89554 238.69201 236.50448 234.33595 232.18842 230.04788 228.06635 226.21582
 224.49129 222.95576 221.57823 220.34270 219.21717 218.16964 217.26611 216.39958
 215.63405 214.80652 213.89698 213.25345 212.69592 212.76691 212.93637 214.08224
 215.57826 217.71576 219.51567 220.22777 221.24127 223.72626 228.02168 232.10730
 235.66061 239.45158 243.11180 246.45517 249.49940 252.18266 254.74779 257.53268
 260.61157 263.41647 265.69608 267.62570 269.48026 271.36823 273.18060 274.87430
 276.42535 277.85925 279.34808 280.70975 281.89664 282.94858 283.91318 284.79321
 285.59290 286.31317 286.95190 287.80688
 366.78100 356.32785 345.75271 334.61156 323.00741 311.19427 299.05712 286.85297
 274.55783 262.44768 250.44953 239.74338 229.85824 220.95509 213.12994 206.12480
 199.95165 194.88250 191.45736 189.49221 188.52206 188.57892 189.40677 190.70762
 192.42548 194.51333 196.76918 199.12103 201.55889 204.03174 206.11259 207.94745
 209.56630 210.70415 210.92601 211.14686 211.07671 210.77457 210.40042 210.02327
 209.63313 209.33598 209.13683 208.99369 208.91454 209.23839 209.61724 209.99910
 210.78495 211.95580 213.19866 214.97451 216.89536 218.93122 221.01907 223.09492
 225.14778 227.22463 229.31448 231.41334 233.53519 235.70004 237.94889 240.31175
 242.92560 245.16945 247.16431 248.92216 250.33201 251.44787 252.26272 252.57157
 252.60143 252.36828 251.72113 250.66199 249.26084 247.41469 245.31654 243.14240
 240.92625 238.72310 236.53596 234.36781 232.22066 230.08052 228.09937 226.24922
 224.52508 222.98993 221.61278 220.37764 219.25249 218.20534 217.30220 216.43605
 215.67090 214.84375 213.93461 213.29146 212.73431 212.82468 213.03900 214.21140
 215.66054 217.76935 219.63089 220.42755 221.44231 223.82353 227.99422 232.01048
 235.53120 239.29071 242.89905 246.17393 249.18036 251.88113 254.50967 257.36084
 260.43204 263.22083 265.51880 267.49255 269.38638 271.29224 273.10675 274.80435
 276.37073 277.80945 279.30731 280.67050 281.85590 282.91031 283.87448 284.75339
 285.55597 286.27551 286.91476 287.77115
 366.78100 356.32819 345.75338 334.61257 323.00876 311.19595 299.05915 286.85534
 274.56053 262.45072 250.45291 239.74710 229.86229 220.95948 213.13467 206.12986
 199.95706 194.88825 191.46344 189.49863 188.52882 188.58601 189.41420 190.71539
 192.43358 194.52177 196.77797 199.13016 201.56835 204.04154 206.12273 207.95792
 209.57711 210.71530 210.93749 211.15868 211.08887 210.78707 210.41326 210.03645
 209.64664 209.34983 209.15102 209.00821 208.92940 209.25359 209.63278 210.01498
 210.80117 211.97236 213.21555 214.99174 216.91293 218.94912 221.03731 223.11350
 225.16669 227.24389 229.33408 231.43327 233.55546 235.72065 237.96984 240.33303
 242.94722 245.19141 247.18660 248.94479 250.35499 251.47118 252.28637 252.59556
 252.62575 252.39294 251.74613 250.68732 249.28651 247.44070 245.34290 243.16909
 240.95328 238.75047 236.56366 234.39585 232.24904 230.10923 228.12842 226.27861
 224.55481 223.02000 221.64319 220.40838 219.28357 218.23676 217.33395 216.46814
 215.70333 214.87652 213.96771 213.32491 212.76810 212.87950 213.14273 214.34181
 215.74200 217.82536 219.74629 220.61946 221.63757 223.92870 227.97775 231.92474
 235.41664 239.14105 242.68188 245.87524 248.84329 251.56549 254.25819 257.17575
 260.24429 263.02597 265.34793 267.36938 269.30588 271.23138 273.04675 274.74335
 276.32117 277.76584 279.26889 280.63538 281.82208 282.87555 283.84134 284.72168
 285.52417 286.24338 286.88406 287.74164
 366.78100 356.32847 345.75394 334.61341 323.00989 311.19736 299.06083 286.85730
 274.56277 262.45324 250.45571 239.75018 229.86566 220.96313 213.13860 206.13407
 199.96154 194.89301 191.46848 189.50395 188.53443 188.59190 189.42037 190.72184
 192.44031 194.52878 196.78525 199.13772 201.57620 204.04967 206.13114 207.96661
 209.58608 210.72455 210.94702 211.16849 211.09897 210.79744 210.42391 210.04738
 209.65785 209.36132 209.16279 209.02026 208.94174 209.26621 209.64568 210.02815
 210.81462 211.98609 213.22956 215.00603 216.92751 218.96398 221.05245 223.12892
 225.18239 227.25986 229.35033 231.44981 233.57228 235.73775 237.98722 240.35069
 242.96516 245.20963 247.20510 248.96358 250.37405 251.49052 252.30599 252.61546
 252.64593 252.41340 251.76687 250.70835 249.30782 247.46229 245.36476 243.19123
 240.97570 238.77317 236.58664 234.41912 232.27259 230.13306 228.15253 226.30300
 224.57947 223.04494 221.66841 220.43389 219.30936 218.26283 217.36030 216.49477
 215.73024 214.90371 213.99518 213.35266 212.79613 212.93050 213.24796 214.46716
 215.83098 217.88828 219.86833 220.80588 221.83064 224.02937 227.96298 231.84103
 235.30754 238.99982 242.46501 245.56624 248.49063 251.23389 253.99471 256.98328
 260.06052 262.84155 265.18661 267.25342 269.23395 271.18246 272.99728 274.68933
 276.27658 277.72928 279.23685 280.60468 281.79257 282.84671 283.81302 284.69519
 285.49603 286.21796 286.85831 287.71707
 366.78100 356.32879 345.75458 334.61437 323.01116 311.19895 299.06274 286.85953
 274.56533 262.45612 250.45891 239.75370 229.86949 220.96728 213.14307 206.13886
 199.96665 194.89844 191.47423 189.51002 188.54081 188.59860 189.42739 190.72918
 192.44798 194.53677 196.79356 199.14635 201.58514 204.05893 206.14072 207.97651
 209.59630 210.73509 210.95788 211.17967 211.11046 210.80925 210.43604 210.05983
 209.67063 209.37442 209.17621 209.03400 208.95579 209.28058 209.66037 210.04316
 210.82995 212.00174 213.24553 215.02232 216.94411 218.98090 221.06969 223.14649
 225.20028 227.27807 229.36886 231.46865 233.59144 235.75723 238.00702 240.37081
 242.98560 245.23039 247.22618 248.98497 250.39576 251.51255 252.32834 252.63814
 252.66893 252.43672 251.79051 250.73230 249.33209 247.48688 245.38967 243.21646
 241.00125 238.79904 236.61283 234.44562 232.29941 230.16020 228.18000 226.33079
 224.60758 223.07337 221.69716 220.46295 219.33874 218.29253 217.39032 216.52511
 215.76090 214.93469 214.02648 213.38427 212.82806 212.98251 213.34743 214.58659
 215.93176 217.97325 219.98961 220.98416 222.00984 224.11227 227.95103 231.77304
 235.20724 238.85506 242.23016 245.23726 248.12924 250.91006 253.74742 256.80283
 259.88269 262.65298 265.01965 267.13892 269.17029 271.14676 272.96027 274.64612
 276.24219 277.70053 279.20996 280.57767 281.76724 282.82153 283.78897 284.67105
 285.47229 286.19571 286.83704 287.69708
 366.78100 356.32925 345.75549 334.61574 323.01299 311.20124 299.06548 286.86273
 274.56898 262.46023 250.46347 239.75872 229.87497 220.97322 213.14946 206.14571
 199.97396 194.90621 191.48245 189.51870 188.54995 188.60820 189.43744 190.73969
 192.45894 194.54819 196.80543 199.15868 201.59793 204.07218 206.15442 207.99067
 209.61092 210.75017 210.97341 211.19566 211.12691 210.82616 210.45340 210.07765
 209.68890 209.39315 209.19539 209.05364 208.97589 209.30114 209.68138 210.06463
 210.85188 212.02413 213.26837 215.04562 216.96787 219.00512 221.09436 223.17161
 225.22586 227.30411 229.39535 231.49560 233.61885 235.78510 238.03534 240.39959
 243.01484 245.26009 247.25633 249.01558 250.42683 251.54408 252.36032 252.67057
 252.70182 252.47007 251.82431 250.76656 249.36681 247.52206 245.42530 243.25255
 241.03780 238.83605 236.65029 234.48354 232.33779 230.19904 228.21928 226.37053
 224.64778 223.11403 221.73827 220.50452 219.38077 218.33502 217.43326 216.56851
 215.80476 214.97901 214.07125 213.42950 212.87375 213.04015 213.43329 214.71059
 216.05231 218.03787 220.12764 221.18396 222.16406 224.17995 227.92079 231.69106
 235.10803 238.71774 242.01096 244.92529 247.78004 250.59300 253.49823 256.61249
 259.69226 262.45651 264.85519 267.03741 269.12225 271.12677 272.93726 274.61124
 276.21255 277.67719 279.18802 280.55731 281.74472 282.80228 283.76895 284.65179
 285.45422 286.17776 286.81964 287.68121
 366.78100 356.32962 345.75623 334.61685 323.01446 311.20308 299.06769 286.86531
 274.57192 262.46354 250.46715 239.76277 229.87938 220.97800 213.15461 206.15123
 199.97984 194.91246 191.48907 189.52569 188.55730 188.61592 189.44553 190.74815
 192.46776 194.55738 196.81499 199.16861 201.60822 204.08284 206.16545 208.00207
 209.62268 210.76230 210.98591 211.20853 211.14014 210.83976 210.46737 210.09199
 209.70360 209.40822 209.21083 209.06945 208.99206 209.31768 209.69829 210.08191
 210.86952 212.04214 213.28675 215.06437 216.98698 219.02460 221.11421 223.19183
 225.24644 227.32506 229.41667 231.51729 233.64090 235.80752 238.05813 240.42275
 243.03836 245.28398 247.28059 249.04021 250.45182 251.56944 252.38606 252.69667
 252.72829 252.49690 251.85152 250.79413 249.39475 247.55036 245.45398 243.28159
 241.06721 238.86582 236.68044 234.51405 232.36867 230.23028 228.25090 226.40251
 224.68013 223.14674 221.77136 220.53797 219.41459 218.36920 217.46782 216.60343
 215.84005 215.01466 214.10728 213.46589 212.91051 213.09137 213.51871 214.82739
 216.18475 218.12106 220.24815 221.38898 222.28166 224.20901 227.89616 231.63808
 235.03700 238.60684 241.81279 244.61272 247.41479 250.25734 253.23650 256.41589
 259.50571 262.27277 264.70511 266.94763 269.08572 271.11740 272.92218 274.58313
 276.18646 277.65640 279.16901 280.53796 281.72665 282.78366 283.75180 284.63474
 285.43851 286.16278 286.80530 287.66873
 366.78100 356.33010 345.75720 334.61829 323.01639 311.20549 299.07059 286.86869
 274.57578 262.46788 250.47198 239.76808 229.88518 220.98427 213.16137 206.15847
 199.98757 194.92067 191.49776 189.53486 188.56696 188.62606 189.45616 190.75925
 192.47935 194.56945 196.82755 199.18165 201.62174 204.09684 206.17994 208.01704
 209.63814 210.77823 211.00233 211.22543 211.15753 210.85763 210.48572 210.11082
 209.72292 209.42802 209.23112 209.09021 209.01331 209.33941 209.72051 210.10461
 210.89270 212.06580 213.31090 215.08900 217.01210 219.05019 221.14029 223.21839
 225.27349 227.35259 229.44468 231.54578 233.66988 235.83698 238.08808 240.45317
 243.06927 245.31537 247.31247 249.07257 250.48466 251.60276 252.41986 252.73096
 252.76306 252.53215 251.88725 250.83035 249.43145 247.58755 245.49164 243.31974
 241.10584 238.90494 236.72004 234.55414 232.40923 230.27133 228.29243 226.44453
 224.72263 223.18972 221.81482 220.58192 219.45902 218.41412 217.51321 216.64931
 215.88641 215.06151 214.15461 213.51370 212.95880 213.14670 213.59064 214.94365
 216.32896 218.24609 220.32083 221.57024 222.38039 224.22125 227.90776 231.64171
 234.99594 238.50189 241.58949 244.25906 247.01974 249.90990 252.97729 256.23251
 259.33954 262.10944 264.57068 266.86694 269.05511 271.11182 272.90884 274.55585
 276.15945 277.63849 279.15414 280.52316 281.71402 282.77072 283.73941 284.62201
 285.42715 286.15216 286.79523 287.65936
 366.78100 356.33091 345.75881 334.62072 323.01962 311.20953 299.07544 286.87434
 274.58225 262.47516 250.48006 239.77697 229.89487 220.99478 213.17269 206.17059
 200.00050 194.93440 191.51231 189.55022 188.58312 188.64303 189.47393 190.77784
 192.49875 194.58965 196.84856 199.20347 201.64437 204.12028 206.20418 208.04209
 209.66400 210.80490 211.02981 211.25371 211.18662 210.88753 210.51643 210.14234
 209.75524 209.46115 209.26506 209.12496 209.04887 209.37578 209.75768 210.14259
 210.93149 212.10540 213.35131 215.13021 217.05412 219.09302 221.18393 223.26284
 225.31874 227.39865 229.49155 231.59346 233.71837 235.88627 238.13818 240.50409
 243.12099 245.36790 247.36580 249.12671 250.53962 251.65852 252.47643 252.78833
 252.82124 252.59115 251.94705 250.89096 249.49286 247.64977 245.55468 243.38358
 241.17049 238.97040 236.78630 234.62121 232.47711 230.34002 228.36193 226.51483
 224.79374 223.26164 221.88755 220.65546 219.53336 218.48927 217.58918 216.72608
 215.96399 215.13989 214.23380 213.59371 213.03961 213.21776 213.63867 215.05785
 216.49084 218.39468 220.39253 221.73273 222.48314 224.25143 227.94818 231.63683
 234.93684 238.36073 241.32129 243.88492 246.62132 249.56876 252.72774 256.05615
 259.17902 261.95270 264.44455 266.79788 269.03516 271.11664 272.90442 274.53589
 276.13632 277.62021 279.13644 280.50616 281.69553 282.75400 283.72247 284.60657
 285.41119 286.13681 286.78024 287.64551
 366.78100 356.33110 345.75921 334.62131 323.02041 311.21052 299.07662 286.87572
 274.58383 262.47693 250.48204 239.77914 229.89724 220.99735 213.17545 206.17355
 200.00366 194.93776 191.51586 189.55397 188.58707 188.64717 189.47828 190.78238
 192.50349 194.59459 196.85369 199.20880 201.64990 204.12600 206.21011 208.04821
 209.67031 210.81142 211.03652 211.26062 211.19373 210.89483 210.52394 210.15004
 209.76314 209.46925 209.27335 209.13345 209.05756 209.38466 209.76676 210.15187
 210.94097 212.11507 213.36118 215.14028 217.06439 219.10349 221.19459 223.27370
 225.32980 227.40990 229.50301 231.60511 233.73021 235.89832 238.15042 240.51652
 243.13363 245.38073 247.37884 249.13994 250.55304 251.67215 252.49025 252.80235
 252.83546 252.60556 251.96166 250.90577 249.50787 247.66497 245.57008 243.39918
 241.18629 238.98639 236.80249 234.63760 232.49370 230.35680 228.37891 226.53201
 224.81111 223.27922 221.90532 220.67342 219.55153 218.50763 217.60774 216.74484
 215.98294 215.15905 214.25315 213.61325 213.05936 213.25496 213.71712 215.17787
 216.62347 218.52316 220.46915 221.86594 222.66289 224.34123 227.99190 231.61919
 234.85095 238.18961 241.04669 243.53432 246.23714 249.22916 252.47513 255.86275
 258.99850 261.77759 264.30704 266.72043 269.01340 271.11856 272.91074 274.54074
 276.13235 277.61807 279.13846 280.50934 281.70108 282.76019 283.73102 284.61661
 285.42270 286.14929 286.79306 287.65726
 366.78100 356.33115 345.75930 334.62146 323.02061 311.21076 299.07691 286.87607
 274.58422 262.47737 250.48252 239.77967 229.89783 220.99798 213.17613 206.17428
 200.00444 194.93859 191.51674 189.55489 188.58804 188.64820 189.47935 190.78350
 192.50465 194.59581 196.85496 199.21011 201.65126 204.12742 206.21157 208.04972
 209.67187 210.81302 211.03818 211.26233 211.19548 210.89663 210.52579 210.15194
 209.76509 209.47124 209.27539 209.13555 209.05970 209.38685 209.76900 210.15416
 210.94331 212.11746 213.36361 215.14276 217.06692 219.10607 221.19722 223.27637
 225.33253 227.41268 229.50583 231.60798 233.73313 235.90129 238.15344 240.51959
 243.13674 245.38390 247.38205 249.14320 250.55635 251.67550 252.49366 252.80581
 252.83896 252.60911 251.96527 250.90942 249.51157 247.66872 245.57387 243.40303
 241.19018 238.99033 236.80648 234.64164 232.49779 230.36094 228.38309 226.53625
 224.81540 223.28355 221.90970 220.67785 219.55601 218.51216 217.61231 216.74946
 215.98762 215.16377 214.25792 213.61807 213.06422 213.28078 213.79242 215.29114
 216.77425 218.66721 220.54288 221.95291 222.86191 224.46243 228.00874 231.58995
 234.75410 238.00076 240.75996 243.17603 245.85564 248.89929 252.23332 255.68413
 258.83551 261.61835 264.17993 266.64825 268.98837 271.11273 272.90839 274.52930
 276.10394 277.62292 279.14957 280.52167 281.71475 282.77548 283.74655 284.63315
 285.43985 286.16626 286.80957 287.67679
 366.78100 356.33176 345.76051 334.62327 323.02303 311.21378 299.08054 286.88030
 274.58906 262.48281 250.48857 239.78633 229.90508 221.00584 213.18460 206.18335
 200.01411 194.94887 191.52763 189.56638 188.60014 188.66090 189.49265 190.79741
 192.51917 194.61092 196.87068 199.22644 201.66819 204.14495 206.22971 208.06847
 209.69122 210.83298 211.05874 211.28349 211.21725 210.91901 210.54876 210.17552
 209.78928 209.49603 209.30079 209.16155 209.08631 209.41406 209.79682 210.18258
 210.97233 212.14709 213.39385 215.17360 217.09836 219.13812 221.22988 223.30963
 225.36639 227.44715 229.54090 231.64366 233.76942 235.93817 238.19093 240.55769
 243.17544 245.42320 247.42196 249.18372 250.59747 251.71723 252.53599 252.84874
 252.88250 252.65326 252.01001 250.95477 249.55753 247.71529 245.62104 243.45080
 241.23856 239.03931 236.85607 234.69183 232.54858 230.41234 228.43510 226.58885
 224.86861 223.33737 221.96413 220.73288 219.61164 218.56840 217.66915 216.80691
 216.04567 215.22242 214.31718 213.67794 213.12469 213.33318 213.82576 215.37004
 216.97926 218.87175 220.64641 222.01553 223.02112 224.58066 227.99631 231.53249
 234.63911 237.78404 240.43706 242.78899 245.48248 248.59801 252.02562 255.55261
 258.72089 261.50769 264.08994 266.59933 268.97498 271.11520 272.89890 274.50522
 276.07886 277.59927 279.12405 280.49493 281.68701 282.74680 283.71521 284.60147
 285.40689 286.13348 286.77832 287.64508
 366.78100 356.33235 345.76169 334.62504 323.02539 311.21673 299.08408 286.88442
 274.59377 262.48812 250.49446 239.79281 229.91216 221.01350 213.19285 206.19220
 200.02354 194.95889 191.53824 189.57758 188.61193 188.67327 189.50562 190.81097
 192.53331 194.62566 196.88601 199.24235 201.68470 204.16205 206.24739 208.08674
 209.71008 210.85243 211.07878 211.30412 211.23847 210.94082 210.57116 210.19851
 209.81286 209.52020 209.32555 209.18689 209.11224 209.44059 209.82393 210.21028
 211.00063 212.17597 213.42332 215.20367 217.12901 219.16936 221.26171 223.34205
 225.39940 227.48074 229.57509 231.67844 233.80478 235.97413 238.22748 240.59482
 243.21317 245.46152 247.46086 249.22321 250.63755 251.75790 252.57725 252.89059
 252.92494 252.69629 252.05363 250.99898 249.60233 247.76067 245.66702 243.49737
 241.28571 239.08706 236.90440 234.74075 232.59810 230.46244 228.48579 226.64014
 224.92048 223.38983 222.01718 220.78652 219.66587 218.62321 217.72456 216.86291
 216.10225 215.27960 214.37495 213.73629 213.18364 213.38210 213.85101 215.46344
 217.16914 219.05800 220.78473 222.09319 223.16194 224.72440 228.00220 231.46260
 234.49918 237.53831 240.08807 242.40071 245.12439 248.31499 251.83234 255.43286
 258.62115 261.41586 264.02188 266.56198 268.96411 271.11966 272.88181 274.47360
 276.06296 277.57309 279.09497 280.46542 281.65829 282.71530 283.68622 284.57285
 285.37811 286.10425 286.74915 287.61884
 366.78100 356.33253 345.76206 334.62559 323.02612 311.21765 299.08518 286.88571
 274.59524 262.48977 250.49630 239.79482 229.91435 221.01588 213.19541 206.19494
 200.02647 194.96200 191.54153 189.58106 188.61559 188.67712 189.50965 190.81518
 192.53771 194.63024 196.89077 199.24730 201.68983 204.16736 206.25289 208.09241
 209.71594 210.85847 211.08500 211.31053 211.24506 210.94759 210.57812 210.20565
 209.82018 209.52771 209.33324 209.19477 209.12030 209.44883 209.83236 210.21889
 211.00942 212.18495 213.43248 215.21300 217.13853 219.17906 221.27159 223.35212
 225.40965 227.49118 229.58571 231.68924 233.81577 235.98530 238.23883 240.60636
 243.22489 245.47342 247.47295 249.23548 250.65001 251.77054 252.59007 252.90359
 252.93812 252.70965 252.06718 251.01271 249.61624 247.77477 245.68130 243.51183
 241.30036 239.10189 236.91942 234.75595 232.61348 230.47801 228.50154 226.65607
 224.93660 223.40613 222.03366 220.80318 219.68271 218.64024 217.74177 216.88030
 216.11983 215.29736 214.39289 213.75442 213.20195 213.40710 213.89178 215.57082
 217.35002 219.22513 220.91792 222.17923 223.29216 224.88823 228.04620 231.40016
 234.33597 237.24713 239.69914 242.00490 244.77788 248.04865 251.65125 255.31392
 258.52283 261.33020 263.95743 266.52499 268.94946 271.11917 272.87000 274.45056
 275.98151 277.57712 279.10434 280.46835 281.65643 282.71213 283.67920 284.56497
 285.36880 286.09744 286.74146 287.61200
 366.78100 356.33243 345.76186 334.62529 323.02572 311.21715 299.08459 286.88502
 274.59445 262.48888 250.49531 239.79374 229.91317 221.01460 213.19403 206.19346
 200.02489 194.96033 191.53976 189.57919 188.61362 188.67505 189.50748 190.81291
 192.53534 194.62777 196.88820 199.24464 201.68707 204.16450 206.24993 208.08936
 209.71279 210.85522 211.08165 211.30708 211.24151 210.94394 210.57438 210.20181
 209.81624 209.52367 209.32910 209.19053 209.11596 209.44439 209.82782 210.21425
 211.00468 212.18012 213.42755 215.20798 217.13341 219.17384 221.26627 223.34670
 225.40413 227.48556 229.57999 231.68342 233.80986 235.97929 238.23272 240.60015
 243.21858 245.46701 247.46644 249.22887 250.64330 251.76373 252.58317 252.89660
 252.93103 252.70246 252.05989 251.00532 249.60875 247.76718 245.67361 243.50404
 241.29247 239.09391 236.91134 234.74777 232.60520 230.46963 228.49306 226.64749
 224.92792 223.39735 222.02478 220.79421 219.67365 218.63108 217.73251 216.87094
 216.11037 215.28780 214.38323 213.74466 213.19209 213.41586 213.94452 215.67484
 217.52235 219.40036 221.05173 222.26355 223.41821 225.06267 228.11241 231.34338
 234.15591 236.91011 239.26849 241.60078 244.44846 247.80415 251.48668 255.20340
 258.43588 261.25504 263.89844 266.48541 268.92548 271.10153 272.84586 274.41772
 275.89737 277.58014 279.11346 280.47473 281.65723 282.71143 283.67734 284.56064
 285.36514 286.08939 286.73407 287.60760
 366.78100 356.33217 345.76134 334.62451 323.02469 311.21586 299.08303 286.88320
 274.59237 262.48654 250.49271 239.79089 229.91006 221.01123 213.19040 206.18957
 200.02074 194.95591 191.53508 189.57426 188.60843 188.66960 189.50177 190.80694
 192.52911 194.62128 196.88146 199.23763 201.67980 204.15697 206.24214 208.08131
 209.70448 210.84666 211.07283 211.29800 211.23217 210.93434 210.56451 210.19168
 209.80586 209.51303 209.31820 209.17937 209.10454 209.43271 209.81588 210.20205
 210.99223 212.16740 213.41457 215.19474 217.11991 219.16008 221.25225 223.33243
 225.38960 227.47077 229.56494 231.66811 233.79428 235.96345 238.21663 240.58380
 243.20197 245.45014 247.44931 249.21148 250.62565 251.74583 252.56500 252.87817
 252.91234 252.68351 252.04068 250.98585 249.58902 247.74720 245.65337 243.48354
 241.27171 239.07288 236.89005 234.72622 232.58340 230.44757 228.47074 226.62491
 224.90508 223.37425 222.00142 220.77060 219.64977 218.60694 217.70811 216.84628
 216.08545 215.26262 214.35779 213.71897 213.16614 213.41504 214.00311 215.77086
 217.68674 219.58397 221.19392 222.34981 223.55118 225.24757 228.18433 231.29207
 233.96468 236.53716 238.80469 241.19296 244.13507 247.57967 251.33556 255.09915
 258.35495 261.18747 263.84601 266.44580 268.89725 271.08054 272.82898 274.39771
 275.88058 277.56732 279.10367 280.46475 281.64896 282.70251 283.66882 284.55319
 285.35760 286.08493 286.72705 287.60461
 366.78100 356.33193 345.76086 334.62380 323.02373 311.21466 299.08159 286.88152
 274.59045 262.48439 250.49032 239.78825 229.90718 221.00811 213.18705 206.18598
 200.01691 194.95184 191.53077 189.56970 188.60364 188.66457 189.49650 190.80143
 192.52336 194.61530 196.87523 199.23116 201.67309 204.15002 206.23495 208.07389
 209.69682 210.83875 211.06468 211.28961 211.22355 210.92548 210.55541 210.18234
 209.79627 209.50320 209.30814 209.16907 209.09400 209.42193 209.80486 210.19080
 210.98073 212.15566 213.40259 215.18252 217.10745 219.14739 221.23932 223.31925
 225.37618 227.45711 229.55105 231.65398 233.77991 235.94884 238.20177 240.56870
 243.18664 245.43457 247.43350 249.19543 250.60936 251.72930 252.54823 252.86116
 252.89509 252.66602 252.02295 250.96789 249.57082 247.72875 245.63468 243.46461
 241.25255 239.05348 236.87041 234.70634 232.56327 230.42720 228.45014 226.60407
 224.88400 223.35293 221.97986 220.74880 219.62773 218.58466 217.68559 216.82352
 216.06245 215.23939 214.33432 213.69525 213.14218 213.41389 214.05586 215.86940
 217.84683 219.76335 221.34373 222.44278 223.69476 225.45424 228.26428 231.21725
 233.74356 236.14136 238.32462 240.78351 243.83281 247.37201 251.19942 255.00392
 258.28085 261.12900 263.80109 266.40732 268.86523 271.05447 272.81079 274.38312
 275.87183 277.55667 279.09061 280.44971 281.63284 282.68530 283.65115 284.53442
 285.33844 286.06256 286.70605 287.58160
 366.78100 356.33172 345.76043 334.62315 323.02287 311.21359 299.08030 286.88002
 274.58874 262.48245 250.48817 239.78589 229.90461 221.00532 213.18404 206.18276
 200.01347 194.94819 191.52691 189.56563 188.59934 188.66006 189.49178 190.79649
 192.51821 194.60993 196.86965 199.22536 201.66708 204.14380 206.22851 208.06723
 209.68995 210.83167 211.05738 211.28210 211.21582 210.91753 210.54725 210.17397
 209.78768 209.49440 209.29912 209.15984 209.08455 209.41227 209.79499 210.18070
 210.97042 212.14514 213.39186 215.17157 217.09629 219.13601 221.22772 223.30744
 225.36416 227.44488 229.53859 231.64131 233.76703 235.93574 238.18846 240.55518
 243.17290 245.42061 247.41933 249.18105 250.59476 251.71448 252.53320 252.84592
 252.87963 252.65035 252.00707 250.95178 249.55450 247.71222 245.61794 243.44765
 241.23537 239.03609 236.85280 234.68852 232.54524 230.40896 228.43167 226.58539
 224.86511 223.33382 221.96054 220.72926 219.60798 218.56469 217.66541 216.80313
 216.04184 215.21856 214.31328 213.67400 213.12071 213.41232 214.10129 215.97450
 218.00502 219.92418 221.48386 222.55084 223.87041 225.66264 228.33537 231.15710
 233.52554 235.71062 237.80745 240.37064 243.55301 247.19293 251.08293 254.91467
 258.20911 261.07471 263.76038 266.37021 268.83093 271.02737 272.79782 274.37817
 275.87408 277.52866 279.07153 280.43890 281.62668 282.68198 283.65247 284.54028
 285.35400 286.09000 286.73987 287.61572
 366.78100 356.33158 345.76017 334.62275 323.02233 311.21291 299.07950 286.87908
 274.58766 262.48124 250.48683 239.78441 229.90299 221.00357 213.18216 206.18074
 200.01132 194.94590 191.52449 189.56307 188.59665 188.65723 189.48882 190.79340
 192.51498 194.60656 196.86615 199.22173 201.66331 204.13989 206.22448 208.06306
 209.68564 210.82722 211.05281 211.27739 211.21097 210.91255 210.54214 210.16872
 209.78230 209.48888 209.29347 209.15405 209.07863 209.40621 209.78880 210.17438
 210.96396 212.13854 213.38513 215.16471 217.08929 219.12887 221.22046 223.30004
 225.35662 227.43720 229.53079 231.63337 233.75895 235.92753 238.18012 240.54670
 243.16428 245.41187 247.41045 249.17203 250.58561 251.70520 252.52378 252.83636
 252.86994 252.64053 251.99711 250.94169 249.54427 247.70186 245.60744 243.43702
 241.22460 239.02519 236.84177 234.67735 232.53393 230.39752 228.42010 226.57368
 224.85326 223.32185 221.94843 220.71701 219.59559 218.55218 217.65276 216.79034
 216.02892 215.20551 214.30009 213.66067 213.10725 213.41306 214.13557 216.09464
 218.15541 220.06595 221.62309 222.66934 224.03448 225.89578 228.44070 231.07468
 233.25079 235.23997 237.27681 239.97949 243.31018 247.03592 250.97511 254.82965
 258.14313 261.02917 263.72589 266.33441 268.79327 270.99533 272.78055 274.36877
 275.82822 277.52179 279.06909 280.43491 281.62299 282.67932 283.64951 284.53848
 285.35385 286.08755 286.73843 287.61743
 366.78100 356.33080 345.75861 334.62041 323.01921 311.20902 299.07482 286.87363
 274.58143 262.47423 250.47904 239.77584 229.89364 220.99345 213.17125 206.16905
 199.99886 194.93266 191.51046 189.54827 188.58107 188.64088 189.47168 190.77548
 192.49629 194.58709 196.84589 199.20070 201.64150 204.11730 206.20111 208.03891
 209.66071 210.80152 211.02632 211.25013 211.18293 210.88373 210.51254 210.13834
 209.75114 209.45695 209.26075 209.12055 209.04436 209.37116 209.75296 210.13777
 210.92657 212.10038 213.34618 215.12498 217.04879 219.08759 221.17839 223.25720
 225.31300 227.39280 229.48561 231.58741 233.71221 235.88002 238.13182 240.49763
 243.11443 245.36123 247.35904 249.11984 250.53264 251.65145 252.46925 252.78105
 252.81386 252.58366 251.93946 250.88327 249.48507 247.64188 245.54668 243.37548
 241.16229 238.96209 236.77789 234.61270 232.46850 230.33130 228.35311 226.50591
 224.78471 223.25252 221.87832 220.64613 219.52393 218.47973 217.57954 216.71634
 215.95414 215.12995 214.22375 213.58355 213.02936 213.38095 214.21162 216.16635
 218.33965 220.21545 221.72884 222.76196 224.22156 226.12857 228.53793 230.98856
 232.97755 234.74165 236.75171 239.62425 243.08154 246.89760 250.88618 254.75334
 258.08121 260.98593 263.69388 266.29880 268.75211 270.95462 272.75308 274.35138
 275.82260 277.51984 279.06503 280.43127 281.62042 282.67712 283.64856 284.54172
 285.35706 286.09470 286.74493 287.62964
 366.78100 356.33020 345.75740 334.61860 323.01680 311.20600 299.07120 286.86940
 274.57660 262.46880 250.47301 239.76921 229.88641 220.98561 213.16281 206.16001
 199.98921 194.92241 191.49961 189.53681 188.56901 188.62821 189.45841 190.76161
 192.48181 194.57201 196.83021 199.18441 201.62462 204.09982 206.18302 208.02022
 209.64142 210.78162 211.00582 211.22902 211.16122 210.86142 210.48962 210.11482
 209.72702 209.43222 209.23542 209.09462 209.01782 209.34402 209.72523 210.10943
 210.89763 212.07083 213.31603 215.09423 217.01743 219.05563 221.14583 223.22403
 225.27923 227.35843 229.45063 231.55183 233.67603 235.84323 238.09443 240.45963
 243.07584 245.32204 247.31924 249.07944 250.49164 251.60984 252.42704 252.73824
 252.77044 252.53964 251.89484 250.83804 249.43924 247.59544 245.49964 243.32784
 241.11404 238.91324 236.72845 234.56265 232.41785 230.28005 228.30125 226.45345
 224.73165 223.19885 221.82405 220.59125 219.46845 218.42365 217.52285 216.65905
 215.89625 215.07145 214.16465 213.52385 212.96906 213.35669 214.27252 216.26006
 218.49496 220.36757 221.86835 222.85674 224.34152 226.32672 228.58798 230.92372
 232.77084 234.30199 236.22629 239.26285 242.87875 246.78381 250.80817 254.67992
 258.02039 260.94534 263.66486 266.26379 268.70996 270.91425 272.73105 274.34299
 275.80151 277.51047 279.06183 280.42960 281.61993 282.67645 283.64893 284.54153
 285.35822 286.09454 286.74622 287.62939
 366.78100 356.32957 345.75614 334.61671 323.01428 311.20285 299.06743 286.86500
 274.57157 262.46314 250.46671 239.76228 229.87885 220.97742 213.15399 206.15056
 199.97914 194.91171 191.48828 189.52485 188.55642 188.61499 189.44456 190.74713
 192.46670 194.55627 196.81385 199.16742 201.60699 204.08156 206.16413 208.00070
 209.62127 210.76084 210.98441 211.20698 211.13856 210.83813 210.46570 210.09027
 209.70184 209.40641 209.20898 209.06755 208.99012 209.31569 209.69626 210.07984
 210.86741 212.03998 213.28455 215.06212 216.98469 219.02226 221.11183 223.18940
 225.24397 227.32255 229.41412 231.51469 233.63826 235.80483 238.05540 240.41997
 243.03554 245.28111 247.27768 249.03726 250.44883 251.56640 252.38297 252.69354
 252.72511 252.49368 251.84825 250.79082 249.39139 247.54697 245.45054 243.27811
 241.06368 238.86225 236.67682 234.51039 232.36496 230.22653 228.24710 226.39867
 224.67625 223.14282 221.76739 220.53396 219.41053 218.36510 217.46367 216.59924
 215.83581 215.01038 214.10296 213.46153 212.90610 213.32970 214.33052 216.37685
 218.60585 220.53345 222.00743 223.03180 224.41489 226.39223 228.63797 230.91283
 232.58966 233.87201 235.72939 238.90807 242.69492 246.69223 250.74030 254.60855
 257.96033 260.90799 263.64056 266.23383 268.67175 270.87668 272.70743 274.33014
 275.79254 277.50607 279.05887 280.42673 281.61514 282.67261 283.64468 284.53641
 285.35208 286.08905 286.73953 287.62408
 366.78100 356.32861 345.75422 334.61383 323.01044 311.19805 299.06166 286.85827
 274.56388 262.45449 250.45710 239.75171 229.86732 220.96493 213.14054 206.13615
 199.96375 194.89536 191.47097 189.50658 188.53719 188.59480 189.42341 190.72502
 192.44363 194.53224 196.78885 199.14146 201.58007 204.05368 206.13529 207.97090
 209.59051 210.72912 210.95173 211.17334 211.10395 210.80256 210.42917 210.05278
 209.66339 209.36700 209.16861 209.02622 208.94783 209.27244 209.65204 210.03465
 210.82126 211.99287 213.23648 215.01309 216.93470 218.97131 221.05992 223.13653
 225.19014 227.26775 229.35836 231.45797 233.58058 235.74619 237.99580 240.35941
 242.97402 245.21863 247.21424 248.97285 250.38346 251.50007 252.31568 252.62529
 252.65590 252.42351 251.77712 250.71873 249.31833 247.47294 245.37555 243.20216
 240.98677 238.78438 236.59799 234.43060 232.28421 230.14482 228.16443 226.31504
 224.59165 223.05726 221.68087 220.44648 219.32209 218.27570 217.37331 216.50792
 215.74353 214.91714 214.00875 213.36636 212.80997 213.28539 214.40862 216.48285
 218.72061 220.68686 222.09772 223.20517 224.55104 226.43440 228.69115 230.91078
 232.38708 233.42259 235.26160 238.58858 242.52269 246.60857 250.67955 254.54021
 257.90256 260.87317 263.61899 266.20636 268.63580 270.84360 272.69113 274.32480
 275.79779 277.50015 279.05011 280.41763 281.60565 282.66287 283.63547 284.52664
 285.34268 286.08041 286.73209 287.61700
 366.78100 356.32781 345.75261 334.61142 323.00722 311.19403 299.05684 286.85264
 274.55745 262.44726 250.44906 239.74287 229.85767 220.95448 213.12929 206.12409
 199.95090 194.88170 191.45651 189.49132 188.52112 188.57793 189.40574 190.70654
 192.42435 194.51215 196.76796 199.11977 201.55757 204.03038 206.11118 207.94599
 209.56480 210.70260 210.92441 211.14521 211.07502 210.77283 210.39863 210.02144
 209.63125 209.33405 209.13486 208.99166 208.91247 209.23628 209.61508 209.99689
 210.78269 211.95350 213.19631 214.97211 216.89292 218.92873 221.01653 223.09234
 225.14514 227.22195 229.31176 231.41056 233.53237 235.69717 237.94598 240.30879
 242.92259 245.16640 247.16121 248.91901 250.32882 251.44462 252.25943 252.56824
 252.59804 252.36485 251.71765 250.65846 249.25727 247.41107 245.31288 243.13869
 240.92249 238.71930 236.53210 234.36391 232.21672 230.07652 228.09533 226.24513
 224.52094 222.98575 221.60855 220.37336 219.24817 218.20097 217.29778 216.43158
 215.66639 214.83920 213.93000 213.28681 212.72961 213.24931 214.47714 216.59198
 218.85857 220.79329 222.17226 223.34348 224.73747 226.49802 228.73584 230.89932
 232.16399 232.97108 234.81389 238.29900 242.36990 246.53223 250.61942 254.47343
 257.84738 260.84155 263.60233 266.18335 268.60468 270.81393 272.67780 274.33316
 275.79651 277.49283 279.03857 280.40439 281.59177 282.64819 283.62106 284.51276
 285.32996 286.06772 286.71710 287.61124
 366.78100 356.32714 345.75128 334.60942 323.00456 311.19070 299.05284 286.84798
 274.55212 262.44126 250.44240 239.73554 229.84968 220.94582 213.11996 206.11410
 199.94024 194.87038 191.44452 189.47866 188.50780 188.56394 189.39108 190.69122
 192.40836 194.49550 196.75064 199.10178 201.53892 204.01106 206.09120 207.92534
 209.54348 210.68062 210.90176 211.12190 211.05104 210.74818 210.37332 209.99546
 209.60460 209.30674 209.10688 208.96302 208.88316 209.20630 209.58444 209.96558
 210.75072 211.92086 213.16300 214.93814 216.85828 218.89342 220.98056 223.05570
 225.10784 227.18398 229.27312 231.37126 233.49240 235.65654 237.90468 240.26682
 242.87996 245.12310 247.11724 248.87438 250.28352 251.39866 252.21280 252.52094
 252.55008 252.31622 251.66836 250.60850 249.20664 247.35978 245.26092 243.08606
 240.86920 238.66534 236.47748 234.30862 232.16076 230.01990 228.03804 226.18718
 224.46232 222.92646 221.54859 220.31273 219.18687 218.13901 217.23515 216.36829
 215.60243 214.77457 213.86471 213.22085 212.66299 213.22054 214.53778 216.71573
 218.98724 220.87170 222.25339 223.47429 224.91570 226.57355 228.77945 230.85890
 231.91667 232.54460 234.40181 238.02945 242.23401 246.45842 250.56143 254.40675
 257.79504 260.81500 263.59143 266.16681 268.57846 270.78665 272.66110 274.32767
 275.77838 277.47934 279.03113 280.39859 281.58795 282.64453 283.61844 284.51086
 285.32831 286.06744 286.71860 287.60858
 366.78100 356.32633 345.74967 334.60700 323.00134 311.18667 299.04801 286.84234
 274.54568 262.43401 250.43435 239.72668 229.84002 220.93535 213.10869 206.10202
 199.92736 194.85669 191.43003 189.46336 188.49169 188.54703 189.37336 190.67270
 192.38903 194.47537 196.72970 199.08004 201.51637 203.98771 206.06704 207.90038
 209.51771 210.65405 210.87438 211.09372 211.02205 210.71839 210.34272 209.96405
 209.57239 209.27372 209.07306 208.92839 208.84773 209.17006 209.54740 209.92773
 210.71207 211.88140 213.12274 214.89707 216.81641 218.85074 220.93708 223.01141
 225.06275 227.13808 229.22641 231.32375 233.44408 235.60742 237.85475 240.21609
 242.82842 245.07076 247.06409 248.82043 250.22876 251.34310 252.15643 252.46377
 252.49210 252.25744 251.60877 250.54811 249.14544 247.29777 245.19811 243.02244
 240.80478 238.60011 236.41145 234.24178 232.09312 229.95145 227.96879 226.11712
 224.39146 222.85479 221.47613 220.23946 219.11280 218.06413 217.15947 216.29180
 215.52513 214.69647 213.78580 213.14114 212.58247 213.18495 214.60838 216.84645
 219.08131 220.94022 222.33023 223.61932 225.08340 226.66046 228.82874 230.77159
 231.64265 232.15364 234.03178 237.78682 242.10948 246.38318 250.49855 254.34326
 257.74661 260.79227 263.58545 266.15793 268.56125 270.76999 272.65256 274.32721
 275.80466 277.48825 279.02396 280.38400 281.56888 282.62469 283.59546 284.48636
 285.30557 286.04382 286.69482 287.59457
 366.78100 356.32541 345.74782 334.60423 322.99763 311.18204 299.04245 286.83586
 274.53827 262.42568 250.42508 239.71649 229.82890 220.92331 213.09572 206.08813
 199.91253 194.84094 191.41335 189.44576 188.47317 188.52758 189.35298 190.65139
 192.36680 194.45221 196.70562 199.05503 201.49043 203.96084 206.03925 207.87166
 209.48807 210.62348 210.84288 211.06129 210.98870 210.68411 210.30752 209.92793
 209.53534 209.23574 209.03415 208.88856 208.80697 209.12838 209.50479 209.88419
 210.66760 211.83601 213.07642 214.84983 216.76824 218.80164 220.88705 222.96046
 225.01087 227.08528 229.17269 231.26909 233.38850 235.55091 237.79732 240.15773
 242.76914 245.01054 247.00295 248.75836 250.16577 251.27918 252.09159 252.39799
 252.42540 252.18981 251.54022 250.47863 249.07504 247.22644 245.12585 242.94926
 240.73067 238.52508 236.33549 234.16490 232.01530 229.87271 227.88912 226.03653
 224.30994 222.77235 221.39275 220.15516 219.02757 217.97798 217.07239 216.20380
 215.43620 214.60661 213.69502 213.04943 212.48984 213.14378 214.68880 216.98242
 219.15370 220.99500 222.39937 223.77615 225.24380 226.75394 228.88623 230.64197
 231.34978 231.79153 233.69604 237.57086 241.99072 246.31090 250.42047 254.27367
 257.69199 260.76434 263.58118 266.15857 268.55807 270.76953 272.65964 274.33276
 275.77567 277.48764 279.03149 280.39529 281.57938 282.63477 283.60538 284.49695
 285.31430 286.05450 286.71164 287.60934
 366.78100 356.32453 345.74606 334.60158 322.99411 311.17764 299.03717 286.82969
 274.53122 262.41775 250.41628 239.70680 229.81833 220.91186 213.08339 206.07491
 199.89844 194.82597 191.39750 189.42903 188.45555 188.50908 189.33361 190.63114
 192.34566 194.43019 196.68272 199.03125 201.46577 203.93530 206.01283 207.84436
 209.45988 210.59441 210.81294 211.03047 210.95700 210.65152 210.27405 209.89358
 209.50011 209.19963 208.99716 208.85069 208.76822 209.08874 209.46427 209.84280
 210.62533 211.79285 213.03238 214.80491 216.72244 218.75496 220.83949 222.91202
 224.96155 227.03508 229.12160 231.21713 233.33566 235.49719 237.74271 240.10224
 242.71277 244.95330 246.94482 248.69935 250.10588 251.21841 252.02993 252.33546
 252.36199 252.12552 251.47505 250.41257 249.00810 247.15863 245.05716 242.87968
 240.66021 238.45374 236.26327 234.09179 231.94132 229.79785 227.81338 225.95990
 224.23243 222.69396 221.31349 220.07502 218.94654 217.89607 216.98960 216.12013
 215.35165 214.52118 213.60871 212.96224 212.40176 213.10573 214.76889 217.11940
 219.23282 221.04536 222.47156 223.93025 225.38458 226.83644 228.93280 230.47055
 231.03467 231.44423 233.40031 237.38142 241.88840 246.24487 250.35156 254.19978
 257.63260 260.73444 263.57629 266.16028 268.55618 270.76340 272.65063 274.31729
 275.76791 277.48123 279.03421 280.40320 281.59070 282.64767 283.61996 284.51263
 285.32986 286.06949 286.72192 287.62146
 366.78100 356.32356 345.74413 334.59869 322.99025 311.17282 299.03138 286.82295
 274.52351 262.40907 250.40664 239.69620 229.80676 220.89933 213.06989 206.06046
 199.88302 194.80958 191.38015 189.41071 188.43627 188.48884 189.31240 190.60897
 192.32253 194.40609 196.65766 199.00522 201.43878 203.90735 205.98391 207.81448
 209.42904 210.56260 210.78017 210.99673 210.92229 210.61586 210.23742 209.85599
 209.46155 209.16011 208.95668 208.80924 208.72580 209.04537 209.41993 209.79750
 210.57906 211.74562 212.98419 214.75575 216.67231 218.70388 220.78744 222.85901
 224.90757 226.98013 229.06570 231.16026 233.27782 235.43839 237.68295 240.04152
 242.65108 244.89064 246.88121 248.63477 250.04033 251.15190 251.96246 252.26703
 252.29259 252.05515 251.40372 250.34028 248.93484 247.08441 244.98197 242.80354
 240.58310 238.37566 236.18423 234.01179 231.86035 229.71592 227.73048 225.87605
 224.14761 222.60817 221.22674 219.98730 218.85786 217.80643 216.89899 216.02856
 215.25912 214.42768 213.51425 212.86681 212.30537 213.06419 214.85699 217.25731
 219.29593 221.07974 222.54994 224.08224 225.52470 226.91402 228.96483 230.29581
 230.71840 231.10574 233.13055 237.22906 241.80217 246.18259 250.28827 254.13206
 257.57870 260.70731 263.57529 266.16910 268.56165 270.76361 272.64197 274.30429
 275.76520 277.47717 279.03247 280.40103 281.59134 282.64871 283.62161 284.51407
 285.33118 286.06967 286.72046 287.62589
 366.78100 356.32251 345.74203 334.59554 322.98605 311.16756 299.02508 286.81559
 274.51510 262.39961 250.39613 239.68464 229.79415 220.88566 213.05518 206.04469
 199.86620 194.79171 191.36123 189.39074 188.41525 188.46676 189.28928 190.58479
 192.29730 194.37981 196.63033 198.97684 201.40935 203.87686 205.95238 207.78189
 209.39540 210.52791 210.74443 210.95994 210.88445 210.57696 210.19748 209.81499
 209.41950 209.11702 208.91253 208.76404 208.67955 208.99807 209.37158 209.74809
 210.52860 211.69412 212.93163 214.70214 216.61765 218.64817 220.73068 222.80119
 224.84870 226.92022 229.00473 231.09824 233.21475 235.37427 237.61778 239.97529
 242.58380 244.82232 246.81183 248.56434 249.96885 251.07937 251.88888 252.19239
 252.21690 251.97842 251.32593 250.26144 248.85495 247.00347 244.89998 242.72049
 240.49901 238.29052 236.09803 233.92454 231.77206 229.62657 227.64008 225.78459
 224.05511 222.51462 221.13213 219.89164 218.76116 217.70867 216.80018 215.92869
 215.15821 214.32572 213.41123 212.76274 212.20026 213.01944 214.95482 217.39928
 219.34178 221.09831 222.62343 224.22337 225.67020 226.99829 228.98161 230.12712
 230.41483 230.78328 232.88708 237.09958 241.72623 246.11810 250.22641 254.05463
 257.52094 260.68274 263.58041 266.18787 268.58121 270.78024 272.64948 274.30786
 275.75940 277.47156 279.02707 280.39572 281.58401 282.64090 283.61395 284.50656
 285.32275 286.06363 286.71515 287.61765
 366.78100 356.32139 345.73979 334.59218 322.98158 311.16197 299.01836 286.80776
 274.50615 262.38955 250.38494 239.67234 229.78073 220.87112 213.03952 206.02791
 199.84831 194.77270 191.34109 189.36949 188.39288 188.44328 189.26467 190.55906
 192.27046 194.35185 196.60125 198.94664 201.37803 203.84443 205.91882 207.74722
 209.35961 210.49101 210.70640 210.92079 210.84419 210.53558 210.15498 209.77137
 209.37476 209.07116 208.86555 208.71595 208.63034 208.94773 209.32013 209.69552
 210.47492 211.63931 212.87570 214.64510 216.55949 218.58889 220.67028 222.73968
 224.78607 226.85646 228.93986 231.03225 233.14765 235.30604 237.54843 239.90483
 242.51222 244.74962 246.73801 248.48940 249.89280 251.00219 251.81059 252.11298
 252.13637 251.89677 251.24316 250.17756 248.76995 246.91735 244.81274 242.63213
 240.40953 238.19992 236.00632 233.83171 231.67810 229.53150 227.54389 225.68729
 223.95668 222.41507 221.03147 219.78986 218.65826 217.60465 216.69504 215.82244
 215.05083 214.21723 213.30162 212.65202 212.08841 212.97217 215.06017 217.53923
 219.37820 221.11813 222.69449 224.35284 225.81323 227.07751 228.98253 229.97270
 230.12851 230.46999 232.66315 236.98901 241.65831 246.05431 250.15701 253.97238
 257.46069 260.65997 263.59097 266.21661 268.61349 270.80923 272.66531 274.31042
 275.75528 277.46368 279.01767 280.38745 281.57559 282.63382 283.60468 284.49829
 285.31406 286.05286 286.70645 287.60974
 366.78100 356.32069 345.73839 334.59008 322.97878 311.15847 299.01417 286.80286
 274.50056 262.38325 250.37795 239.66464 229.77234 220.86203 213.02973 206.01742
 199.83712 194.76081 191.32851 189.35620 188.37890 188.42859 189.24929 190.54298
 192.25367 194.33437 196.58306 198.92776 201.35845 203.82415 205.89784 207.72554
 209.33723 210.46793 210.68262 210.89632 210.81901 210.50971 210.12840 209.74410
 209.34679 209.04249 208.83618 208.68588 208.59957 208.91627 209.28796 209.66265
 210.44135 211.60504 212.84074 214.60943 216.52313 218.55182 220.63252 222.70121
 224.74691 226.81660 228.89930 230.99099 233.10569 235.26338 237.50508 239.86077
 242.46747 244.70416 246.69186 248.44255 249.84525 250.95394 251.76163 252.06333
 252.08602 251.84572 251.19141 250.12511 248.71680 246.86350 244.75819 242.57689
 240.35358 238.14328 235.94897 233.77367 231.61936 229.47206 227.48375 225.62645
 223.89514 222.35284 220.96853 219.72623 218.59392 217.53961 216.62931 215.75600
 214.98370 214.14939 213.23309 212.58278 212.01848 212.94804 215.14424 217.68684
 219.43611 221.11684 222.73366 224.47664 225.95842 227.17329 228.97647 229.79448
 229.84071 230.18463 232.47348 236.88936 241.58998 245.99046 250.07585 253.89273
 257.40622 260.64261 263.60745 266.25244 268.65192 270.84097 272.67929 274.30542
 275.74756 277.45502 279.00983 280.37808 281.56668 282.62442 283.59589 284.48706
 285.30347 286.04285 286.69632 287.60437
 366.78100 356.31995 345.73691 334.58786 322.97581 311.15477 299.00972 286.79767
 274.49463 262.37658 250.37053 239.65649 229.76344 220.85239 213.01934 206.00630
 199.82525 194.74820 191.31516 189.34211 188.36406 188.41302 189.23297 190.52592
 192.23588 194.31583 196.56378 198.90774 201.33769 203.80264 205.87560 207.70255
 209.31350 210.44346 210.65741 210.87036 210.79232 210.48227 210.10022 209.71518
 209.31713 209.01208 208.80503 208.65399 208.56694 208.88289 209.25385 209.62780
 210.40575 211.56871 212.80366 214.57161 216.48457 218.51252 220.59247 222.66043
 224.70538 226.77433 228.85629 230.94724 233.06119 235.21815 237.45910 239.81405
 242.42001 244.65596 246.64291 248.39286 249.79482 250.90277 251.70972 252.01068
 252.03263 251.79158 251.13654 250.06949 248.66044 246.80640 244.70035 242.51830
 240.29426 238.08321 235.88816 233.71212 231.55707 229.40902 227.41998 225.56193
 223.82988 222.28684 220.90179 219.65874 218.52570 217.47065 216.55960 215.68555
 214.91251 214.07746 213.16041 212.50937 211.94432 212.92400 215.23859 217.81100
 219.50732 221.16498 222.73306 224.50294 226.09590 227.28148 228.99716 229.69244
 229.57117 229.86607 232.27588 236.79691 241.52698 245.93423 250.01437 253.82343
 257.35223 260.62250 263.62265 266.28845 268.69254 270.87454 272.69293 274.29755
 275.73877 277.44632 279.00037 280.36832 281.55698 282.61261 283.58347 284.47418
 285.29016 286.03000 286.68427 287.59473
 366.78100 356.31919 345.73537 334.58556 322.97274 311.15093 299.00511 286.79230
 274.48849 262.36967 250.36286 239.64804 229.75423 220.84241 213.00860 205.99479
 199.81297 194.73516 191.30134 189.32753 188.34871 188.39690 189.21609 190.50827
 192.21746 194.29664 196.54383 198.88701 201.31620 203.78039 205.85257 207.67876
 209.28894 210.41813 210.63131 210.84350 210.76468 210.45387 210.07106 209.68524
 209.28643 208.98061 208.77280 208.62098 208.53317 208.84836 209.21854 209.59173
 210.36891 211.53110 212.76528 214.53247 216.44466 218.47184 220.55103 222.61821
 224.66240 226.73058 228.81177 230.90196 233.01514 235.17133 237.41151 239.76570
 242.37088 244.60607 246.59226 248.34144 249.74263 250.84981 251.65600 251.95618
 251.97737 251.73556 251.07974 250.01193 248.60211 246.74730 244.64048 242.45767
 240.23286 238.02104 235.82523 233.64841 231.49260 229.34378 227.35397 225.49516
 223.76234 222.21853 220.83271 219.58890 218.45508 217.39927 216.48745 215.61264
 214.83883 214.00301 213.08520 212.43338 211.86757 212.90039 215.34055 217.93085
 219.55846 221.21329 222.85046 224.52734 225.98849 227.32350 229.07700 229.76782
 229.39612 229.41435 232.07590 236.74850 241.48793 245.89664 249.95897 253.75049
 257.29364 260.59906 263.63589 266.32599 268.73727 270.91351 272.71362 274.29633
 275.72809 277.43436 278.98877 280.35770 281.54587 282.60266 283.57394 284.46487
 285.28156 286.02173 286.67560 287.58752
 366.78100 356.31852 345.73404 334.58356 322.97008 311.14760 299.00112 286.78764
 274.48316 262.36368 250.35620 239.64072 229.74624 220.83376 212.99928 205.98480
 199.80232 194.72384 191.28936 189.31488 188.33540 188.38292 189.20144 190.49296
 192.20148 194.28000 196.52652 198.86904 201.29756 203.76108 205.83260 207.65812
 209.26764 210.39616 210.60868 210.82020 210.74072 210.42924 210.04576 209.65928
 209.25980 208.95332 208.74484 208.59236 208.50388 208.81840 209.18792 209.56044
 210.33696 211.49848 212.73200 214.49852 216.41004 218.43656 220.51508 222.58160
 224.62512 226.69264 228.77316 230.86268 232.97520 235.13072 237.37024 239.72376
 242.32828 244.56280 246.54832 248.29684 249.69736 250.80388 251.60940 251.90892
 251.92944 251.68696 251.03048 249.96200 248.55152 246.69604 244.58856 242.40508
 240.17960 237.96712 235.77064 233.59316 231.43668 229.28720 227.29672 225.43724
 223.70376 222.15928 220.77280 219.52832 218.39384 217.33736 216.42488 215.54940
 214.77492 213.93844 213.01995 212.36747 211.80099 212.88303 215.43941 218.05603
 219.59772 221.24457 222.93971 224.65076 226.03691 227.34697 228.99348 229.65695
 229.21245 229.12880 231.93704 236.69432 241.46147 245.85948 249.89304 253.67311
 257.23401 260.57565 263.64938 266.36511 268.78461 270.95578 272.73489 274.29153
 275.71860 277.42636 278.97968 280.34763 281.53427 282.58972 283.56015 284.44980
 285.26553 286.00577 286.66104 287.57565
 366.78100 356.31808 345.73316 334.58225 322.96833 311.14541 298.99849 286.78457
 274.47965 262.35974 250.35182 239.63590 229.74098 220.82806 212.99314 205.97823
 199.79531 194.71639 191.28147 189.30655 188.32663 188.37372 189.19180 190.48288
 192.19096 194.26904 196.51512 198.85721 201.28529 203.74837 205.81945 207.64453
 209.25361 210.38170 210.59378 210.80486 210.72494 210.41302 210.02911 209.64219
 209.24227 208.93535 208.72643 208.57351 208.48460 208.79868 209.16776 209.53984
 210.31592 211.47700 212.71009 214.47617 216.38725 218.41333 220.49141 222.55749
 224.60058 226.66766 228.74774 230.83682 232.94890 235.10398 237.34307 239.69615
 242.30023 244.53431 246.51939 248.26747 249.66756 250.77364 251.57872 251.87780
 251.89788 251.65497 250.99805 249.92913 248.51821 246.66229 244.55437 242.37046
 240.14454 237.93162 235.73470 233.55678 231.39986 229.24995 227.25903 225.39911
 223.66519 222.12027 220.73335 219.48844 218.35352 217.29660 216.38368 215.50776
 214.73284 213.89593 212.97701 212.32409 211.75717 212.87889 215.52910 218.17696
 219.64723 221.30046 222.95958 224.71843 226.22925 227.44411 228.80641 229.44434
 229.02696 228.94223 231.83171 236.63347 241.42883 245.81909 249.83278 253.60602
 257.18173 260.55444 263.66220 266.40286 268.83063 270.99652 272.75577 274.28632
 275.70660 277.41077 278.96481 280.33340 281.51999 282.57770 283.54745 284.43738
 285.25330 285.99167 286.64807 287.56674
 366.78100 356.31789 345.73278 334.58166 322.96755 311.14444 298.99733 286.78322
 274.47810 262.35799 250.34988 239.63377 229.73866 220.82555 212.99043 205.97532
 199.79221 194.71310 191.27799 189.30287 188.32276 188.36965 189.18754 190.47843
 192.18631 194.26420 196.51009 198.85198 201.27987 203.74275 205.81364 207.63853
 209.24742 210.37531 210.58719 210.79808 210.71797 210.40586 210.02175 209.63464
 209.23452 208.92741 208.71830 208.56519 208.47608 208.78996 209.15885 209.53074
 210.30663 211.46752 212.70040 214.46629 216.37718 218.40307 220.48096 222.54684
 224.58973 226.65662 228.73651 230.82540 232.93728 235.09217 237.33106 239.68395
 242.28784 244.52173 246.50661 248.25450 249.65439 250.76028 251.56517 251.86405
 251.88394 251.64083 250.98372 249.91461 248.50349 246.64738 244.53927 242.35516
 240.12905 237.91593 235.71882 233.54071 231.38360 229.23349 227.24238 225.38226
 223.64815 222.10304 220.71593 219.47082 218.33570 217.27859 216.36548 215.48937
 214.71426 213.87714 212.95803 212.30492 211.73781 212.88918 215.60942 218.28938
 219.71727 221.35332 222.98613 224.74658 226.39178 227.54466 228.65147 229.22583
 228.80794 228.77747 231.74918 236.58231 241.39114 245.77457 249.77966 253.54706
 257.13281 260.53314 263.67258 266.43762 268.87387 271.03250 272.77399 274.27716
 275.68970 277.39474 278.95096 280.32056 281.50925 282.56540 283.53564 284.42529
 285.24207 285.98184 286.63663 287.55875
 366.78100 356.31777 345.73254 334.58131 322.96708 311.14386 298.99663 286.78240
 274.47717 262.35694 250.34871 239.63248 229.73725 220.82403 212.98880 205.97357
 199.79034 194.71111 191.27588 189.30065 188.32042 188.36720 189.18497 190.47574
 192.18351 194.26128 196.50705 198.84882 201.27659 203.73936 205.81014 207.63491
 209.24368 210.37145 210.58322 210.79399 210.71376 210.40153 210.01731 209.63008
 209.22985 208.92262 208.71339 208.56016 208.47093 208.78470 209.15348 209.52525
 210.30102 211.46179 212.69456 214.46033 216.37110 218.39687 220.47464 222.54042
 224.58319 226.64996 228.72973 230.81850 232.93027 235.08504 237.32381 239.67659
 242.28036 244.51413 246.49890 248.24667 249.64644 250.75221 251.55698 251.85576
 251.87553 251.63230 250.97507 249.90584 248.49461 246.63838 244.53015 242.34592
 240.11970 237.90647 235.70924 233.53101 231.37378 229.22355 227.23232 225.37209
 223.63787 222.09264 220.70541 219.46018 218.32495 217.26772 216.35449 215.47826
 214.70304 213.86581 212.94658 212.29335 211.72612 212.90483 215.68967 218.39189
 219.79565 221.39409 223.05008 224.80202 226.46631 227.57425 228.56981 229.01274
 228.53972 228.62529 231.69412 236.53989 241.34886 245.72925 249.73123 253.49216
 257.08572 260.51022 263.67923 266.46719 268.91162 271.06400 272.78995 274.26822
 275.67499 277.38037 278.93625 280.30594 281.49460 282.55072 283.52332 284.41156
 285.22882 285.96933 286.62271 287.54880
 366.78100 356.31774 345.73248 334.58122 322.96696 311.14370 298.99643 286.78217
 274.47691 262.35665 250.34839 239.63213 229.73687 220.82361 212.98835 205.97309
 199.78983 194.71057 191.27530 189.30004 188.31978 188.36652 189.18426 190.47500
 192.18274 194.26048 196.50622 198.84796 201.27570 203.73844 205.80917 207.63391
 209.24265 210.37039 210.58213 210.79287 210.71261 210.40035 210.01609 209.62883
 209.22857 208.92131 208.71204 208.55878 208.46952 208.78326 209.15200 209.52374
 210.29948 211.46022 212.69296 214.45870 216.36944 218.39518 220.47291 222.53865
 224.58139 226.64813 228.72787 230.81661 232.92835 235.08309 237.32183 239.67457
 242.27831 244.51205 246.49678 248.24452 249.64426 250.75000 251.55474 251.85348
 251.87322 251.62996 250.97270 249.90344 248.49218 246.63592 244.52765 242.34339
 240.11713 237.90387 235.70661 233.52835 231.37109 229.22083 227.22957 225.36931
 223.63505 222.08978 220.70252 219.45726 218.32200 217.26474 216.35148 215.47522
 214.69996 213.86270 212.94344 212.29018 211.72292 212.92641 215.76981 218.48386
 219.87321 221.44649 223.13219 224.87488 226.48280 227.55356 228.52876 228.80367
 228.25563 228.48750 231.65924 236.50157 241.30148 245.68243 249.68423 253.44206
 257.04239 260.48639 263.68130 266.49081 268.94354 271.09152 272.80212 274.25903
 275.65869 277.36261 278.92026 280.29089 281.48029 282.53775 283.50955 284.39923
 285.21533 285.95609 286.61185 287.53751
 366.78100 356.31790 345.73279 334.58169 322.96759 311.14449 298.99738 286.78328
 274.47818 262.35808 250.34997 239.63387 229.73877 220.82567 212.99056 205.97546
 199.79236 194.71326 191.27815 189.30305 188.32295 188.36985 189.18774 190.47864
 192.18654 194.26443 196.51033 198.85223 201.28013 203.74302 205.81392 207.63882
 209.24772 210.37561 210.58751 210.79841 210.71831 210.40620 210.02210 209.63500
 209.23490 208.92779 208.71869 208.56559 208.47649 208.79038 209.15928 209.53118
 210.30707 211.46797 212.70087 214.46677 216.37766 218.40356 220.48146 222.54736
 224.59025 226.65715 228.73705 230.82595 232.93784 235.09274 237.33164 239.68454
 242.28843 244.52233 246.50723 248.25513 249.65502 250.76092 251.56582 251.86471
 251.88461 251.64151 250.98441 249.91530 248.50420 246.64810 244.54000 242.35589
 240.12979 237.91669 235.71959 233.54148 231.38438 229.23428 227.24318 225.38307
 223.64897 222.10387 220.71677 219.47166 218.33656 217.27946 216.36635 215.49025
 214.71515 213.87805 212.95894 212.30584 211.73874 212.95924 215.84282 218.56358
 219.95770 221.51598 223.21230 224.94081 226.46878 227.52254 228.49872 228.60313
 227.98825 228.36705 231.62993 236.46022 241.25023 245.63440 249.63960 253.39862
 257.00327 260.46161 263.67780 266.50647 268.96686 271.11188 272.80911 274.25009
 275.64276 277.34641 278.90317 280.27411 281.46384 282.52267 283.49313 284.38263
 285.20044 285.94086 286.59579 287.52438
 366.78100 356.31825 345.73350 334.58274 322.96899 311.14624 298.99949 286.78574
 274.48098 262.36123 250.35348 239.63773 229.74298 220.83022 212.99547 205.98072
 199.79797 194.71922 191.28446 189.30971 188.32996 188.37721 189.19546 190.48670
 192.19495 194.27320 196.51945 198.86170 201.28995 203.75319 205.82444 207.64969
 209.25894 210.38719 210.59943 210.81068 210.73093 210.41918 210.03543 209.64867
 209.24892 208.94217 208.73342 208.58067 208.49191 208.80616 209.17541 209.54766
 210.32391 211.48515 212.71840 214.48465 216.39590 218.42215 220.50039 222.56664
 224.60989 226.67714 228.75739 230.84663 232.95888 235.11413 237.35338 239.70663
 242.31087 244.54512 246.53037 248.27862 249.67887 250.78511 251.59036 251.88961
 251.90986 251.66711 251.01035 249.94160 248.53085 246.67510 244.56735 242.38359
 240.15784 237.94509 235.74834 233.57059 231.41384 229.26408 227.27333 225.41358
 223.67983 222.13508 220.74832 219.50357 218.36882 217.31207 216.39932 215.52356
 214.74881 213.91206 212.99331 212.34056 211.77380 213.00299 215.90706 218.63121
 220.05421 221.59694 223.28658 224.99730 226.44234 227.49109 228.46516 228.41629
 227.75169 228.26486 231.59578 236.41266 241.19560 245.58539 249.59985 253.36217
 256.96881 260.43613 263.66837 266.51401 268.98132 271.12250 272.81006 274.23944
 275.62589 277.32828 278.88669 280.25842 281.44757 282.50571 283.47720 284.36795
 285.18365 285.92459 286.58044 287.51019
 366.78100 356.31873 345.73446 334.58418 322.97091 311.14864 299.00237 286.78909
 274.48482 262.36555 250.35828 239.64301 229.74873 220.83646 213.00219 205.98792
 199.80564 194.72737 191.29310 189.31883 188.33956 188.38728 189.20601 190.49774
 192.20647 194.28519 196.53192 198.87465 201.30338 203.76711 205.83883 207.66456
 209.27429 210.40302 210.61574 210.82747 210.74820 210.43693 210.05366 209.66738
 209.26811 208.96184 208.75357 208.60129 208.51302 208.82775 209.19748 209.57021
 210.34693 211.50866 212.74239 214.50912 216.42084 218.44757 220.52630 222.59303
 224.63676 226.70448 228.78521 230.87494 232.98767 235.14339 237.38312 239.73685
 242.34158 244.57631 246.56203 248.31076 249.71149 250.81822 251.62394 251.92367
 251.94440 251.70213 251.04586 249.97758 248.56731 246.71204 244.60477 242.42149
 240.19622 237.98395 235.78768 233.61041 231.45413 229.30486 227.31459 225.45532
 223.72204 222.17777 220.79150 219.54723 218.41296 217.35668 216.44441 215.56914
 214.79487 213.95859 213.04032 212.38805 211.82178 213.05389 215.96494 218.68881
 220.15631 221.68668 223.36292 225.04810 226.41551 227.45741 228.41943 228.24231
 227.54523 228.18077 231.55827 236.35712 241.13556 245.53600 249.56464 253.33246
 256.93860 260.41034 263.65509 266.51382 268.98596 271.12344 272.80649 274.22968
 275.61102 277.31271 278.87103 280.24237 281.43280 282.49084 283.46283 284.35370
 285.17130 285.91006 286.56900 287.49854
 366.78100 356.31933 345.73565 334.58598 322.97330 311.15163 299.00595 286.79328
 274.48960 262.37093 250.36426 239.64958 229.75591 220.84423 213.01056 205.99688
 199.81521 194.73754 191.30386 189.33019 188.35151 188.39984 189.21916 190.51149
 192.22081 194.30014 196.54747 198.89079 201.32012 203.78444 205.85677 207.68309
 209.29342 210.42275 210.63607 210.84840 210.76972 210.45905 210.07637 209.69070
 209.29202 208.98635 208.77868 208.62700 208.53933 208.85465 209.22498 209.59830
 210.37563 211.53796 212.77228 214.53961 216.45193 218.47926 220.55858 222.62591
 224.67023 226.73856 228.81989 230.91021 233.02354 235.17986 237.42019 239.77451
 242.37984 244.61516 246.60149 248.35082 249.75214 250.85947 251.66579 251.96612
 251.98744 251.74577 251.09010 250.02242 248.61275 246.75807 244.65140 242.46872
 240.24405 238.03237 235.83670 233.66003 231.50435 229.35568 227.36600 225.50733
 223.77465 222.23098 220.84531 219.60163 218.46796 217.41228 216.50061 215.62593
 214.85226 214.01658 213.09891 212.44724 211.88156 213.11130 216.01666 218.74062
 220.25395 221.78549 223.44627 225.09650 226.39479 227.42340 228.35605 228.07985
 227.36876 228.10954 231.51711 236.29539 241.07246 245.48857 249.53461 253.31015
 256.91370 260.38486 263.63742 266.50726 268.98352 271.11603 272.79752 274.21796
 275.59723 277.29913 278.85843 280.22992 281.42114 282.48135 283.45169 284.34354
 285.15930 285.90057 286.55573 287.49500
 366.78100 356.31995 345.73689 334.58784 322.97579 311.15473 299.00968 286.79763
 274.49457 262.37652 250.37047 239.65641 229.76336 220.85231 213.01925 206.00620
 199.82515 194.74809 191.31504 189.34199 188.36393 188.41288 189.23283 190.52577
 192.23572 194.31567 196.56361 198.90756 201.33751 203.80245 205.87540 207.70235
 209.31329 210.44324 210.65719 210.87013 210.79208 210.48203 210.09997 209.71492
 209.31687 209.01181 208.80476 208.65371 208.56665 208.88260 209.25355 209.62749
 210.40544 211.56839 212.80333 214.57128 216.48423 218.51217 220.59212 222.66007
 224.70501 226.77396 228.85591 230.94685 233.06080 235.21775 237.45869 239.81364
 242.41959 244.65553 246.64248 248.39243 249.79437 250.90232 251.70927 252.01021
 252.03216 251.79111 251.13605 250.06900 248.65995 246.80589 244.69984 242.51778
 240.29373 238.08268 235.88762 233.71157 231.55652 229.40846 227.41941 225.56136
 223.82930 222.28625 220.90120 219.65814 218.52509 217.47004 216.55898 215.68493
 214.91188 214.07682 213.15977 212.50872 211.94366 213.17033 216.06850 218.78210
 220.34871 221.89331 223.53940 225.13608 226.38202 227.39691 228.28355 227.91835
 227.20300 228.04926 231.47867 236.22884 241.00581 245.44093 249.50850 253.29543
 256.89572 260.36185 263.61694 266.49524 268.97354 271.10040 272.77966 274.20139
 275.58524 277.28751 278.84753 280.22018 281.41138 282.47171 283.44437 284.33594
 285.15268 285.89355 286.54950 287.48535
 366.78100 356.32046 345.73792 334.58938 322.97784 311.15730 299.01276 286.80122
 274.49868 262.38115 250.37561 239.66207 229.76953 220.85899 213.02645 206.01391
 199.83337 194.75683 191.32429 189.35175 188.37421 188.42367 189.24413 190.53759
 192.24805 194.32851 196.57697 198.92144 201.35190 203.81736 205.89082 207.71828
 209.32974 210.46020 210.67466 210.88812 210.81058 210.50104 210.11950 209.73496
 209.33742 209.03288 208.82634 208.67580 208.58926 208.90573 209.27719 209.65165
 210.43011 211.59357 212.82903 214.59749 216.51095 218.53941 220.61987 222.68833
 224.73379 226.80325 228.88571 230.97717 233.09163 235.24909 237.49055 239.84602
 242.45248 244.68894 246.67640 248.42686 249.82932 250.93778 251.74524 252.04670
 252.06916 251.82862 251.17408 250.10754 248.69900 246.84546 244.73992 242.55838
 240.33484 238.12431 235.92977 233.75423 231.59969 229.45215 227.46361 225.60607
 223.87453 222.33199 220.94745 219.70491 218.57237 217.51783 216.60729 215.73375
 214.96121 214.12667 213.21014 212.55960 211.99506 213.22395 216.12738 218.80856
 220.43829 222.01216 223.63339 225.18570 226.37292 227.37035 228.20703 227.75797
 227.04982 227.99687 231.43297 236.15610 240.93666 245.39375 249.48947 253.29208
 256.88672 260.34244 263.59506 266.47675 268.95471 271.07370 272.75250 274.17993
 275.57297 277.27771 278.83881 280.21182 281.40469 282.46542 283.43842 284.33020
 285.14755 285.88739 286.54315 287.47818
 366.78100 356.32138 345.73976 334.59214 322.98151 311.16189 299.01827 286.80765
 274.50603 262.38941 250.38479 239.67216 229.78054 220.87092 213.03930 206.02768
 199.84806 194.77244 191.34081 189.36919 188.39257 188.44295 189.26433 190.55871
 192.27008 194.35146 196.60084 198.94622 201.37760 203.84398 205.91836 207.74673
 209.35911 210.49049 210.70587 210.92025 210.84363 210.53501 210.15438 209.77076
 209.37414 209.07052 208.86490 208.71528 208.62966 208.94703 209.31941 209.69479
 210.47417 211.63855 212.87493 214.64431 216.55868 218.58806 220.66944 222.73882
 224.78520 226.85558 228.93895 231.03133 233.14671 235.30509 237.54747 239.90385
 242.51123 244.74860 246.73698 248.48836 249.89174 251.00112 251.80950 252.11188
 252.13525 251.89563 251.24201 250.17639 248.76877 246.91615 244.81153 242.63090
 240.40828 238.19866 236.00504 233.83042 231.67680 229.53018 227.54255 225.68593
 223.95531 222.41369 221.03007 219.78845 218.65682 217.60320 216.69358 215.82096
 215.04934 214.21572 213.30010 212.65047 212.08685 213.29807 216.15971 218.85204
 220.51025 222.13634 223.73480 225.22183 226.38979 227.36191 228.11134 227.61809
 226.92189 227.93042 231.38730 236.08528 240.86485 245.34967 249.47974 253.29666
 256.88205 260.32376 263.56982 266.45331 268.93015 271.04092 272.72009 274.15405
 275.56174 277.26956 278.83020 280.20462 281.39835 282.45975 283.43466 284.32462
 285.14154 285.88150 286.54007 287.47836
 366.78100 356.32223 345.74147 334.59470 322.98493 311.16617 299.02340 286.81363
 274.51286 262.39710 250.39333 239.68156 229.79080 220.88203 213.05126 206.04050
 199.86173 194.78696 191.35619 189.38543 188.40966 188.46089 189.28313 190.57836
 192.29059 194.37283 196.62306 198.96929 201.40152 203.86876 205.94399 207.77322
 209.38646 210.51869 210.73492 210.95016 210.87439 210.56662 210.18685 209.80409
 209.40832 209.10555 208.90079 208.75202 208.66725 208.98549 209.35872 209.73495
 210.51519 211.68042 212.91765 214.68788 216.60312 218.63335 220.71558 222.78582
 224.83305 226.90428 228.98852 231.08175 233.19798 235.35721 237.60045 239.95768
 242.56591 244.80415 246.79338 248.54561 249.94985 251.06008 251.86931 252.17254
 252.19678 251.95801 251.30524 250.24048 248.83371 246.98194 244.87818 242.69841
 240.47664 238.26787 236.07511 233.90134 231.74857 229.60281 227.61604 225.76027
 224.03051 222.48974 221.10697 219.86621 218.73544 217.68267 216.77390 215.90214
 215.13137 214.29860 213.38384 212.73507 212.17230 213.36897 216.19623 218.88461
 220.57851 222.25467 223.87164 225.27344 226.34064 227.31966 228.10223 227.46562
 226.72620 227.86980 231.33209 235.99905 240.79396 245.31575 249.47859 253.30585
 256.88037 260.30661 263.54544 266.42987 268.90274 271.00305 272.68152 274.12527
 275.55121 277.26138 278.82318 280.19797 281.39240 282.45416 283.42917 284.32202
 285.13669 285.87753 286.53391 287.47787
 366.78100 356.32307 345.74314 334.59721 322.98828 311.17035 299.02842 286.81949
 274.51955 262.40462 250.40169 239.69076 229.80083 220.89290 213.06297 206.05304
 199.87511 194.80118 191.37125 189.40132 188.42639 188.47846 189.30153 190.59760
 192.31066 194.39373 196.64480 198.99187 201.42494 203.89301 205.96908 207.79915
 209.41322 210.54629 210.76336 210.97943 210.90450 210.59757 210.21864 209.83670
 209.44177 209.13984 208.93591 208.78798 208.70405 209.02312 209.39719 209.77426
 210.55533 211.72140 212.95947 214.73054 216.64661 218.67768 220.76075 222.83181
 224.87988 226.95195 229.03702 231.13109 233.24816 235.40823 237.65230 240.01037
 242.61944 244.85851 246.84858 248.60165 250.00672 251.11779 251.92785 252.23192
 252.25699 252.01906 251.36713 250.30320 248.89727 247.04634 244.94341 242.76448
 240.54355 238.33562 236.14369 233.97076 231.81883 229.67390 227.68796 225.83303
 224.10410 222.56417 221.18224 219.94231 218.81238 217.76045 216.85252 215.98159
 215.21166 214.37973 213.46580 212.81787 212.25594 213.43901 216.23418 218.90883
 220.66011 222.32283 224.02484 225.42577 226.32497 227.23409 228.00697 227.49121
 226.66231 227.65538 231.24275 235.94894 240.74641 245.29591 249.48186 253.31920
 256.88425 260.29422 263.52332 266.40555 268.87119 270.95694 272.63400 274.09006
 275.53769 277.25256 278.81516 280.19052 281.38535 282.44736 283.42325 284.31522
 285.13177 285.87366 286.52792 287.47513
 366.78100 356.32390 345.74479 334.59969 322.99159 311.17449 299.03338 286.82528
 274.52618 262.41208 250.40997 239.69987 229.81077 220.90366 213.07456 206.06546
 199.88836 194.81525 191.38615 189.41705 188.44295 188.49584 189.31974 190.61664
 192.33054 194.41443 196.66633 199.01423 201.44812 203.91702 205.99392 207.82482
 209.43971 210.57361 210.79151 211.00841 210.93430 210.62820 210.25010 209.86899
 209.47489 209.17379 208.97069 208.82358 208.74048 209.06038 209.43528 209.81317
 210.59507 211.76197 213.00086 214.77276 216.68966 218.72156 220.80545 222.87735
 224.92625 226.99915 229.08504 231.17994 233.29784 235.45874 237.70363 240.06253
 242.67243 244.91232 246.90322 248.65712 250.06302 251.17491 251.98581 252.29071
 252.31661 252.07950 251.42840 250.36530 248.96019 247.11009 245.00799 242.82989
 240.60978 238.40268 236.21158 234.03948 231.88837 229.74427 227.75917 225.90506
 224.17696 222.63786 221.25676 220.01765 218.88855 217.83745 216.93035 216.06024
 215.29114 214.46004 213.54694 212.89983 212.33873 213.50826 216.27141 218.93083
 220.74509 222.39856 224.11136 225.55344 226.42226 227.20552 227.80956 227.44560
 226.66322 227.52374 231.18011 235.90921 240.69731 245.26816 249.48180 253.33533
 256.89166 260.28384 263.50116 266.37878 268.83475 270.90402 272.57678 274.04489
 275.52280 277.24237 278.80533 280.18140 281.37753 282.43985 283.41562 284.30936
 285.12491 285.86621 286.52121 287.46857
 366.78100 356.32461 345.74622 334.60184 322.99445 311.17806 299.03767 286.83028
 274.53190 262.41851 250.41712 239.70773 229.81934 220.91296 213.08457 206.07618
 199.89979 194.82740 191.39902 189.43063 188.45724 188.51085 189.33546 190.63308
 192.34769 194.43230 196.68491 199.03352 201.46814 203.93775 206.01536 207.84697
 209.46258 210.59720 210.81581 211.03342 210.96003 210.65464 210.27726 209.89687
 209.50348 209.20309 209.00070 208.85432 208.77193 209.09254 209.46815 209.84676
 210.62938 211.79699 213.03660 214.80921 216.72683 218.75944 220.84405 222.91666
 224.96627 227.03989 229.12650 231.22211 233.34072 235.50233 237.74795 240.10756
 242.71817 244.95878 246.95039 248.70501 250.11162 251.22423 252.03584 252.34145
 252.36807 252.13168 251.48129 250.41890 249.01451 247.16513 245.06374 242.88635
 240.66696 238.46057 236.27019 234.09880 231.94841 229.80502 227.82063 225.96725
 224.23986 222.70147 221.32108 220.08269 218.95431 217.90392 216.99753 216.12814
 215.35975 214.52937 213.61698 212.97059 212.41020 213.57091 216.31319 218.95432
 220.81067 222.50681 224.16354 225.62138 226.56728 227.21933 227.62276 227.35657
 226.64290 227.43408 231.12614 235.85965 240.64188 245.23965 249.48572 253.35576
 256.90164 260.27380 263.47910 266.35098 268.79568 270.84497 272.51123 273.99240
 275.50290 277.22833 278.79196 280.16855 281.36542 282.42795 283.40567 284.29877
 285.11420 285.85510 286.51062 287.45932
 366.78100 356.32525 345.74751 334.60376 322.99702 311.18127 299.04153 286.83478
 274.53704 262.42429 250.42354 239.71480 229.82705 220.92131 213.09356 206.08582
 199.91007 194.83833 191.41058 189.44283 188.47009 188.52434 189.34960 190.64785
 192.36311 194.44836 196.70161 199.05087 201.48612 203.95638 206.03463 207.86689
 209.48314 210.61840 210.83765 211.05590 210.98316 210.67841 210.30167 209.92192
 209.52918 209.22943 209.02769 208.88194 208.80019 209.12145 209.49770 209.87696
 210.66021 211.82847 213.06872 214.84198 216.76023 218.79348 220.87874 222.95199
 225.00225 227.07650 229.16376 231.26001 233.37926 235.54152 237.78777 240.14803
 242.75928 245.00054 246.99279 248.74805 250.15530 251.26855 252.08081 252.38706
 252.41432 252.17857 251.52883 250.46708 249.06334 247.21459 245.11384 242.93710
 240.71835 238.51261 236.32286 234.15212 232.00237 229.85963 227.87588 226.02313
 224.29639 222.75864 221.37890 220.14115 219.01341 217.96366 217.05792 216.18917
 215.42142 214.59168 213.67993 213.03419 212.47444 213.62921 216.35745 218.97749
 220.86844 222.61736 224.21306 225.66141 226.69675 227.25562 227.48222 227.23608
 226.57504 227.36174 231.07664 235.80725 240.59143 245.21774 249.49417 253.37672
 256.91116 260.26443 263.45676 266.32220 268.75415 270.78122 272.44092 273.93515
 275.48035 277.21109 278.77542 280.15298 281.34940 282.41403 283.38953 284.28378
 285.10004 285.84140 286.49643 287.44806
 366.78100 356.32596 345.74893 334.60589 322.99986 311.18482 299.04578 286.83975
 274.54271 262.43068 250.43064 239.72260 229.83557 220.93053 213.10350 206.09646
 199.92142 194.85039 191.42335 189.45632 188.48428 188.53924 189.36521 190.66417
 192.38013 194.46610 196.72006 199.07003 201.50599 203.97695 206.05592 207.88888
 209.50585 210.64181 210.86177 211.08074 211.00870 210.70467 210.32863 209.94959
 209.55756 209.25852 209.05749 208.91245 208.83141 209.15338 209.53034 209.91031
 210.69427 211.86323 213.10420 214.87816 216.79713 218.83109 220.91705 222.99102
 225.04198 227.11695 229.20491 231.30187 233.42184 235.58480 237.83176 240.19273
 242.80469 245.04666 247.03962 248.79558 250.20355 251.31751 252.13048 252.43744
 252.46540 252.23037 251.58133 250.52030 249.11726 247.26922 245.16919 242.99315
 240.77512 238.57008 236.38104 234.21101 232.06197 229.91994 227.93690 226.08486
 224.35883 222.82179 221.44276 220.20572 219.07868 218.02965 217.12461 216.25658
 215.48954 214.66050 213.74947 213.10443 212.54539 213.69072 216.39670 219.00500
 220.93022 222.70503 224.25873 225.70581 226.81013 227.30769 227.37935 227.07935
 226.45869 227.30554 231.03761 235.75990 240.54915 245.20113 249.50450 253.39989
 256.92307 260.25702 263.43506 266.29132 268.70670 270.70990 272.36005 273.87030
 275.45172 277.18906 278.75339 280.13083 281.32858 282.39322 283.37036 284.26486
 285.07892 285.82178 286.47675 287.42767
 366.78100 356.32665 345.75031 334.60796 323.00262 311.18827 299.04993 286.84458
 274.54824 262.43689 250.43754 239.73020 229.84385 220.93951 213.11316 206.10682
 199.93247 194.86212 191.43578 189.46943 188.49809 188.55374 189.38040 190.68005
 192.39671 194.48336 196.73801 199.08867 201.52532 203.99698 206.07663 207.91029
 209.52794 210.66460 210.88525 211.10490 211.03356 210.73021 210.35487 209.97652
 209.58518 209.28683 209.08649 208.94214 208.86179 209.18445 209.56210 209.94276
 210.72741 211.89707 213.13872 214.91337 216.83303 218.86768 220.95434 223.02899
 225.08065 227.15630 229.24496 231.34261 233.46326 235.62692 237.87457 240.23623
 242.84888 245.09154 247.08519 248.84185 250.25050 251.36515 252.17881 252.48646
 252.51512 252.28077 251.63243 250.57208 249.16974 247.32239 245.22304 243.04770
 240.83035 238.62601 236.43766 234.26832 232.11997 229.97862 227.99628 226.14493
 224.41959 222.88324 221.50490 220.26855 219.14221 218.09386 217.18951 216.32217
 215.55582 214.72748 213.81713 213.17279 212.61444 213.75095 216.43605 219.03246
 220.99658 222.77029 224.29890 225.75984 226.90941 227.36972 227.30121 226.88988
 226.30711 227.26523 231.01144 235.72293 240.51695 245.18808 249.51479 253.42000
 256.93246 260.24802 263.41168 266.25851 268.65579 270.63376 272.27594 273.80057
 275.41910 277.16245 278.72656 280.10495 281.30200 282.36688 283.34488 284.23920
 285.05530 285.79675 286.45291 287.40228
 366.78100 356.32730 345.75159 334.60989 323.00519 311.19148 299.05378 286.84908
 274.55338 262.44267 250.44397 239.73727 229.85156 220.94786 213.12216 206.11645
 199.94275 194.87305 191.44735 189.48164 188.51094 188.56724 189.39453 190.69483
 192.41213 194.49942 196.75472 199.10602 201.54331 204.01561 206.09591 207.93021
 209.54850 210.68580 210.90710 211.12739 211.05669 210.75399 210.37928 210.00158
 209.61088 209.31318 209.11347 208.96977 208.89007 209.21336 209.59166 209.97296
 210.75825 211.92855 213.17085 214.94614 216.86644 218.90174 220.98904 223.06433
 225.11663 227.19293 229.28222 231.38052 233.50182 235.66611 237.91441 240.27671
 242.89001 245.13330 247.12760 248.88490 250.29419 251.40949 252.22379 252.53208
 252.56138 252.32768 251.67997 250.62027 249.21857 247.37187 245.27316 243.09846
 240.88176 238.67805 236.49035 234.32165 232.17394 230.03324 228.05154 226.20084
 224.47613 222.94043 221.56273 220.32702 219.20132 218.15362 217.24991 216.38321
 215.61751 214.78980 213.88010 213.23640 212.67870 213.80814 216.47659 219.06410
 221.05617 222.82417 224.34306 225.82245 226.99290 227.42641 227.23987 226.68480
 226.13449 227.23615 230.99808 235.69861 240.49400 245.17853 249.52237 253.43593
 256.93869 260.23718 263.38635 266.22336 268.60223 270.55399 272.18585 273.71344
 275.37869 277.13165 278.69696 280.07474 281.27197 282.33728 283.31464 284.20847
 285.02606 285.76590 286.42166 287.37381
 366.78100 356.32788 345.75276 334.61165 323.00753 311.19441 299.05729 286.85317
 274.55805 262.44794 250.44982 239.74370 229.85858 220.95546 213.13035 206.12523
 199.95211 194.88299 191.45787 189.49275 188.52264 188.57952 189.40740 190.70828
 192.42616 194.51405 196.76993 199.12181 201.55969 204.03257 206.11345 207.94834
 209.56722 210.70510 210.92698 211.14786 211.07775 210.77563 210.40151 210.02439
 209.63427 209.33715 209.13804 208.99492 208.91580 209.23968 209.61856 210.00045
 210.78633 211.95721 213.20009 214.97597 216.89685 218.93274 221.02062 223.09650
 225.14938 227.22626 229.31615 231.41503 233.53691 235.70179 237.95067 240.31356
 242.92744 245.17132 247.16620 248.92408 250.33396 251.44985 252.26473 252.57361
 252.60349 252.37037 251.72326 250.66414 249.26302 247.41690 245.31878 243.14466
 240.92855 238.72543 236.53831 234.37019 232.22307 230.08296 228.10184 226.25172
 224.52760 222.99248 221.61536 220.38025 219.25513 218.20801 217.30489 216.43877
 215.67366 214.84654 213.93742 213.29430 212.73718 213.86183 216.51895 219.09990
 221.10431 222.86687 224.39671 225.89130 227.06326 227.47554 227.18906 226.48073
 225.95248 227.21201 230.99586 235.68372 240.47804 245.17073 249.52795 253.44785
 256.94052 260.22229 263.35672 266.18362 268.54575 270.47610 272.09943 273.66183
 275.32928 277.08154 278.64914 280.02826 281.22690 282.29285 283.27094 284.16782
 284.98193 285.72629 286.38226 287.33392
 366.78100 356.32843 345.75385 334.61328 323.00971 311.19714 299.06056 286.85699
 274.56242 262.45285 250.45527 239.74970 229.86513 220.96256 213.13798 206.13341
 199.96084 194.89226 191.46769 189.50312 188.53355 188.59097 189.41940 190.72083
 192.43926 194.52768 196.78411 199.13654 201.57497 204.04839 206.12982 207.96525
 209.58467 210.72310 210.94553 211.16696 211.09738 210.79581 210.42224 210.04567
 209.65609 209.35952 209.16095 209.01838 208.93980 209.26423 209.64366 210.02608
 210.81251 211.98394 213.22737 215.00379 216.92522 218.96165 221.05008 223.12650
 225.17993 227.25736 229.34779 231.44721 233.56964 235.73507 237.98449 240.34792
 242.96235 245.20678 247.20220 248.96063 250.37106 251.48749 252.30291 252.61234
 252.64277 252.41019 251.76362 250.70505 249.30448 247.45890 245.36133 243.18776
 240.97219 238.76961 236.58304 234.41547 232.26890 230.12932 228.14875 226.29918
 224.57560 223.04103 221.66446 220.42989 219.30531 218.25874 217.35617 216.49060
 215.72602 214.89945 213.99088 213.34831 212.79173 213.91289 216.56174 219.13745
 221.14708 222.89742 224.45038 225.96031 227.12720 227.52744 227.14468 226.28348
 225.77000 227.18738 230.99954 235.67641 240.46956 245.16451 249.53098 253.45430
 256.93686 260.20181 263.32248 266.13959 268.48715 270.40085 272.01736 273.60385
 275.27890 277.03009 278.59628 279.97562 281.17456 282.24121 283.22006 284.11572
 284.93237 285.67569 286.33188 287.28384
 366.78100 356.32896 345.75492 334.61488 323.01184 311.19979 299.06375 286.86071
 274.56667 262.45763 250.46059 239.75555 229.87151 220.96947 213.14543 206.14138
 199.96934 194.90130 191.47726 189.51322 188.54418 188.60214 189.43110 190.73306
 192.45201 194.54097 196.79793 199.15089 201.58985 204.06381 206.14577 207.98173
 209.60169 210.74065 210.96360 211.18556 211.11652 210.81548 210.44244 210.06640
 209.67736 209.38132 209.18328 209.04123 208.96319 209.28815 209.66811 210.05107
 210.83803 212.00999 213.25395 215.03091 216.95287 218.98982 221.07878 223.15574
 225.20970 227.28766 229.37862 231.47858 233.60154 235.76750 238.01745 240.38141
 242.99637 245.24133 247.23729 248.99625 250.40721 251.52417 252.34013 252.65009
 252.68104 252.44900 251.80296 250.74492 249.34488 247.49984 245.40280 243.22976
 241.01472 238.81267 236.62663 234.45959 232.31355 230.17451 228.19447 226.34543
 224.62239 223.08835 221.71230 220.47826 219.35422 218.30818 217.40614 216.54110
 215.77706 214.95102 214.04298 213.40094 212.84489 213.96254 216.60310 219.17795
 221.18610 222.92268 224.49696 226.01567 227.18883 227.59673 227.11058 226.08670
 225.59015 227.16165 231.00076 235.67754 240.47162 245.16299 249.53094 253.45259
 256.92502 260.17508 263.28372 266.09265 268.42728 270.32690 271.93927 273.45670
 275.27206 277.00952 278.55481 279.92490 281.11905 282.18268 283.16116 284.05637
 284.87262 285.61786 286.27469 287.22653
 366.78100 356.32953 345.75605 334.61658 323.01410 311.20263 299.06715 286.86468
 274.57120 262.46273 250.46625 239.76178 229.87830 220.97683 213.15335 206.14988
 199.97841 194.91093 191.48746 189.52398 188.55551 188.61403 189.44356 190.74608
 192.46561 194.55513 196.81266 199.16618 201.60571 204.08024 206.16276 207.99929
 209.61981 210.75934 210.98286 211.20539 211.13691 210.83644 210.46396 210.08849
 209.70001 209.40454 209.20706 209.06559 208.98812 209.31364 209.69417 210.07769
 210.86522 212.03774 213.28227 215.05979 216.98232 219.01984 221.10937 223.18689
 225.24142 227.31994 229.41147 231.51200 233.63552 235.80205 238.05257 240.41710
 243.03262 245.27815 247.27467 249.03420 250.44572 251.56325 252.37977 252.69030
 252.72183 252.49035 251.84488 250.78740 249.38793 247.54345 245.44698 243.27450
 241.06003 238.85855 236.67308 234.50660 232.36113 230.22265 228.24318 226.39471
 224.67223 223.13876 221.76328 220.52981 219.40633 218.36086 217.45938 216.59491
 215.83143 215.00596 214.09848 213.45701 212.90154 214.01291 216.63864 219.22180
 221.22833 222.93390 224.53217 226.07217 227.25531 227.66809 227.09160 225.89804
 225.40132 227.13512 231.00906 235.68500 240.47813 245.15967 249.52510 253.44649
 256.91031 260.14627 263.24313 266.04364 268.36667 270.25287 271.86707 273.45468
 275.16635 276.91898 278.48068 279.85510 281.05182 282.11703 283.09491 283.99011
 284.80731 285.55136 286.20953 287.16095
 366.78100 356.33019 345.75737 334.61856 323.01675 311.20594 299.07112 286.86931
 274.57650 262.46869 250.47287 239.76906 229.88625 220.98543 213.16262 206.15981
 199.98900 194.92218 191.49937 189.53656 188.56875 188.62793 189.45812 190.76131
 192.48149 194.57168 196.82987 199.18406 201.62424 204.09943 206.18262 208.01981
 209.64099 210.78118 211.00537 211.22855 211.16074 210.86093 210.48912 210.11430
 209.72649 209.43168 209.23487 209.09405 209.01724 209.34343 209.72461 210.10880
 210.89699 212.07018 213.31536 215.09355 217.01674 219.05493 221.14511 223.22330
 225.27849 227.35767 229.44986 231.55105 233.67524 235.84242 238.09361 240.45880
 243.07499 245.32117 247.31836 249.07855 250.49073 251.60892 252.42611 252.73730
 252.76948 252.53867 251.89386 250.83705 249.43823 247.59442 245.49861 243.32679
 241.11298 238.91217 236.72736 234.56154 232.41673 230.27892 228.30011 226.45229
 224.73048 223.19767 221.82285 220.59004 219.46723 218.42242 217.52160 216.65779
 215.89498 215.07017 214.16335 213.52254 212.96773 214.06688 216.66374 219.27490
 221.26817 222.94522 224.54628 226.10585 227.33968 227.77821 227.06927 225.69901
 225.23268 227.11177 231.00134 235.69539 240.49370 245.16280 249.52124 253.43842
 256.89087 260.11127 263.19693 265.99045 268.30383 270.17776 271.79358 273.39603
 275.09540 276.84616 278.40878 279.78299 280.97845 282.04272 283.02142 283.91559
 284.73209 285.47852 286.13739 287.08755
 366.78100 356.33074 345.75847 334.62021 323.01895 311.20869 299.07442 286.87316
 274.58090 262.47363 250.47837 239.77511 229.89285 220.99258 213.17032 206.16806
 199.99780 194.93153 191.50927 189.54701 188.57974 188.63948 189.47022 190.77396
 192.49469 194.58543 196.84417 199.19890 201.63964 204.11538 206.19912 208.03685
 209.65859 210.79933 211.02406 211.24780 211.18054 210.88128 210.51001 210.13575
 209.74849 209.45423 209.25796 209.11770 209.04144 209.36817 209.74991 210.13465
 210.92339 212.09712 213.34286 215.12160 217.04533 219.08407 221.17481 223.25355
 225.30928 227.38902 229.48176 231.58349 233.70823 235.87597 238.12771 240.49344
 243.11018 245.35692 247.35466 249.11539 250.52813 251.64687 252.46460 252.77634
 252.80908 252.57882 251.93455 250.87829 249.48003 247.63676 245.54150 243.37024
 241.15698 238.95671 236.77245 234.60719 232.46293 230.32566 228.34740 226.50014
 224.77887 223.24661 221.87235 220.64009 219.51782 218.47356 217.57330 216.71003
 215.94777 215.12351 214.21725 213.57698 213.02272 214.11359 216.69089 219.32022
 221.31787 222.94228 224.57501 226.12598 227.37807 227.89258 227.12825 225.44757
 224.92812 227.09384 231.05205 235.73470 240.52087 245.16428 249.50653 253.41513
 256.85745 260.06857 263.14877 265.94080 268.24976 270.11777 271.73386 273.34311
 275.02316 276.76917 278.32944 279.70383 280.89853 281.96140 282.94058 283.83459
 284.65308 285.39920 286.05707 287.00842
 366.78100 356.33092 345.75885 334.62077 323.01970 311.20962 299.07555 286.87447
 274.58239 262.47532 250.48024 239.77717 229.89509 220.99502 213.17294 206.17086
 200.00079 194.93471 191.51264 189.55056 188.58349 188.64341 189.47433 190.77826
 192.49918 194.59011 196.84903 199.20396 201.64488 204.12080 206.20473 208.04265
 209.66458 210.80550 211.03043 211.25435 211.18727 210.88820 210.51712 210.14305
 209.75597 209.46190 209.26582 209.12574 209.04967 209.37659 209.75852 210.14344
 210.93237 212.10629 213.35221 215.13114 217.05506 219.09399 221.18491 223.26384
 225.31976 227.39968 229.49261 231.59453 233.71946 235.88738 238.13931 240.50523
 243.12215 245.36908 247.36700 249.12793 250.54085 251.65978 252.47770 252.78962
 252.82255 252.59247 251.94840 250.89232 249.49424 247.65117 245.55609 243.38502
 241.17194 238.97187 236.78779 234.62271 232.47864 230.34156 228.36349 226.51641
 224.79534 223.26326 221.88918 220.65711 219.53503 218.49096 217.59088 216.72781
 215.96573 215.14165 214.23558 213.59550 213.04143 214.14082 216.73828 219.33633
 221.38402 222.96484 224.53297 226.15201 227.46507 227.97864 227.14888 225.35017
 224.77287 227.03296 231.06676 235.76030 240.53172 245.15077 249.47946 253.38214
 256.82184 260.02792 263.10318 265.89368 268.20096 270.06717 271.68475 273.29645
 274.94897 276.68781 278.24759 279.62070 280.81375 281.87814 282.85394 283.74979
 284.56894 285.31421 285.97562 286.92593
 366.78100 356.33120 345.75941 334.62161 323.02081 311.21101 299.07722 286.87642
 274.58462 262.47783 250.48303 239.78023 229.89843 220.99864 213.17684 206.17504
 200.00525 194.93945 191.51765 189.55586 188.58906 188.64926 189.48046 190.78467
 192.50587 194.59707 196.85628 199.21148 201.65268 204.12888 206.21309 208.05129
 209.67349 210.81470 211.03990 211.26410 211.19730 210.89851 210.52771 210.15391
 209.76712 209.47332 209.27752 209.13772 209.06193 209.38913 209.77133 210.15654
 210.94574 212.11994 213.36615 215.14535 217.06955 219.10875 221.19996 223.27916
 225.33536 227.41557 229.50877 231.61097 233.73617 235.90438 238.15658 240.52278
 243.13999 245.38719 247.38539 249.14659 250.55980 251.67900 252.49720 252.80941
 252.84261 252.61281 251.96901 250.91322 249.51542 247.67262 245.57783 243.40703
 241.19423 238.99444 236.81064 234.64584 232.50204 230.36525 228.38745 226.54065
 224.81986 223.28806 221.91426 220.68246 219.56067 218.51687 217.61707 216.75428
 215.99248 215.16868 214.26288 213.62309 213.06929 214.17200 216.77727 219.36449
 221.41597 223.00555 224.55327 226.20258 227.52525 227.99002 227.11818 225.34190
 224.73863 226.96289 231.03708 235.76683 240.53661 245.13690 249.45575 253.35562
 256.79120 259.98975 263.05917 265.84665 268.15250 270.01712 271.63812 273.25302
 274.87399 276.60413 278.16199 279.53430 280.72745 281.78946 282.76669 283.66055
 284.48010 285.22787 285.88947 286.84140
 366.78100 356.33165 345.76030 334.62295 323.02261 311.21326 299.07991 286.87956
 274.58821 262.48186 250.48751 239.78516 229.90382 221.00447 213.18312 206.18177
 200.01242 194.94707 191.52572 189.56438 188.59803 188.65868 189.49033 190.79498
 192.51663 194.60828 196.86794 199.22359 201.66524 204.14189 206.22654 208.06519
 209.68784 210.82949 211.05515 211.27980 211.21345 210.91510 210.54475 210.17140
 209.78505 209.49171 209.29636 209.15701 209.08166 209.40931 209.79196 210.17761
 210.96727 212.14192 213.38857 215.16822 217.09287 219.13252 221.22417 223.30382
 225.36048 227.44113 229.53478 231.63743 233.76308 235.93173 238.18438 240.55104
 243.16869 245.41634 247.41499 249.17664 250.59029 251.70994 252.52860 252.84125
 252.87490 252.64555 252.00220 250.94685 249.54950 247.70715 245.61281 243.44246
 241.23011 239.03076 236.84741 234.68306 232.53971 230.40337 228.42602 226.57967
 224.85932 223.32797 221.95462 220.72327 219.60192 218.55858 217.65923 216.79688
 216.03553 215.21218 214.30683 213.66748 213.11414 214.21124 216.80331 219.40659
 221.44566 223.03830 224.58572 226.23773 227.56128 227.99693 227.09727 225.34709
 224.72063 226.88928 230.99487 235.77486 240.54764 245.13007 249.43774 253.33241
 256.76184 259.95218 263.01450 265.79938 268.10410 269.96826 271.59534 273.21164
 274.79803 276.51953 278.07559 279.44611 280.63754 281.69907 282.67520 283.57126
 284.38809 285.13687 285.80112 286.74814
 366.78100 356.33209 345.76118 334.62427 323.02436 311.21545 299.08254 286.88263
 274.59172 262.48580 250.49189 239.78998 229.90907 221.01016 213.18925 206.18834
 200.01943 194.95452 191.53361 189.57270 188.60679 188.66788 189.49997 190.80506
 192.52715 194.61924 196.87933 199.23541 201.67750 204.15459 206.23968 208.07877
 209.70186 210.84395 211.07004 211.29513 211.22922 210.93131 210.56140 210.18849
 209.80258 209.50967 209.31476 209.17585 209.10094 209.42902 209.81211 210.19820
 210.98829 212.16338 213.41047 215.19056 217.11565 219.15574 221.24783 223.32792
 225.38501 227.46610 229.56019 231.66328 233.78937 235.95846 238.21155 240.57863
 243.19672 245.44481 247.44390 249.20599 250.62008 251.74017 252.55926 252.87235
 252.90644 252.67753 252.03462 250.97971 249.58280 247.74089 245.64698 243.47707
 241.26515 239.06624 236.88333 234.71942 232.57651 230.44060 228.46369 226.61778
 224.89787 223.36696 221.99405 220.76314 219.64223 218.59932 217.70041 216.83850
 216.07759 215.25468 214.34976 213.71085 213.15794 214.24860 216.82541 219.44511
 221.48531 223.07144 224.61015 226.24969 227.57422 228.02255 227.09584 225.33783
 224.69177 226.82170 230.96135 235.79182 240.56306 245.12457 249.42001 253.30998
 256.73441 259.91635 262.97321 265.75531 268.05908 269.92242 271.55338 273.17117
 274.72412 276.43991 277.98969 279.35629 280.54501 281.60452 282.57996 283.47421
 284.29147 285.04205 285.70322 286.65475
 366.78100 356.33248 345.76196 334.62544 323.02592 311.21741 299.08489 286.88537
 274.59485 262.48933 250.49581 239.79429 229.91377 221.01525 213.19474 206.19422
 200.02570 194.96118 191.54066 189.58014 188.61462 188.67610 189.50858 190.81407
 192.53655 194.62903 196.88951 199.24599 201.68847 204.16595 206.25143 208.09092
 209.71440 210.85688 211.08336 211.30884 211.24332 210.94580 210.57628 210.20376
 209.81825 209.52573 209.33121 209.19269 209.11817 209.44665 209.83013 210.21661
 211.00709 212.18258 213.43006 215.21054 217.13602 219.17650 221.26898 223.34946
 225.40694 227.48842 229.58291 231.68639 233.81287 235.98235 238.23583 240.60331
 243.22179 245.47027 247.46975 249.23224 250.64672 251.76720 252.58668 252.90016
 252.93464 252.70612 252.06360 251.00908 249.61257 247.77105 245.67753 243.50801
 241.29649 239.09797 236.91545 234.75193 232.60941 230.47390 228.49738 226.65186
 224.93234 223.40182 222.02930 220.79878 219.67826 218.63575 217.73723 216.87571
 216.11519 215.29267 214.38815 213.74963 213.19711 214.28172 216.84424 219.47466
 221.53123 223.10756 224.63000 226.24893 227.57135 228.05435 227.10257 225.32497
 224.66130 226.76505 230.94295 235.81345 240.57695 245.11707 249.40086 253.28651
 256.70657 259.88129 262.93341 265.71497 268.01886 269.88364 271.51843 273.13849
 274.73459 276.33920 277.87338 279.24442 280.43561 281.49716 282.47452 283.36896
 284.19028 284.93927 285.60257 286.54889
 366.78100 356.33287 345.76274 334.62661 323.02747 311.21934 299.08721 286.88808
 274.59795 262.49282 250.49968 239.79855 229.91842 221.02029 213.20016 206.20003
 200.03189 194.96776 191.54763 189.58750 188.62237 188.68424 189.51710 190.82297
 192.54584 194.63871 196.89958 199.25645 201.69932 204.17718 206.26305 208.10292
 209.72679 210.86966 211.09653 211.32239 211.25726 210.96013 210.59100 210.21887
 209.83374 209.54160 209.34747 209.20934 209.13521 209.46408 209.84795 210.23481
 211.02568 212.20155 213.44942 215.23029 217.15616 219.19703 221.28989 223.37076
 225.42863 227.51050 229.60537 231.70924 233.83610 236.00597 238.25984 240.62771
 243.24658 245.49545 247.49531 249.25818 250.67305 251.79392 252.61379 252.92766
 252.96252 252.73439 252.09226 251.03813 249.64200 247.80087 245.70774 243.53860
 241.32747 239.12934 236.94721 234.78408 232.64195 230.50681 228.53068 226.68555
 224.96642 223.43629 222.06416 220.83402 219.71389 218.67176 217.77363 216.91250
 216.15237 215.33023 214.42610 213.78797 213.23584 214.31392 216.86102 219.49940
 221.58154 223.14873 224.64412 226.23526 227.56506 228.07848 227.10707 225.32043
 224.63507 226.71860 230.93828 235.83505 240.58772 245.10895 249.38246 253.26459
 256.68039 259.84982 262.89807 265.67908 267.98688 269.85379 271.49054 273.10199
 274.63989 276.28732 277.79810 279.16068 280.34903 281.40909 282.38446 283.28000
 284.09912 284.85028 285.51370 286.45496
 366.78100 356.33327 345.76355 334.62782 323.02910 311.22137 299.08965 286.89092
 274.60119 262.49647 250.50374 239.80302 229.92329 221.02557 213.20584 206.20611
 200.03839 194.97466 191.55494 189.59521 188.63049 188.69276 189.52603 190.83231
 192.55558 194.64886 196.91013 199.26741 201.71068 204.18895 206.27523 208.11550
 209.73978 210.88305 211.11033 211.33660 211.27187 210.97515 210.60642 210.23470
 209.84997 209.55825 209.36452 209.22679 209.15307 209.48234 209.86662 210.25389
 211.04517 212.22144 213.46971 215.25099 217.17726 219.21854 221.31181 223.39309
 225.45136 227.53363 229.62891 231.73318 233.86046 236.03073 238.28501 240.65328
 243.27255 245.52183 247.52210 249.28538 250.70065 251.82193 252.64220 252.95647
 252.99175 252.76402 252.12230 251.06857 249.67285 247.83212 245.73939 243.57067
 241.35994 239.16222 236.98049 234.81777 232.67604 230.54131 228.56559 226.72086
 225.00214 223.47241 222.10069 220.87096 219.75123 218.70951 217.81178 216.95106
 216.19133 215.36961 214.46588 213.82815 213.27643 214.34650 216.87462 219.52049
 221.63136 223.19559 224.65340 226.21056 227.55936 228.08952 227.10587 225.32750
 224.61906 226.68240 230.94083 235.85513 240.59662 245.10271 249.36594 253.24323
 256.65707 259.82343 262.86700 265.64700 267.95844 269.82922 271.46634 273.07001
 274.62338 276.18225 277.70285 279.07156 280.26114 281.32089 282.30005 283.19531
 284.01459 284.76492 285.43387 286.37067
 366.78100 356.33368 345.76436 334.62904 323.03072 311.22340 299.09208 286.89376
 274.60444 262.50012 250.50780 239.80748 229.92816 221.03084 213.21152 206.21220
 200.04488 194.98156 191.56224 189.60292 188.63860 188.70128 189.53496 190.84164
 192.56532 194.65900 196.92068 199.27836 201.72204 204.20072 206.28740 208.12808
 209.75276 210.89644 211.12412 211.35080 211.28648 210.99016 210.62184 210.25052
 209.86620 209.57488 209.38156 209.24424 209.17092 209.50060 209.88528 210.27296
 211.06464 212.24132 213.49000 215.27168 217.19836 219.24004 221.33372 223.41540
 225.47408 227.55676 229.65244 231.75712 233.88480 236.05548 238.31016 240.67884
 243.29852 245.54820 247.54888 249.31256 250.72824 251.84992 252.67060 252.98528
 253.02096 252.79364 252.15232 251.09900 249.70368 247.86336 245.77104 243.60272
 241.39240 239.19508 237.01376 234.85144 232.71012 230.57580 228.60048 226.75616
 225.03784 223.50852 222.13720 220.90788 219.78856 218.74724 217.84992 216.98960
 216.23028 215.40896 214.50564 213.86832 213.31700 214.37881 216.88747 219.53711
 221.67995 223.24913 224.66151 226.18219 227.54802 228.08456 227.10031 225.34247
 224.61528 226.65785 230.94772 235.87547 240.60651 245.09792 249.35152 253.22578
 256.63791 259.80042 262.83893 265.61655 267.93250 269.80734 271.44608 273.04312
 274.58786 276.10580 277.62173 278.99121 280.18134 281.24249 282.21948 283.11661
 283.93579 284.68744 285.35422 286.28793
 366.78100 356.33408 345.76516 334.63024 323.03232 311.22540 299.09448 286.89656
 274.60764 262.50372 250.51180 239.81188 229.93296 221.03605 213.21713 206.21821
 200.05129 194.98837 191.56945 189.61053 188.64661 188.70969 189.54377 190.85085
 192.57493 194.66901 196.93109 199.28917 201.73325 204.21233 206.29941 208.14049
 209.76557 210.90965 211.13773 211.36481 211.30089 211.00497 210.63706 210.26614
 209.88222 209.59130 209.39838 209.26146 209.18854 209.51862 209.90370 210.29178
 211.08386 212.26094 213.51002 215.29210 217.21918 219.26126 221.35534 223.43742
 225.49650 227.57958 229.67566 231.78074 233.90882 236.07990 238.33499 240.70407
 243.32415 245.57423 247.57531 249.33939 250.75547 251.87755 252.69863 253.01371
 253.04979 252.82287 252.18195 251.12903 249.73411 247.89419 245.80227 243.63435
 241.42443 239.22751 237.04659 234.88467 232.74375 230.60983 228.63491 226.79100
 225.07308 223.54416 222.17324 220.94432 219.82540 218.78448 217.88756 217.02764
 216.26872 215.44780 214.54488 213.90796 213.35704 214.41107 216.90137 219.54665
 221.72629 223.30696 224.67088 226.15646 227.52657 228.06366 227.09047 225.36226
 224.62283 226.64203 230.95583 235.89807 240.62108 245.09633 249.34100 253.21002
 256.61954 259.77737 262.81055 265.58704 267.90744 269.78812 271.42938 273.01660
 274.53903 276.04263 277.55383 278.92239 280.11215 281.17319 282.14920 283.04669
 283.86816 284.61868 285.28711 286.21054
 366.78100 356.33446 345.76592 334.63138 323.03385 311.22731 299.09677 286.89923
 274.61069 262.50715 250.51561 239.81607 229.93754 221.04100 213.22246 206.22392
 200.05738 194.99484 191.57630 189.61776 188.65423 188.71769 189.55215 190.85961
 192.58407 194.67853 196.94099 199.29945 201.74392 204.22338 206.31084 208.15230
 209.77776 210.92222 211.15068 211.37814 211.31461 211.01907 210.65153 210.28099
 209.89745 209.60691 209.41437 209.27783 209.20530 209.53576 209.92122 210.30968
 211.10214 212.27960 213.52906 215.31152 217.23899 219.28145 221.37591 223.45837
 225.51783 227.60129 229.69775 231.80321 233.93168 236.10314 238.35860 240.72806
 243.34852 245.59898 247.60044 249.36490 250.78137 251.90383 252.72529 253.04075
 253.07721 252.85067 252.21013 251.15759 249.76306 247.92352 245.83198 243.66444
 241.45490 239.25836 237.07782 234.91628 232.77575 230.64221 228.66767 226.82413
 225.10659 223.57805 222.20751 220.97897 219.86044 218.81990 217.92336 217.06382
 216.30528 215.48474 214.58220 213.94567 213.39513 214.44273 216.91782 219.55219
 221.76920 223.36777 224.68535 226.13353 227.49129 228.02429 227.07266 225.39104
 224.64536 226.62917 230.96616 235.92711 240.63742 245.09833 249.33113 253.19522
 256.60114 259.75516 262.78375 265.55966 267.88596 269.77301 271.41718 272.99414
 274.49109 275.98450 277.49210 278.85947 280.04868 281.10837 282.08698 282.98315
 283.80606 284.55615 285.22382 286.14340
 366.78100 356.33482 345.76665 334.63247 323.03530 311.22912 299.09894 286.90177
 274.61359 262.51042 250.51924 239.82006 229.94189 221.04571 213.22754 206.22936
 200.06318 195.00101 191.58283 189.62466 188.66148 188.72530 189.56013 190.86795
 192.59278 194.68760 196.95042 199.30925 201.75407 204.23389 206.32172 208.16354
 209.78937 210.93419 211.16301 211.39084 211.32766 211.03249 210.66531 210.29513
 209.91196 209.62178 209.42961 209.29343 209.22125 209.55208 209.93790 210.32673
 211.11955 212.29737 213.54720 215.33002 217.25785 219.30067 221.39549 223.47832
 225.53814 227.62197 229.71879 231.82461 233.95344 236.12526 238.38109 240.75091
 243.37173 245.62256 247.62438 249.38921 250.80603 251.92885 252.75068 253.06650
 253.10333 252.87715 252.23697 251.18480 249.79062 247.95145 245.86027 243.69309
 241.48392 239.28774 237.10757 234.94639 232.80621 230.67304 228.69886 226.85568
 225.13851 223.61033 222.24016 221.01198 219.89380 218.85363 217.95745 217.09828
 216.34010 215.51992 214.61775 213.98157 213.43140 214.47304 216.93402 219.55716
 221.80553 223.42947 224.71117 226.11734 227.44547 227.96478 227.04291 225.42747
 224.68762 226.62485 230.98178 235.96074 240.65077 245.10159 249.32840 253.18007
 256.58191 259.73221 262.75482 265.53030 267.86505 269.76245 271.41101 272.98019
 274.45712 275.93005 277.43307 278.79822 279.98740 281.04782 282.02426 282.92090
 283.74249 284.49265 285.16013 286.06659
 366.78100 356.33507 345.76714 334.63321 323.03628 311.23035 299.10042 286.90349
 274.61556 262.51263 250.52169 239.82276 229.94483 221.04890 213.23097 206.23304
 200.06711 195.00518 191.58725 189.62932 188.66639 188.73046 189.56553 190.87360
 192.59867 194.69374 196.95681 199.31588 201.76095 204.24101 206.32908 208.17115
 209.79722 210.94229 211.17136 211.39943 211.33650 211.04157 210.67464 210.30471
 209.92178 209.63185 209.43992 209.30399 209.23206 209.56313 209.94920 210.33827
 211.13133 212.30940 213.55947 215.34254 217.27061 219.31368 221.40875 223.49182
 225.55189 227.63596 229.73303 231.83910 233.96817 236.14024 238.39631 240.76638
 243.38745 245.63852 247.64059 249.40566 250.82272 251.94579 252.76786 253.08393
 253.12100 252.89507 252.25514 251.20321 249.80928 247.97035 245.87942 243.71249
 241.50356 239.30763 237.12770 234.96677 232.82684 230.69391 228.71998 226.87704
 225.16011 223.63218 222.26225 221.03432 219.91639 218.87646 217.98053 217.12160
 216.36367 215.54374 214.64181 214.00588 213.45595 214.49727 216.95749 219.55492
 221.83640 223.49413 224.74480 226.10625 227.38947 227.88693 227.00076 225.45821
 224.74442 226.64049 230.99277 235.99332 240.67610 245.10852 249.32240 253.16505
 256.55997 259.70578 262.72186 265.49750 267.84479 269.75784 271.41159 272.97375
 274.43631 275.87814 277.37256 278.73804 279.92627 280.98611 281.96204 282.85828
 283.67908 284.42905 285.09341 285.98624
 366.78100 356.33529 345.76758 334.63386 323.03715 311.23144 299.10173 286.90502
 274.61731 262.51459 250.52388 239.82517 229.94746 221.05175 213.23403 206.23632
 200.07061 195.00890 191.59119 189.63347 188.67076 188.73505 189.57034 190.87863
 192.60392 194.69920 196.96249 199.32178 201.76707 204.24736 206.33564 208.17793
 209.80422 210.94951 211.17880 211.40708 211.34437 211.04966 210.68295 210.31324
 209.93053 209.64081 209.44910 209.31339 209.24168 209.57297 209.95925 210.34854
 211.14183 212.32012 213.57041 215.35369 217.28198 219.32527 221.42056 223.50385
 225.56414 227.64842 229.74571 231.85200 233.98129 236.15358 238.40986 240.78015
 243.40144 245.65273 247.65502 249.42031 250.83759 251.96088 252.78317 253.09946
 253.13675 252.91103 252.27132 251.21961 249.82590 247.98719 245.89647 243.72976
 241.52105 239.32534 237.14563 234.98492 232.84520 230.71249 228.73878 226.89607
 225.17936 223.65164 222.28193 221.05422 219.93651 218.89680 218.00108 217.14237
 216.38466 215.56495 214.66324 214.02753 213.47781 214.52019 216.98291 219.54979
 221.85989 223.56487 224.78204 226.09724 227.33173 227.79219 226.95139 225.49297
 224.80663 226.66420 230.99966 236.01950 240.70898 245.11943 249.31795 253.14905
 256.53885 259.67651 262.68466 265.45941 267.82047 269.75186 271.41284 272.96771
 274.41748 275.82889 277.31372 278.67789 279.86514 280.92551 281.90030 282.79703
 283.61551 284.36459 285.02753 285.90866
 366.78100 356.33580 345.76861 334.63541 323.03922 311.23402 299.10483 286.90863
 274.62144 262.51924 250.52904 239.83085 229.95365 221.05846 213.24126 206.24407
 200.07887 195.01768 191.60048 189.64329 188.68109 188.74589 189.58170 190.89050
 192.61631 194.71211 196.97592 199.33572 201.78153 204.26233 206.35113 208.19394
 209.82074 210.96655 211.19635 211.42516 211.36296 211.06877 210.70257 210.33338
 209.95118 209.66198 209.47079 209.33559 209.26440 209.59620 209.98301 210.37281
 211.16662 212.34542 213.59622 215.38003 217.30883 219.35264 221.44844 223.53225
 225.59305 227.67786 229.77566 231.88247 234.01227 236.18507 238.44188 240.81268
 243.43449 245.68629 247.68910 249.45490 250.87271 251.99651 252.81931 253.13612
 253.17392 252.94873 252.30953 251.25834 249.86514 248.02695 245.93675 243.77056
 241.56236 239.36716 237.18797 235.02777 232.88858 230.75638 228.78319 226.94099
 225.22480 223.69760 222.32840 221.10121 219.98401 218.94482 218.04962 217.19143
 216.43423 215.61504 214.71384 214.07864 213.52945 214.55829 216.98904 219.56033
 221.86951 223.61880 224.85648 226.10786 227.23566 227.66728 226.91202 225.53452
 224.85828 226.68333 231.01250 236.03896 240.73944 245.14618 249.32353 253.13058
 256.51132 259.64261 262.64291 265.41882 267.79459 269.74799 271.41647 272.95868
 274.39557 275.78461 277.25760 278.61914 279.80722 280.86435 281.83960 282.73416
 283.55502 284.30109 284.96072 285.83206
 366.78100 356.33616 345.76932 334.63648 323.04064 311.23580 299.10696 286.91112
 274.62429 262.52245 250.53261 239.83477 229.95793 221.06309 213.24625 206.24941
 200.08457 195.02373 191.60689 189.65005 188.68821 188.75337 189.58953 190.89869
 192.62486 194.72102 196.98518 199.34534 201.79150 204.27266 206.36182 208.20498
 209.83214 210.97830 211.20846 211.43762 211.37578 211.08194 210.71610 210.34726
 209.96543 209.67659 209.48575 209.35091 209.28007 209.61223 209.99939 210.38955
 211.18371 212.36287 213.61403 215.39819 217.32735 219.37151 221.46767 223.55183
 225.61300 227.69816 229.79632 231.90348 234.03364 236.20680 238.46396 240.83512
 243.45728 245.70944 247.71260 249.47876 250.89692 252.02108 252.84424 253.16141
 253.19957 252.97473 252.33589 251.28505 249.89221 248.05437 245.96453 243.79869
 241.59085 239.39601 237.21717 235.05733 232.91849 230.78665 228.81381 226.97198
 225.25614 223.72930 222.36046 221.13362 220.01678 218.97794 218.08310 217.22526
 216.46842 215.64958 214.74874 214.11390 213.56506 214.58781 217.00418 219.56441
 221.87520 223.67949 224.91493 226.10577 227.14966 227.55002 226.87260 225.57353
 224.90285 226.70715 231.02995 236.04541 240.77135 245.18724 249.33810 253.11383
 256.48004 259.60373 262.59845 265.37534 267.76700 269.74329 271.41882 272.94760
 274.37234 275.74789 277.20468 278.56314 279.75076 280.80844 281.78268 282.67648
 283.49503 284.23959 284.89993 285.75790
 366.78100 356.33646 345.76993 334.63739 323.04186 311.23732 299.10879 286.91325
 274.62672 262.52518 250.53565 239.83811 229.96158 221.06704 213.25051 206.25397
 200.08944 195.02890 191.61237 189.65583 188.69430 188.75976 189.59623 190.90569
 192.63216 194.72862 196.99309 199.35355 201.80002 204.28148 206.37095 208.21441
 209.84188 210.98834 211.21881 211.44827 211.38674 211.09320 210.72767 210.35913
 209.97760 209.68906 209.49853 209.36399 209.29346 209.62592 210.01339 210.40385
 211.19831 212.37778 213.62924 215.41371 217.34317 219.38764 221.48410 223.56857
 225.63003 227.71550 229.81396 231.92143 234.05189 236.22536 238.48282 240.85429
 243.47675 245.72922 247.73268 249.49915 250.91761 252.04208 252.86554 253.18301
 253.22147 252.99694 252.35840 251.30787 249.91533 248.07780 245.98826 243.82273
 241.61519 239.42066 237.24212 235.08259 232.94405 230.81252 228.83998 226.99845
 225.28291 223.75638 222.38784 221.16131 220.04477 219.00624 218.11170 217.25417
 216.49763 215.67909 214.77856 214.14402 213.59549 214.61295 217.01680 219.57738
 221.86693 223.72716 224.98907 226.11824 227.06697 227.42227 226.82361 225.60017
 224.94675 226.74422 231.03555 236.05437 240.81302 245.23068 249.35764 253.10115
 256.44867 259.56299 262.55035 265.32861 267.73761 269.73752 271.41861 272.93240
 274.34198 275.71317 277.15491 278.50983 279.69678 280.75482 281.72845 282.62289
 283.43973 284.18381 284.84174 285.69113
 366.78100 356.33672 345.77044 334.63816 323.04288 311.23861 299.11033 286.91505
 274.62877 262.52749 250.53821 239.84093 229.96465 221.07037 213.25410 206.25782
 200.09354 195.03326 191.61698 189.66070 188.69942 188.76514 189.60186 190.91159
 192.63831 194.73503 196.99975 199.36047 201.80719 204.28891 206.37863 208.22235
 209.85007 210.99680 211.22752 211.45724 211.39596 211.10268 210.73740 210.36912
 209.98784 209.69956 209.50929 209.37501 209.30473 209.63745 210.02517 210.41589
 211.21061 212.39033 213.64205 215.42678 217.35650 219.40122 221.49794 223.58266
 225.64438 227.73010 229.82882 231.93654 234.06727 236.24099 238.49871 240.87043
 243.49315 245.74587 247.74959 249.51631 250.93503 252.05976 252.88348 253.20120
 253.23992 253.01564 252.37736 251.32708 249.93480 248.09752 246.00825 243.84297
 241.63569 239.44141 237.26313 235.10385 232.96557 230.83429 228.86201 227.02073
 225.30546 223.77918 222.41090 221.18462 220.06834 219.03006 218.13578 217.27850
 216.52222 215.70395 214.80367 214.16939 213.62111 214.63457 217.02896 219.59146
 221.87160 223.75435 225.06900 226.13364 226.97406 227.29906 226.77721 225.60536
 224.98100 226.78596 231.03957 236.06885 240.85481 245.27319 249.38014 253.09264
 256.41904 259.52100 262.50098 265.27835 267.70117 269.72232 271.41232 272.91980
 274.32590 275.68784 277.10065 278.44870 279.63678 280.69351 281.66666 282.55972
 283.37827 284.12070 284.77689 285.61908
 366.78100 356.33689 345.77078 334.63867 323.04356 311.23945 299.11134 286.91624
 274.63013 262.52902 250.53991 239.84280 229.96669 221.07258 213.25647 206.26036
 200.09625 195.03614 191.62003 189.66392 188.70282 188.76871 189.60560 190.91549
 192.64238 194.73927 197.00416 199.36505 201.81194 204.29383 206.38372 208.22761
 209.85550 211.00240 211.23329 211.46318 211.40207 211.10896 210.74385 210.37574
 209.99463 209.70652 209.51641 209.38230 209.31219 209.64508 210.03298 210.42387
 211.21876 212.39865 213.65054 215.43543 217.36532 219.41021 221.50710 223.59199
 225.65388 227.73977 229.83866 231.94656 234.07745 236.25134 238.50923 240.88112
 243.50401 245.75690 247.76079 249.52768 250.94657 252.07146 252.89535 253.21324
 253.25214 253.02803 252.38992 251.33981 249.94770 248.11059 246.02148 243.85637
 241.64926 239.45515 237.27704 235.11793 232.97982 230.84872 228.87661 227.03550
 225.32039 223.79428 222.42617 221.20006 220.08395 219.04584 218.15173 217.29462
 216.53851 215.72040 214.82030 214.18619 213.63808 214.65042 217.04218 219.59326
 221.88599 223.76852 225.13399 226.14742 226.89175 227.19933 226.73000 225.58937
 225.00873 226.83162 231.04927 236.08232 240.89124 245.31381 249.40196 253.08565
 256.39078 259.48245 262.45670 265.23407 267.67072 269.70862 271.39459 272.88232
 274.27252 275.63995 277.05667 278.40598 279.59378 280.64996 281.62271 282.51474
 283.33112 284.07104 284.72131 285.56332
 366.78100 356.33722 345.77144 334.63966 323.04488 311.24110 299.11332 286.91854
 274.63276 262.53198 250.54320 239.84642 229.97064 221.07686 213.26108 206.26530
 200.10152 195.04174 191.62596 189.67018 188.70940 188.77562 189.61284 190.92306
 192.65028 194.74750 197.01272 199.37394 201.82116 204.30338 206.39360 208.23782
 209.86604 211.01326 211.24448 211.47470 211.41392 211.12114 210.75636 210.38858
 210.00780 209.72002 209.53024 209.39646 209.32668 209.65990 210.04812 210.43934
 211.23456 212.41478 213.66699 215.45221 217.38243 219.42765 221.52487 223.61009
 225.67231 227.75853 229.85775 231.96597 234.09719 236.27141 238.52963 240.90185
 243.52507 245.77829 247.78251 249.54973 250.96895 252.09417 252.91839 253.23661
 253.27583 253.05205 252.41427 251.36449 249.97271 248.13593 246.04715 243.88237
 241.67559 239.48181 237.30403 235.14525 233.00747 230.87669 228.90491 227.06413
 225.34935 223.82357 222.45579 221.23001 220.11423 219.07645 218.18267 217.32589
 216.57011 215.75233 214.85255 214.21877 213.67099 214.67805 217.05736 219.59079
 221.89769 223.77173 225.15979 226.14702 226.83429 227.13979 226.69090 225.55537
 225.01598 226.87062 231.06593 236.09834 240.92546 245.35863 249.43027 253.08109
 256.36072 259.43564 262.39966 265.17255 267.61591 269.67108 271.36771 272.85840
 274.25287 275.61743 276.98874 278.32764 279.51343 280.57022 281.54178 282.43311
 283.24844 283.98996 284.63739 285.47711
 366.78100 356.33784 345.77269 334.64153 323.04738 311.24422 299.11707 286.92291
 274.63776 262.53760 250.54945 239.85329 229.97814 221.08498 213.26982 206.27467
 200.11151 195.05236 191.63720 189.68205 188.72189 188.78874 189.62658 190.93743
 192.66527 194.76311 197.02896 199.39080 201.83865 204.32149 206.41234 208.25718
 209.88603 211.03387 211.26572 211.49656 211.43641 211.14425 210.78009 210.41294
 210.03278 209.74563 209.55647 209.42332 209.35416 209.68801 210.07685 210.46870
 211.26454 212.44539 213.69823 215.48407 217.41492 219.46076 221.55861 223.64445
 225.70730 227.79414 229.89399 232.00283 234.13468 236.30952 238.56836 240.94121
 243.56505 245.81890 247.82374 249.59159 251.01143 252.13728 252.96212 253.28097
 253.32081 253.09766 252.46050 251.41134 250.02019 248.18403 246.09588 243.93172
 241.72557 239.53241 237.35526 235.19710 233.05995 230.92979 228.95864 227.11848
 225.40432 223.87917 222.51201 221.28686 220.17170 219.13455 218.24139 217.38524
 216.63008 215.81293 214.91377 214.28061 213.73346 214.71959 217.04945 219.59613
 221.94008 223.78859 225.14502 226.09560 226.75493 227.09224 226.69046 225.53596
 225.00075 226.88908 231.08076 236.11247 240.95592 245.39487 249.46414 253.11372
 256.37976 259.43756 262.37589 265.12161 267.53943 269.55740 271.21436 272.69620
 274.13593 275.52347 276.96219 278.31616 279.50180 280.55850 281.52914 282.41879
 283.23495 283.97247 284.61569 285.45331
 366.78100 356.33800 345.77300 334.64200 323.04800 311.24501 299.11801 286.92401
 274.63901 262.53901 250.55101 239.85501 229.98001 221.08701 213.27202 206.27702
 200.11402 195.05502 191.64002 189.68502 188.72502 188.79202 189.63003 190.94103
 192.66903 194.76703 197.03303 199.39503 201.84303 204.32603 206.41703 208.26204
 209.89104 211.03904 211.27104 211.50204 211.44204 211.15004 210.78604 210.41904
 210.03905 209.75205 209.56305 209.43005 209.36105 209.69505 210.08405 210.47605
 211.27206 212.45306 213.70606 215.49206 217.42306 219.46906 221.56706 223.65306
 225.71606 227.80307 229.90307 232.01207 234.14407 236.31907 238.57807 240.95107
 243.57507 245.82907 247.83408 249.60208 251.02208 252.14808 252.97308 253.29208
 253.33208 253.10908 252.47209 251.42309 250.03209 248.19609 246.10809 243.94409
 241.73809 239.54509 237.36809 235.21010 233.07310 230.94310 228.97210 227.13210
 225.41810 223.89310 222.52610 221.30110 220.18611 219.14911 218.25611 217.40011
 216.64511 215.82811 214.92911 214.29611 213.74911 214.73621 217.06830 219.55013
 221.96202 223.78583 225.07211 226.03722 226.72884 227.07364 226.67026 225.56827
 225.03488 226.88167 231.06656 236.10947 240.94965 245.42990 249.51057 253.14819
 256.41559 259.45517 262.37817 265.12051 267.55005 269.57489 271.18344 272.57214
 274.06308 275.43442 276.80313 278.09180 279.24619 280.29459 281.25674 282.13657
 282.93152 283.64661 284.26526 285.05362
 366.78100 356.33773 345.77246 334.64119 323.04692 311.24365 299.11638 286.92211
 274.63684 262.53657 250.54830 239.85203 229.97676 221.08349 213.26822 206.27295
 200.10968 195.05040 191.63513 189.67986 188.71959 188.78632 189.62405 190.93478
 192.66251 194.76024 197.02597 199.38770 201.83543 204.31816 206.40889 208.25362
 209.88235 211.03008 211.26181 211.49254 211.43227 211.14000 210.77573 210.40846
 210.02819 209.74092 209.55165 209.41838 209.34911 209.68284 210.07157 210.46330
 211.25903 212.43976 213.69248 215.47821 217.40894 219.45467 221.55240 223.63813
 225.70086 227.78759 229.88732 231.99605 234.12778 236.30251 238.56124 240.93397
 243.55770 245.81143 247.81616 249.58389 251.00362 252.12935 252.95408 253.27281
 253.31254 253.08927 252.45200 251.40273 250.01146 248.17519 246.08692 243.92265
 241.71638 239.52311 237.34584 235.18756 233.05029 230.92002 228.94875 227.10848
 225.39421 223.86894 222.50167 221.27640 220.16113 219.12386 218.23059 217.37432
 216.61905 215.80178 214.90251 214.26924 213.72197 214.73035 217.12386 219.53850
 221.84659 223.64731 225.00285 226.04822 226.76682 227.07220 226.61067 225.66299
 225.00890 226.85339 231.01283 236.07101 240.91991 245.44196 249.50752 253.12372
 256.39111 259.43130 262.36642 265.11020 267.54663 269.59116 271.23700 272.59293
 274.03104 275.41974 276.71423 277.90640 279.01883 280.06921 281.04657 281.96671
 282.85263 283.64154 284.33072 285.20901
 366.78100 356.33809 345.77318 334.64227 323.04836 311.24546 299.11855 286.92464
 274.63973 262.53982 250.55191 239.85600 229.98109 221.08819 213.27328 206.27837
 200.11546 195.05655 191.64164 189.68673 188.72682 188.79391 189.63201 190.94310
 192.67119 194.76928 197.03537 199.39746 201.84555 204.32864 206.41974 208.26483
 209.89392 211.04201 211.27410 211.50519 211.44528 211.15337 210.78946 210.42256
 210.04265 209.75574 209.56683 209.43392 209.36501 209.69910 210.08819 210.48029
 211.27638 212.45747 213.71056 215.49665 217.42774 219.47383 221.57192 223.65801
 225.72111 227.80820 229.90829 232.01738 234.14947 236.32456 238.58365 240.95674
 243.58084 245.83493 247.84002 249.60811 251.02820 252.15429 252.97938 253.29847
 253.33856 253.11566 252.47875 251.42984 250.03893 248.20302 246.11511 243.95120
 241.74529 239.55239 237.37548 235.21757 233.08066 230.95075 228.97984 227.13993
 225.42602 223.90111 222.53421 221.30930 220.19439 219.15748 218.26457 217.40866
 216.65375 215.83684 214.93794 214.30503 213.75812 214.75554 217.13637 219.60011
 221.72540 223.52567 225.01572 226.05583 226.74857 227.04881 226.60042 225.68602
 224.99155 226.83658 231.02187 236.04782 240.84012 245.40251 249.48280 253.07083
 256.32196 259.36368 262.31659 265.07867 267.55301 269.65512 271.37170 272.73209
 274.14200 275.45697 276.68350 277.83542 278.98517 280.05200 281.05856 282.03979
 282.92233 283.70822 284.39478 285.26968
 366.78100 356.33829 345.77359 334.64288 323.04918 311.24647 299.11977 286.92606
 274.64136 262.54165 250.55395 239.85824 229.98354 221.09083 213.27613 206.28142
 200.11872 195.06001 191.64531 189.69060 188.73089 188.79819 189.63648 190.94778
 192.67607 194.77437 197.04066 199.40296 201.85125 204.33455 206.42584 208.27114
 209.90043 211.04873 211.28102 211.51232 211.45261 211.16090 210.79720 210.43049
 210.05079 209.76408 209.57538 209.44267 209.37397 209.70826 210.09756 210.48985
 211.28615 212.46744 213.72074 215.50703 217.43833 219.48462 221.58292 223.66921
 225.73250 227.81980 229.92009 232.02939 234.16168 236.33698 238.59627 240.96957
 243.59386 245.84816 247.85345 249.62175 251.04204 252.16834 252.99363 253.31293
 253.35322 253.13052 252.49381 251.44510 250.05440 248.21869 246.13099 243.96728
 241.76158 239.56887 237.39217 235.23446 233.09776 230.96805 228.99735 227.15764
 225.44394 223.91923 222.55253 221.32782 220.21312 219.17641 218.28370 217.42800
 216.67329 215.85659 214.95788 214.32518 213.77847 214.77568 217.15199 219.58568
 221.77142 223.53645 224.97147 226.00896 226.69974 226.99667 226.60297 225.59438
 225.11197 226.94225 231.05922 236.05424 240.81645 245.33363 249.45956 253.08365
 256.33368 259.34531 262.27405 265.00766 267.46957 269.61313 271.40265 272.85764
 274.25461 275.54828 276.73532 277.84381 278.97220 280.03397 281.02954 282.00998
 282.90366 283.69949 284.39471 285.28073
 366.78100 356.33849 345.77398 334.64347 323.04996 311.24745 299.12094 286.92743
 274.64293 262.54342 250.55591 239.86040 229.98589 221.09338 213.27887 206.28436
 200.12185 195.06334 191.64883 189.69432 188.73481 188.80230 189.64079 190.95228
 192.68078 194.77927 197.04576 199.40825 201.85674 204.34023 206.43172 208.27721
 209.90670 211.05519 211.28768 211.51917 211.45966 211.16815 210.80464 210.43814
 210.05863 209.77212 209.58361 209.45110 209.38259 209.71708 210.10657 210.49906
 211.29555 212.47704 213.73053 215.51702 217.44851 219.49500 221.59350 223.67999
 225.74348 227.83097 229.93146 232.04095 234.17344 236.34893 238.60842 240.98191
 243.60640 245.86089 247.86638 249.63487 251.05536 252.18185 253.00735 253.32684
 253.36733 253.14482 252.50831 251.45980 250.06929 248.23378 246.14627 243.98276
 241.77725 239.58474 237.40823 235.25072 233.11421 230.98471 229.01420 227.17469
 225.46118 223.93667 222.57016 221.34565 220.23114 219.19463 218.30212 217.44661
 216.69210 215.87559 214.97708 214.34457 213.79807 214.79376 217.16078 219.55441
 221.86143 223.56244 224.88054 225.95888 226.69724 226.92752 226.56389 225.52371
 225.25247 227.09077 231.10783 236.04597 240.82996 245.27655 249.40892 253.07300
 256.34552 259.37054 262.27469 264.96106 267.37372 269.50787 271.32745 272.87057
 274.28964 275.59476 276.78287 277.88907 279.06259 280.12698 281.13028 282.13931
 283.10934 283.97318 284.72778 285.68942
 366.78100 356.33859 345.77417 334.64376 323.05034 311.24793 299.12152 286.92810
 274.64369 262.54427 250.55686 239.86145 229.98703 221.09462 213.28020 206.28579
 200.12338 195.06496 191.65055 189.69613 188.73672 188.80431 189.64289 190.95448
 192.68306 194.78165 197.04824 199.41082 201.85941 204.34299 206.43458 208.28017
 209.90975 211.05834 211.29092 211.52251 211.46310 211.17168 210.80827 210.44185
 210.06244 209.77603 209.58761 209.45520 209.38678 209.72137 210.11096 210.50354
 211.30013 212.48171 213.73530 215.52189 217.45347 219.50006 221.59865 223.68523
 225.74882 227.83640 229.93699 232.04658 234.17916 236.35475 238.61433 240.98792
 243.61251 245.86709 247.87268 249.64126 251.06185 252.18844 253.01402 253.33361
 253.37419 253.15178 252.51537 251.46695 250.07654 248.24112 246.15371 243.99030
 241.78488 239.59247 237.41605 235.25864 233.12223 230.99281 229.02240 227.18298
 225.46957 223.94516 222.57874 221.35433 220.23991 219.20350 218.31109 217.45567
 216.70126 215.88484 214.98643 214.35402 213.80760 214.80435 217.16811 219.51936
 221.92990 223.60811 224.76865 225.92812 226.70074 226.88322 226.47137 225.47128
 225.40808 227.22993 231.17090 236.02321 240.80956 245.23618 249.37009 253.07535
 256.38510 259.42218 262.31146 264.95166 267.31015 269.39233 271.18405 272.78241
 274.24350 275.59454 276.80865 277.96207 279.11945 280.18567 281.18466 282.13522
 283.06256 283.88837 284.60977 285.52914
 366.78100 356.33832 345.77363 334.64295 323.04927 311.24659 299.11990 286.92622
 274.64154 262.54185 250.55417 239.85849 229.98380 221.09112 213.27644 206.28176
 200.11907 195.06039 191.64571 189.69102 188.73134 188.79866 189.63697 190.94829
 192.67661 194.77493 197.04124 199.40356 201.85188 204.33519 206.42651 208.27183
 209.90114 211.04946 211.28178 211.51310 211.45341 211.16173 210.79805 210.43136
 210.05168 209.76500 209.57631 209.44363 209.37495 209.70927 210.09858 210.49090
 211.28722 212.46853 213.72185 215.50817 217.43948 219.48580 221.58412 223.67044
 225.73375 227.82107 229.92139 232.03070 234.16302 236.33834 238.59765 240.97097
 243.59529 245.84961 247.85492 249.62324 251.04356 252.16987 252.99519 253.31451
 253.35482 253.13214 252.49546 251.44678 250.05609 248.22041 246.13273 243.96904
 241.76336 239.57068 237.39399 235.23631 233.09963 230.96995 228.99926 227.15958
 225.44590 223.92121 222.55453 221.32985 220.21516 219.17848 218.28580 217.43012
 216.67543 215.85875 214.96007 214.32738 213.78070 214.79689 217.20978 219.51654
 221.87532 223.57104 224.69008 225.90968 226.70663 226.78770 226.41614 225.50291
 225.41884 227.31158 231.18730 236.00029 240.79039 245.21779 249.27911 253.08304
 256.40891 259.46603 262.35880 264.98062 267.30661 269.34155 271.05759 272.58823
 274.08420 275.44357 276.69415 277.97314 279.16541 280.24036 281.24896 282.22217
 283.12390 283.92691 284.62839 285.52237
 366.78100 356.33919 345.77538 334.64557 323.05276 311.25094 299.12513 286.93232
 274.64851 262.54970 250.56289 239.86808 229.99427 221.10246 213.28864 206.29483
 200.13302 195.07521 191.66140 189.70759 188.74878 188.81697 189.65616 190.96834
 192.69753 194.79672 197.06391 199.42710 201.87629 204.36048 206.45267 208.29886
 209.92904 211.07823 211.31142 211.54361 211.48480 211.19399 210.83118 210.46537
 210.08656 209.80074 209.61293 209.48112 209.41331 209.74850 210.13869 210.53188
 211.32907 212.51126 213.76544 215.55263 217.48482 219.53201 221.63120 223.71839
 225.78258 227.87077 229.97196 232.08214 234.21533 236.39152 238.65171 241.02590
 243.65109 245.90628 247.91247 249.68166 251.10284 252.23003 253.05622 253.37641
 253.41760 253.19579 252.55998 251.51217 250.12236 248.28754 246.20073 244.03792
 241.83311 239.64130 237.46549 235.30868 233.17287 231.04406 229.07424 227.23543
 225.52262 223.99881 222.63300 221.40919 220.29538 219.25957 218.36776 217.51294
 216.75913 215.94332 215.04551 214.41370 213.86789 214.84372 217.17880 219.60893
 221.71858 223.38312 224.73805 225.93495 226.67493 226.65321 226.24957 225.71286
 225.63046 227.15971 231.22025 235.99403 240.78058 245.23381 249.32069 253.06007
 256.34705 259.44849 262.38409 265.00778 267.33429 269.36768 271.01727 272.49698
 273.91422 275.24680 276.56207 277.84851 279.04626 280.13367 281.19266 282.18939
 283.08585 283.88412 284.58151 285.47025
 366.78100 356.33964 345.77629 334.64693 323.05457 311.25321 299.12786 286.93550
 274.65214 262.55379 250.56743 239.87307 229.99972 221.10836 213.29500 206.30164
 200.14029 195.08293 191.66957 189.71622 188.75786 188.82650 189.66615 190.97879
 192.70843 194.80807 197.07572 199.43936 201.88900 204.37365 206.46629 208.31293
 209.94358 211.09322 211.32686 211.55950 211.50115 211.21079 210.84843 210.48308
 210.10472 209.81936 209.63201 209.50065 209.43329 209.76893 210.15958 210.55322
 211.35086 212.53351 213.78815 215.57579 217.50844 219.55608 221.65572 223.74336
 225.80801 227.89665 229.99829 232.10894 234.24258 236.41922 238.67987 241.05451
 243.68015 245.93579 247.94244 249.71208 251.13372 252.26137 253.08801 253.40865
 253.45030 253.22894 252.59358 251.54622 250.15687 248.32251 246.23615 244.07380
 241.86944 239.67808 237.50273 235.34637 233.21101 231.08265 229.11330 227.27494
 225.56258 224.03923 222.67387 221.45051 220.33716 219.30180 218.41044 217.55608
 216.80273 215.98737 215.09001 214.45866 213.91330 214.87337 217.18529 219.63889
 221.65579 223.41411 224.85416 225.87627 226.51587 226.60442 226.18243 225.84248
 225.72952 227.21957 231.28517 236.01503 240.78165 245.26076 249.37453 253.08888
 256.35217 259.50705 262.40723 264.97150 267.29456 269.33429 271.01306 272.45486
 273.86682 275.16400 276.49716 277.86514 279.10327 280.28818 281.46341 282.52808
 283.48560 284.33832 285.08319 286.03250
 366.78100 356.33962 345.77625 334.64687 323.05450 311.25312 299.12774 286.93537
 274.65199 262.55362 250.56724 239.87286 229.99949 221.10811 213.29473 206.30136
 200.13998 195.08261 191.66923 189.71585 188.75748 188.82610 189.66573 190.97835
 192.70797 194.80760 197.07522 199.43885 201.88847 204.37309 206.46572 208.31234
 209.94297 211.09259 211.32621 211.55884 211.50046 211.21009 210.84771 210.48233
 210.10396 209.81858 209.63120 209.49983 209.43245 209.76808 210.15870 210.55232
 211.34995 212.53257 213.78720 215.57482 217.50744 219.55507 221.65469 223.74232
 225.80694 227.89556 229.99719 232.10781 234.24144 236.41806 238.67868 241.05331
 243.67893 245.93455 247.94118 249.71080 251.13243 252.26005 253.08667 253.40730
 253.44892 253.22755 252.59217 251.54479 250.15542 248.32104 246.23467 244.07229
 241.86791 239.67654 237.50116 235.34479 233.20941 231.08103 229.11166 227.27328
 225.56091 224.03753 222.67215 221.44878 220.33540 219.30002 218.40865 217.55427
 216.80090 215.98552 215.08814 214.45677 213.91139 214.87924 217.21172 219.64444
 221.60135 223.46056 224.89799 225.77538 226.30714 226.50694 226.18224 225.80585
 225.69189 227.39857 231.35970 236.04236 240.78822 245.28839 249.41754 253.13307
 256.43988 259.56543 262.42050 264.90610 267.22354 269.28360 270.99533 272.44055
 273.83414 275.10309 276.57681 277.96292 279.20834 280.40039 281.54495 282.58185
 283.51443 284.34491 285.07040 285.99493
 366.78100 356.34013 345.77727 334.64840 323.05653 311.25567 299.13080 286.93893
 274.65607 262.55820 250.57233 239.87847 230.00560 221.11473 213.30187 206.30900
 200.14813 195.09127 191.67840 189.72553 188.76767 188.83680 189.67693 190.99006
 192.72020 194.82033 197.08846 199.45260 201.90273 204.38786 206.48100 208.32813
 209.95926 211.10940 211.34353 211.57666 211.51880 211.22893 210.86706 210.50220
 210.12433 209.83946 209.65260 209.52173 209.45486 209.79100 210.18213 210.57626
 211.37440 212.55753 213.81266 215.60080 217.53393 219.58206 221.68220 223.77033
 225.83546 227.92460 230.02673 232.13786 234.27200 236.44913 238.71026 241.08540
 243.71153 245.96766 247.97480 249.74493 251.16706 252.29519 253.12233 253.44346
 253.48559 253.26473 252.62986 251.58299 250.19413 248.36026 246.27439 244.11253
 241.90866 239.71779 237.54293 235.38706 233.25219 231.12433 229.15546 227.31759
 225.60573 224.08286 222.71799 221.49513 220.38226 219.34739 218.45653 217.60266
 216.84979 216.03493 215.13806 214.50719 213.96233 214.90837 217.18425 219.67215
 221.59084 223.34358 224.82390 225.72632 226.20711 226.30852 226.09477 225.71690
 225.65799 227.53636 231.43684 236.06088 240.80069 245.31995 249.46010 253.18936
 256.54977 259.64432 262.45499 264.88828 267.14252 269.20526 270.94974 272.42361
 273.80417 275.16068 276.61121 277.99673 279.22894 280.36395 281.46414 282.46631
 283.36768 284.17035 284.87155 285.76514
 366.78100 356.34049 345.77798 334.64946 323.05795 311.25744 299.13293 286.94142
 274.65891 262.56139 250.57588 239.88237 230.00986 221.11935 213.30684 206.31432
 200.15381 195.09730 191.68479 189.73228 188.77477 188.84425 189.68474 190.99823
 192.72872 194.82921 197.09770 199.46218 201.91267 204.39816 206.49165 208.33914
 209.97063 211.12111 211.35560 211.58909 211.53158 211.24207 210.88056 210.51604
 210.13853 209.85402 209.66751 209.53700 209.47049 209.80697 210.19846 210.59295
 211.39144 212.57493 213.83042 215.61890 217.55239 219.60088 221.70137 223.78986
 225.85535 227.94483 230.04732 232.15881 234.29330 236.47079 238.73228 241.10776
 243.73425 245.99074 247.99823 249.76872 251.19121 252.31969 253.14718 253.46867
 253.51116 253.29065 252.65614 251.60962 250.22111 248.38760 246.30209 244.14058
 241.93707 239.74655 237.57204 235.41653 233.28202 231.15451 229.18600 227.34848
 225.63697 224.11446 222.74995 221.52744 220.41493 219.38041 218.48990 217.63639
 216.88388 216.06937 215.17286 214.54234 213.99783 214.93227 217.17448 219.66571
 221.62585 223.28839 224.71043 225.64365 226.13014 226.16597 225.81947 225.75977
 225.80630 227.56383 231.55132 236.09758 240.82455 245.35873 249.50798 253.25824
 256.65292 259.75186 262.53729 264.92700 267.09195 269.12225 270.85712 272.33566
 273.74356 275.11472 276.56879 277.94717 279.16718 280.27777 281.34305 282.33383
 283.22495 284.01849 284.71170 285.59512
 366.78100 356.34117 345.77934 334.65151 323.06067 311.26084 299.13701 286.94618
 274.66435 262.56752 250.58269 239.88986 230.01802 221.12819 213.31636 206.32453
 200.16470 195.10887 191.69704 189.74521 188.78837 188.85854 189.69971 191.01388
 192.74505 194.84622 197.11539 199.48056 201.93172 204.41789 206.51206 208.36023
 209.99240 211.14357 211.37874 211.61291 211.55607 211.26724 210.90641 210.54258
 210.16575 209.88192 209.69609 209.56626 209.50042 209.83759 210.22976 210.62493
 211.42410 212.60827 213.86444 215.65360 217.58777 219.63694 221.73811 223.82728
 225.89345 227.98362 230.08679 232.19895 234.33412 236.51229 238.77446 241.15063
 243.77780 246.03497 248.04314 249.81430 251.23747 252.36664 253.19481 253.51698
 253.56015 253.34032 252.70649 251.66065 250.27282 248.43999 246.35516 244.19433
 241.99150 239.80167 237.62784 235.47300 233.33917 231.21234 229.24451 227.40768
 225.69685 224.17502 222.81118 221.58935 220.47752 219.44369 218.55386 217.70103
 216.94920 216.13537 215.23953 214.60970 214.06587 214.97348 217.15984 219.68675
 221.58696 223.30424 224.68423 225.54018 225.97627 226.05023 225.59589 225.73108
 225.95213 227.70149 231.63841 236.16315 240.87251 245.40839 249.56894 253.33679
 256.74548 259.84088 262.61185 264.97626 267.09763 269.09500 270.81741 272.29706
 273.71609 275.10831 276.53656 277.91531 279.13403 280.25092 281.33032 282.32047
 283.21100 284.00403 284.69681 285.57965
 366.78100 356.34204 345.78109 334.65413 323.06417 311.26522 299.14226 286.95230
 274.67135 262.57539 250.59144 239.89948 230.02852 221.13957 213.32861 206.33765
 200.17870 195.12374 191.71278 189.76183 188.80587 188.87691 189.71896 191.03400
 192.76604 194.86809 197.13813 199.50417 201.95622 204.44326 206.53831 208.38735
 210.02039 211.17244 211.40848 211.64352 211.58757 211.29961 210.93965 210.57670
 210.20074 209.91778 209.73283 209.60387 209.53891 209.87696 210.27000 210.66604
 211.46609 212.65113 213.90818 215.69822 217.63326 219.68331 221.78535 223.87539
 225.94244 228.03348 230.13752 232.25057 234.38661 236.56565 238.82870 241.20574
 243.83378 246.09183 248.10087 249.87292 251.29696 252.42700 253.25605 253.57909
 253.62313 253.40418 252.77122 251.72626 250.33931 248.50735 246.42339 244.26344
 242.06148 239.87252 237.69957 235.54561 233.41265 231.28670 229.31974 227.48379
 225.77383 224.25287 222.88992 221.66896 220.55800 219.52505 218.63609 217.78413
 217.03318 216.22022 215.32526 214.69631 214.15335 215.02197 217.11987 219.73663
 221.54544 223.25108 224.67226 225.46106 225.81177 225.80562 225.51723 225.53201
 225.95049 227.87514 231.73116 236.24062 240.94351 245.48349 249.65393 253.43565
 256.84607 259.91617 262.64438 264.97989 267.08923 269.09348 270.83295 272.32562
 273.75571 275.14575 276.54306 277.92120 279.14032 280.25259 281.32761 282.32031
 283.21313 284.00818 284.70273 285.58783
 366.78100 356.34232 345.78165 334.65497 323.06530 311.26662 299.14394 286.95427
 274.67359 262.57792 250.59424 239.90257 230.03189 221.14321 213.33254 206.34186
 200.18319 195.12851 191.71783 189.76716 188.81148 188.88281 189.72513 191.04045
 192.77278 194.87510 197.14543 199.51175 201.96408 204.45140 206.54672 208.39605
 210.02937 211.18170 211.41802 211.65334 211.59767 211.30999 210.95032 210.58764
 210.21196 209.92929 209.74461 209.61594 209.55126 209.88959 210.28291 210.67923
 211.47956 212.66488 213.92221 215.71253 217.64785 219.69818 221.80050 223.89083
 225.95815 228.04947 230.15380 232.26712 234.40345 236.58277 238.84610 241.22342
 243.85174 246.11007 248.11939 249.89172 251.31604 252.44636 253.27569 253.59901
 253.64334 253.42466 252.79198 251.74731 250.36063 248.52896 246.44528 244.28561
 242.08393 239.89525 237.72258 235.56890 233.43623 231.31055 229.34387 227.50820
 225.79852 224.27785 222.91517 221.69449 220.58382 219.55114 218.66247 217.81079
 217.06012 216.24744 215.35276 214.72409 214.18141 215.04150 217.10480 219.73567
 221.64156 223.24084 224.62155 225.37451 225.68741 225.51340 225.41174 225.32521
 225.96216 228.01224 231.86955 236.34532 241.03920 245.58087 249.75046 253.54355
 256.95749 260.00439 262.67996 264.97839 267.05801 269.03546 270.78592 272.30917
 273.76804 275.17194 276.53561 277.90863 279.10992 280.21335 281.25177 282.22717
 283.10443 283.88565 284.56808 285.43781
 366.78100 356.34209 345.78119 334.65428 323.06437 311.26547 299.14256 286.95265
 274.67175 262.57584 250.59193 239.90003 230.02912 221.14021 213.32931 206.33840
 200.17949 195.12459 191.71368 189.76277 188.80687 188.87796 189.72005 191.03514
 192.76724 194.86933 197.13942 199.50552 201.95761 204.44470 206.53980 208.38889
 210.02198 211.17408 211.41017 211.64526 211.58936 211.30145 210.94154 210.57864
 210.20273 209.91982 209.73492 209.60601 209.54110 209.87920 210.27229 210.66838
 211.46848 212.65357 213.91066 215.70076 217.63585 219.68594 221.78804 223.87813
 225.94522 228.03632 230.14041 232.25350 234.38960 236.56869 238.83178 241.20887
 243.83697 246.09506 248.10415 249.87625 251.30034 252.43043 253.25953 253.58262
 253.62671 253.40781 252.77490 251.72999 250.34309 248.51118 246.42727 244.26737
 242.06546 239.87655 237.70365 235.54974 233.41683 231.29093 229.32402 227.48811
 225.77821 224.25730 222.89439 221.67349 220.56258 219.52967 218.64077 217.78886
 217.03795 216.22505 215.33014 214.70123 214.15833 215.03644 217.13066 219.69012
 221.72124 223.27252 224.54399 225.21637 225.56207 225.30978 225.16968 225.21048
 226.00409 228.16951 232.03813 236.49030 241.16905 245.69269 249.84369 253.64043
 257.05817 260.09079 262.73831 265.01273 267.06329 268.99942 270.70624 272.21249
 273.68225 275.11301 276.54474 277.91437 279.12814 280.22119 281.23148 282.17026
 283.03235 283.80005 284.47070 285.32535
 366.78100 356.34166 345.78032 334.65299 323.06265 311.26331 299.13997 286.94963
 274.66829 262.57196 250.58762 239.89528 230.02394 221.13460 213.32326 206.33193
 200.17259 195.11725 191.70591 189.75457 188.79823 188.86890 189.71056 191.02522
 192.75688 194.85854 197.12821 199.49387 201.94553 204.43219 206.52685 208.37551
 210.00818 211.15984 211.39550 211.63016 211.57382 211.28548 210.92515 210.56181
 210.18547 209.90213 209.71679 209.58745 209.52212 209.85978 210.25244 210.64810
 211.44776 212.63242 213.88909 215.67875 217.61341 219.66307 221.76473 223.85440
 225.92106 228.01172 230.11538 232.22804 234.36370 236.54237 238.80503 241.18169
 243.80935 246.06701 248.07567 249.84734 251.27100 252.40066 253.22932 253.55198
 253.59564 253.37631 252.74297 251.69763 250.31029 248.47795 246.39362 244.23328
 242.03094 239.84160 237.66826 235.51392 233.38059 231.25425 229.28691 227.45057
 225.74023 224.21889 222.85556 221.63422 220.52288 219.48954 218.60020 217.74786
 216.99653 216.18319 215.28785 214.65851 214.11517 215.02130 217.18138 219.64497
 221.71700 223.28862 224.43384 225.07463 225.43150 225.09816 224.91287 225.06982
 226.05779 228.25536 232.17458 236.65544 241.32230 245.82076 249.94284 253.73254
 257.14600 260.15994 262.79132 265.05798 267.09802 269.01132 270.67877 272.15912
 273.60983 275.03967 276.51846 277.89771 279.11618 280.21042 281.21936 282.16522
 283.02618 283.79288 284.46265 285.31619
 366.78100 356.34153 345.78006 334.65260 323.06213 311.26266 299.13919 286.94872
 274.66726 262.57079 250.58632 239.89385 230.02238 221.13291 213.32145 206.32998
 200.17051 195.11504 191.70357 189.75211 188.79564 188.86617 189.70770 191.02223
 192.75377 194.85530 197.12483 199.49036 201.94189 204.42842 206.52296 208.37149
 210.00402 211.15555 211.39108 211.62562 211.56915 211.28068 210.92021 210.55674
 210.18028 209.89681 209.71134 209.58187 209.51640 209.85393 210.24647 210.64200
 211.44153 212.62606 213.88259 215.67213 217.60666 219.65619 221.75772 223.84725
 225.91379 228.00432 230.10785 232.22038 234.35591 236.53444 238.79698 241.17351
 243.80104 246.05857 248.06710 249.83864 251.26217 252.39170 253.22023 253.54276
 253.58630 253.36683 252.73336 251.68789 250.30042 248.46795 246.38349 244.22302
 242.02055 239.83108 237.65761 235.50315 233.36968 231.24321 229.27574 227.43927
 225.72881 224.20734 222.84387 221.62240 220.51093 219.47746 218.58800 217.73553
 216.98406 216.17059 215.27512 214.64566 214.10219 215.02213 217.22430 219.61955
 221.68999 223.13176 224.31429 225.10085 225.26494 224.78688 224.67422 224.88943
 226.06691 228.39572 232.33746 236.83989 241.48413 245.95085 250.05748 253.83235
 257.22861 260.21835 262.83981 265.10931 267.15045 269.04684 270.67685 272.14154
 273.56412 274.96332 276.48526 277.86649 279.09045 280.20245 281.25406 282.22598
 283.10010 283.87854 284.55853 285.42514
 366.78100 356.34152 345.78004 334.65257 323.06209 311.26261 299.13913 286.94865
 274.66718 262.57070 250.58622 239.89374 230.02226 221.13279 213.32131 206.32983
 200.17035 195.11487 191.70340 189.75192 188.79544 188.86596 189.70748 191.02201
 192.75353 194.85505 197.12457 199.49009 201.94161 204.42814 206.52266 208.37118
 210.00370 211.15522 211.39075 211.62527 211.56879 211.28031 210.91983 210.55636
 210.17988 209.89640 209.71092 209.58144 209.51597 209.85349 210.24601 210.64153
 211.44105 212.62558 213.88210 215.67162 217.60614 219.65566 221.75719 223.84671
 225.91323 228.00375 230.10727 232.21980 234.35532 236.53384 238.79636 241.17288
 243.80041 246.05793 248.06645 249.83797 251.26149 252.39102 253.21954 253.54206
 253.58558 253.36610 252.73263 251.68715 250.29967 248.46719 246.38271 244.22224
 242.01976 239.83028 237.65680 235.50232 233.36884 231.24237 229.27489 227.43841
 225.72793 224.20645 222.84298 221.62150 220.51002 219.47654 218.58706 217.73459
 216.98311 216.16963 215.27415 214.64467 214.10120 215.03175 217.27289 219.59048
 221.69853 223.16551 224.38586 225.07072 224.99522 224.51787 224.41220 224.84515
 226.11908 228.61772 232.53308 237.04834 241.66580 246.09315 250.18115 253.94595
 257.32465 260.28641 262.88193 265.15930 267.22842 269.09702 270.69498 272.12793
 273.52390 274.97275 276.52597 277.92636 279.18442 280.40131 281.54520 282.58148
 283.51352 284.34348 285.06854 285.99252
 366.78100 356.34163 345.78027 334.65290 323.06253 311.26316 299.13980 286.94943
 274.66806 262.57170 250.58733 239.89496 230.02359 221.13423 213.32286 206.33149
 200.17213 195.11676 191.70539 189.75402 188.79766 188.86829 189.70992 191.02456
 192.75619 194.85782 197.12746 199.49309 201.94472 204.43135 206.52599 208.37462
 210.00725 211.15889 211.39452 211.62915 211.57278 211.28442 210.92405 210.56068
 210.18432 209.90095 209.71558 209.58621 209.52085 209.85848 210.25111 210.64675
 211.44638 212.63101 213.88764 215.67728 217.61191 219.66154 221.76318 223.85281
 225.91944 228.01007 230.11371 232.22634 234.36197 236.54061 238.80324 241.17987
 243.80751 246.06514 248.07377 249.84540 251.26904 252.39867 253.22730 253.54994
 253.59357 253.37420 252.74083 251.69547 250.30810 248.47573 246.39137 244.23100
 242.02863 239.83926 237.66590 235.51153 233.37816 231.25180 229.28443 227.44806
 225.73769 224.21633 222.85296 221.63159 220.52023 219.48686 218.59749 217.74512
 216.99376 216.18039 215.28502 214.65566 214.11229 215.04437 217.29634 219.59135
 221.66170 223.22983 224.42552 224.88539 224.78650 224.33762 224.13596 224.71501
 226.10677 228.74425 232.72400 237.26097 241.86346 246.25665 250.31363 254.07072
 257.43768 260.36572 262.90393 265.17822 267.29608 269.19565 270.77213 272.18182
 273.53772 275.05569 276.62262 278.03873 279.34665 280.60239 281.74808 282.78601
 283.71948 284.55075 285.27695 286.20239
 366.78100 356.34158 345.78016 334.65274 323.06232 311.26290 299.13948 286.94905
 274.66763 262.57121 250.58679 239.89437 230.02295 221.13353 213.32211 206.33069
 200.17127 195.11585 191.70443 189.75300 188.79658 188.86716 189.70874 191.02332
 192.75490 194.85648 197.12606 199.49164 201.94322 204.42980 206.52438 208.37295
 210.00553 211.15711 211.39269 211.62727 211.57085 211.28243 210.92201 210.55859
 210.18217 209.89875 209.71333 209.58390 209.51848 209.85606 210.24864 210.64422
 211.44380 212.62838 213.88496 215.67454 217.60912 219.65870 221.76028 223.84986
 225.91643 228.00701 230.11059 232.22317 234.35875 236.53733 238.79991 241.17649
 243.80407 246.06165 248.07023 249.84181 251.26538 252.39496 253.22354 253.54612
 253.58970 253.37028 252.73686 251.69144 250.30402 248.47160 246.38718 244.22676
 242.02433 239.83491 237.66149 235.50707 233.37365 231.24723 229.27981 227.44339
 225.73297 224.21155 222.84813 221.62671 220.51528 219.48186 218.59244 217.74002
 216.98860 216.17518 215.27976 214.65034 214.10692 215.04349 217.29944 219.59781
 221.64516 223.14273 224.32959 224.73312 224.66827 224.18341 223.75838 224.42619
 226.11084 228.84450 232.91640 237.47372 242.05783 246.41800 250.44456 254.18098
 257.51831 260.42450 262.97449 265.23206 267.33899 269.25348 270.83951 272.22693
 273.55832 275.03619 276.59540 277.99902 279.26651 280.46518 281.56894 282.56885
 283.46817 284.26904 284.96863 285.86020
 366.78100 356.34194 345.78088 334.65382 323.06377 311.26471 299.14165 286.95159
 274.67053 262.57447 250.59042 239.89836 230.02730 221.13824 213.32718 206.33612
 200.17707 195.12201 191.71095 189.75989 188.80383 188.87477 189.71671 191.03166
 192.76360 194.86554 197.13548 199.50142 201.95336 204.44031 206.53525 208.38419
 210.01713 211.16907 211.40501 211.63996 211.58390 211.29584 210.93578 210.57272
 210.19666 209.91360 209.72855 209.59949 209.53443 209.87237 210.26531 210.66125
 211.46120 212.64614 213.90308 215.69302 217.62796 219.67790 221.77985 223.86979
 225.93673 228.02767 230.13161 232.24455 234.38049 236.55944 238.82238 241.19932
 243.82726 246.08520 248.09414 249.86609 251.29003 252.41997 253.24891 253.57185
 253.61579 253.39674 252.76368 251.71862 250.33156 248.49950 246.41544 244.25538
 242.05333 239.86427 237.69121 235.53715 233.40409 231.27803 229.31098 227.47492
 225.76486 224.24380 222.88074 221.65968 220.54863 219.51557 218.62651 217.77445
 217.02339 216.21033 215.31527 214.68622 214.14316 215.06636 217.29459 219.60609
 221.66983 223.06313 224.23680 224.71529 224.47713 223.90079 223.59436 224.19652
 225.88773 228.99348 233.15906 237.69366 242.25517 246.58255 250.57043 254.28598
 257.59540 260.46896 263.04050 265.38638 267.48801 269.34055 270.84290 272.20374
 273.53513 274.95450 276.50500 277.90472 279.18332 280.40076 281.51584 282.52603
 283.43460 284.24368 284.95047 285.85120
 366.78100 356.34275 345.78250 334.65626 323.06701 311.26876 299.14651 286.95726
 274.67701 262.58177 250.59852 239.90727 230.03702 221.14877 213.33853 206.34828
 200.19003 195.13578 191.72553 189.77528 188.82004 188.89179 189.73454 191.05029
 192.78304 194.88580 197.15655 199.52330 201.97605 204.46380 206.55955 208.40931
 210.04306 211.19581 211.43256 211.66831 211.61307 211.32582 210.96657 210.60432
 210.22907 209.94682 209.76258 209.63433 209.57008 209.90883 210.30258 210.69934
 211.50009 212.68584 213.94359 215.73434 217.67009 219.72085 221.82360 223.91435
 225.98210 228.07385 230.17861 232.29236 234.42911 236.60886 238.87261 241.25036
 243.87912 246.13787 248.14762 249.92037 251.34512 252.47588 253.30563 253.62938
 253.67413 253.45588 252.82363 251.77939 250.39314 248.56189 246.47864 244.31939
 242.11815 239.92990 237.75765 235.60440 233.47215 231.34690 229.38066 227.54541
 225.83616 224.31591 222.95366 221.73342 220.62317 219.59092 218.70267 217.85142
 217.10117 216.28893 215.39468 214.76643 214.22418 215.11830 217.30209 219.61192
 221.67677 223.14857 224.26167 224.59842 224.25175 223.65630 223.37689 224.04184
 225.84024 229.13802 233.38731 237.92775 242.46553 246.75455 250.67764 254.39601
 257.68625 260.53586 263.12796 265.54483 267.69958 269.46988 270.85593 272.13702
 273.51590 275.06113 276.66388 278.17572 279.59045 280.84210 281.98407 283.01862
 283.94907 284.77762 285.50143 286.42386
 366.78100 356.34278 345.78256 334.65634 323.06712 311.26889 299.14667 286.95745
 274.67723 262.58201 250.59879 239.90757 230.03735 221.14912 213.33890 206.34868
 200.19046 195.13624 191.72602 189.77580 188.82058 188.89236 189.73513 191.05091
 192.78369 194.88647 197.15725 199.52403 201.97681 204.46459 206.56036 208.41014
 210.04392 211.19670 211.43348 211.66926 211.61404 211.32682 210.96760 210.60537
 210.23015 209.94793 209.76371 209.63549 209.57127 209.91005 210.30383 210.70060
 211.50138 212.68716 213.94494 215.73572 217.67150 219.72228 221.82506 223.91584
 225.98361 228.07539 230.18017 232.29395 234.43073 236.61051 238.87429 241.25207
 243.88085 246.13962 248.14940 249.92218 251.34696 252.47774 253.30752 253.63130
 253.67608 253.45785 252.82563 251.78141 250.39519 248.56397 246.48075 244.32153
 242.12031 239.93209 237.75986 235.60664 233.47442 231.34920 229.38298 227.54776
 225.83854 224.31832 222.95609 221.73587 220.62565 219.59343 218.70521 217.85399
 217.10377 216.29155 215.39733 214.76910 214.22688 215.13455 217.35620 219.58041
 221.67966 223.28249 224.26672 224.36891 224.01889 223.45724 223.20805 223.82127
 225.67494 229.19482 233.60155 238.17410 242.70851 246.94493 250.82025 254.49600
 257.77289 260.60696 263.18896 265.68350 267.91565 269.70087 270.96036 272.12405
 273.69177 275.14810 276.85147 278.43860 279.81213 281.02737 282.13608 283.14050
 284.04385 284.84833 285.55106 286.44666
 366.78100 356.34307 345.78313 334.65720 323.06827 311.27033 299.14840 286.95946
 274.67953 262.58460 250.60166 239.91073 230.04080 221.15286 213.34293 206.35299
 200.19506 195.14113 191.73119 189.78126 188.82633 188.89839 189.74146 191.05753
 192.79059 194.89366 197.16472 199.53179 201.98486 204.47292 206.56899 208.41906
 210.05312 211.20619 211.44325 211.67932 211.62439 211.33745 210.97852 210.61659
 210.24165 209.95972 209.77578 209.64785 209.58392 209.92298 210.31705 210.71412
 211.51518 212.70125 213.95932 215.75038 217.68645 219.73751 221.84058 223.93165
 225.99971 228.09178 230.19685 232.31091 234.44798 236.62804 238.89211 241.27018
 243.89924 246.15831 248.16838 249.94144 251.36651 252.49758 253.32764 253.65171
 253.69677 253.47884 252.84691 251.80297 250.41704 248.58611 246.50317 244.34424
 242.14330 239.95537 237.78344 235.63050 233.49857 231.37364 229.40770 227.57277
 225.86383 224.34390 222.98197 221.76203 220.65210 219.62017 218.73223 217.88130
 217.13137 216.31943 215.42550 214.79756 214.25563 215.15688 217.37045 219.57565
 221.63661 223.34177 224.23199 224.14273 223.77567 223.23679 223.03165 223.60435
 225.57050 229.26144 233.77599 238.38235 242.90044 247.11339 250.98225 254.64285
 257.90726 260.72116 263.28391 265.78134 268.12500 270.04758 271.34598 272.41263
 273.82095 275.51071 277.28397 278.91324 280.32324 281.57074 282.70886 283.73996
 284.66730 285.49310 286.21451 287.13385
 366.78100 356.34400 345.78500 334.66000 323.07200 311.27500 299.15399 286.96599
 274.68699 262.59299 250.61099 239.92099 230.05199 221.16499 213.35599 206.36699
 200.20999 195.15698 191.74798 189.79898 188.84498 188.91798 189.76198 191.07898
 192.81298 194.91698 197.18898 199.55698 202.01097 204.49997 206.59697 208.44797
 210.08297 211.23697 211.47497 211.71197 211.65797 211.37197 211.01396 210.65296
 210.27896 209.99796 209.81496 209.68796 209.62496 209.96496 210.35996 210.75796
 211.55996 212.74695 214.00595 215.79795 217.73495 219.78695 221.89095 223.98295
 226.05195 228.14495 230.25095 232.36595 234.50394 236.68494 238.94994 241.32894
 243.95894 246.21894 248.22994 250.00394 251.42994 252.56194 253.39294 253.71793
 253.76393 253.54693 252.91593 251.87293 250.48793 248.65793 246.57593 244.41793
 242.21793 240.03093 237.85992 235.70792 233.57692 231.45292 229.48792 227.65392
 225.94592 224.42692 223.06592 221.84692 220.73791 219.70691 218.81991 217.96991
 217.22091 216.40991 215.51691 214.88991 214.34891 215.19945 217.30879 219.63383
 221.52501 223.25832 224.16859 223.99892 223.50644 222.99524 222.69209 223.53145
 225.63199 229.43097 233.97800 238.59518 243.08890 247.28528 251.12486 254.77751
 258.03329 260.84702 263.42706 265.92160 268.23315 270.21274 271.73050 272.54388
 273.80002 275.53894 277.14734 278.72998 280.14450 281.39600 282.53781 283.57220
 284.50253 285.33099 286.05472 286.97702
 366.78100 356.34401 345.78501 334.66002 323.07202 311.27503 299.15403 286.96604
 274.68705 262.59305 250.61106 239.92106 230.05207 221.16507 213.35608 206.36708
 200.21009 195.15710 191.74810 189.79911 188.84511 188.91812 189.76212 191.07913
 192.81314 194.91714 197.18915 199.55715 202.01116 204.50016 206.59717 208.44817
 210.08318 211.23719 211.47519 211.71220 211.65820 211.37221 211.01421 210.65322
 210.27923 209.99823 209.81524 209.68824 209.62525 209.96525 210.36026 210.75826
 211.56027 212.74728 214.00628 215.79829 217.73529 219.78730 221.89130 223.98331
 226.05232 228.14532 230.25133 232.36633 234.50434 236.68534 238.95035 241.32936
 243.95936 246.21937 248.23037 250.00438 251.43038 252.56239 253.39339 253.71840
 253.76441 253.54741 252.91642 251.87342 250.48843 248.65843 246.57644 244.41845
 242.21845 240.03146 237.86046 235.70847 233.57747 231.45348 229.48848 227.65449
 225.94650 224.42750 223.06651 221.84751 220.73852 219.70752 218.82053 217.97054
 217.22154 216.41055 215.51755 214.89056 214.34956 215.19687 217.27382 219.67821
 221.44693 223.06143 224.03474 223.91765 223.31618 222.67276 222.30966 223.40221
 225.58897 229.56020 234.19048 238.80458 243.27080 247.43460 251.27644 254.91747
 258.15662 260.95428 263.56180 266.09262 268.42883 270.37036 271.82297 272.76712
 273.91187 275.27954 276.82806 278.22049 279.49509 280.66357 281.72964 282.69540
 283.56403 284.33752 285.01324 285.87439
 366.78100 356.34397 345.78495 334.65992 323.07190 311.27487 299.15385 286.96582
 274.68680 262.59277 250.61075 239.92072 230.05170 221.16467 213.35565 206.36662
 200.20960 195.15657 191.74755 189.79852 188.84450 188.91747 189.76145 191.07842
 192.81240 194.91637 197.18835 199.55632 202.01030 204.49927 206.59625 208.44722
 210.08220 211.23617 211.47415 211.71112 211.65710 211.37107 211.01305 210.65202
 210.27800 209.99697 209.81395 209.68692 209.62390 209.96387 210.35885 210.75682
 211.55880 212.74577 214.00475 215.79672 217.73370 219.78567 221.88965 223.98162
 226.05060 228.14357 230.24955 232.36452 234.50250 236.68347 238.94845 241.32742
 243.95740 246.21737 248.22835 250.00232 251.42830 252.56027 253.39125 253.71622
 253.76220 253.54517 252.91415 251.87112 250.48610 248.65607 246.57405 244.41602
 242.21600 240.02897 237.85795 235.70592 233.57490 231.45087 229.48585 227.65182
 225.94380 224.42477 223.06375 221.84472 220.73570 219.70467 218.81765 217.96762
 217.21860 216.40757 215.51455 214.88752 214.34650 215.19402 217.24548 219.71532
 221.43517 222.79488 223.89890 223.83543 223.14775 222.31610 221.91161 223.21889
 225.51277 229.65230 234.39664 239.00513 243.44417 247.59227 251.42256 255.03874
 258.25815 261.07175 263.68475 266.24390 268.61618 270.55588 271.99805 273.07297
 274.01129 275.17355 276.33795 277.46490 278.66199 279.79453 280.87863 281.86075
 282.74408 283.53067 284.21783 285.09354
 366.78100 356.34410 345.78521 334.66031 323.07242 311.27552 299.15463 286.96673
 274.68783 262.59394 250.61204 239.92215 230.05325 221.16635 213.35746 206.36856
 200.21167 195.15877 191.74988 189.80098 188.84708 188.92019 189.76429 191.08140
 192.81550 194.91961 197.19171 199.55981 202.01392 204.50302 206.60013 208.45123
 210.08633 211.24044 211.47854 211.71565 211.66175 211.37586 211.01796 210.65706
 210.28317 210.00227 209.81938 209.69248 209.62959 209.96969 210.36479 210.76290
 211.56500 212.75211 214.01121 215.80331 217.74042 219.79252 221.89663 223.98873
 226.05784 228.15094 230.25704 232.37215 234.51025 236.69136 238.95646 241.33557
 243.96567 246.22577 248.23688 250.01098 251.43709 252.56919 253.40029 253.72540
 253.77150 253.55461 252.92371 251.88082 250.49592 248.66602 246.58413 244.42623
 242.22634 240.03944 237.86855 235.71665 233.58575 231.46186 229.49696 227.66307
 225.95517 224.43627 223.07538 221.85648 220.74759 219.71669 218.82980 217.97990
 217.23100 216.42011 215.52721 214.90032 214.35942 215.20135 217.21306 219.73792
 221.52927 222.69598 223.81911 223.66759 222.92548 221.99046 221.61394 223.04001
 225.48482 229.75638 234.59782 239.23010 243.62119 247.74806 251.55299 255.15924
 258.39087 261.21399 263.85107 266.40283 268.75568 270.72577 272.19974 273.16095
 274.16122 275.34164 276.33582 277.35126 278.25974 279.05273 279.90213 280.80167
 281.61633 282.34183 282.97559 283.78323
 366.78100 356.34362 345.78424 334.65887 323.07049 311.27311 299.15173 286.96336
 274.68398 262.58960 250.60722 239.91685 230.04747 221.16009 213.35071 206.36134
 200.20396 195.15058 191.74120 189.79183 188.83745 188.91007 189.75369 191.07032
 192.80394 194.90756 197.17918 199.54681 202.00043 204.48905 206.58567 208.43630
 210.07092 211.22454 211.46216 211.69879 211.64441 211.35803 210.99965 210.63828
 210.26390 209.98252 209.79914 209.67177 209.60839 209.94801 210.34263 210.74026
 211.54188 212.72850 213.98712 215.77875 217.71537 219.76699 221.87061 223.96224
 226.03086 228.12348 230.22910 232.34373 234.48135 236.66197 238.92659 241.30522
 243.93484 246.19446 248.20508 249.97871 251.40433 252.53595 253.36657 253.69120
 253.73682 253.51944 252.88806 251.84469 250.45931 248.62893 246.54655 244.38818
 242.18780 240.00042 237.82904 235.67667 233.54529 231.42091 229.45553 227.62116
 225.91278 224.39340 223.03202 221.81265 220.70327 219.67189 218.78451 217.93414
 217.18476 216.37338 215.48000 214.85263 214.31125 215.17984 217.23198 219.69528
 221.62791 222.80341 223.71407 223.47498 222.67747 221.68614 221.41719 222.97066
 225.65518 229.91620 234.76517 239.46600 243.84424 247.90315 251.67648 255.30829
 258.53537 261.35504 264.00046 266.55176 268.89648 270.83899 272.33167 273.27255
 274.34149 275.40009 276.27417 277.28595 278.26611 279.00037 279.59244 280.14603
 280.82309 281.51749 282.12405 282.89709
 366.78100 356.34286 345.78272 334.65658 323.06744 311.26930 299.14716 286.95801
 274.67787 262.58273 250.59959 239.90845 230.03831 221.15017 213.34003 206.34989
 200.19175 195.13761 191.72747 189.77733 188.82218 188.89404 189.73690 191.05276
 192.78562 194.88848 197.15934 199.52620 201.97906 204.46692 206.56278 208.41264
 210.04650 211.19936 211.43621 211.67207 211.61693 211.32979 210.97065 210.60851
 210.23337 209.95123 209.76709 209.63895 209.57481 209.91367 210.30753 210.70438
 211.50524 212.69110 213.94896 215.73982 217.67568 219.72654 221.82940 223.92026
 225.98812 228.07998 230.18484 232.29870 234.43555 236.61541 238.87927 241.25713
 243.88599 246.14485 248.15471 249.92757 251.35243 252.48329 253.31315 253.63701
 253.68187 253.46372 252.83158 251.78744 250.40130 248.57016 246.48702 244.32788
 242.12674 239.93860 237.76646 235.61332 233.48118 231.35604 229.38989 227.55475
 225.84561 224.32547 222.96333 221.74319 220.63305 219.60091 218.71277 217.86163
 217.11149 216.29935 215.40521 214.77707 214.23492 215.14363 217.29054 219.63538
 221.68018 222.91602 223.59630 223.30746 222.42674 221.38348 221.21326 222.88055
 225.74062 230.06737 234.91850 239.66718 244.07286 248.02875 251.80173 255.44414
 258.65994 261.48819 264.13147 266.70352 269.05527 271.00507 272.44321 273.33414
 274.51611 275.59805 276.44431 277.30090 278.24841 278.92911 279.43085 279.91641
 280.39963 280.97141 281.57236 282.34033
 366.78100 356.34271 345.78241 334.65612 323.06683 311.26853 299.14624 286.95695
 274.67665 262.58136 250.59807 239.90677 230.03648 221.14819 213.33789 206.34760
 200.18931 195.13501 191.72472 189.77443 188.81913 188.89084 189.73355 191.04925
 192.78196 194.88467 197.15537 199.52208 201.97479 204.46249 206.55820 208.40791
 210.04161 211.19432 211.43103 211.66673 211.61144 211.32415 210.96485 210.60256
 210.22727 209.94497 209.76068 209.63239 209.56809 209.90680 210.30051 210.69721
 211.49792 212.68363 213.94133 215.73204 217.66775 219.71845 221.82116 223.91187
 225.97957 228.07128 230.17599 232.28969 234.42640 236.60611 238.86981 241.24752
 243.87623 246.13493 248.14464 249.91735 251.34205 252.47276 253.30247 253.62617
 253.67088 253.45259 252.82029 251.77600 250.38971 248.55841 246.47512 244.31583
 242.11453 239.92624 237.75395 235.60065 233.46836 231.34307 229.37677 227.54148
 225.83219 224.31189 222.94960 221.72931 220.61901 219.58672 218.69843 217.84713
 217.09684 216.28455 215.39025 214.76196 214.21967 215.13916 217.31155 219.61574
 221.67197 222.95612 223.52602 223.17322 222.18326 221.04819 220.94498 222.78052
 225.79529 230.20975 235.09276 239.85466 244.30418 248.19212 251.92249 255.56050
 258.77646 261.61780 264.26761 266.83551 269.16238 271.07175 272.49072 273.44324
 274.69757 275.78937 276.67664 277.51749 278.33954 278.96591 279.39880 279.75360
 280.22803 280.70056 281.25665 282.03729
 366.78100 356.34322 345.78344 334.65766 323.06888 311.27110 299.14932 286.96054
 274.68076 262.58598 250.60320 239.91242 230.04264 221.15486 213.34508 206.35530
 200.19752 195.14374 191.73396 189.78418 188.82940 188.90162 189.74484 191.06106
 192.79428 194.89750 197.16872 199.53594 201.98916 204.47738 206.57360 208.42382
 210.05804 211.21126 211.44848 211.68470 211.62992 211.34314 210.98436 210.62258
 210.24780 209.96602 209.78224 209.65446 209.59068 209.92990 210.32412 210.72134
 211.52256 212.70878 213.96700 215.75822 217.69444 219.74566 221.84888 223.94010
 226.00832 228.10054 230.20576 232.31998 234.45720 236.63742 238.90164 241.27986
 243.90908 246.16830 248.17852 249.95174 251.37696 252.50818 253.33840 253.66262
 253.70784 253.49006 252.85828 251.81450 250.42872 248.59794 246.51516 244.35638
 242.15560 239.96782 237.79604 235.64326 233.51148 231.38670 229.42092 227.58614
 225.87736 224.35758 222.99580 221.77602 220.66624 219.63446 218.74668 217.89590
 217.14612 216.33434 215.44056 214.81278 214.27100 215.17072 217.29639 219.62755
 221.63654 222.91701 223.49490 223.08406 221.96744 220.70633 220.61287 222.67604
 225.86174 230.34419 235.26549 240.04324 244.49504 248.41518 252.02731 255.67189
 258.89679 261.74957 264.39771 266.95160 269.23871 271.13141 272.55185 273.60980
 274.85645 275.98752 276.92114 277.71344 278.44174 279.03726 279.52817 279.88159
 280.21188 280.63812 281.19504 281.98083
 366.78100 356.34373 345.78446 334.65919 323.07092 311.27365 299.15238 286.96411
 274.68484 262.59057 250.60829 239.91802 230.04875 221.16148 213.35221 206.36294
 200.20567 195.15240 191.74313 189.79386 188.83959 188.91232 189.75605 191.07278
 192.80651 194.91024 197.18197 199.54970 202.00342 204.49215 206.58888 208.43961
 210.07434 211.22807 211.46580 211.70253 211.64826 211.36199 211.00372 210.64245
 210.26818 209.98691 209.80364 209.67637 209.61310 209.95283 210.34755 210.74528
 211.54701 212.73374 213.99247 215.78420 217.72093 219.77266 221.87639 223.96812
 226.03685 228.12958 230.23531 232.35004 234.48777 236.66850 238.93323 241.31196
 243.94168 246.20141 248.21214 249.98587 251.41160 252.54333 253.37406 253.69879
 253.74452 253.52725 252.89598 251.85271 250.46744 248.63717 246.55490 244.39663
 242.19636 240.00909 237.83782 235.68554 233.55427 231.43000 229.46473 227.63046
 225.92219 224.40292 223.04165 221.82238 220.71311 219.68184 218.79457 217.94430
 217.19503 216.38376 215.49049 214.86322 214.32195 215.20255 217.28307 219.63068
 221.61180 222.85449 223.43486 223.01926 221.83102 220.39111 220.21838 222.58397
 225.93417 230.47050 235.44110 240.23329 244.67485 248.63913 252.16853 255.74919
 259.00784 261.86447 264.50732 267.05054 269.33008 271.15714 272.64777 273.75894
 275.02902 276.17560 277.15466 277.98032 278.60464 279.18988 279.72458 280.09552
 280.35812 280.75388 281.30740 282.09503
 366.78100 356.34394 345.78489 334.65983 323.07177 311.27472 299.15366 286.96561
 274.68655 262.59249 250.61044 239.92038 230.05132 221.16427 213.35521 206.36616
 200.20910 195.15604 191.74699 189.79793 188.84387 188.91682 189.76076 191.07770
 192.81165 194.91559 197.18754 199.55548 202.00942 204.49837 206.59531 208.44625
 210.08120 211.23514 211.47309 211.71003 211.65597 211.36992 211.01186 210.65080
 210.27675 209.99569 209.81263 209.68558 209.62252 209.96247 210.35741 210.75535
 211.55730 212.74424 214.00318 215.79513 217.73207 219.78402 221.88796 223.97990
 226.04885 228.14179 230.24773 232.36268 234.50062 236.68156 238.94651 241.32545
 243.95540 246.21534 248.22628 250.00023 251.42617 252.55811 253.38906 253.71400
 253.75995 253.54289 252.91183 251.86878 250.48372 248.65366 246.57161 244.41355
 242.21349 240.02644 237.85538 235.70333 233.57227 231.44821 229.48316 227.64910
 225.94104 224.42199 223.06093 221.84188 220.73282 219.70176 218.81471 217.96465
 217.21559 216.40454 215.51148 214.88442 214.34337 215.21887 217.28732 219.61850
 221.59821 222.82819 223.31474 222.92651 221.71738 219.96019 219.93324 222.54942
 225.98589 230.60272 235.61516 240.41338 244.84171 248.83029 252.37532 255.81400
 259.08603 261.95758 264.60101 267.12823 269.39981 271.22794 272.71017 273.88461
 275.18683 276.35263 277.38120 278.25058 278.90518 279.42126 279.99426 280.44940
 280.74585 281.04688 281.53558 282.32156
 366.78100 356.34412 345.78524 334.66036 323.07248 311.27560 299.15472 286.96684
 274.68796 262.59408 250.61219 239.92231 230.05343 221.16655 213.35767 206.36879
 200.21191 195.15903 191.75015 189.80127 188.84739 188.92051 189.76463 191.08175
 192.81587 194.91999 197.19211 199.56023 202.01435 204.50346 206.60058 208.45170
 210.08682 211.24094 211.47906 211.71618 211.66230 211.37642 211.01854 210.65766
 210.28378 210.00290 209.82002 209.69314 209.63026 209.97038 210.36550 210.76361
 211.56573 212.75285 214.01197 215.80409 217.74121 219.79333 221.89745 223.98957
 226.05869 228.15181 230.25793 232.37305 234.51117 236.69229 238.95741 241.33653
 243.96665 246.22677 248.23788 250.01200 251.43812 252.57024 253.40136 253.72648
 253.77260 253.55572 252.92484 251.88196 250.49708 248.66720 246.58532 244.42744
 242.22756 240.04068 237.86980 235.71792 233.58704 231.46315 229.49827 227.66439
 225.95651 224.43763 223.07675 221.85787 220.74899 219.71811 218.83123 217.98135
 217.23247 216.42159 215.52871 214.90183 214.36095 215.23248 217.29156 219.60460
 221.56902 222.82721 223.21353 222.76819 221.57411 219.65646 219.61885 222.41008
 226.05128 230.76176 235.78430 240.59267 245.01808 249.02838 252.63399 255.95503
 259.13995 262.03131 264.66888 267.16394 269.42267 271.17218 272.73166 274.00354
 275.38525 276.56897 277.62079 278.51175 279.18085 279.72519 280.26474 280.81821
 281.21286 281.58902 281.99106 282.70575
 366.78100 356.34437 345.78574 334.66112 323.07349 311.27686 299.15623 286.96860
 274.68997 262.59635 250.61472 239.92509 230.05646 221.16983 213.36121 206.37258
 200.21595 195.16332 191.75469 189.80607 188.85244 188.92581 189.77018 191.08755
 192.82192 194.92630 197.19867 199.56704 202.02141 204.51078 206.60816 208.45953
 210.09490 211.24927 211.48764 211.72501 211.67139 211.38576 211.02813 210.66750
 210.29387 210.01325 209.83062 209.70399 209.64136 209.98173 210.37710 210.77548
 211.57785 212.76522 214.02459 215.81696 217.75434 219.80671 221.91108 224.00345
 226.07282 228.16620 230.27257 232.38794 234.52631 236.70768 238.97305 241.35243
 243.98280 246.24317 248.25454 250.02891 251.45529 252.58766 253.41903 253.74440
 253.79077 253.57414 252.94352 251.90089 250.51626 248.68663 246.60500 244.44738
 242.24775 240.06112 237.89049 235.73886 233.60824 231.48461 229.51998 227.68635
 225.97872 224.46009 223.09947 221.88084 220.77221 219.74158 218.85495 218.00533
 217.25670 216.44607 215.55344 214.92681 214.38618 215.24966 217.28970 219.59962
 221.52878 222.81511 223.14566 222.56676 221.37254 219.45102 219.35591 222.26057
 226.09665 230.90410 235.93802 240.75269 245.17879 249.22391 252.87535 256.17828
 259.20267 262.04553 264.67465 267.17813 269.43124 271.20978 272.67572 274.12686
 275.61810 276.80109 277.79172 278.70187 279.39066 279.94769 280.53046 281.16769
 281.65659 282.03696 282.36826 282.96219
 366.78100 356.34458 345.78617 334.66175 323.07433 311.27791 299.15750 286.97008
 274.69166 262.59824 250.61683 239.92741 230.05899 221.17258 213.36416 206.37574
 200.21932 195.16691 191.75849 189.81007 188.85665 188.93024 189.77482 191.09240
 192.82699 194.93157 197.20415 199.57273 202.02732 204.51690 206.61448 208.46606
 210.10165 211.25623 211.49481 211.73240 211.67898 211.39356 211.03614 210.67573
 210.30231 210.02189 209.83947 209.71306 209.65064 209.99122 210.38681 210.78539
 211.58797 212.77555 214.03514 215.82772 217.76530 219.81788 221.92247 224.01505
 226.08463 228.17822 230.28480 232.40038 234.53896 236.72055 238.98613 241.36571
 243.99629 246.25688 248.26846 250.04304 251.46963 252.60221 253.43379 253.75937
 253.80596 253.58954 252.95912 251.91670 250.53229 248.70287 246.62145 244.46404
 242.26462 240.07820 237.90778 235.75637 233.62595 231.50253 229.53811 227.70470
 225.99728 224.47886 223.11845 221.90003 220.79161 219.76119 218.87478 218.02536
 217.27694 216.46652 215.57411 214.94769 214.40727 215.26292 217.28450 219.59943
 221.48999 222.78651 223.10278 222.37267 221.11475 219.25856 219.12849 222.12738
 226.15053 231.04063 236.07655 240.89732 245.32700 249.40178 253.11020 256.42474
 259.34576 262.04886 264.72028 267.20074 269.40814 271.16003 272.71030 274.29971
 275.84045 277.00687 278.00372 278.88660 279.57196 280.10251 280.58774 281.14676
 281.71878 282.19916 282.53046 283.00641
 366.78100 356.34476 345.78652 334.66228 323.07504 311.27880 299.15856 286.97132
 274.69308 262.59984 250.61860 239.92936 230.06112 221.17488 213.36664 206.37840
 200.22216 195.16992 191.76168 189.81344 188.86020 188.93396 189.77872 191.09648
 192.83124 194.93600 197.20876 199.57752 202.03229 204.52205 206.61981 208.47157
 210.10733 211.26209 211.50085 211.73861 211.68537 211.40013 211.04289 210.68265
 210.30941 210.02917 209.84693 209.72069 209.65845 209.99921 210.39497 210.79373
 211.59649 212.78425 214.04401 215.83677 217.77453 219.82729 221.93205 224.02481
 226.09457 228.18833 230.29509 232.41085 234.54961 236.73137 238.99713 241.37689
 244.00765 246.26841 248.28017 250.05493 251.48169 252.61445 253.44621 253.77197
 253.81873 253.60249 252.97225 251.93001 250.54577 248.71653 246.63529 244.47805
 242.27881 240.09257 237.92234 235.77110 233.64086 231.51762 229.55338 227.72014
 226.01290 224.49466 223.13442 221.91618 220.80794 219.77770 218.89146 218.04222
 217.29398 216.48374 215.59150 214.96526 214.42502 215.27542 217.28461 219.59274
 221.45926 222.74545 223.06572 222.19995 220.84901 219.03845 218.88260 222.00595
 226.21826 231.18170 236.21092 241.03307 245.46233 249.55807 253.30695 256.64114
 259.56497 262.26288 264.84760 267.22888 269.33044 271.12033 272.82721 274.44894
 276.01407 277.16827 278.12106 278.97092 279.67227 280.23267 280.73132 281.24582
 281.75143 282.18417 282.55466 283.08521
 366.78100 356.34483 345.78666 334.66249 323.07532 311.27915 299.15898 286.97181
 274.69364 262.60047 250.61930 239.93013 230.06196 221.17579 213.36762 206.37945
 200.22328 195.17111 191.76294 189.81477 188.86160 188.93543 189.78025 191.09808
 192.83291 194.93774 197.21057 199.57940 202.03423 204.52406 206.62189 208.47372
 210.10955 211.26438 211.50321 211.74104 211.68787 211.40270 211.04553 210.68536
 210.31219 210.03202 209.84985 209.72368 209.66151 210.00234 210.39817 210.79700
 211.59983 212.78766 214.04749 215.84032 217.77815 219.83098 221.93581 224.02864
 226.09847 228.19230 230.29913 232.41496 234.55379 236.73562 239.00145 241.38128
 244.01210 246.27293 248.28476 250.05959 251.48642 252.61925 253.45108 253.77691
 253.82374 253.60757 252.97740 251.93523 250.55106 248.72189 246.64072 244.48355
 242.28438 240.09821 237.92804 235.77687 233.64670 231.52353 229.55936 227.72619
 226.01902 224.50085 223.14068 221.92251 220.81434 219.78417 218.89800 218.04883
 217.30066 216.49049 215.59832 214.97215 214.43198 215.28014 217.28401 219.58232
 221.43927 222.69794 223.01326 222.06064 220.61505 218.73016 218.58334 221.90294
 226.30357 231.35425 236.37540 241.18155 245.59283 249.70670 253.48802 256.82901
 259.76801 262.47894 265.00327 267.29794 269.33777 271.22153 272.93463 274.45447
 275.87326 277.12692 278.18546 279.06406 279.76331 280.30026 280.76965 281.27048
 281.71066 282.11426 282.47861 283.06665
 354.97500 345.04800 334.58700 324.11500 313.32600 302.53700 291.65000 280.76700
 269.93100 259.19300 248.62200 238.61700 229.08700 220.35500 212.54000 205.53500
 199.46400 194.49300 191.14300 189.19000 188.08900 188.01400 188.72400 189.90600
 191.46900 193.38200 195.40300 197.55600 199.80700 202.06000 204.28800 206.47900
 208.55200 210.37800 212.02500 213.65900 214.99800 216.11800 217.17200 218.25900
 219.49400 220.64500 221.67900 222.61400 223.54500 224.98200 226.57100 228.19000
 229.79700 231.81100 233.86500 235.97200 238.24200 240.55300 242.89900 245.25300
 247.48800 249.53500 251.36600 252.84800 254.09800 255.16700 256.02700 256.25300
 256.09500 255.54300 253.93500 252.56600 251.38400 250.24500 249.05200 247.70100
 246.01600 243.99600 241.78400 239.39300 236.81300 234.22300 231.65800 229.14400
 226.74000 224.47300 222.33500 220.32500 218.44000 216.67700 214.96200 213.47200
 212.20000 211.10800 210.26000 209.63900 209.24400 209.03100 209.05800 209.33300
 209.78400 210.62600 211.33100 212.39100 213.62500 214.84668 217.72949 219.47640
 220.32566 220.86828 220.88710 220.27371 219.43733 218.84250 219.04934 220.86203
 222.60583 225.72206 229.03064 232.61777 236.12270 239.51333 242.70767 245.68587
 248.41061 250.90679 253.19353 254.91714 256.48655 257.94920 259.39966 260.69384
 261.81714 262.77997 263.71679 264.54570 265.26305 265.89772 266.47676 267.00133
 267.47312 267.89325 268.26027 268.72800
