|-------------------------------------------------------------------------|
|   File Name : in_temp.dat
|   Subject   : temperature profiles used for initial guess atmosphere
|   File Type : input of gmtr
|   Data Type : atmospherical data
|   Author/s  : WRF-Chem
|   Date      : Fri Jul 26 15:39:24 2024
|-------------------------------------------------------------------------|

 WRF-Chem temperature
#
 values of T (K)    (8f10.5)
#
 354.97500 345.04800 334.58700 324.11500 313.32600 302.53700 291.65000 280.76700
 269.93100 259.19300 248.62200 238.61700 229.08700 220.35500 212.54000 205.53500
 199.46400 194.49300 191.14300 189.19000 188.08900 188.01400 188.72400 189.90600
 191.46900 193.38200 195.40300 197.55600 199.80700 202.06000 204.28800 206.47900
 208.55200 210.37800 212.02500 213.65900 214.99800 216.11800 217.17200 218.25900
 219.49400 220.64500 221.67900 222.61400 223.54500 224.98200 226.57100 228.19000
 229.79700 231.81100 233.86500 235.97200 238.24200 240.55300 242.89900 245.25300
 247.48800 249.53500 251.36600 252.84800 254.09800 255.16700 256.02700 256.25300
 256.09500 255.54300 253.93500 252.56600 251.38400 250.24500 249.05200 247.70100
 246.01600 243.99600 241.78400 239.39300 236.81300 234.22300 231.65800 229.14400
 226.74000 224.47300 222.33500 220.32500 218.44000 216.67700 214.96200 213.47200
 212.20000 211.10800 210.26000 209.63900 209.24400 209.03100 209.05800 209.33300
 209.78400 210.62600 211.33100 212.39100 213.62500 214.84668 217.72949 219.47640
 220.32566 220.86828 220.88710 220.27371 219.43733 218.84250 219.04934 220.86203
 222.60583 225.72206 229.03064 232.61777 236.12270 239.51333 242.70767 245.68587
 248.41061 250.90679 253.19353 254.91714 256.48655 257.94920 259.39966 260.69384
 261.81714 262.77997 263.71679 264.54570 265.26305 265.89772 266.47676 267.00133
 267.47312 267.89325 268.26027 268.72800
 366.78100 356.33500 345.76700 334.63300 323.03600 311.23000 299.10000 286.90300
 274.61500 262.51200 250.52100 239.82200 229.94400 221.04800 213.23000 206.23200
 200.06600 195.00400 191.58600 189.62800 188.66500 188.72900 189.56400 190.87200
 192.59700 194.69200 196.95500 199.31400 201.75900 204.23900 206.32700 208.16900
 209.79500 210.94000 211.16900 211.39700 211.33400 211.03900 210.67200 210.30200
 209.91900 209.62900 209.43700 209.30100 209.22900 209.56000 209.94600 210.33500
 211.12800 212.30600 213.55600 215.33900 217.26700 219.31000 221.40500 223.48800
 225.54800 227.63200 229.72900 231.83500 233.96400 236.13600 238.39200 240.76200
 243.38300 245.63400 247.63600 249.40100 250.81800 251.94100 252.76300 253.07900
 253.11600 252.89000 252.25000 251.19800 249.80400 247.96500 245.87400 243.70700
 241.49800 239.30200 237.12200 234.96100 232.82100 230.68800 228.71400 226.87100
 225.15400 223.62600 222.25600 221.02800 219.91000 218.87000 217.97400 217.11500
 216.35700 215.53700 214.63500 213.99900 213.44900 212.85855 212.01316 212.61654
 214.26826 216.08686 218.14273 220.53346 223.40855 226.78828 231.49734 235.90155
 239.42278 243.28576 247.23140 251.11907 254.80144 258.23331 261.38913 264.27520
 266.89312 269.26852 271.44504 273.08845 274.58484 275.98591 277.39845 278.65879
 279.75272 280.69038 281.56708 282.34086 283.01050 283.60295 284.14348 284.63317
 285.07358 285.46577 285.80838 286.24500
 381.81900 372.39900 361.20600 349.77600 337.62200 324.85300 311.81000 298.35300
 284.86000 271.32400 258.56100 246.30400 236.08700 226.79600 218.44800 211.29000
 205.52200 200.89400 197.38100 194.84800 193.01500 192.31500 192.25000 192.43100
 192.91200 193.53700 194.13600 194.71200 195.26200 195.83100 196.39300 196.97600
 197.60400 198.14900 198.58400 199.05700 199.69500 200.37800 201.05400 201.70800
 202.31300 202.85700 203.35500 203.86200 204.56900 205.29700 206.02600 206.98700
 208.19300 209.44100 210.96900 212.57600 214.46200 216.51300 218.63000 220.85300
 223.34100 225.96200 228.73900 231.69700 234.70600 237.70600 240.69200 243.65700
 246.73700 249.69900 252.52100 255.06300 257.29000 259.23300 260.63300 261.68000
 262.46100 262.79800 262.69100 262.22400 261.06900 259.52500 257.70700 255.50700
 253.00100 250.30200 247.39800 244.45200 241.65400 239.05400 236.73300 234.59000
 232.59500 230.72500 228.83400 226.82600 224.66600 222.38700 220.10400 217.71500
 215.45900 213.06600 210.54600 208.09300 205.35400 202.08130 196.05959 200.71215
 209.01611 216.90438 223.84126 229.78593 235.00632 240.20838 245.98943 250.68668
 254.32982 257.93487 261.55666 264.96801 268.15192 271.06452 273.76717 276.25691
 278.57680 280.74479 282.77456 284.60533 286.27232 287.81705 289.31715 290.65561
 291.81734 292.81312 293.70701 294.49387 295.17482 295.77730 296.32696 296.82492
 297.27278 297.67160 298.02000 298.46400
 399.33000 389.90700 379.81300 368.66800 357.52200 345.30100 333.07400 320.22700
 307.21600 293.84800 280.37600 267.29600 254.61000 242.98700 232.15100 221.97700
 212.67200 204.28600 197.66900 192.82100 189.48600 187.45200 186.81400 187.08900
 187.78100 189.05400 190.64800 192.54200 194.63000 196.75200 198.67100 200.15800
 201.53500 202.48700 202.97500 203.34000 203.53900 203.49700 203.38500 203.24700
 203.00500 202.78600 202.60300 202.43700 202.42600 202.88800 203.42000 203.95100
 204.89500 205.99200 207.30100 208.95800 210.73800 213.10000 215.56400 218.18000
 220.96600 223.91800 226.96100 230.09200 233.29300 236.55700 239.95500 243.53700
 246.84500 249.39000 251.54200 253.47400 255.19500 256.48400 257.43100 258.05900
 258.21200 258.04000 257.58200 256.64300 255.23900 253.50700 251.40800 249.05600
 246.57600 243.99400 241.38900 238.83000 236.34400 233.98600 231.96900 230.11800
 228.42300 226.89900 225.54800 224.29700 223.10500 221.96500 220.95800 220.11300
 219.49000 218.92000 218.32500 217.88100 217.42300 216.96366 216.35568 216.80261
 217.73415 218.28582 218.64258 219.10077 220.44626 222.53987 226.38451 230.35736
 233.59734 237.39164 241.29814 245.22796 248.98002 252.51130 255.78595 258.80109
 261.54781 264.05210 266.34239 268.04198 269.58951 271.01303 272.35754 273.55718
 274.59842 275.49092 276.28989 276.99307 277.60161 278.14001 278.63122 279.07623
 279.47646 279.83287 280.14422 280.54100
 399.73800 389.78500 379.66200 368.15100 356.64100 344.35000 331.79200 318.88800
 305.72600 292.49300 279.20900 266.73800 254.69600 244.21100 234.45700 225.43300
 217.56900 210.45100 204.30000 199.30600 195.45800 192.57600 191.02700 190.38600
 190.23900 190.53400 191.16600 191.92500 192.79500 193.76600 194.73200 195.31200
 195.80000 196.05200 196.11500 196.11500 196.03900 195.72300 195.34000 194.98900
 194.75100 194.79200 195.13300 195.59800 196.50600 198.13600 199.85800 201.56600
 204.17900 206.82300 209.89300 213.28400 216.82800 220.60500 224.38700 228.20900
 232.03200 235.82500 239.56000 243.25800 246.84500 250.20100 253.70900 257.46800
 261.53000 264.22100 266.60100 268.68100 270.32900 271.74100 272.83600 273.47400
 273.89800 274.00200 273.75700 273.28800 272.37100 271.10000 269.58900 267.77900
 265.81600 263.72100 261.39300 258.91600 256.29800 253.42300 250.33100 247.11400
 243.83700 240.52900 237.24900 233.99900 230.72800 227.51500 224.25400 220.95200
 217.62700 213.65600 210.12100 206.78900 204.01000 201.99491 199.07309 198.76551
 199.40006 200.48994 201.46112 202.31912 203.45100 204.96110 207.47502 210.85391
 213.70530 217.29629 220.99574 224.72316 228.28753 231.64854 234.68024 237.40893
 239.70644 241.60899 243.46854 245.67368 247.68154 249.52395 251.24767 252.78566
 254.12057 255.26479 256.23740 257.09036 257.82852 258.48160 259.07744 259.61723
 260.10271 260.53504 260.91270 261.39400
 399.73800 389.78500 379.66200 368.15100 356.64100 344.35000 331.79200 318.88800
 305.72600 292.49300 279.20900 266.73800 254.69600 244.21100 234.45700 225.43300
 217.56900 210.45100 204.30000 199.30600 195.45800 192.57600 191.02700 190.38600
 190.23900 190.53400 191.16600 191.92500 192.79500 193.76600 194.73200 195.31200
 195.80000 196.05200 196.11500 196.11500 196.03900 195.72300 195.34000 194.98900
 194.75100 194.79200 195.13300 195.59800 196.50600 198.13600 199.85800 201.56600
 204.17900 206.82300 209.89300 213.28400 216.82800 220.60500 224.38700 228.20900
 232.03200 235.82500 239.56000 243.25800 246.84500 250.20100 253.70900 257.46800
 261.53000 264.22100 266.60100 268.68100 270.32900 271.74100 272.83600 273.47400
 273.89800 274.00200 273.75700 273.28800 272.37100 271.10000 269.58900 267.77900
 265.81600 263.72100 261.39300 258.91600 256.29800 253.42300 250.33100 247.11400
 243.83700 240.52900 237.24900 233.99900 230.72800 227.51500 224.25400 220.95200
 217.62700 213.65600 210.12100 206.78900 204.01000 201.99491 199.07309 198.76551
 199.40006 200.48994 201.46112 202.31912 203.45100 204.96110 207.47502 210.85391
 213.70530 217.29629 220.99574 224.72316 228.28753 231.64854 234.68024 237.40893
 239.70644 241.60899 243.46854 245.67368 247.68154 249.52395 251.24767 252.78566
 254.12057 255.26479 256.23740 257.09036 257.82852 258.48160 259.07744 259.61723
 260.10271 260.53504 260.91270 261.39400
 399.33000 389.90700 379.81300 368.66800 357.52200 345.30100 333.07400 320.22700
 307.21600 293.84800 280.37600 267.29600 254.61000 242.98700 232.15100 221.97700
 212.67200 204.28600 197.66900 192.82100 189.48600 187.45200 186.81400 187.08900
 187.78100 189.05400 190.64800 192.54200 194.63000 196.75200 198.67100 200.15800
 201.53500 202.48700 202.97500 203.34000 203.53900 203.49700 203.38500 203.24700
 203.00500 202.78600 202.60300 202.43700 202.42600 202.88800 203.42000 203.95100
 204.89500 205.99200 207.30100 208.95800 210.73800 213.10000 215.56400 218.18000
 220.96600 223.91800 226.96100 230.09200 233.29300 236.55700 239.95500 243.53700
 246.84500 249.39000 251.54200 253.47400 255.19500 256.48400 257.43100 258.05900
 258.21200 258.04000 257.58200 256.64300 255.23900 253.50700 251.40800 249.05600
 246.57600 243.99400 241.38900 238.83000 236.34400 233.98600 231.96900 230.11800
 228.42300 226.89900 225.54800 224.29700 223.10500 221.96500 220.95800 220.11300
 219.49000 218.92000 218.32500 217.88100 217.42300 216.96366 216.35568 216.80261
 217.73415 218.28582 218.64258 219.10077 220.44626 222.53987 226.38451 230.35736
 233.59734 237.39164 241.29814 245.22796 248.98002 252.51130 255.78595 258.80109
 261.54781 264.05210 266.34239 268.04198 269.58951 271.01303 272.35754 273.55718
 274.59842 275.49092 276.28989 276.99307 277.60161 278.14001 278.63122 279.07623
 279.47646 279.83287 280.14422 280.54100
 381.81900 372.39900 361.20600 349.77600 337.62200 324.85300 311.81000 298.35300
 284.86000 271.32400 258.56100 246.30400 236.08700 226.79600 218.44800 211.29000
 205.52200 200.89400 197.38100 194.84800 193.01500 192.31500 192.25000 192.43100
 192.91200 193.53700 194.13600 194.71200 195.26200 195.83100 196.39300 196.97600
 197.60400 198.14900 198.58400 199.05700 199.69500 200.37800 201.05400 201.70800
 202.31300 202.85700 203.35500 203.86200 204.56900 205.29700 206.02600 206.98700
 208.19300 209.44100 210.96900 212.57600 214.46200 216.51300 218.63000 220.85300
 223.34100 225.96200 228.73900 231.69700 234.70600 237.70600 240.69200 243.65700
 246.73700 249.69900 252.52100 255.06300 257.29000 259.23300 260.63300 261.68000
 262.46100 262.79800 262.69100 262.22400 261.06900 259.52500 257.70700 255.50700
 253.00100 250.30200 247.39800 244.45200 241.65400 239.05400 236.73300 234.59000
 232.59500 230.72500 228.83400 226.82600 224.66600 222.38700 220.10400 217.71500
 215.45900 213.06600 210.54600 208.09300 205.35400 202.08130 196.05959 200.71215
 209.01611 216.90438 223.84126 229.78593 235.00632 240.20838 245.98943 250.68668
 254.32982 257.93487 261.55666 264.96801 268.15192 271.06452 273.76717 276.25691
 278.57680 280.74479 282.77456 284.60533 286.27232 287.81705 289.31715 290.65561
 291.81734 292.81312 293.70701 294.49387 295.17482 295.77730 296.32696 296.82492
 297.27278 297.67160 298.02000 298.46400
 366.78100 356.32657 345.75014 334.60771 323.00227 311.18784 299.04941 286.84398
 274.54755 262.43612 250.43668 239.72925 229.84282 220.93839 213.11196 206.10553
 199.93109 194.86066 191.43423 189.46780 188.49637 188.55194 189.37850 190.67807
 192.39464 194.48121 196.73578 199.08635 201.52291 203.99448 206.07405 207.90762
 209.52519 210.66176 210.88232 211.10189 211.03046 210.72703 210.35160 209.97317
 209.58173 209.28330 209.08287 208.93844 208.85801 209.18058 209.55814 209.93871
 210.72328 211.89285 213.13442 214.90899 216.82855 218.86312 220.94969 223.02426
 225.07583 227.15140 229.23996 231.33753 233.45810 235.62167 237.86924 240.23081
 242.84337 245.08594 247.07951 248.83608 250.24465 251.35922 252.17278 252.48035
 252.50892 252.27449 251.62606 250.56563 249.16319 247.31576 245.21633 243.04090
 240.82347 238.61904 236.43060 234.26117 232.11274 229.97131 227.98888 226.13745
 224.41201 222.87558 221.49715 220.26072 219.13429 218.08586 217.18142 216.31399
 215.54756 214.71913 213.80870 213.16427 212.60583 212.49957 212.25818 213.36125
 215.21809 217.39308 218.66219 218.77597 219.99409 223.28052 228.34070 232.92651
 236.71394 240.53435 244.22447 247.72710 251.02647 253.79710 256.10052 258.44928
 261.62744 264.54306 266.72449 268.47821 270.26019 272.18344 273.99420 275.59171
 276.96960 278.31351 279.76001 281.11871 282.30432 283.35696 284.32227 285.20291
 286.00229 286.72150 287.35791 288.20645
 366.78100 356.32652 345.75005 334.60757 323.00209 311.18762 299.04914 286.84366
 274.54719 262.43571 250.43623 239.72876 229.84228 220.93780 213.11132 206.10485
 199.93037 194.85989 191.43342 189.46694 188.49546 188.55099 189.37751 190.67703
 192.39356 194.48008 196.73460 199.08513 201.52165 203.99317 206.07270 207.90622
 209.52374 210.66027 210.88079 211.10031 211.02883 210.72536 210.34988 209.97140
 209.57993 209.28145 209.08097 208.93650 208.85602 209.17854 209.55607 209.93659
 210.72111 211.89064 213.13216 214.90668 216.82621 218.86073 220.94725 223.02178
 225.07330 227.14882 229.23734 231.33487 233.45539 235.61891 237.86644 240.22796
 242.84048 245.08301 247.07653 248.83305 250.24158 251.35610 252.16962 252.47715
 252.50567 252.27119 251.62272 250.56224 249.15976 247.31229 245.21281 243.03733
 240.81985 238.61538 236.42690 234.25742 232.10895 229.96747 227.98499 226.13352
 224.40804 222.87156 221.49309 220.25661 219.13013 218.08166 217.17718 216.30970
 215.54323 214.71475 213.80427 213.15980 212.60132 212.53001 212.36969 213.48599
 215.28084 217.42870 218.81203 219.00781 220.15437 223.32307 228.27432 232.79187
 236.53612 240.35229 244.06479 247.57018 250.82559 253.55634 255.88889 258.31567
 261.47528 264.36728 266.56021 268.33426 270.11496 272.02316 273.83243 275.44803
 276.86115 278.23111 279.68835 281.04846 282.23352 283.28601 284.25122 285.13080
 285.93121 286.65060 287.28748 288.13690
 366.78100 356.32657 345.75014 334.60771 323.00228 311.18785 299.04941 286.84398
 274.54755 262.43612 250.43669 239.72926 229.84283 220.93840 213.11197 206.10554
 199.93111 194.86067 191.43424 189.46781 188.49638 188.55195 189.37852 190.67809
 192.39466 194.48123 196.73580 199.08637 201.52294 203.99450 206.07407 207.90764
 209.52521 210.66178 210.88235 211.10192 211.03049 210.72706 210.35163 209.97320
 209.58176 209.28333 209.08290 208.93847 208.85804 209.18061 209.55818 209.93875
 210.72332 211.89289 213.13446 214.90902 216.82859 218.86316 220.94973 223.02430
 225.07587 227.15144 229.24001 231.33758 233.45815 235.62172 237.86928 240.23085
 242.84342 245.08599 247.07956 248.83613 250.24470 251.35927 252.17284 252.48041
 252.50898 252.27455 251.62611 250.56568 249.16325 247.31582 245.21639 243.04096
 240.82353 238.61910 236.43067 234.26124 232.11281 229.97137 227.98894 226.13751
 224.41208 222.87565 221.49722 220.26079 219.13436 218.08593 217.18150 216.31407
 215.54763 214.71920 213.80877 213.16434 212.60591 212.56654 212.48029 213.61510
 215.33957 217.47667 218.93738 219.24294 220.33691 223.37766 228.21037 232.64915
 236.35439 240.17218 243.90092 247.39621 250.60660 253.30814 255.67537 258.18021
 261.32037 264.18860 266.39301 268.19196 269.97699 271.87393 273.68161 275.31454
 276.76181 278.15210 279.62335 280.98416 282.16953 283.22195 284.18692 285.06729
 285.86673 286.58615 287.22321 288.07343
 366.78100 356.32657 345.75014 334.60772 323.00229 311.18786 299.04943 286.84400
 274.54758 262.43615 250.43672 239.72929 229.84286 220.93844 213.11201 206.10558
 199.93115 194.86072 191.43430 189.46787 188.49644 188.55201 189.37858 190.67816
 192.39473 194.48130 196.73587 199.08644 201.52302 203.99459 206.07416 207.90773
 209.52530 210.66188 210.88245 211.10202 211.03059 210.72716 210.35174 209.97331
 209.58188 209.28345 209.08302 208.93860 208.85817 209.18074 209.55831 209.93888
 210.72346 211.89303 213.13460 214.90917 216.82874 218.86332 220.94989 223.02446
 225.07603 227.15160 229.24018 231.33775 233.45832 235.62189 237.86946 240.23104
 242.84361 245.08618 247.07975 248.83632 250.24490 251.35947 252.17304 252.48061
 252.50918 252.27476 251.62633 250.56590 249.16347 247.31604 245.21662 243.04119
 240.82376 238.61933 236.43090 234.26148 232.11305 229.97162 227.98919 226.13777
 224.41234 222.87591 221.49748 220.26105 219.13463 218.08620 217.18177 216.31434
 215.54791 214.71949 213.80906 213.16463 212.60620 212.60210 212.59779 213.74239
 215.39693 217.52393 219.05367 219.47832 220.53519 223.44452 228.15596 232.49791
 236.17401 239.99844 243.73036 247.20280 250.36714 253.04773 255.45703 258.03998
 261.16199 264.00647 266.22403 268.05145 269.84839 271.73828 273.54492 275.19360
 276.67206 278.07709 279.56375 280.92575 282.11160 283.16269 284.12802 285.00815
 285.80743 286.52689 287.16415 288.01495
 366.78100 356.32651 345.75003 334.60754 323.00206 311.18757 299.04909 286.84360
 274.54711 262.43563 250.43614 239.72866 229.84217 220.93768 213.11120 206.10471
 199.93023 194.85974 191.43326 189.46677 188.49528 188.55080 189.37731 190.67683
 192.39334 194.47985 196.73437 199.08488 201.52140 203.99291 206.07243 207.90594
 209.52345 210.65997 210.88048 211.10000 211.02851 210.72502 210.34954 209.97105
 209.57957 209.28108 209.08060 208.93611 208.85562 209.17814 209.55565 209.93617
 210.72068 211.89019 213.13171 214.90622 216.82574 218.86025 220.94677 223.02128
 225.07279 227.14831 229.23682 231.33434 233.45485 235.61837 237.86588 240.22739
 242.83991 245.08242 247.07594 248.83245 250.24096 251.35548 252.16899 252.47651
 252.50502 252.27054 251.62205 250.56156 249.15908 247.31159 245.21211 243.03662
 240.81913 238.61465 236.42616 234.25668 232.10819 229.96671 227.98422 226.13273
 224.40725 222.87076 221.49228 220.25579 219.12930 218.08082 217.17633 216.30885
 215.54236 214.71388 213.80339 213.15890 212.60042 212.63556 212.72266 213.87117
 215.44806 217.56737 219.18053 219.70795 220.74290 223.52240 228.10771 232.35539
 235.99796 239.82324 243.54631 246.98897 250.11006 252.77707 255.23219 257.89362
 261.00116 263.82196 266.05225 267.91113 269.72784 271.61707 273.42331 275.08612
 276.59152 278.00992 279.50586 280.87024 282.05515 283.10809 284.07297 284.95374
 285.75220 286.47171 287.10907 287.96051
 366.78100 356.32659 345.75018 334.60777 323.00237 311.18796 299.04955 286.84414
 274.54773 262.43632 250.43691 239.72951 229.84310 220.93869 213.11228 206.10587
 199.93146 194.86105 191.43465 189.46824 188.49683 188.55242 189.37901 190.67860
 192.39519 194.48178 196.73638 199.08697 201.52356 203.99515 206.07474 207.90833
 209.52592 210.66252 210.88311 211.10270 211.03129 210.72788 210.35247 209.97406
 209.58266 209.28425 209.08384 208.93943 208.85902 209.18161 209.55920 209.93980
 210.72439 211.89398 213.13557 214.91016 216.82975 218.86434 220.95094 223.02553
 225.07712 227.15271 229.24130 231.33889 233.45948 235.62307 237.87067 240.23226
 242.84485 245.08744 247.08103 248.83762 250.24621 251.36081 252.17440 252.48199
 252.51058 252.27617 251.62776 250.56735 249.16495 247.31754 245.21813 243.04272
 240.82531 238.62090 236.43249 234.26309 232.11468 229.97327 227.99086 226.13945
 224.41404 222.87763 221.49923 220.26282 219.13641 218.08800 217.18359 216.31618
 215.54977 214.72136 213.81096 213.16655 212.60814 212.67691 212.84232 214.00055
 215.50499 217.61372 219.31013 219.92603 220.95401 223.60510 228.06219 232.23196
 235.83154 239.64539 243.34695 246.75238 249.83685 252.50087 255.00647 257.74124
 260.83569 263.63580 265.87701 267.76877 269.61194 271.50937 273.31750 274.99182
 276.52087 277.94980 279.45129 280.81647 282.00226 283.05435 284.02060 284.89944
 285.70059 286.41919 287.05704 287.90912
 366.78100 356.32685 345.75069 334.60854 323.00339 311.18923 299.05108 286.84593
 274.54977 262.43862 250.43947 239.73231 229.84616 220.94201 213.11585 206.10970
 199.93555 194.86539 191.43924 189.47309 188.50193 188.55778 189.38463 190.68447
 192.40132 194.48817 196.74301 199.09386 201.53071 204.00255 206.08240 207.91625
 209.53409 210.67094 210.89179 211.11163 211.04048 210.73733 210.36217 209.98402
 209.59287 209.29471 209.09456 208.95041 208.87025 209.19310 209.57095 209.95179
 210.73664 211.90649 213.14833 214.92318 216.84303 218.87787 220.96472 223.03957
 225.09141 227.16726 229.25611 231.35395 233.47480 235.63865 237.88649 240.24834
 242.86119 245.10403 247.09788 248.85473 250.26357 251.37842 252.19227 252.50011
 252.52896 252.29481 251.64665 250.58650 249.18435 247.33719 245.23804 243.06289
 240.84573 238.64158 236.45343 234.28427 232.13612 229.99497 228.01281 226.16166
 224.43651 222.90035 221.52220 220.28605 219.15989 218.11174 217.20759 216.34043
 215.57428 214.74613 213.83597 213.19182 212.63367 212.72803 212.95284 214.12762
 215.57700 217.66283 219.43120 220.13374 221.16362 223.69275 228.02278 232.12517
 235.68251 239.47282 243.13892 246.49434 249.54431 252.21724 254.77876 257.58044
 260.66205 263.44354 265.69711 267.62720 269.50388 271.41556 273.22821 274.91162
 276.45908 277.89679 279.40036 280.76587 281.95264 283.00522 283.97070 284.85165
 285.65103 286.37091 287.00906 287.86221
 366.78100 356.32718 345.75136 334.60954 323.00472 311.19091 299.05309 286.84827
 274.55245 262.44163 250.44281 239.73599 229.85017 220.94635 213.12054 206.11472
 199.94090 194.87108 191.44526 189.47944 188.50862 188.56480 189.39199 190.69217
 192.40935 194.49653 196.75171 199.10289 201.54007 204.01225 206.09243 207.92662
 209.54480 210.68198 210.90316 211.12334 211.05252 210.74970 210.37488 209.99706
 209.60625 209.30843 209.10861 208.96479 208.88497 209.20815 209.58633 209.96751
 210.75269 211.92288 213.16506 214.94024 216.86042 218.89560 220.98278 223.05796
 225.11014 227.18633 229.27551 231.37369 233.49487 235.65905 237.90723 240.26941
 242.88259 245.12577 247.11996 248.87714 250.28632 251.40150 252.21568 252.52386
 252.55304 252.31922 251.67140 250.61159 249.20977 247.36295 245.26413 243.08931
 240.87249 238.66867 236.48085 234.31203 232.16422 230.02340 228.04158 226.19076
 224.46594 222.93012 221.55230 220.31648 219.19067 218.14285 217.23903 216.37221
 215.60639 214.77857 213.86875 213.22493 212.66711 212.78307 213.05800 214.25552
 215.65596 217.71202 219.54453 220.33652 221.36903 223.79044 227.99496 232.03015
 235.55344 239.31389 242.92975 246.21794 249.22913 251.91814 254.54170 257.40778
 260.47995 263.24515 265.51703 267.49216 269.40833 271.33768 273.15405 274.84311
 276.40414 277.84927 279.35522 280.72073 281.90802 282.96265 283.92737 284.80817
 285.60751 286.32895 286.96979 287.82144
 366.78100 356.32752 345.75203 334.61055 323.00607 311.19258 299.05510 286.85062
 274.55513 262.44465 250.44617 239.73969 229.85420 220.95072 213.12524 206.11975
 199.94627 194.87679 191.45130 189.48582 188.51534 188.57185 189.39937 190.69989
 192.41740 194.50492 196.76044 199.11195 201.54947 204.02199 206.10251 207.93702
 209.55554 210.69306 210.91457 211.13509 211.06461 210.76212 210.38764 210.01016
 209.61967 209.32219 209.12271 208.97922 208.89974 209.22326 209.60177 209.98329
 210.76881 211.93932 213.18184 214.95736 216.87788 218.91339 221.00091 223.07643
 225.12894 227.20546 229.29498 231.39349 233.51501 235.67953 237.92804 240.29056
 242.90408 245.14759 247.14211 248.89963 250.30914 251.42466 252.23918 252.54770
 252.57721 252.34373 251.69625 250.63676 249.23528 247.38880 245.29031 243.11583
 240.89935 238.69586 236.50838 234.33990 232.19241 230.05193 228.07045 226.21996
 224.49548 222.96000 221.58252 220.34703 219.22155 218.17407 217.27058 216.40410
 215.63862 214.81113 213.90165 213.25817 212.70068 212.83742 213.16057 214.38470
 215.73521 217.76497 219.65909 220.53239 221.56776 223.89519 227.97675 231.94426
 235.43896 239.16554 242.71606 245.92383 248.89554 251.60507 254.29205 257.22296
 260.29056 263.04761 265.34409 267.36740 269.32526 271.27481 273.09296 274.78259
 276.35437 277.80652 279.31488 280.68170 281.86905 282.92343 283.89014 284.77039
 285.57156 286.29282 286.93216 287.78806
 366.78100 356.32781 345.75263 334.61144 323.00726 311.19407 299.05689 286.85270
 274.55751 262.44733 250.44914 239.74296 229.85777 220.95458 213.12940 206.12421
 199.95103 194.88184 191.45666 189.49147 188.52128 188.57810 189.40591 190.70673
 192.42454 194.51236 196.76817 199.11998 201.55780 204.03061 206.11143 207.94624
 209.56506 210.70287 210.92468 211.14550 211.07531 210.77313 210.39894 210.02175
 209.63157 209.33438 209.13520 208.99201 208.91283 209.23664 209.61545 209.99727
 210.78308 211.95390 213.19671 214.97253 216.89334 218.92915 221.01697 223.09278
 225.14560 227.22241 229.31223 231.41104 233.53285 235.69767 237.94648 240.30930
 242.92311 245.16692 247.16174 248.91955 250.32937 251.44518 252.26000 252.56881
 252.59862 252.36544 251.71825 250.65907 249.25788 247.41170 245.31351 243.13932
 240.92314 238.71995 236.53277 234.36458 232.21740 230.07721 228.09602 226.24584
 224.52165 222.98647 221.60928 220.37409 219.24891 218.20172 217.29854 216.43235
 215.66717 214.83998 213.93079 213.28761 212.73042 212.88921 213.26434 214.50769
 215.82329 217.82809 219.78148 220.72177 221.75986 223.99341 227.95869 231.85950
 235.33101 239.02666 242.50352 245.61920 248.54657 251.27779 254.03391 257.03400
 260.10648 262.86072 265.17960 267.24756 269.24924 271.22198 273.04153 274.72867
 276.30997 277.76877 279.27917 280.64679 281.83475 282.89008 283.85632 284.73758
 285.53964 286.26294 286.90164 287.75946
 366.78100 356.32816 345.75332 334.61248 323.00864 311.19580 299.05896 286.85512
 274.56028 262.45044 250.45260 239.74676 229.86193 220.95909 213.13425 206.12941
 199.95657 194.88773 191.46289 189.49805 188.52821 188.58537 189.41353 190.71469
 192.43285 194.52101 196.77717 199.12933 201.56749 204.04065 206.12181 207.95697
 209.57613 210.71429 210.93646 211.15762 211.08778 210.78594 210.41210 210.03526
 209.64542 209.34858 209.14974 209.00690 208.92806 209.25222 209.63138 210.01354
 210.79970 211.97086 213.21402 214.99018 216.91134 218.94750 221.03566 223.11182
 225.16499 227.24215 229.33231 231.43147 233.55363 235.71879 237.96795 240.33111
 242.94527 245.18943 247.18459 248.94275 250.35291 251.46907 252.28423 252.59339
 252.62355 252.39071 251.74387 250.68503 249.28419 247.43835 245.34052 243.16668
 240.95084 238.74800 236.56116 234.39332 232.24648 230.10664 228.12580 226.27596
 224.55212 223.01728 221.64044 220.40560 219.28076 218.23392 217.33108 216.46524
 215.70040 214.87356 213.96472 213.32188 212.76505 212.94240 213.36139 214.62712
 215.91995 217.91135 219.90460 220.90016 221.93884 224.07565 227.94417 231.78780
 235.22913 238.88512 242.27649 245.29970 248.19360 250.96011 253.78914 256.85251
 259.92422 262.66687 265.00833 267.13068 269.18298 271.18213 273.00354 274.68588
 276.27484 277.73758 279.24823 280.61676 281.80637 282.86102 283.82727 284.71182
 285.51218 286.23584 286.87598 287.73346
 366.78100 356.32859 345.75418 334.61377 323.01036 311.19795 299.06154 286.85813
 274.56372 262.45430 250.45689 239.75148 229.86707 220.96466 213.14025 206.13584
 199.96343 194.89502 191.47061 189.50620 188.53679 188.59438 189.42297 190.72456
 192.44315 194.53173 196.78832 199.14091 201.57950 204.05309 206.13468 207.97027
 209.58986 210.72845 210.95104 211.17263 211.10322 210.80181 210.42840 210.05199
 209.66258 209.36616 209.16775 209.02534 208.94693 209.27152 209.65111 210.03370
 210.82029 211.99188 213.23547 215.01206 216.93365 218.97024 221.05883 223.13542
 225.18901 227.26659 229.35718 231.45677 233.57936 235.74495 237.99454 240.35813
 242.97272 245.21731 247.21290 248.97149 250.38208 251.49867 252.31426 252.62385
 252.65444 252.42202 251.77561 250.71720 249.31679 247.47138 245.37397 243.20056
 240.98515 238.78274 236.59633 234.42892 232.28251 230.14310 228.16269 226.31328
 224.58987 223.05545 221.67904 220.44463 219.32022 218.27381 217.37140 216.50599
 215.74158 214.91517 214.00676 213.36435 212.80794 212.99834 213.44817 214.74908
 216.03607 217.97598 220.04176 221.09982 222.09605 224.14159 227.91354 231.70856
 235.13303 238.75327 242.06401 244.99481 247.84882 250.64474 253.53976 256.65997
 259.73016 262.46741 264.84308 267.02695 269.13101 271.15738 272.97617 274.65024
 276.24496 277.71027 279.22238 280.59167 281.78140 282.83649 283.80551 284.68735
 285.49075 286.21313 286.85550 287.71454
 366.78100 356.32900 345.75501 334.61501 323.01202 311.20002 299.06402 286.86103
 274.56703 262.45804 250.46104 239.75604 229.87205 220.97005 213.14606 206.14206
 199.97006 194.90207 191.47807 189.51408 188.54508 188.60308 189.43209 190.73409
 192.45309 194.54210 196.79910 199.15211 201.59111 204.06511 206.14712 207.98312
 209.60313 210.74213 210.96513 211.18714 211.11814 210.81715 210.44415 210.06815
 209.67916 209.38316 209.18517 209.04317 208.96517 209.29018 209.67018 210.05319
 210.84019 212.01219 213.25620 215.03320 216.95521 218.99221 221.08121 223.15822
 225.21222 227.29023 229.38123 231.48123 233.60424 235.77024 238.02025 240.38425
 242.99925 245.24426 247.24026 248.99927 250.41027 251.52727 252.34328 252.65328
 252.68428 252.45229 251.80629 250.74830 249.34830 247.50330 245.40631 243.23331
 241.01832 238.81632 236.63032 234.46333 232.31733 230.17834 228.19834 226.34934
 224.62635 223.09235 221.71636 220.48236 219.35836 218.31237 217.41037 216.54538
 215.78138 214.95538 214.04739 213.40539 212.84940 213.05159 213.52930 214.86769
 216.16496 218.05519 220.16821 221.30141 222.21790 224.17757 227.88817 231.65309
 235.06259 238.64688 241.87245 244.68855 247.48630 250.30922 253.27728 256.46133
 259.53967 262.28000 264.69098 266.93466 269.08969 271.14124 272.95651 274.62057
 276.21793 277.68649 279.20026 280.56924 281.75916 282.81552 283.78378 284.66782
 285.47031 286.19431 286.83572 287.69904
 366.78100 356.32950 345.75600 334.61650 323.01400 311.20249 299.06699 286.86449
 274.57099 262.46249 250.46599 239.76149 229.87799 220.97649 213.15299 206.14948
 199.97798 194.91048 191.48698 189.52348 188.55498 188.61348 189.44298 190.74548
 192.46497 194.55447 196.81197 199.16547 201.60497 204.07947 206.16197 207.99847
 209.61897 210.75847 210.98196 211.20446 211.13596 210.83546 210.46296 210.08746
 209.69896 209.40346 209.20596 209.06445 208.98695 209.31245 209.69295 210.07645
 210.86395 212.03645 213.28095 215.05845 216.98095 219.01844 221.10794 223.18544
 225.23994 227.31844 229.40994 231.51044 233.63394 235.80044 238.05094 240.41543
 243.03093 245.27643 247.27293 249.03243 250.44393 251.56143 252.37793 252.68843
 252.71992 252.48842 251.84292 250.78542 249.38592 247.54142 245.44492 243.27242
 241.05792 238.85642 236.67091 234.50441 232.35891 230.22041 228.24091 226.39241
 224.66991 223.13641 221.76091 220.52740 219.40390 218.35840 217.45690 216.59240
 215.82890 215.00340 214.09590 213.45440 212.89890 213.10744 213.60013 214.97679
 216.31090 218.18816 220.25462 221.48212 222.31920 224.19650 227.89392 231.64786
 235.01599 238.53944 241.65022 244.33717 247.09258 249.96204 253.01794 256.27496
 259.36713 262.10986 264.55154 266.85098 269.05515 271.12967 272.93674 274.58844
 276.18521 277.66638 279.18222 280.55173 281.74194 282.79910 283.76804 284.65173
 285.45544 286.17831 286.82449 287.68417
 366.78100 356.32998 345.75697 334.61795 323.01593 311.20492 299.06990 286.86789
 274.57487 262.46685 250.47084 239.76682 229.88380 220.98279 213.15977 206.15676
 199.98574 194.91872 191.49571 189.53269 188.56467 188.62366 189.45364 190.75663
 192.47661 194.56659 196.82458 199.17856 201.61854 204.09353 206.17651 208.01350
 209.63448 210.77446 210.99845 211.22143 211.15341 210.85340 210.48138 210.10637
 209.71835 209.42333 209.22632 209.08530 209.00828 209.33427 209.71525 210.09924
 210.88722 212.06020 213.30519 215.08317 217.00615 219.04414 221.13412 223.21210
 225.26709 227.34607 229.43806 231.53904 233.66302 235.83001 238.08099 240.44597
 243.06196 245.30794 247.30493 249.06491 250.47689 251.59488 252.41186 252.72284
 252.75483 252.52381 251.87880 250.82178 249.42276 247.57875 245.48273 243.31071
 241.09670 238.89568 236.71067 234.54465 232.39963 230.26162 228.28260 226.43458
 224.71257 223.17955 221.80454 220.57152 219.44850 218.40349 217.50247 216.63845
 215.87544 215.05042 214.14340 213.50239 212.94737 213.16057 213.66425 215.08719
 216.45987 218.33797 220.33505 221.64915 222.42715 224.23462 227.93222 231.64322
 234.95844 238.40201 241.38658 243.96504 246.69524 249.61987 252.76506 256.09177
 259.19403 261.93753 264.41388 266.77277 269.02875 271.12982 272.93097 274.57242
 276.16595 277.64600 279.16202 280.53186 281.72217 282.77982 283.74887 284.63330
 285.43716 286.16272 286.80542 287.67044
 366.78100 356.33025 345.75750 334.61875 323.01700 311.20626 299.07151 286.86976
 274.57701 262.46926 250.47351 239.76976 229.88701 220.98626 213.16351 206.16077
 199.99002 194.92327 191.50052 189.53777 188.57002 188.62927 189.45952 190.76277
 192.48303 194.57328 196.83153 199.18578 201.62603 204.10128 206.18453 208.02178
 209.64303 210.78328 211.00754 211.23079 211.16304 210.86329 210.49154 210.11679
 209.72904 209.43429 209.23754 209.09680 209.02005 209.34630 209.72755 210.11180
 210.90005 212.07330 213.31855 215.09680 217.02006 219.05831 221.14856 223.22681
 225.28206 227.36131 229.45356 231.55481 233.67906 235.84631 238.09757 240.46282
 243.07907 245.32532 247.32257 249.08282 250.49507 251.61332 252.43057 252.74183
 252.77408 252.54333 251.89858 250.84183 249.44308 247.59933 245.50358 243.33183
 241.11808 238.91734 236.73259 234.56684 232.42209 230.28434 228.30559 226.45784
 224.73609 223.20334 221.82860 220.59585 219.47310 218.42835 217.52760 216.66385
 215.90110 215.07635 214.16960 213.52885 212.97411 213.19852 213.72871 215.21867
 216.60124 218.46701 220.41429 221.78018 222.58385 224.30844 227.96803 231.61649
 234.86819 238.22925 241.10826 243.60933 246.30867 249.28183 252.51566 255.90308
 259.01831 261.76889 264.28299 266.70129 269.00729 271.12894 272.93170 274.57022
 276.15814 277.63733 279.15442 280.52420 281.71536 282.77301 283.74307 284.62668
 285.43192 286.15875 286.79971 287.66635
 366.78100 356.33059 345.75818 334.61978 323.01837 311.20796 299.07355 286.87215
 274.57974 262.47233 250.47692 239.77351 229.89111 220.99070 213.16829 206.16588
 199.99548 194.92907 191.50666 189.54425 188.57684 188.63644 189.46703 190.77062
 192.49121 194.58181 196.84040 199.19499 201.63558 204.11118 206.19477 208.03236
 209.65395 210.79454 211.01914 211.24273 211.17532 210.87591 210.50451 210.13010
 209.74269 209.44828 209.25187 209.11147 209.03506 209.36165 209.74324 210.12784
 210.91643 212.09002 213.33561 215.11420 217.03780 219.07639 221.16698 223.24557
 225.30117 227.38076 229.47335 231.57494 233.69953 235.86713 238.11872 240.48431
 243.10090 245.34750 247.34509 249.10568 250.51827 251.63686 252.45446 252.76605
 252.79864 252.56823 251.92383 250.86742 249.46901 247.62560 245.53020 243.35879
 241.14538 238.94497 236.76056 234.59516 232.45075 230.31334 228.33493 226.48753
 224.76612 223.23371 221.85930 220.62689 219.50449 218.46008 217.55967 216.69626
 215.93386 215.10945 214.20304 213.56263 213.00822 213.23883 213.78366 215.33321
 216.76202 218.61703 220.49544 221.87123 222.76663 224.40871 227.97871 231.57777
 234.76416 238.03760 240.82225 243.25533 245.93210 248.95946 252.28474 255.73711
 258.87387 261.63309 264.17804 266.64243 268.98734 271.11774 272.91254 274.53809
 276.11148 277.63623 279.16113 280.53223 281.72363 282.78275 283.75150 284.63672
 285.43991 286.16589 286.80881 287.67328
 366.78100 356.33093 345.75886 334.62079 323.01972 311.20965 299.07557 286.87450
 274.58243 262.47536 250.48029 239.77722 229.89515 220.99508 213.17301 206.17094
 200.00086 194.93479 191.51272 189.55065 188.58358 188.64351 189.47444 190.77837
 192.49930 194.59023 196.84915 199.20408 201.64501 204.12094 206.20487 208.04280
 209.66473 210.80566 211.03059 211.25452 211.18744 210.88837 210.51730 210.14323
 209.75616 209.46209 209.26602 209.12595 209.04988 209.37681 209.75873 210.14366
 210.93259 212.10652 213.35245 215.13138 217.05531 219.09424 221.18517 223.26410
 225.32002 227.39995 229.49288 231.59481 233.71974 235.88767 238.13960 240.50553
 243.12246 245.36939 247.36731 249.12824 250.54117 251.66010 252.47803 252.78996
 252.82289 252.59282 251.94875 250.89268 249.49460 247.65153 245.55646 243.38539
 241.17232 238.97225 236.78818 234.62311 232.47904 230.34197 228.36389 226.51682
 224.79575 223.26368 221.88961 220.65754 219.53547 218.49140 217.59133 216.72826
 215.96618 215.14211 214.23604 213.59597 213.04190 213.28038 213.84384 215.39902
 216.93593 218.80736 220.59785 221.95334 222.94736 224.53261 227.97559 231.53307
 234.66145 237.83794 240.52138 242.88866 245.57042 248.66248 252.07648 255.59874
 258.75055 261.51508 264.08337 266.59140 268.97070 271.11414 272.90231 274.51773
 276.08832 277.61783 279.14209 280.51324 281.70441 282.76367 283.73334 284.61765
 285.42184 286.14844 286.79163 287.65863
 366.78100 356.33153 345.76005 334.62258 323.02210 311.21263 299.07915 286.87868
 274.58720 262.48073 250.48626 239.78378 229.90231 221.00283 213.18136 206.17988
 200.01041 194.94494 191.52346 189.56199 188.59551 188.65604 189.48756 190.79209
 192.51362 194.60514 196.86467 199.22019 201.66172 204.13824 206.22277 208.06129
 209.68382 210.82535 211.05087 211.27540 211.20892 210.91045 210.53997 210.16650
 209.78002 209.48655 209.29108 209.15160 209.07613 209.40365 209.78618 210.17170
 210.96123 212.13576 213.38228 215.16181 217.08633 219.12586 221.21738 223.29691
 225.35343 227.43396 229.52749 231.63001 233.75554 235.92406 238.17659 240.54311
 243.16064 245.40817 247.40669 249.16822 250.58174 251.70127 252.51979 252.83232
 252.86585 252.63637 251.99290 250.93742 249.53995 247.69747 245.60300 243.43252
 241.22005 239.02058 236.83710 234.67263 232.52915 230.39268 228.41520 226.56873
 224.84825 223.31678 221.94331 220.71183 219.59036 218.54688 217.64741 216.78493
 216.02346 215.19999 214.29451 213.65504 213.10156 213.33307 213.88002 215.47623
 217.11060 218.98917 220.73067 222.04007 223.10570 224.67888 227.98155 231.47246
 234.53490 237.60762 240.18719 242.50946 245.21559 248.37857 251.87822 255.46773
 258.63126 261.40225 264.00009 266.54745 268.95871 271.12091 272.89868 274.50217
 276.06198 277.59464 279.12012 280.49011 281.68011 282.73840 283.70789 284.59250
 285.39691 286.12488 286.76770 287.63644
 366.78100 356.33198 345.76096 334.62393 323.02391 311.21489 299.08187 286.88185
 274.59082 262.48480 250.49078 239.78876 229.90774 221.00871 213.18769 206.18667
 200.01765 194.95263 191.53160 189.57058 188.60456 188.66554 189.49752 190.80250
 192.52447 194.61645 196.87643 199.23241 201.67439 204.15136 206.23634 208.07532
 209.69830 210.84028 211.06625 211.29123 211.22521 210.92719 210.55717 210.18414
 209.79812 209.50510 209.31008 209.17106 209.09603 209.42401 209.80699 210.19297
 210.98295 212.15792 213.40490 215.18488 217.10986 219.14984 221.24181 223.32179
 225.37877 227.45975 229.55373 231.65670 233.78268 235.95166 238.20464 240.57162
 243.18960 245.43757 247.43655 249.19853 250.61251 251.73249 252.55146 252.86444
 252.89842 252.66940 252.02638 250.97135 249.57433 247.73231 245.63829 243.46827
 241.25624 239.05722 236.87420 234.71018 232.56716 230.43113 228.45411 226.60809
 224.88807 223.35705 221.98402 220.75300 219.63198 218.58896 217.68994 216.82791
 216.06689 215.24387 214.33885 213.69983 213.14680 213.37482 213.91356 215.56827
 217.28908 219.16351 220.87076 222.13368 223.24385 224.83865 228.01564 231.40602
 234.37602 237.32599 239.80653 242.11810 244.87079 248.11253 251.69591 255.34592
 258.52698 261.30795 263.92889 266.50415 268.93823 271.11200 272.87817 274.47778
 276.09497 277.56967 279.08679 280.45901 281.65036 282.71030 283.68143 284.56845
 285.37360 286.09985 286.74484 287.61438
 366.78100 356.33208 345.76117 334.62425 323.02433 311.21541 299.08250 286.88258
 274.59166 262.48575 250.49183 239.78991 229.90899 221.01008 213.18916 206.18824
 200.01933 194.95441 191.53349 189.57257 188.60666 188.66774 189.49982 190.80491
 192.52699 194.61907 196.87915 199.23524 201.67732 204.15440 206.23949 208.07857
 209.70165 210.84373 211.06982 211.29490 211.22898 210.93107 210.56115 210.18823
 209.80232 209.50940 209.31448 209.17556 209.10065 209.42873 209.81181 210.19790
 210.98798 212.16306 213.41014 215.19023 217.11531 219.15539 221.24748 223.32756
 225.38464 227.46572 229.55981 231.66289 233.78897 235.95806 238.21114 240.57822
 243.19630 245.44439 247.44347 249.20555 250.61964 251.73972 252.55880 252.87188
 252.90597 252.67705 252.03413 250.97922 249.58230 247.74038 245.64646 243.47655
 241.26463 239.06571 236.88280 234.71888 232.57596 230.44004 228.46313 226.61721
 224.89729 223.36638 221.99346 220.76254 219.64162 218.59871 217.69979 216.83787
 216.07696 215.25404 214.34912 213.71020 213.15729 213.39548 213.95825 215.66399
 217.46162 219.34006 221.00848 222.22644 223.37660 225.01230 228.07706 231.34473
 234.19579 236.99428 239.38077 241.71490 244.53923 247.86607 251.53041 255.23456
 258.43906 261.23413 263.87354 266.46957 268.91965 271.09991 272.85757 274.44186
 275.94751 277.57361 279.11163 280.47855 281.66776 282.72488 283.69312 284.57660
 285.38058 286.10699 286.75305 287.62595
 366.78100 356.33188 345.76076 334.62365 323.02353 311.21441 299.08129 286.88117
 274.59005 262.48394 250.48982 239.78770 229.90658 221.00746 213.18634 206.18523
 200.01611 194.95099 191.52987 189.56875 188.60264 188.66352 189.49540 190.80028
 192.52216 194.61404 196.87393 199.22981 201.67169 204.14857 206.23345 208.07233
 209.69522 210.83710 211.06298 211.28786 211.22174 210.92363 210.55351 210.18039
 209.79427 209.50115 209.30603 209.16692 209.09180 209.41968 209.80256 210.18844
 210.97832 212.15321 213.40009 215.17997 217.10485 219.14473 221.23662 223.31650
 225.37338 227.45426 229.54814 231.65102 233.77691 235.94579 238.19867 240.56555
 243.18343 245.43131 247.43020 249.19208 250.60596 251.72584 252.54472 252.85761
 252.89149 252.66237 252.01925 250.96413 249.56701 247.72490 245.63078 243.46066
 241.24854 239.04942 236.86630 234.70219 232.55907 230.42295 228.44583 226.59971
 224.87960 223.34848 221.97536 220.74424 219.62312 218.58000 217.68089 216.81877
 216.05765 215.23453 214.32941 213.69029 213.13718 213.39827 214.01514 215.75949
 217.62456 219.51930 221.14709 222.31660 223.51440 225.19720 228.15021 231.29526
 234.00641 236.62366 238.91905 241.30577 244.22285 247.63889 251.37808 255.13011
 258.36002 261.16965 263.82346 266.43283 268.89236 271.07715 272.83554 274.41708
 275.89612 277.56348 279.10696 280.47476 281.66248 282.71796 283.68579 284.56830
 285.37268 286.09802 286.74277 287.61774
 366.78100 356.33159 345.76017 334.62276 323.02235 311.21293 299.07952 286.87911
 274.58769 262.48128 250.48687 239.78445 229.90304 221.00362 213.18221 206.18080
 200.01138 194.94597 191.52456 189.56314 188.59673 188.65732 189.48890 190.79349
 192.51508 194.60666 196.86625 199.22184 201.66342 204.14001 206.22460 208.06318
 209.68577 210.82735 211.05294 211.27753 211.21111 210.91270 210.54229 210.16887
 209.78246 209.48905 209.29363 209.15422 209.07881 209.40639 209.78898 210.17457
 210.96415 212.13874 213.38533 215.16491 217.08950 219.12908 221.22067 223.30026
 225.35684 227.43743 229.53102 231.63360 233.75919 235.92778 238.18036 240.54695
 243.16454 245.41212 247.41071 249.17230 250.58588 251.70547 252.52406 252.83664
 252.87023 252.64082 251.99740 250.94199 249.54457 247.70216 245.60775 243.43733
 241.22492 239.02551 236.84209 234.67768 232.53427 230.39785 228.42044 226.57403
 224.85361 223.32220 221.94879 220.71737 219.59596 218.55255 217.65313 216.79072
 216.02930 215.20589 214.30048 213.66106 213.10765 213.39442 214.07196 215.86023
 217.77831 219.69006 221.29143 222.41231 223.65964 225.40213 228.23274 231.22748
 233.79337 236.23370 238.44055 240.89328 243.91663 247.42955 251.24147 255.03485
 258.28677 261.11063 263.77798 266.39404 268.85950 271.04825 272.81241 274.39597
 275.87158 277.55405 279.10138 280.46957 281.65714 282.71304 283.68176 284.57001
 285.38293 286.11710 286.76663 287.64139
 366.78100 356.33129 345.75958 334.62187 323.02116 311.21145 299.07774 286.87702
 274.58531 262.47860 250.48389 239.78118 229.89947 220.99976 213.17805 206.17634
 200.00663 194.94092 191.51921 189.55750 188.59079 188.65107 189.48236 190.78665
 192.50794 194.59923 196.85852 199.21381 201.65510 204.13139 206.21568 208.05397
 209.67626 210.81755 211.04284 211.26712 211.20041 210.90170 210.53099 210.15728
 209.77057 209.47686 209.28115 209.14144 209.06573 209.39302 209.77531 210.16060
 210.94988 212.12417 213.37046 215.14975 217.07404 219.11333 221.20462 223.28391
 225.34020 227.42049 229.51378 231.61607 233.74136 235.90965 238.16193 240.52822
 243.14551 245.39280 247.39109 249.15238 250.56567 251.68496 252.50325 252.81554
 252.84883 252.61912 251.97541 250.91969 249.52198 247.67927 245.58456 243.41385
 241.20114 239.00143 236.81772 234.65301 232.50930 230.37259 228.39488 226.54817
 224.82746 223.29574 221.92203 220.69032 219.56861 218.52490 217.62519 216.76248
 216.00077 215.17706 214.27135 213.63164 213.07793 213.38890 214.12361 215.96584
 217.92792 219.84496 221.42729 222.51918 223.83437 225.61105 228.30943 231.17485
 233.58481 235.81201 237.92780 240.47859 243.63339 247.24799 251.12280 254.94423
 258.21448 261.05591 263.73584 266.35559 268.82260 271.01456 272.78741 274.37680
 275.85165 277.55164 279.09973 280.46732 281.65567 282.71451 283.68637 284.57693
 285.39279 286.12778 286.77924 287.66025
 366.78100 356.33110 345.75921 334.62131 323.02041 311.21052 299.07662 286.87572
 274.58382 262.47693 250.48203 239.77913 229.89724 220.99734 213.17544 206.17355
 200.00365 194.93775 191.51586 189.55396 188.58706 188.64717 189.47827 190.78237
 192.50347 194.59458 196.85368 199.20878 201.64989 204.12599 206.21009 208.04820
 209.67030 210.81140 211.03651 211.26061 211.19371 210.89482 210.52392 210.15002
 209.76312 209.46923 209.27333 209.13343 209.05754 209.38464 209.76674 210.15185
 210.94095 212.11505 213.36116 215.14026 217.06436 219.10346 221.19457 223.27367
 225.32977 227.40988 229.50298 231.60508 233.73019 235.89829 238.15039 240.51650
 243.13360 245.38070 247.37881 249.13991 250.55301 251.67211 252.49022 252.80232
 252.83542 252.60553 251.96163 250.90573 249.50784 247.66494 245.57004 243.39915
 241.18625 238.98635 236.80245 234.63756 232.49366 230.35676 228.37887 226.53197
 224.81107 223.27918 221.90528 220.67338 219.55149 218.50759 217.60769 216.74480
 215.98290 215.15900 214.25310 213.61321 213.05931 213.38779 214.16380 216.08321
 218.07588 219.97931 221.55626 222.63797 224.00528 225.84439 228.41293 231.10309
 233.32788 235.35599 237.40175 240.08296 243.38281 247.08531 251.01245 254.85797
 258.14804 261.00977 263.70044 266.31912 268.78455 270.97971 272.76642 274.36298
 275.83447 277.54126 279.09167 280.45975 281.64981 282.70862 283.68115 284.57260
 285.38791 286.12628 286.77744 287.65509
 366.78100 356.33030 345.75759 334.61889 323.01719 311.20648 299.07178 286.87007
 274.57737 262.46967 250.47396 239.77026 229.88756 220.98685 213.16415 206.16145
 199.99074 194.92404 191.50133 189.53863 188.57093 188.63022 189.46052 190.76382
 192.48411 194.57441 196.83271 199.18700 201.62730 204.10259 206.18589 208.02319
 209.64448 210.78478 211.00908 211.23237 211.16467 210.86497 210.49326 210.11856
 209.73086 209.43615 209.23945 209.09874 209.02204 209.34834 209.72963 210.11393
 210.90223 212.07552 213.32082 215.09912 217.02241 219.06071 221.15100 223.22930
 225.28460 227.36389 229.45619 231.55749 233.68178 235.84908 238.10038 240.46567
 243.08197 245.32826 247.32556 249.08586 250.49815 251.61645 252.43375 252.74504
 252.77734 252.54664 251.90193 250.84523 249.44652 247.60282 245.50712 243.33541
 241.12171 238.92101 236.73630 234.57060 232.42590 230.28819 228.30949 226.46178
 224.74008 223.20738 221.83267 220.59997 219.47727 218.43256 217.53186 216.66816
 215.90545 215.08075 214.17404 213.53334 212.97864 213.35490 214.24390 216.15742
 218.24866 220.12601 221.66119 222.72664 224.17558 226.06885 228.52296 231.03130
 233.06812 234.87677 236.88545 239.71704 243.14522 246.94188 250.91962 254.77971
 258.08588 260.96695 263.66763 266.28275 268.74326 270.94000 272.73840 274.34329
 275.82141 277.53464 279.08771 280.45663 281.64700 282.70667 283.67905 284.57132
 285.38803 286.12500 286.77490 287.65536
 366.78100 356.32963 345.75625 334.61688 323.01451 311.20314 299.06776 286.86539
 274.57202 262.46365 250.46727 239.76290 229.87953 220.97816 213.15478 206.15141
 199.98004 194.91267 191.48929 189.52592 188.55755 188.61618 189.44580 190.74843
 192.46806 194.55769 196.81531 199.16894 201.60857 204.08320 206.16582 208.00245
 209.62308 210.76271 210.98633 211.20896 211.14059 210.84021 210.46784 210.09247
 209.70410 209.40872 209.21135 209.06998 208.99261 209.31823 209.69886 210.08249
 210.87012 212.04274 213.28737 215.06500 216.98763 219.02525 221.11488 223.19251
 225.24714 227.32576 229.41739 231.51802 233.64165 235.80827 238.05890 240.42353
 243.03916 245.28478 247.28141 249.04104 250.45267 251.57029 252.38692 252.69755
 252.72918 252.49780 251.85243 250.79506 249.39568 247.55131 245.45494 243.28257
 241.06819 238.86682 236.68145 234.51508 232.36970 230.23133 228.25196 226.40359
 224.68121 223.14784 221.77247 220.53910 219.41572 218.37035 217.46898 216.60461
 215.84123 215.01586 214.10849 213.46712 212.91174 213.32803 214.31152 216.25011
 218.39917 220.26833 221.78101 222.80467 224.31613 226.29706 228.58333 230.96761
 232.86508 234.44937 236.35873 239.34882 242.93188 246.81952 250.83719 254.70470
 258.02533 260.92697 263.63940 266.24979 268.70322 270.89905 272.70956 274.32327
 275.81543 277.52994 279.08368 280.45441 281.64499 282.70334 283.67880 284.57050
 285.38754 286.12411 286.77518 287.65460
 366.78100 356.32908 345.75517 334.61525 323.01233 311.20042 299.06450 286.86158
 274.56767 262.45875 250.46183 239.75691 229.87300 220.97108 213.14716 206.14325
 199.97133 194.90341 191.47950 189.51558 188.54666 188.60475 189.43383 190.73591
 192.45500 194.54408 196.80116 199.15425 201.59333 204.06741 206.14949 207.98558
 209.60566 210.74474 210.96783 211.18991 211.12099 210.82008 210.44716 210.07124
 209.68233 209.38641 209.18849 209.04658 208.96866 209.29374 209.67382 210.05691
 210.84399 212.01607 213.26016 215.03724 216.95932 218.99641 221.08549 223.16257
 225.21666 227.29474 229.38582 231.48591 233.60899 235.77507 238.02516 240.38924
 243.00432 245.24940 247.24549 249.00457 250.41565 251.53274 252.34882 252.65890
 252.68999 252.45807 251.81215 250.75424 249.35432 247.50940 245.41249 243.23957
 241.02465 238.82274 236.63682 234.46990 232.32398 230.18507 228.20515 226.35623
 224.63332 223.09940 221.72348 220.48957 219.36565 218.31973 217.41782 216.55290
 215.78898 214.96307 214.05515 213.41323 212.85732 213.30632 214.36717 216.37025
 218.50992 220.41475 221.91731 222.97498 224.40251 226.38290 228.62924 230.95314
 232.69662 234.03996 235.85625 238.98903 242.74146 246.71881 250.76276 254.63017
 257.96521 260.89136 263.61600 266.21924 268.66479 270.86292 272.69107 274.31812
 275.80908 277.52225 279.07581 280.44611 281.63681 282.69556 283.66907 284.56241
 285.37881 286.11615 286.76620 287.64813
 366.78100 356.32824 345.75348 334.61273 323.00897 311.19621 299.05945 286.85570
 274.56094 262.45118 250.45342 239.74767 229.86291 220.96015 213.13539 206.13064
 199.95788 194.88912 191.46436 189.49961 188.52985 188.58709 189.41533 190.71658
 192.43482 194.52306 196.77930 199.13154 201.56979 204.04303 206.12427 207.95951
 209.57876 210.71700 210.93924 211.16048 211.09073 210.78897 210.41521 210.03845
 209.64870 209.35194 209.15318 209.01042 208.93167 209.25591 209.63515 210.01739
 210.80363 211.97488 213.21812 214.99436 216.91560 218.95185 221.04009 223.11633
 225.16957 227.24682 229.33706 231.43630 233.55854 235.72379 237.97303 240.33627
 242.95051 245.19476 247.19000 248.94824 250.35848 251.47473 252.28997 252.59921
 252.62945 252.39669 251.74994 250.69118 249.29042 247.44466 245.34691 243.17315
 240.95739 238.75463 236.56788 234.40012 232.25336 230.11360 228.13285 226.28309
 224.55933 223.02457 221.64782 220.41306 219.28830 218.24154 217.33878 216.47303
 215.70827 214.88151 213.97275 213.33000 212.77324 213.26932 214.44135 216.47665
 218.61867 220.56616 222.01880 223.14981 224.52193 226.42947 228.68570 230.94687
 232.50133 233.60359 235.38348 238.65732 242.56427 246.62904 250.69699 254.56081
 257.91003 260.85934 263.59534 266.19107 268.62646 270.82330 272.66217 274.30310
 275.80191 277.51862 279.07269 280.44302 281.63193 282.69235 283.66547 284.55859
 285.37640 286.11337 286.76382 287.64725
 366.78100 356.32741 345.75182 334.61023 323.00564 311.19205 299.05446 286.84987
 274.55428 262.44369 250.44510 239.73851 229.85291 220.94932 213.12373 206.11814
 199.94455 194.87496 191.44937 189.48378 188.51319 188.56960 189.39701 190.69742
 192.41483 194.50224 196.75765 199.10906 201.54647 204.01888 206.09929 207.93370
 209.55211 210.68952 210.91093 211.13133 211.06074 210.75815 210.38356 210.00597
 209.61538 209.31779 209.11820 208.97461 208.89502 209.21843 209.59684 209.97825
 210.76366 211.93407 213.17648 214.95189 216.87230 218.90771 220.99512 223.07053
 225.12294 227.19935 229.28875 231.38716 233.50857 235.67298 237.92139 240.28380
 242.89721 245.14062 247.13503 248.89244 250.30185 251.41726 252.23167 252.54008
 252.56949 252.33590 251.68831 250.62872 249.22713 247.38054 245.28195 243.10736
 240.89077 238.68717 236.49958 234.33099 232.18340 230.04281 228.06122 226.21063
 224.48604 222.95045 221.57286 220.33727 219.21168 218.16409 217.26050 216.39391
 215.62832 214.80073 213.89114 213.24755 212.68996 213.23297 214.51591 216.58040
 218.74718 220.68326 222.09810 223.28651 224.69383 226.49478 228.74086 230.93777
 232.28438 233.15744 234.93562 238.35876 242.40233 246.54630 250.63390 254.49399
 257.85797 260.83060 263.57892 266.16702 268.59262 270.78937 272.63791 274.27594
 275.79941 277.52155 279.07571 280.44458 281.63382 282.69452 283.66742 284.55948
 285.37817 286.11600 286.76657 287.65143
 366.78100 356.32670 345.75040 334.60811 323.00281 311.18851 299.05021 286.84491
 274.54862 262.43732 250.43802 239.73072 229.84442 220.94013 213.11383 206.10753
 199.93323 194.86293 191.43664 189.47034 188.49904 188.55474 189.38144 190.68115
 192.39785 194.48455 196.73925 199.08995 201.52666 203.99836 206.07806 207.91176
 209.52946 210.66617 210.88687 211.10657 211.03527 210.73197 210.35668 209.97838
 209.58708 209.28878 209.08848 208.94419 208.86389 209.18659 209.56429 209.94499
 210.72970 211.89940 213.14110 214.91580 216.83550 218.87021 220.95691 223.03161
 225.08331 227.15901 229.24772 231.34542 233.46612 235.62982 237.87753 240.23923
 242.85193 245.09463 247.08833 248.84504 250.25374 251.36844 252.18214 252.48984
 252.51855 252.28425 251.63595 250.57565 249.17335 247.32606 245.22676 243.05146
 240.83416 238.62986 236.44157 234.27227 232.12397 229.98267 228.00037 226.14908
 224.42378 222.88748 221.50918 220.27288 219.14659 218.09829 217.19399 216.32669
 215.56039 214.73210 213.82180 213.17750 212.61920 213.20328 214.58319 216.70020
 218.87259 220.76321 222.17690 223.41458 224.86850 226.56650 228.79158 230.91338
 232.04890 232.73012 234.52277 238.08620 242.25838 246.46677 250.57346 254.42645
 257.80649 260.80518 263.56772 266.15063 268.56744 270.76352 272.61920 274.25845
 275.78940 277.51599 279.07162 280.44214 281.63226 282.69199 283.66669 284.56049
 285.37958 286.11804 286.76996 287.65652
 366.78100 356.32589 345.74878 334.60567 322.99956 311.18445 299.04534 286.83923
 274.54212 262.43001 250.42990 239.72179 229.83468 220.92957 213.10245 206.09534
 199.92023 194.84912 191.42201 189.45490 188.48279 188.53768 189.36357 190.66246
 192.37835 194.46424 196.71813 199.06802 201.50391 203.97480 206.05369 207.88658
 209.50347 210.63936 210.85925 211.07814 211.00603 210.70192 210.32581 209.94670
 209.55459 209.25548 209.05436 208.90925 208.82814 209.15003 209.52692 209.90681
 210.69070 211.85959 213.10048 214.87437 216.79326 218.82715 220.91304 222.98693
 225.03782 227.11271 229.20060 231.29749 233.41738 235.58027 237.82716 240.18805
 242.79994 245.04183 247.03472 248.79061 250.19850 251.31239 252.12527 252.43216
 252.46005 252.22494 251.57583 250.51472 249.11161 247.26350 245.16339 242.98728
 240.76917 238.56406 236.37495 234.20484 232.05573 229.91362 227.93051 226.07840
 224.35229 222.81518 221.43607 220.19896 219.07185 218.02274 217.11763 216.24952
 215.48241 214.65329 213.74218 213.09707 212.53796 213.16743 214.65462 216.83702
 218.97356 220.82742 222.24879 223.55362 225.03043 226.64201 228.84175 230.84467
 231.78664 232.33315 234.14784 237.83958 242.12392 246.38562 250.51125 254.36169
 257.75632 260.78073 263.55991 266.14032 268.55087 270.74930 272.61569 274.27292
 275.78223 277.51010 279.06339 280.43124 281.61954 282.67706 283.64987 284.54312
 285.36234 286.10187 286.75467 287.64536
 366.78100 356.32500 345.74700 334.60299 322.99599 311.17999 299.03999 286.83298
 274.53498 262.42198 250.42098 239.71197 229.82397 220.91797 213.08997 206.08196
 199.90596 194.83396 191.40596 189.43795 188.46495 188.51895 189.34395 190.64195
 192.35694 194.44194 196.69494 199.04394 201.47893 203.94893 206.02693 207.85893
 209.47492 210.60992 210.82892 211.04692 210.97391 210.66891 210.29191 209.91191
 209.51890 209.21890 209.01690 208.87090 208.78889 209.10989 209.48589 209.86489
 210.64789 211.81588 213.05588 214.82888 216.74688 218.77987 220.86487 222.93787
 224.98787 227.06186 229.14886 231.24486 233.36386 235.52585 237.77185 240.13185
 242.74285 244.98384 246.97584 248.73084 250.13784 251.25084 252.06283 252.36883
 252.39583 252.15983 251.50982 250.44782 249.04382 247.19482 245.09381 242.91681
 240.69781 238.49181 236.30180 234.13080 231.98080 229.83780 227.85379 226.00079
 224.27379 222.73579 221.35578 220.11778 218.98978 217.93978 217.03378 216.16477
 215.39677 214.56677 213.65477 213.00876 212.44876 213.12785 214.73230 216.98212
 219.05544 220.88246 222.31517 223.70508 225.18459 226.72462 228.89778 230.72568
 231.50212 231.96559 233.81421 237.61029 241.99951 246.31630 250.43251 254.29591
 257.70728 260.75641 263.55597 266.13815 268.54324 270.74155 272.61627 274.27957
 275.78445 277.50757 279.06186 280.43170 281.62057 282.67770 283.65079 284.54425
 285.36401 286.10410 286.75525 287.65060
 366.78100 356.32403 345.74507 334.60010 322.99214 311.17517 299.03421 286.82624
 274.52728 262.41331 250.41135 239.70138 229.81242 220.90545 213.07649 206.06752
 199.89056 194.81759 191.38863 189.41966 188.44570 188.49873 189.32277 190.61980
 192.33383 194.41787 196.66990 199.01794 201.45197 203.92101 205.99804 207.82908
 209.44411 210.57815 210.79618 211.01322 210.93925 210.63329 210.25532 209.87436
 209.48039 209.17943 208.97646 208.82950 208.74653 209.06657 209.44160 209.81963
 210.60167 211.76870 213.00774 214.77977 216.69681 218.72884 220.81288 222.88491
 224.93395 227.00698 229.09302 231.18805 233.30609 235.46712 237.71216 240.07119
 242.68123 244.92126 246.91230 248.66633 250.07237 251.18440 251.99543 252.30047
 252.32650 252.08954 251.43857 250.37561 248.97064 247.12068 245.01871 242.84075
 240.62078 238.41382 236.22285 234.05089 231.89992 229.75596 227.77099 225.91703
 224.18906 222.65010 221.26913 220.03017 218.90120 217.85023 216.94327 216.07330
 215.30434 214.47337 213.56041 212.91344 212.35248 213.08557 214.81757 217.12126
 219.13062 220.92780 222.38074 223.85599 225.32700 226.80591 228.94737 230.57271
 231.20184 231.62341 233.52014 237.41672 241.89397 246.24829 250.36111 254.22458
 257.65222 260.73285 263.55685 266.14429 268.54547 270.74210 272.61487 274.27197
 275.78494 277.50562 279.06085 280.43134 281.62045 282.67966 283.65356 284.54642
 285.36649 286.10614 286.76010 287.65155
 366.78100 356.32306 345.74311 334.59717 322.98822 311.17028 299.02833 286.81939
 274.51944 262.40450 250.40155 239.69061 229.80066 220.89272 213.06277 206.05283
 199.87489 194.80094 191.37100 189.40105 188.42611 188.47816 189.30122 190.59727
 192.31033 194.39338 196.64444 198.99149 201.42455 203.89260 205.96866 207.79871
 209.41277 210.54583 210.76288 210.97894 210.90399 210.59705 210.21810 209.83616
 209.44121 209.13927 208.93532 208.78738 208.70343 209.02249 209.39654 209.77360
 210.55466 211.72071 212.95877 214.72982 216.64588 218.67693 220.75999 222.83104
 224.87910 226.95115 229.03621 231.13026 233.24732 235.40737 237.65143 240.00949
 242.61854 244.85760 246.84765 248.60071 250.00576 251.11682 251.92687 252.23093
 252.25598 252.01804 251.36609 250.30215 248.89620 247.04526 244.94231 242.76337
 240.54243 238.33448 236.14254 233.96959 231.81765 229.67270 227.68676 225.83181
 224.10287 222.56292 221.18098 219.94103 218.81109 217.75914 216.85120 215.98026
 215.21031 214.37837 213.46442 212.81648 212.25453 213.04332 214.90695 217.26227
 219.19576 220.95853 222.44997 224.00362 225.46542 226.88104 228.98438 230.41304
 230.89793 231.28966 233.25060 237.26091 241.80237 246.18265 250.29176 254.15517
 257.59753 260.71005 263.56396 266.16083 268.55994 270.75494 272.61850 274.26901
 275.78253 277.50153 279.05737 280.42679 281.61597 282.67572 283.64865 284.54202
 285.36060 286.09958 286.75247 287.64960
 366.78100 356.32208 345.74116 334.59424 322.98432 311.16540 299.02248 286.81256
 274.51164 262.39572 250.39180 239.67988 229.78897 220.88005 213.04913 206.03821
 199.85929 194.78437 191.35345 189.38253 188.40661 188.45769 189.27977 190.57485
 192.28693 194.36901 196.61909 198.96517 201.39725 203.86433 205.93941 207.76849
 209.38157 210.51365 210.72973 210.94482 210.86890 210.56098 210.18106 209.79814
 209.40222 209.09930 208.89438 208.74546 208.66054 208.97862 209.35170 209.72778
 210.50786 211.67294 212.91002 214.68010 216.59518 218.62526 220.70734 222.77742
 224.82450 226.89558 228.97967 231.07275 233.18883 235.34791 237.59099 239.94807
 242.55615 244.79423 246.78331 248.53539 249.93947 251.04955 251.85863 252.16171
 252.18579 251.94687 251.29395 250.22903 248.82211 246.97019 244.86627 242.68635
 240.46443 238.25552 236.06260 233.88868 231.73576 229.58984 227.60292 225.74700
 224.01708 222.47616 221.09324 219.85232 218.72140 217.66848 216.75956 215.88764
 215.11672 214.28380 213.36888 212.71996 212.15704 213.00241 214.99971 217.40639
 219.25009 220.97899 222.51984 224.14282 225.60498 226.95992 229.00526 230.24892
 230.59338 230.95949 233.00191 237.12901 241.72440 246.11565 250.23059 254.07742
 257.54022 260.68820 263.57477 266.18436 268.58371 270.77719 272.63123 274.27655
 275.77719 277.49539 279.05130 280.42059 281.61026 282.66821 283.64273 284.53513
 285.35376 286.09146 286.74585 287.64548
 366.78100 356.32110 345.73919 334.59129 322.98039 311.16048 299.01658 286.80568
 274.50377 262.38687 250.38197 239.66907 229.77716 220.86726 213.03536 206.02345
 199.84355 194.76765 191.33574 189.36384 188.38694 188.43703 189.25813 190.55223
 192.26332 194.34442 196.59352 198.93862 201.36971 203.83581 205.90991 207.73800
 209.35010 210.48120 210.69629 210.91039 210.83349 210.52458 210.14368 209.75978
 209.36287 209.05897 208.85307 208.70316 208.61726 208.93436 209.30646 209.68155
 210.46065 211.62475 212.86084 214.62994 216.54404 218.57313 220.65423 222.72333
 224.76942 226.83952 228.92262 231.01471 233.12981 235.28791 237.53000 239.88610
 242.49320 244.73030 246.71839 248.46949 249.87259 250.98168 251.78978 252.09188
 252.11497 251.87507 251.22117 250.15526 248.74736 246.89446 244.78955 242.60865
 240.38575 238.17585 235.98194 233.80704 231.65314 229.50623 227.51833 225.66143
 223.93052 222.38862 221.00472 219.76281 218.63091 217.57701 216.66710 215.79420
 215.02230 214.18839 213.27249 212.62259 212.05869 212.96220 215.09683 217.54933
 219.29562 221.00060 222.59146 224.27234 225.74428 227.03189 229.00768 230.09850
 230.30466 230.63522 232.77037 237.01567 241.65701 246.05107 250.16588 253.99501
 257.48312 260.67004 263.58966 266.21597 268.61707 270.80676 272.64798 274.28326
 275.77216 277.48911 279.04337 280.41446 281.60358 282.66193 283.63525 284.52771
 285.34622 286.08606 286.73865 287.64249
 366.78100 356.32051 345.73801 334.58952 322.97802 311.15753 299.01303 286.80154
 274.49904 262.38155 250.37605 239.66256 229.77006 220.85957 213.02707 206.01458
 199.83408 194.75759 191.32509 189.35260 188.37510 188.42461 189.24511 190.53862
 192.24912 194.32963 196.57813 198.92264 201.35314 203.81865 205.89215 207.71966
 209.33116 210.46167 210.67617 210.88968 210.81218 210.50269 210.12119 209.73670
 209.33920 209.03471 208.82821 208.67772 208.59123 208.90773 209.27924 209.65374
 210.43225 211.59575 212.83126 214.59976 216.51327 218.54177 220.62228 222.69078
 224.73629 226.80579 228.88830 230.97980 233.09431 235.25181 237.49332 239.84882
 242.45533 244.69183 246.67934 248.42984 249.83235 250.94085 251.74836 252.04986
 252.07237 251.83187 251.17738 250.11088 248.70239 246.84889 244.74340 242.56190
 240.33841 238.12791 235.93342 233.75792 231.60343 229.45593 227.46744 225.60995
 223.87845 222.33596 220.95146 219.70897 218.57647 217.52198 216.61148 215.73799
 214.96549 214.13100 213.21450 212.56401 211.99951 212.94382 215.17482 217.69685
 219.36768 221.00136 222.62697 224.39291 225.88034 227.12297 229.00627 229.92340
 230.01334 230.33888 232.57346 236.91338 241.58754 245.98579 250.08945 253.91974
 257.43304 260.65771 263.60992 266.25272 268.65475 270.83844 272.66190 274.28149
 275.76465 277.48068 279.03659 280.40677 281.59610 282.65427 283.62717 284.51987
 285.33759 286.07764 286.73123 287.63574
 366.78100 356.31966 345.73633 334.58699 322.97466 311.15332 299.00798 286.79565
 274.49231 262.37398 250.36764 239.65330 229.75997 220.84863 213.01529 206.00196
 199.82062 194.74329 191.30995 189.33661 188.35828 188.40694 189.22661 190.51927
 192.22893 194.30860 196.55626 198.89993 201.32959 203.79425 205.86692 207.69358
 209.30424 210.43391 210.64757 210.86024 210.78190 210.47156 210.08923 209.70389
 209.30556 209.00022 208.79288 208.64155 208.55421 208.86988 209.24054 209.61420
 210.39187 211.55453 212.78920 214.55686 216.46952 218.49719 220.57685 222.64451
 224.68918 226.75784 228.83951 230.93017 233.04383 235.20050 237.44116 239.79583
 242.40149 244.63715 246.62382 248.37348 249.77515 250.88281 251.68947 251.99014
 252.01180 251.77046 251.11513 250.04779 248.63846 246.78412 244.67778 242.49545
 240.27111 238.05978 235.86444 233.68810 231.53277 229.38443 227.39510 225.53676
 223.80442 222.26109 220.87575 219.63241 218.49908 217.44374 216.53241 215.65807
 214.88473 214.04940 213.13206 212.48073 211.91539 212.91467 215.27556 217.81897
 219.43547 221.05977 222.63339 224.42241 226.01619 227.22002 229.02293 229.82104
 229.74425 230.01300 232.36377 236.81815 241.52641 245.93463 250.02742 253.85054
 257.38229 260.64236 263.63004 266.29214 268.69727 270.87482 272.67889 274.27811
 275.75629 277.47141 279.02802 280.39767 281.58661 282.64453 283.61618 284.50876
 285.32657 286.06668 286.72058 287.63010
 366.78100 356.31893 345.73487 334.58480 322.97173 311.14967 299.00360 286.79053
 274.48646 262.36740 250.36033 239.64526 229.75120 220.83913 213.00506 205.99100
 199.80893 194.73086 191.29679 189.32273 188.34366 188.39159 189.21053 190.50246
 192.21139 194.29033 196.53726 198.88019 201.30912 203.77306 205.84499 207.67092
 209.28086 210.40979 210.62272 210.83466 210.75559 210.44452 210.06145 209.67539
 209.27632 208.97025 208.76219 208.61012 208.52205 208.83699 209.20692 209.57985
 210.35678 211.51872 212.75265 214.51958 216.43152 218.45845 220.53738 222.60432
 224.64825 226.71618 228.79711 230.88705 232.99998 235.15591 237.39585 239.74978
 242.35471 244.58965 246.57558 248.32451 249.72544 250.83238 251.63831 251.93824
 251.95918 251.71711 251.06104 249.99298 248.58291 246.72784 244.62077 242.43771
 240.21264 238.00057 235.80451 233.62744 231.47137 229.32231 227.33224 225.47317
 223.74010 222.19604 220.80997 219.56590 218.43184 217.37577 216.46370 215.58864
 214.81457 213.97850 213.06043 212.40837 211.84230 212.89285 215.37491 217.93925
 219.48976 221.11700 222.75230 224.43898 225.91846 227.27150 229.10110 229.89677
 229.55550 229.53517 232.15567 236.77545 241.49005 245.89897 249.97253 253.77901
 257.32675 260.62384 263.64822 266.33310 268.74423 270.91638 272.70145 274.27823
 275.74686 277.46198 279.01840 280.38849 281.57788 282.63544 283.60834 284.49997
 285.31702 286.05826 286.71231 287.62479
 366.78100 356.31842 345.73385 334.58327 322.96970 311.14712 299.00054 286.78697
 274.48239 262.36282 250.35524 239.63967 229.74509 220.83251 212.99794 205.98336
 199.80079 194.72221 191.28763 189.31306 188.33348 188.38091 189.19933 190.49075
 192.19918 194.27760 196.52403 198.86645 201.29488 203.75830 205.82972 207.65515
 209.26457 210.39300 210.60542 210.81684 210.73727 210.42569 210.04212 209.65554
 209.25596 208.94939 208.74081 208.58824 208.49966 208.81409 209.18351 209.55593
 210.33236 211.49378 212.72721 214.49363 216.40505 218.43148 220.50990 222.57633
 224.61975 226.68718 228.76760 230.85702 232.96945 235.12487 237.36430 239.71772
 242.32214 244.55657 246.54199 248.29042 249.69084 250.79726 251.60269 251.90211
 251.92254 251.67996 251.02339 249.95481 248.54423 246.68866 244.58108 242.39751
 240.17193 237.95935 235.76278 233.58520 231.42863 229.27905 227.28847 225.42890
 223.69532 222.15075 220.76417 219.51960 218.38502 217.32844 216.41587 215.54029
 214.76572 213.92914 213.01056 212.35799 211.79141 212.88342 215.46339 218.06488
 219.54221 221.14505 222.84581 224.56233 225.95433 227.30017 229.02997 229.77670
 229.35237 229.23476 232.01083 236.72496 241.46442 245.86290 249.90700 253.70177
 257.26883 260.60464 263.66760 266.37659 268.79492 270.96072 272.72577 274.27765
 275.73700 277.45215 279.00937 280.37970 281.56888 282.62585 283.59888 284.48984
 285.30637 286.04800 286.70218 287.61761
 366.78100 356.31803 345.73305 334.58208 322.96811 311.14513 298.99816 286.78419
 274.47921 262.35924 250.35126 239.63529 229.74032 220.82734 212.99237 205.97740
 199.79442 194.71545 191.28048 189.30550 188.32553 188.37256 189.19058 190.48161
 192.18964 194.26766 196.51369 198.85571 201.28374 203.74677 205.81779 207.64282
 209.25185 210.37987 210.59190 210.80293 210.72295 210.41098 210.02701 209.64003
 209.24006 208.93309 208.72411 208.57114 208.48217 208.79619 209.16522 209.53724
 210.31327 211.47430 212.70732 214.47335 216.38438 218.41040 220.48843 222.55446
 224.59748 226.66451 228.74454 230.83356 232.94559 235.10062 237.33964 239.69267
 242.29669 244.53072 246.51575 248.26377 249.66380 250.76983 251.57485 251.87388
 251.89391 251.65093 250.99396 249.92499 248.51401 246.65804 244.55007 242.36609
 240.14012 237.92714 235.73017 233.55220 231.39522 229.24525 227.25428 225.39430
 223.66033 222.11536 220.72838 219.48341 218.34844 217.29146 216.37849 215.50252
 214.72754 213.89057 212.97159 212.31862 211.75165 212.88121 215.54993 218.18430
 219.59697 221.20300 222.87532 224.63928 226.12999 227.39024 228.85617 229.55043
 229.14720 229.04396 231.90080 236.66229 241.43076 245.82285 249.84756 253.63429
 257.21756 260.58765 263.68597 266.41855 268.84348 271.00336 272.74792 274.27496
 275.72675 277.44055 278.99783 280.36798 281.55722 282.61435 283.58646 284.47745
 285.29449 286.03506 286.68994 287.60840
 366.78100 356.31782 345.73263 334.58145 322.96727 311.14408 298.99690 286.78272
 274.47753 262.35735 250.34917 239.63298 229.73780 220.82461 212.98943 205.97425
 199.79106 194.71188 191.27670 189.30151 188.32133 188.36815 189.18596 190.47678
 192.18460 194.26241 196.50823 198.85005 201.27786 203.74068 205.81150 207.63631
 209.24513 210.37295 210.58476 210.79558 210.71539 210.40321 210.01903 209.63184
 209.23166 208.92448 208.71529 208.56211 208.47293 208.78674 209.15556 209.52738
 210.30319 211.46401 212.69683 214.46264 216.37346 218.39928 220.47709 222.54291
 224.58573 226.65254 228.73236 230.82117 232.93299 235.08781 237.32662 239.67944
 242.28326 244.51707 246.50189 248.24971 249.64952 250.75534 251.56016 251.85897
 251.87879 251.63561 250.97842 249.90924 248.49806 246.64187 244.53369 242.34950
 240.12332 237.91014 235.71295 233.53477 231.37759 229.22740 227.23622 225.37604
 223.64185 222.09667 220.70949 219.46430 218.32912 217.27194 216.35875 215.48257
 214.70739 213.87020 212.95102 212.29784 211.73065 212.89058 215.63103 218.29172
 219.66743 221.27164 222.90659 224.66492 226.29063 227.49037 228.69847 229.32687
 228.92464 228.87111 231.80870 236.60428 241.39673 245.78282 249.79706 253.57610
 257.16968 260.56897 263.70053 266.45648 268.88861 271.04062 272.76868 274.26874
 275.71475 277.42737 278.98502 280.35574 281.54572 282.60352 283.57492 284.46622
 285.28229 286.02368 286.67911 287.59955
 366.78100 356.31778 345.73256 334.58134 322.96713 311.14391 298.99669 286.78247
 274.47725 262.35703 250.34882 239.63260 229.73738 220.82416 212.98894 205.97372
 199.79051 194.71129 191.27607 189.30085 188.32063 188.36741 189.18519 190.47598
 192.18376 194.26154 196.50732 198.84910 201.27688 203.73967 205.81045 207.63523
 209.24401 210.37179 210.58357 210.79436 210.71414 210.40192 210.01770 209.63048
 209.23026 208.92304 208.71383 208.56061 208.47139 208.78517 209.15395 209.52573
 210.30152 211.46230 212.69508 214.46086 216.37164 218.39742 220.47521 222.54099
 224.58377 226.65055 228.73033 230.81911 232.93089 235.08568 237.32446 239.67724
 242.28102 244.51480 246.49958 248.24737 249.64715 250.75293 251.55771 251.85649
 251.87627 251.63306 250.97584 249.90662 248.49540 246.63918 244.53096 242.34674
 240.12053 237.90731 235.71009 233.53187 231.37465 229.22443 227.23322 225.37300
 223.63878 222.09356 220.70634 219.46112 218.32590 217.26869 216.35547 215.47925
 214.70403 213.86681 212.94759 212.29438 211.72716 212.91029 215.70560 218.39067
 219.75412 221.32414 222.96539 224.71266 226.37943 227.53009 228.60506 229.11017
 228.65875 228.70862 231.73912 236.55911 241.35799 245.74077 249.75085 253.52278
 257.12509 260.54941 263.71155 266.49014 268.92896 271.07382 272.78766 274.26334
 275.70123 277.41406 278.97241 280.34354 281.53348 282.59045 283.56256 284.45526
 285.27097 286.01157 286.66644 287.59006
 366.78100 356.31783 345.73266 334.58149 322.96732 311.14415 298.99698 286.78280
 274.47763 262.35746 250.34929 239.63312 229.73795 220.82478 212.98961 205.97444
 199.79127 194.71210 191.27693 189.30175 188.32158 188.36841 189.18624 190.47707
 192.18490 194.26273 196.50856 198.85039 201.27822 203.74105 205.81188 207.63670
 209.24553 210.37336 210.58519 210.79602 210.71585 210.40368 210.01951 209.63234
 209.23217 208.92500 208.71583 208.56265 208.47348 208.78731 209.15614 209.52797
 210.30380 211.46463 212.69746 214.46329 216.37412 218.39995 220.47778 222.54361
 224.58643 226.65326 228.73309 230.82192 232.93375 235.08858 237.32741 239.68024
 242.28407 244.51790 246.50273 248.25056 249.65038 250.75621 251.56104 251.85987
 251.87970 251.63653 250.97936 249.91019 248.49902 246.64285 244.53468 242.35051
 240.12433 237.91116 235.71399 233.53582 231.37865 229.22848 227.23731 225.37714
 223.64297 222.09780 220.71063 219.46546 218.33028 217.27311 216.35994 215.48377
 214.70860 213.87143 212.95226 212.29909 211.73192 212.93559 215.77942 218.48079
 219.84023 221.38049 223.04655 224.78607 226.40826 227.51451 228.55493 228.89456
 228.37115 228.56311 231.69252 236.51810 241.31288 245.69647 249.70578 253.47420
 257.08353 260.52930 263.71835 266.51794 268.96323 271.10233 272.80084 274.25555
 275.68686 277.39911 278.95789 280.32968 281.52014 282.57843 283.55023 284.44089
 285.25693 285.99789 286.65329 287.57541
 366.78100 356.31797 345.73294 334.58190 322.96787 311.14484 298.99781 286.78378
 274.47874 262.35871 250.35068 239.63465 229.73962 220.82658 212.99155 205.97652
 199.79349 194.71446 191.27942 189.30439 188.32436 188.37133 189.18930 190.48026
 192.18823 194.26620 196.51217 198.85414 201.28211 203.74507 205.81604 207.64101
 209.24998 210.37795 210.58991 210.80088 210.72085 210.40882 210.02479 209.63775
 209.23772 208.93069 208.72166 208.56863 208.47959 208.79356 209.16253 209.53450
 210.31047 211.47143 212.70440 214.47037 216.38134 218.40731 220.48527 222.55124
 224.59421 226.66118 228.74115 230.83011 232.94208 235.09705 237.33602 239.68899
 242.29295 244.52692 246.51189 248.25986 249.65983 250.76579 251.57076 251.86973
 251.88970 251.64667 250.98963 249.92060 248.50957 246.65354 244.54551 242.36148
 240.13544 237.92241 235.72538 233.54735 231.39032 229.24028 227.24925 225.38922
 223.65519 222.11016 220.72312 219.47809 218.34306 217.28603 216.37300 215.49696
 214.72193 213.88490 212.96587 212.31284 211.74580 212.96680 215.85155 218.55798
 219.92561 221.45520 223.13428 224.85847 226.40120 227.48105 228.51741 228.68446
 228.09468 228.43605 231.65749 236.47618 241.26384 245.65031 249.66263 253.43112
 257.04568 260.50735 263.71945 266.53818 268.98990 271.12451 272.80875 274.24829
 275.67209 277.38306 278.94235 280.31497 281.50473 282.56369 283.53549 284.42743
 285.24075 285.98242 286.63748 287.56207
 366.78100 356.31826 345.73352 334.58278 322.96904 311.14630 298.99955 286.78581
 274.48107 262.36133 250.35359 239.63785 229.74311 220.83037 212.99563 205.98089
 199.79814 194.71940 191.28466 189.30992 188.33018 188.37744 189.19570 190.48696
 192.19522 194.27348 196.51973 198.86199 201.29025 203.75351 205.82477 207.65003
 209.25929 210.38755 210.59981 210.81107 210.73132 210.41958 210.03584 209.64910
 209.24936 208.94262 208.73388 208.58114 208.49240 208.80666 209.17592 209.54817
 210.32443 211.48569 212.71895 214.48521 216.39647 218.42273 220.50099 222.56725
 224.61051 226.67776 228.75802 230.84728 232.95954 235.11480 237.35406 239.70732
 242.31158 244.54584 246.53110 248.27935 249.67961 250.78587 251.59113 251.89039
 251.91065 251.66791 251.01117 249.94243 248.53169 246.67594 244.56820 242.38446
 240.15872 237.94598 235.74924 233.57150 231.41476 229.26502 227.27428 225.41454
 223.68079 222.13605 220.74931 219.50457 218.36983 217.31309 216.40035 215.52461
 214.74987 213.91313 212.99438 212.34164 211.77490 213.00696 215.91780 218.62289
 220.01929 221.54390 223.21913 224.92133 226.37798 227.44720 228.47894 228.48866
 227.84799 228.32747 231.61981 236.42860 241.21117 245.60301 249.62350 253.39458
 257.01117 260.48370 263.71317 266.54861 269.00714 271.13742 272.81134 274.24069
 275.65704 277.36728 278.92789 280.29910 281.48907 282.54932 283.52017 284.41113
 285.22827 285.96725 286.62244 287.55237
 366.78100 356.31869 345.73439 334.58408 322.97078 311.14847 299.00217 286.78886
 274.48456 262.36525 250.35795 239.64264 229.74834 220.83603 213.00173 205.98742
 199.80512 194.72681 191.29251 189.31820 188.33890 188.38659 189.20529 190.49698
 192.20568 194.28437 196.53107 198.87376 201.30246 203.76615 205.83785 207.66354
 209.27324 210.40193 210.61463 210.82632 210.74702 210.43571 210.05241 209.66610
 209.26680 208.96049 208.75219 208.59988 208.51158 208.82627 209.19597 209.56866
 210.34536 211.50705 212.74075 214.50744 216.41914 218.44583 220.52453 222.59122
 224.63492 226.70261 228.78331 230.87300 232.98570 235.14139 237.38109 239.73478
 242.33948 244.57417 246.55987 248.30856 249.70926 250.81595 251.62165 251.92134
 251.94204 251.69973 251.04343 249.97512 248.56482 246.70951 244.60221 242.41890
 240.19360 237.98129 235.78499 233.60768 231.45138 229.30207 227.31177 225.45246
 223.71916 222.17485 220.78855 219.54424 218.40994 217.35363 216.44133 215.56602
 214.79172 213.95541 213.03711 212.38480 211.81850 213.05499 215.97635 218.67766
 220.11960 221.64037 223.30305 224.97676 226.35255 227.41360 228.43134 228.30632
 227.63089 228.23625 231.57872 236.37364 241.15352 245.55588 249.58940 253.36505
 256.98065 260.45865 263.70175 266.55157 269.01486 271.14072 272.80927 274.23276
 275.64349 277.35214 278.91162 280.28473 281.47653 282.53470 283.50720 284.39777
 285.21423 285.95541 286.60928 287.54382
 366.78100 356.31926 345.73552 334.58578 322.97304 311.15130 299.00556 286.79281
 274.48907 262.37033 250.36359 239.64885 229.75511 220.84337 213.00963 205.99589
 199.81415 194.73641 191.30267 189.32893 188.35018 188.39844 189.21770 190.50996
 192.21922 194.29848 196.54574 198.88900 201.31826 203.78252 205.85478 207.68104
 209.29130 210.42055 210.63381 210.84607 210.76733 210.45659 210.07385 209.68811
 209.28937 208.98363 208.77589 208.62415 208.53641 208.85167 209.22192 209.59518
 210.37244 211.53470 212.76896 214.53622 216.44848 218.47574 220.55500 222.62226
 224.66652 226.73478 228.81604 230.90629 233.01955 235.17581 237.41607 239.77033
 242.37559 244.61085 246.59711 248.34637 249.74763 250.85489 251.66115 251.96141
 251.98267 251.74092 251.08518 250.01744 248.60770 246.75296 244.64622 242.46348
 240.23874 238.02700 235.83126 233.65452 231.49878 229.35004 227.36029 225.50155
 223.76881 222.22507 220.83933 219.59559 218.46185 217.40611 216.49437 215.61963
 214.84589 214.01015 213.09241 212.44066 211.87492 213.10980 216.02736 218.72758
 220.21741 221.74332 223.39104 225.02989 226.33409 227.38155 228.36780 228.13480
 227.44189 228.15733 231.53468 236.31334 241.09290 245.51010 249.56044 253.34261
 256.95557 260.43362 263.68573 266.54788 269.01462 271.13437 272.80203 274.22226
 275.63110 277.34012 278.90033 280.27313 281.46432 282.52472 283.49582 284.38815
 285.20401 285.94501 286.60062 287.53503
 366.78100 356.31981 345.73662 334.58743 322.97525 311.15406 299.00887 286.79668
 274.49349 262.37530 250.36911 239.65493 229.76174 220.85055 213.01736 206.00417
 199.82298 194.74579 191.31261 189.33942 188.36123 188.41004 189.22985 190.52266
 192.23247 194.31229 196.56010 198.90391 201.33372 203.79853 205.87134 207.69816
 209.30897 210.43878 210.65259 210.86540 210.78721 210.47702 210.09484 209.70965
 209.31146 209.00627 208.79908 208.64789 208.56070 208.87652 209.24733 209.62114
 210.39895 211.56176 212.79657 214.56438 216.47720 218.50501 220.58482 222.65263
 224.69744 226.76625 228.84806 230.93888 233.05269 235.20950 237.45031 239.80512
 242.41093 244.64674 246.63356 248.38337 249.78518 250.89299 251.69980 252.00061
 252.02242 251.78124 251.12605 250.05886 248.64967 246.79548 244.68929 242.50710
 240.28292 238.07173 235.87654 233.70035 231.54516 229.39697 227.40778 225.54960
 223.81741 222.27422 220.88903 219.64584 218.51265 217.45747 216.54628 215.67209
 214.89890 214.06371 213.14652 212.49533 211.93015 213.16438 216.08040 218.76799
 220.31192 221.85400 223.48825 225.07474 226.32417 227.35912 228.29611 227.96451
 227.26474 228.09032 231.49472 236.24860 241.02850 245.46436 249.53548 253.32864
 256.93723 260.41052 263.66678 266.53796 269.00607 271.11905 272.78534 274.20721
 275.61972 277.32986 278.89090 280.26434 281.45667 282.51688 283.48984 284.38135
 285.19717 285.93884 286.59344 287.53104
 366.78100 356.32032 345.73764 334.58896 322.97728 311.15660 299.01192 286.80024
 274.49756 262.37988 250.37420 239.66052 229.76784 220.85716 213.02448 206.01180
 199.83113 194.75445 191.32177 189.34909 188.37141 188.42073 189.24105 190.53437
 192.24469 194.32501 196.57333 198.91765 201.34797 203.81329 205.88661 207.71393
 209.32525 210.45557 210.66989 210.88321 210.80553 210.49585 210.11417 209.72949
 209.33181 209.02713 208.82045 208.66977 208.58309 208.89941 209.27074 209.64506
 210.42338 211.58670 212.82202 214.59034 216.50366 218.53198 220.61230 222.68062
 224.72594 226.79526 228.87758 230.96890 233.08322 235.24054 237.48186 239.83718
 242.44350 244.67982 246.66714 248.41746 249.81978 250.92810 251.73542 252.03674
 252.05906 251.81838 251.16370 250.09702 248.68835 246.83467 244.72899 242.54731
 240.32363 238.11295 235.91827 233.74259 231.58791 229.44023 227.45155 225.59387
 223.86219 222.31951 220.93483 219.69215 218.55947 217.50479 216.59411 215.72043
 214.94775 214.11307 213.19639 212.54571 211.98103 213.21677 216.13632 218.79860
 220.40067 221.97084 223.58720 225.13109 226.31969 227.33447 228.21944 227.79799
 227.10002 228.03073 231.44728 236.17708 240.96252 245.42044 249.51852 253.32529
 256.92694 260.38989 263.64493 266.52060 268.98856 271.09329 272.75970 274.18707
 275.60934 277.32138 278.88281 280.25671 281.44980 282.51077 283.48413 284.37549
 285.19196 285.93292 286.58936 287.52658
 366.78100 356.32112 345.73925 334.59137 322.98050 311.16062 299.01675 286.80587
 274.50399 262.38712 250.38224 239.66937 229.77749 220.86762 213.03574 206.02386
 199.84399 194.76811 191.33624 189.36436 188.38749 188.43761 189.25874 190.55286
 192.26398 194.34511 196.59423 198.93936 201.37048 203.83661 205.91073 207.73885
 209.35098 210.48210 210.69723 210.91135 210.83448 210.52560 210.14472 209.76085
 209.36397 209.06010 208.85422 208.70435 208.61847 208.93559 209.30772 209.68284
 210.46197 211.62609 212.86222 214.63134 216.54546 218.57459 220.65571 222.72484
 224.77096 226.84109 228.92421 231.01633 233.13146 235.28958 237.53171 239.88783
 242.49496 244.73208 246.72021 248.47133 249.87445 250.98358 251.79170 252.09383
 252.11695 251.87708 251.22320 250.15732 248.74945 246.89657 244.79170 242.61082
 240.38795 238.17807 235.98419 233.80932 231.65544 229.50857 227.52069 225.66382
 223.93294 222.39106 221.00719 219.76531 218.63344 217.57956 216.66969 215.79681
 215.02493 214.19106 213.27518 212.62531 212.06143 213.28391 216.17215 218.84077
 220.47343 222.09540 223.68987 225.17134 226.33701 227.33278 228.12402 227.64606
 226.96146 227.96318 231.40315 236.10844 240.89336 245.37775 249.50888 253.32916
 256.92078 260.36954 263.61929 266.49780 268.96420 271.06189 272.72980 274.16467
 275.59943 277.31406 278.87582 280.25009 281.44388 282.50537 283.47955 284.37195
 285.18750 285.93011 286.58463 287.52539
 366.78100 356.32191 345.74082 334.59372 322.98363 311.16454 299.02145 286.81135
 274.51026 262.39417 250.39008 239.67798 229.78689 220.87780 213.04671 206.03561
 199.85652 194.78143 191.35034 189.37924 188.40315 188.45406 189.27597 190.57087
 192.28278 194.36469 196.61460 198.96050 201.39241 203.85932 205.93423 207.76313
 209.37604 210.50795 210.72386 210.93876 210.86267 210.55458 210.17449 209.79139
 209.39530 209.09221 208.88712 208.73802 208.65293 208.97084 209.34375 209.71965
 210.49956 211.66447 212.90138 214.67129 216.58619 218.61610 220.69801 222.76792
 224.81482 226.88573 228.96964 231.06255 233.17845 235.33736 237.58027 239.93718
 242.54508 244.78299 246.77190 248.52381 249.92771 251.03762 251.84653 252.14944
 252.17334 251.93425 251.28116 250.21607 248.80897 246.95688 244.85279 242.67270
 240.45060 238.24151 236.04842 233.87433 231.72123 229.57514 227.58805 225.73196
 224.00186 222.46077 221.07768 219.83659 218.70549 217.65240 216.74331 215.87122
 215.10013 214.26703 213.35194 212.70285 212.13976 213.34962 216.20807 218.87825
 220.53583 222.21472 223.82761 225.22267 226.29942 227.29889 228.10898 227.49019
 226.76427 227.89772 231.34563 236.02277 240.82364 245.34473 249.50832 253.33904
 256.91815 260.35046 263.59357 266.47363 268.93649 271.02438 272.69345 274.13824
 275.58939 277.30658 278.86911 280.24399 281.43808 282.50186 283.47449 284.36774
 285.18289 285.92502 286.58054 287.52393
 366.78100 356.32264 345.74227 334.59591 322.98654 311.16818 299.02582 286.81645
 274.51609 262.40073 250.39736 239.68600 229.79563 220.88727 213.05691 206.04654
 199.86818 194.79381 191.36345 189.39309 188.41772 188.46936 189.29200 190.58763
 192.30027 194.38290 196.63354 198.98018 201.41281 203.88045 205.95608 207.78572
 209.39936 210.53199 210.74863 210.96427 210.88890 210.58154 210.20217 209.81981
 209.42445 209.12208 208.91772 208.76935 208.68499 209.00363 209.37726 209.75390
 210.53454 211.70017 212.93781 214.70844 216.62408 218.65472 220.73735 222.80799
 224.85562 226.92726 229.01190 231.10553 233.22217 235.38181 237.62544 239.98308
 242.59171 244.83035 246.81999 248.57262 249.97726 251.08790 251.89753 252.20117
 252.22580 251.98744 251.33508 250.27071 248.86435 247.01298 244.90962 242.73026
 240.50889 238.30053 236.10817 233.93480 231.78244 229.63707 227.65071 225.79535
 224.06598 222.52562 221.14325 219.90289 218.77253 217.72016 216.81180 215.94044
 215.17007 214.33771 213.42334 212.77498 212.21262 213.41264 216.24783 218.90750
 220.61266 222.28133 223.98094 225.37805 226.29015 227.21028 228.01982 227.52345
 226.69182 227.67430 231.25479 235.97243 240.77779 245.32751 249.51334 253.35306
 256.92078 260.33560 263.56894 266.44690 268.90332 270.97714 272.64667 274.10394
 275.57767 277.29877 278.86176 280.23758 281.43216 282.49545 283.47089 284.36325
 285.18027 285.92108 286.57666 287.52164
 366.78100 356.32335 345.74370 334.59805 322.98940 311.17175 299.03010 286.82145
 274.52180 262.40715 250.40450 239.69384 229.80419 220.89654 213.06689 206.05724
 199.87959 194.80594 191.37629 189.40664 188.43199 188.48434 189.30769 190.60404
 192.31739 194.40074 196.65209 198.99944 201.43279 203.90114 205.97749 207.80783
 209.42218 210.55553 210.77288 210.98923 210.91458 210.60793 210.22928 209.84763
 209.45298 209.15133 208.94768 208.80003 208.71638 209.03573 209.41008 209.78743
 210.56878 211.73513 212.97348 214.74482 216.66117 218.69252 220.77587 222.84722
 224.89557 226.96792 229.05327 231.14762 233.26497 235.42532 237.66967 240.02802
 242.63737 244.87672 246.86707 248.62042 250.02577 251.13712 251.94747 252.25182
 252.27716 252.03951 251.38786 250.32421 248.91856 247.06791 244.96526 242.78661
 240.56596 238.35831 236.16666 233.99401 231.84236 229.69771 227.71206 225.85741
 224.12876 222.58911 221.20746 219.96781 218.83815 217.78650 216.87885 216.00820
 215.23855 214.40690 213.49325 212.84560 212.28395 213.47466 216.28784 218.93051
 220.69942 222.35239 224.07196 225.51498 226.38147 227.18069 227.82568 227.47672
 226.68462 227.53885 231.19347 235.93423 240.73125 245.30223 249.51430 253.36838
 256.92612 260.32187 263.54358 266.41760 268.86450 270.92224 272.58942 274.06229
 275.56244 277.28787 278.85141 280.22821 281.42401 282.48761 283.46329 284.35654
 285.17242 285.91464 286.56888 287.51608
 366.78100 356.32405 345.74509 334.60014 322.99218 311.17523 299.03427 286.82632
 274.52736 262.41341 250.41145 239.70150 229.81254 220.90559 213.07663 206.06768
 199.89072 194.81777 191.38881 189.41986 188.44590 188.49895 189.32299 190.62004
 192.33408 194.41813 196.67017 199.01822 201.45226 203.92131 205.99835 207.82940
 209.44444 210.57849 210.79654 211.01358 210.93963 210.63367 210.25572 209.87476
 209.48081 209.17985 208.97690 208.82994 208.74699 209.06703 209.44208 209.82012
 210.60217 211.76921 213.00826 214.78030 216.69735 218.72939 220.81344 222.88548
 224.93453 227.00757 229.09362 231.18866 233.30671 235.46775 237.71280 240.07184
 242.68189 244.92194 246.91298 248.66703 250.07307 251.18512 251.99616 252.30121
 252.32725 252.09030 251.43934 250.37639 248.97143 247.12148 245.01952 242.84157
 240.62161 238.41466 236.22370 234.05175 231.90079 229.75684 227.77188 225.91793
 224.18997 222.65102 221.27006 220.03111 218.90215 217.85120 216.94424 216.07429
 215.30533 214.47438 213.56143 212.91447 212.35352 213.53482 216.32582 218.95844
 220.76927 222.45171 224.12486 225.59444 226.52711 227.19798 227.63292 227.37805
 226.66064 227.44951 231.14246 235.88847 240.67894 245.27541 249.51848 253.38725
 256.93277 260.30820 263.51709 266.38559 268.82169 270.86188 272.52658 274.01361
 275.54486 277.27475 278.83984 280.21674 281.41269 282.47763 283.45236 284.34647
 285.16092 285.90204 286.55884 287.51031
 366.78100 356.32468 345.74637 334.60205 322.99473 311.17842 299.03810 286.83078
 274.53247 262.41915 250.41783 239.70851 229.82020 220.91388 213.08556 206.07725
 199.90093 194.82861 191.40030 189.43198 188.45866 188.51235 189.33703 190.63471
 192.34940 194.43408 196.68676 199.03544 201.47013 203.93981 206.01749 207.84918
 209.46486 210.59954 210.81823 211.03591 210.96259 210.65728 210.27996 209.89964
 209.50633 209.20601 209.00369 208.85737 208.77506 209.09574 209.47142 209.85011
 210.63279 211.80047 213.04016 214.81284 216.73052 218.76321 220.84789 222.92057
 224.97026 227.04394 229.13062 231.22630 233.34499 235.50667 237.75235 240.11204
 242.72272 244.96340 246.95509 248.70977 250.11645 251.22914 252.04082 252.34650
 252.37319 252.13687 251.48655 250.42423 249.01992 247.17060 245.06928 242.89197
 240.67265 238.46633 236.27602 234.10470 231.95438 229.81107 227.82675 225.97343
 224.24612 222.70780 221.32748 220.08916 218.96085 217.91053 217.00421 216.13490
 215.36658 214.53626 213.62395 212.97763 212.41731 213.59132 216.36504 218.98923
 220.82675 222.55540 224.17612 225.64284 226.66179 227.23407 227.48874 227.25648
 226.59293 227.37428 231.09465 235.83873 240.62993 245.25459 249.52654 253.40750
 256.93994 260.29498 263.49136 266.35349 268.77725 270.79605 272.45569 273.95541
 275.52261 277.25909 278.82260 280.20041 281.39633 282.46179 283.43948 284.33121
 285.14792 285.89084 286.54276 287.49460
 366.78100 356.32533 345.74766 334.60399 322.99732 311.18165 299.04199 286.83532
 274.53765 262.42498 250.42431 239.71564 229.82797 220.92230 213.09463 206.08696
 199.91129 194.83962 191.41196 189.44429 188.47162 188.52595 189.35128 190.64961
 192.36494 194.45027 196.70360 199.05293 201.48826 203.95859 206.03693 207.86926
 209.48559 210.62092 210.84025 211.05858 210.98591 210.68124 210.30457 209.92490
 209.53223 209.23257 209.03090 208.88523 208.80356 209.12489 209.50122 209.88055
 210.66388 211.83221 213.07254 214.84587 216.76420 218.79754 220.88287 222.95620
 225.00653 227.08086 229.16819 231.26452 233.38385 235.54618 237.79251 240.15284
 242.76418 245.00551 246.99784 248.75317 250.16050 251.27383 252.08616 252.39249
 252.41982 252.18415 251.53448 250.47281 249.06915 247.22048 245.11981 242.94314
 240.72447 238.51880 236.32913 234.15846 232.00879 229.86612 227.88245 226.02978
 224.30312 222.76545 221.38578 220.14811 219.02044 217.97077 217.06510 216.19643
 215.42876 214.59909 213.68742 213.04176 212.48209 213.64816 216.40315 219.02171
 220.88571 222.64226 224.22551 225.68852 226.77661 227.28378 227.38617 227.10443
 226.47821 227.31369 231.05576 235.79279 240.58838 245.23846 249.53624 253.42818
 256.94827 260.28278 263.46387 266.31787 268.72650 270.72357 272.37814 273.89236
 275.49530 277.23801 278.80240 280.17984 281.37723 282.44257 283.41867 284.31277
 285.13049 285.87009 286.52631 287.47705
 366.78100 356.32594 345.74889 334.60583 322.99977 311.18472 299.04566 286.83960
 274.54255 262.43049 250.43043 239.72238 229.83532 220.93026 213.10321 206.09615
 199.92109 194.85004 191.42298 189.45592 188.48387 188.53881 189.36475 190.66370
 192.37964 194.46558 196.71953 199.06947 201.50541 203.97636 206.05530 207.88824
 209.50519 210.64113 210.86107 211.08002 211.00796 210.70390 210.32785 209.94879
 209.55673 209.25768 209.05662 208.91156 208.83051 209.15245 209.52939 209.90934
 210.69328 211.86222 213.10317 214.87711 216.79605 218.83000 220.91594 222.98988
 225.04083 227.11577 229.20371 231.30066 233.42060 235.58354 237.83049 240.19143
 242.80337 245.04532 247.03826 248.79420 250.20215 251.31609 252.12903 252.43598
 252.46392 252.22886 251.57981 250.51875 249.11569 247.26764 245.16758 242.99152
 240.77347 238.56841 236.37935 234.20930 232.06024 229.91818 227.93513 226.08307
 224.35701 222.81996 221.44090 220.20384 219.07679 218.02773 217.12267 216.25462
 215.48756 214.65850 213.74745 213.10239 212.54333 213.70317 216.44341 219.05002
 220.95091 222.71310 224.26770 225.73734 226.87479 227.34438 227.30885 226.92009
 226.32849 227.27124 231.02989 235.75563 240.55566 245.22502 249.54552 253.44630
 256.95468 260.27029 263.43634 266.28033 268.67050 270.64279 272.28995 273.81607
 275.46378 277.21243 278.77759 280.15369 281.35120 282.41632 283.39380 284.28781
 285.10455 285.84521 286.49942 287.45120
 366.78100 356.32655 345.75010 334.60765 323.00220 311.18775 299.04930 286.84385
 274.54740 262.43595 250.43650 239.72905 229.84260 220.93815 213.11170 206.10525
 199.93080 194.86035 191.43390 189.46745 188.49600 188.55155 189.37810 190.67765
 192.39420 194.48075 196.73530 199.08585 201.52240 203.99395 206.07350 207.90705
 209.52460 210.66115 210.88170 211.10125 211.02980 210.72635 210.35090 209.97245
 209.58100 209.28255 209.08210 208.93765 208.85720 209.17974 209.55729 209.93784
 210.72239 211.89194 213.13349 214.90804 216.82759 218.86214 220.94869 223.02324
 225.07479 227.15034 229.23889 231.33644 233.45699 235.62054 237.86809 240.22964
 242.84219 245.08474 247.07829 248.83484 250.24339 251.35794 252.17149 252.47904
 252.50759 252.27314 251.62469 250.56424 249.16179 247.31434 245.21489 243.03944
 240.82199 238.61754 236.42909 234.25964 232.11119 229.96974 227.98729 226.13584
 224.41039 222.87394 221.49549 220.25904 219.13259 218.08414 217.17969 216.31224
 215.54579 214.71734 213.80689 213.16244 212.60399 213.75742 216.48248 219.08099
 221.01364 222.77184 224.30962 225.79195 226.95912 227.40639 227.24847 226.71643
 226.15726 227.24268 231.01654 235.72957 240.53142 245.21428 249.55141 253.45988
 256.95767 260.25574 263.40710 266.24115 268.61301 270.56094 272.20038 273.68103
 275.47198 277.20938 278.75421 280.12354 281.31750 282.38159 283.35852 284.25204
 285.07013 285.81119 286.46548 287.41797
 366.78100 356.32715 345.75130 334.60945 323.00460 311.19075 299.05290 286.84806
 274.55221 262.44136 250.44251 239.73566 229.84981 220.94596 213.12011 206.11426
 199.94041 194.87056 191.44471 189.47886 188.50802 188.56417 189.39132 190.69147
 192.40862 194.49577 196.75092 199.10207 201.53922 204.01137 206.09152 207.92567
 209.54382 210.68098 210.90213 211.12228 211.05143 210.74858 210.37373 209.99588
 209.60503 209.30718 209.10733 208.96348 208.88363 209.20678 209.58494 209.96609
 210.75124 211.92139 213.16354 214.93869 216.85884 218.89399 220.98114 223.05629
 225.10844 227.18459 229.27375 231.37190 233.49305 235.65720 237.90535 240.26750
 242.88065 245.12380 247.11795 248.87510 250.28425 251.39940 252.21355 252.52171
 252.55086 252.31701 251.66916 250.60931 249.20746 247.36061 245.26176 243.08691
 240.87006 238.66621 236.47836 234.30951 232.16167 230.02082 228.03897 226.18812
 224.46327 222.92742 221.54957 220.31372 219.18787 218.14002 217.23617 216.36932
 215.60347 214.77563 213.86578 213.22193 212.66408 213.81078 216.51999 219.11729
 221.06868 222.81717 224.35739 225.85426 227.03165 227.46246 227.19974 226.51062
 225.97571 227.21939 231.01292 235.71342 240.51451 245.20500 249.55450 253.46863
 256.95660 260.23801 263.37494 266.19894 268.55447 270.48026 272.11160 273.56500
 275.43051 277.18420 278.72632 280.09503 281.28580 282.34787 283.32233 284.21667
 285.02985 285.77225 286.42697 287.37909
 366.78100 356.32771 345.75243 334.61114 323.00685 311.19357 299.05628 286.85199
 274.55670 262.44642 250.44813 239.74184 229.85656 220.95327 213.12798 206.12270
 199.94941 194.88012 191.45484 189.48955 188.51926 188.57597 189.40369 190.70440
 192.42211 194.50983 196.76554 199.11725 201.55497 204.02768 206.10839 207.94310
 209.56182 210.69953 210.92124 211.14196 211.07167 210.76938 210.39510 210.01781
 209.62752 209.33024 209.13095 208.98766 208.90837 209.23209 209.61080 209.99251
 210.77823 211.94894 213.19165 214.96737 216.88808 218.92379 221.01151 223.08722
 225.13993 227.21664 229.30636 231.40507 233.52678 235.69150 237.94021 240.30292
 242.91664 245.16035 247.15506 248.91278 250.32249 251.43820 252.25291 252.56163
 252.59134 252.35805 251.71077 250.65148 249.25019 247.40391 245.30562 243.13133
 240.91505 238.71176 236.52447 234.35618 232.20890 230.06861 228.08732 226.23704
 224.51275 222.97746 221.60018 220.36489 219.23960 218.19231 217.28903 216.42274
 215.65745 214.83017 213.92088 213.27759 212.72031 213.86163 216.55814 219.15613
 221.11874 222.85034 224.40524 225.91910 227.09866 227.51892 227.15765 226.31320
 225.79372 227.19601 231.01607 235.70433 240.50349 245.19661 249.55550 253.47311
 256.95090 260.21585 263.33835 266.15234 268.49335 270.40311 272.02991 273.49429
 275.37659 277.13171 278.67697 280.04538 281.23697 282.29944 283.27420 284.16754
 284.98245 285.72256 286.38068 287.32977
 366.78100 356.32825 345.75351 334.61276 323.00901 311.19626 299.05952 286.85577
 274.56102 262.45127 250.45353 239.74778 229.86303 220.96029 213.13554 206.13079
 199.95804 194.88930 191.46455 189.49980 188.53006 188.58731 189.41556 190.71681
 192.43507 194.52332 196.77957 199.13182 201.57008 204.04333 206.12458 207.95984
 209.57909 210.71734 210.93959 211.16085 211.09110 210.78935 210.41561 210.03886
 209.64911 209.35236 209.15362 209.01087 208.93212 209.25637 209.63563 210.01788
 210.80413 211.97539 213.21864 214.99489 216.91614 218.95240 221.04065 223.11690
 225.17015 227.24741 229.33766 231.43691 233.55917 235.72442 237.97367 240.33692
 242.95118 245.19543 247.19068 248.94894 250.35919 251.47544 252.29069 252.59995
 252.63020 252.39745 251.75070 250.69196 249.29121 247.44546 245.34772 243.17397
 240.95822 238.75547 236.56873 234.40098 232.25423 230.11449 228.13374 226.28399
 224.56024 223.02550 221.64875 220.41400 219.28925 218.24251 217.33976 216.47401
 215.70927 214.88252 213.97377 213.33102 212.77428 213.91063 216.59538 219.19699
 221.16397 222.87857 224.44865 225.97142 227.16039 227.59178 227.12630 226.11641
 225.61407 227.17224 231.01842 235.70348 240.50220 245.19211 249.55266 253.46928
 256.93829 260.18823 263.29816 266.10397 268.43256 270.32843 271.95132 273.40765
 275.32645 277.08463 278.62619 279.99231 281.18198 282.24274 283.21777 284.11047
 284.92679 285.66724 286.32462 287.27423
 366.78100 356.32883 345.75467 334.61450 323.01134 311.19917 299.06301 286.85984
 274.56568 262.45651 250.45935 239.75418 229.87002 220.96785 213.14368 206.13952
 199.96735 194.89919 191.47502 189.51086 188.54169 188.59953 189.42836 190.73020
 192.44903 194.53786 196.79470 199.14753 201.58637 204.06020 206.14204 207.97787
 209.59771 210.73654 210.95938 211.18121 211.11205 210.81088 210.43771 210.06155
 209.67238 209.37622 209.17805 209.03589 208.95772 209.28256 209.66239 210.04523
 210.83206 212.00389 213.24773 215.02456 216.94640 218.98323 221.07207 223.14890
 225.20274 227.28057 229.37141 231.47124 233.59408 235.75991 238.00974 240.37358
 242.98841 245.23325 247.22908 248.98792 250.39875 251.51559 252.33142 252.64126
 252.67209 252.43992 251.79376 250.73559 249.33543 247.49026 245.39310 243.21993
 241.00477 238.80260 236.61644 234.44927 232.30311 230.16394 228.18377 226.33461
 224.61144 223.07728 221.70111 220.46695 219.34278 218.29662 217.39445 216.52929
 215.76512 214.93895 214.03079 213.38862 212.83246 213.96091 216.62697 219.23973
 221.21324 222.89243 224.48111 226.02612 227.22920 227.66728 227.10782 225.92809
 225.42590 227.14624 231.02643 235.70802 240.50429 245.18475 249.54422 253.46121
 256.92288 260.15930 263.25674 266.05377 268.36984 270.25128 271.87750 273.45761
 275.21161 276.97089 278.53259 279.90723 281.10199 282.16629 283.14233 284.03900
 284.85336 285.59827 286.25620 287.20743
 366.78100 356.32949 345.75597 334.61646 323.01395 311.20243 299.06692 286.86441
 274.57089 262.46238 250.46586 239.76135 229.87784 220.97632 213.15281 206.14930
 199.97778 194.91027 191.48676 189.52324 188.55473 188.61322 189.44270 190.74519
 192.46467 194.55416 196.81165 199.16513 201.60462 204.07911 206.16159 207.99808
 209.61857 210.75805 210.98154 211.20403 211.13551 210.83500 210.46248 210.08697
 209.69846 209.40294 209.20543 209.06392 208.98640 209.31189 209.69238 210.07586
 210.86335 212.03584 213.28032 215.05781 216.98029 219.01778 221.10727 223.18475
 225.23924 227.31773 229.40921 231.50970 233.63319 235.79967 238.05016 240.41465
 243.03013 245.27562 247.27211 249.03159 250.44308 251.56056 252.37705 252.68754
 252.71902 252.48751 251.84200 250.78448 249.38497 247.54046 245.44394 243.27143
 241.05692 238.85540 236.66989 234.50337 232.35786 230.21935 228.23983 226.39132
 224.66881 223.13529 221.75978 220.52627 219.40275 218.35724 217.45573 216.59121
 215.82770 215.00218 214.09467 213.45316 212.89764 214.01363 216.65024 219.28876
 221.25833 222.91011 224.49413 226.05754 227.31259 227.77913 227.08624 225.73100
 225.25902 227.12325 231.01949 235.71573 240.51489 245.18312 249.53703 253.45039
 256.90237 260.12503 263.21103 266.00098 268.30820 270.17807 271.80560 273.41568
 275.13525 276.88995 278.45215 279.82700 281.02271 282.08746 283.06442 283.95895
 284.77744 285.52090 286.18146 287.13184
 366.78100 356.33007 345.75714 334.61822 323.01629 311.20536 299.07043 286.86850
 274.57558 262.46765 250.47172 239.76779 229.88486 220.98394 213.16101 206.15808
 199.98715 194.92023 191.49730 189.53437 188.56644 188.62551 189.45559 190.75866
 192.47873 194.56880 196.82687 199.18095 201.62102 204.09609 206.17916 208.01623
 209.63731 210.77738 211.00145 211.22452 211.15659 210.85667 210.48474 210.10981
 209.72188 209.42695 209.23003 209.08910 209.01217 209.33824 209.71932 210.10339
 210.89146 212.06453 213.30960 215.08768 217.01075 219.04882 221.13889 223.21696
 225.27204 227.35111 229.44318 231.54425 233.66832 235.83540 238.08647 240.45154
 243.06761 245.31368 247.31076 249.07083 250.48290 251.60097 252.41805 252.72912
 252.76119 252.53026 251.88533 250.82841 249.42948 247.58555 245.48962 243.31769
 241.10377 238.90284 236.71791 234.55198 232.40705 230.26913 228.29020 226.44227
 224.72034 223.18741 221.81249 220.57956 219.45663 218.41170 217.51077 216.64685
 215.88392 215.05899 214.15206 213.51114 212.95621 214.06177 216.67375 219.33186
 221.31329 222.91501 224.52118 226.07396 227.35025 227.89296 227.13974 225.48961
 224.97495 227.10583 231.06076 235.74869 240.53720 245.18077 249.51994 253.42633
 256.87045 260.08456 263.16360 265.95126 268.25336 270.11612 271.74313 273.36093
 275.06146 276.81070 278.37164 279.74533 280.94012 282.00439 282.98172 283.87711
 284.69540 285.44058 286.10052 287.05164
 366.78100 356.33034 345.75768 334.61902 323.01736 311.20669 299.07203 286.87037
 274.57771 262.47005 250.47439 239.77073 229.88807 220.98740 213.16474 206.16208
 199.99142 194.92476 191.50210 189.53944 188.57178 188.63111 189.46145 190.76479
 192.48513 194.57547 196.83381 199.18815 201.62849 204.10383 206.18716 208.02450
 209.64584 210.78618 211.01052 211.23386 211.16620 210.86654 210.49487 210.12021
 209.73255 209.43789 209.24123 209.10057 209.02391 209.35025 209.73158 210.11592
 210.90426 212.07760 213.32294 215.10128 217.02462 219.06296 221.15330 223.23163
 225.28697 227.36631 229.45865 231.55999 233.68433 235.85167 238.10301 240.46834
 243.08468 245.33102 247.32836 249.08870 250.50104 251.61938 252.43672 252.74805
 252.78039 252.54973 251.90507 250.84841 249.44975 247.60609 245.51043 243.33876
 241.12510 238.92444 236.73978 234.57412 232.42946 230.29180 228.31314 226.46548
 224.74381 223.21115 221.83649 220.60383 219.48117 218.43651 217.53585 216.67219
 215.90952 215.08486 214.17820 213.53754 212.98288 214.09288 216.71539 219.34808
 221.38821 222.94223 224.47984 226.09702 227.43675 227.97864 227.16144 225.39027
 224.81773 227.04648 231.07510 235.77243 240.54460 245.16406 249.49132 253.39378
 256.83664 260.04617 263.11890 265.90445 268.20343 270.06204 271.68930 273.31332
 274.98444 276.72623 278.28580 279.65909 280.85309 281.91675 282.89392 283.78931
 284.60757 285.35388 286.01483 286.96469
 366.78100 356.33068 345.75836 334.62005 323.01873 311.20841 299.07409 286.87278
 274.58046 262.47314 250.47782 239.77451 229.89219 220.99187 213.16955 206.16724
 199.99692 194.93060 191.50828 189.54597 188.57865 188.63833 189.46901 190.77270
 192.49338 194.58406 196.84274 199.19743 201.63811 204.11379 206.19747 208.03516
 209.65684 210.79752 211.02220 211.24588 211.17857 210.87925 210.50793 210.13361
 209.74630 209.45198 209.25566 209.11534 209.03903 209.36571 209.74739 210.13207
 210.92076 212.09444 213.34012 215.11880 217.04249 219.08117 221.17185 223.25053
 225.30622 227.38590 229.47858 231.58026 233.70495 235.87263 238.12431 240.48999
 243.10668 245.35336 247.35104 249.11172 250.52440 251.64309 252.46077 252.77245
 252.80513 252.57482 251.93050 250.87418 249.47586 247.63255 245.53723 243.36591
 241.15259 238.95228 236.76796 234.60264 232.45832 230.32101 228.34269 226.49537
 224.77405 223.24174 221.86742 220.63510 219.51278 218.46847 217.56815 216.70483
 215.94251 215.11820 214.21188 213.57156 213.01724 214.12643 216.74704 219.37399
 221.42673 222.98772 224.50357 226.14728 227.49278 227.98924 227.13396 225.37709
 224.77647 226.98061 231.05080 235.77763 240.54504 245.14536 249.46432 253.36609
 256.80737 260.01013 263.07568 265.85809 268.15457 270.01083 271.63986 273.26678
 274.90567 276.63962 278.19843 279.57065 280.76425 281.82666 282.80408 283.69904
 284.51773 285.26501 285.92633 286.87595
 366.78100 356.33119 345.75938 334.62156 323.02075 311.21094 299.07713 286.87632
 274.58450 262.47769 250.48288 239.78007 229.89826 220.99844 213.17663 206.17482
 200.00501 194.93920 191.51738 189.55557 188.58876 188.64895 189.48013 190.78432
 192.50551 194.59670 196.85589 199.21107 201.65226 204.12845 206.21264 208.05083
 209.67301 210.81420 211.03939 211.26358 211.19677 210.89795 210.52714 210.15333
 209.76652 209.47271 209.27689 209.13708 209.06127 209.38846 209.77065 210.15583
 210.94502 212.11921 213.36540 215.14459 217.06877 219.10796 221.19915 223.27834
 225.33453 227.41471 229.50790 231.61009 233.73528 235.90346 238.15565 240.52184
 243.13903 245.38622 247.38440 249.14559 250.55878 251.67797 252.49616 252.80834
 252.84153 252.61172 251.96791 250.91210 249.51428 247.67147 245.57666 243.40585
 241.19304 238.99322 236.80941 234.64460 232.50079 230.36398 228.38616 226.53935
 224.81854 223.28673 221.91292 220.68110 219.55929 218.51548 217.61567 216.75286
 215.99104 215.16723 214.26142 213.62161 213.06779 214.16782 216.76672 219.41162
 221.45927 223.02470 224.54053 226.18474 227.52509 227.99608 227.11594 225.38084
 224.75717 226.91190 231.01173 235.78235 240.55075 245.13339 249.44212 253.34047
 256.77817 259.97345 263.03183 265.81149 268.10733 269.96161 271.59427 273.22296
 274.82761 276.55164 278.10767 279.47906 280.67136 281.73410 282.71027 283.60608
 284.42349 285.17249 285.83649 286.78369
 366.78100 356.33169 345.76037 334.62306 323.02274 311.21343 299.08011 286.87980
 274.58848 262.48217 250.48785 239.78554 229.90422 221.00491 213.18359 206.18228
 200.01296 194.94765 191.52633 189.56502 188.59870 188.65939 189.49107 190.79576
 192.51744 194.60913 196.86881 199.22450 201.66618 204.14287 206.22755 208.06624
 209.68892 210.83061 211.05629 211.28098 211.21466 210.91635 210.54603 210.17272
 209.78640 209.49309 209.29777 209.15846 209.08314 209.41083 209.79351 210.17920
 210.96888 212.14357 213.39025 215.16994 217.09462 219.13431 221.22599 223.30568
 225.36236 227.44305 229.53673 231.63942 233.76510 235.93379 238.18647 240.55316
 243.17085 245.41853 247.41722 249.17890 250.59259 251.71227 252.53096 252.84364
 252.87733 252.64801 252.00470 250.94938 249.55207 247.70975 245.61544 243.44512
 241.23281 239.03349 236.85018 234.68586 232.54255 230.40623 228.42892 226.58260
 224.86229 223.33097 221.95766 220.72634 219.60503 218.56171 217.66240 216.80008
 216.03877 215.21545 214.31014 213.67082 213.11751 214.20836 216.78560 219.44681
 221.50258 223.06230 224.56691 226.19647 227.53940 228.02098 227.11627 225.37250
 224.72818 226.84792 230.97794 235.79536 240.56155 245.12352 249.42084 253.31523
 256.74933 259.93854 262.98981 265.76862 268.06323 269.91638 271.55130 273.17850
 274.74731 276.46469 278.01852 279.38870 280.57977 281.64044 282.61499 283.51105
 284.32846 285.07816 285.74039 286.68723
 366.78100 356.33213 345.76126 334.62439 323.02452 311.21565 299.08278 286.88291
 274.59204 262.48617 250.49230 239.79043 229.90956 221.01069 213.18982 206.18895
 200.02008 194.95521 191.53434 189.57347 188.60760 188.66873 189.50086 190.80599
 192.52812 194.62025 196.88038 199.23651 201.67864 204.15577 206.24090 208.08003
 209.70316 210.84529 211.07142 211.29655 211.23068 210.93281 210.56294 210.19007
 209.80419 209.51132 209.31645 209.17758 209.10271 209.43084 209.81397 210.20010
 210.99023 212.16536 213.41249 215.19262 217.11775 219.15788 221.25001 223.33014
 225.38727 227.46840 229.56253 231.66566 233.79179 235.96092 238.21405 240.58118
 243.19931 245.44744 247.44657 249.20870 250.62283 251.74296 252.56209 252.87522
 252.90935 252.68048 252.03761 250.98274 249.58587 247.74400 245.65013 243.48026
 241.26839 239.06952 236.88665 234.72278 232.57991 230.44404 228.46717 226.62130
 224.90143 223.37056 221.99769 220.76682 219.64595 218.60308 217.70421 216.84234
 216.08147 215.25860 214.35373 213.71486 213.16199 214.24471 216.80273 219.47423
 221.55164 223.10210 224.58780 226.19617 227.53806 228.04990 227.12340 225.36169
 224.70027 226.79361 230.95631 235.81326 240.57227 245.11320 249.39989 253.29076
 256.72275 259.90536 262.95084 265.72769 268.02271 269.87503 271.51202 273.14038
 274.69510 276.38394 277.92407 279.29047 280.47888 281.53729 282.51443 283.40802
 284.22733 284.97623 285.63849 286.58670
 366.78100 356.33256 345.76211 334.62567 323.02622 311.21778 299.08533 286.88589
 274.59544 262.49000 250.49655 239.79511 229.91466 221.01622 213.19577 206.19533
 200.02688 194.96244 191.54199 189.58155 188.61610 188.67766 189.51021 190.81577
 192.53832 194.63088 196.89143 199.24799 201.69054 204.16810 206.25365 208.09321
 209.71676 210.85932 211.08587 211.31143 211.24598 210.94854 210.57910 210.20665
 209.82121 209.52876 209.33432 209.19587 209.12143 209.44998 209.83354 210.22009
 211.01065 212.18620 213.43376 215.21431 217.13987 219.18042 221.27298 223.35353
 225.41109 227.49264 229.58720 231.69075 233.81731 235.98686 238.24042 240.60797
 243.22653 245.47508 247.47464 249.23719 250.65175 251.77230 252.59186 252.90541
 252.93997 252.71152 252.06908 251.01464 249.61819 247.77675 245.68330 243.51386
 241.30241 239.10397 236.92152 234.75808 232.61563 230.48019 228.50374 226.65830
 224.93885 223.40841 222.03596 220.80552 219.68507 218.64263 217.74418 216.88274
 216.12229 215.29985 214.39540 213.75696 213.20451 214.27879 216.81691 219.49640
 221.60324 223.14540 224.60548 226.18755 227.53067 228.07101 227.12808 225.35959
 224.68082 226.74954 230.94669 235.83113 240.58025 245.10280 249.37994 253.26796
 256.69666 259.87369 262.91440 265.68967 267.98688 269.84113 271.47894 273.10226
 274.64853 276.30304 277.83090 279.19501 280.38171 281.44122 282.41638 283.31125
 284.13110 284.87778 285.54343 286.48267
 366.78100 356.33297 345.76295 334.62692 323.02789 311.21986 299.08784 286.88881
 274.59878 262.49376 250.50073 239.79970 229.91968 221.02165 213.20162 206.20159
 200.03357 194.96954 191.54951 189.58949 188.62446 188.68643 189.51940 190.82538
 192.54835 194.64132 196.90230 199.25927 201.70224 204.18021 206.26619 208.10616
 209.73013 210.87311 211.10008 211.32605 211.26103 210.96400 210.59497 210.22294
 209.83792 209.54589 209.35186 209.21384 209.13981 209.46878 209.85275 210.23973
 211.03070 212.20667 213.45465 215.23562 217.16159 219.20256 221.29554 223.37651
 225.43448 227.51646 229.61143 231.71540 233.84238 236.01235 238.26632 240.63429
 243.25327 245.50224 247.50221 249.26519 250.68016 251.80113 252.62110 252.93508
 252.97005 252.74202 252.10000 251.04597 249.64994 247.80891 245.71589 243.54686
 241.33583 239.13781 236.95578 234.79275 232.65073 230.51570 228.53967 226.69464
 224.97562 223.44559 222.07356 220.84354 219.72351 218.68148 217.78345 216.92243
 216.16240 215.34037 214.43635 213.79832 213.24629 214.31219 216.83052 219.51457
 221.65408 223.19472 224.61937 226.16849 227.52289 228.08040 227.12700 225.36852
 224.67113 226.71655 230.94659 235.84808 240.58652 245.09343 249.36113 253.24525
 256.67175 259.84467 262.88016 265.65509 267.95685 269.81442 271.45178 273.06812
 274.63693 276.20432 277.72726 279.09604 280.28632 281.34766 282.32556 283.22070
 284.04141 284.79095 285.45465 286.39517
 366.78100 356.33339 345.76378 334.62817 323.02956 311.22195 299.09034 286.89173
 274.60212 262.49751 250.50490 239.80429 229.92468 221.02708 213.20747 206.20786
 200.04025 194.97664 191.55703 189.59742 188.63281 188.69520 189.52859 190.83498
 192.55837 194.65176 196.91315 199.27054 201.71393 204.19232 206.27871 208.11910
 209.74349 210.88688 211.11427 211.34066 211.27605 210.97944 210.61084 210.23923
 209.85462 209.56301 209.36940 209.23179 209.15818 209.48757 209.87196 210.25935
 211.05074 212.22713 213.47552 215.25691 217.18330 219.22469 221.31808 223.39947
 225.45786 227.54025 229.63564 231.74003 233.86742 236.03781 238.29220 240.66060
 243.27999 245.52938 247.52977 249.29316 250.70855 251.82994 252.65033 252.96472
 253.00011 252.77250 252.13089 251.07728 249.68167 247.84106 245.74845 243.57984
 241.36923 239.17162 236.99001 234.82740 232.68579 230.55118 228.57557 226.73096
 225.01236 223.48275 222.11114 220.88153 219.76192 218.72031 217.82270 216.96209
 216.20248 215.38087 214.47726 213.83965 213.28804 214.34554 216.84399 219.52785
 221.70218 223.25017 224.63081 226.14297 227.51073 228.07462 227.12038 225.38606
 224.67361 226.69513 230.95155 235.86482 240.59378 245.08678 249.34453 253.22435
 256.64932 259.81873 262.84943 265.62299 267.92886 269.79053 271.42798 273.03510
 274.58963 276.12692 277.64532 279.01535 280.20538 281.26730 282.24490 283.14084
 283.96146 284.71277 285.37805 286.30969
 366.78100 356.33382 345.76463 334.62945 323.03127 311.22408 299.09290 286.89471
 274.60553 262.50135 250.50916 239.80898 229.92980 221.03261 213.21343 206.21424
 200.04706 194.98388 191.56469 189.60551 188.64133 188.70414 189.53796 190.84477
 192.56859 194.66241 196.92422 199.28204 201.72586 204.20467 206.29149 208.13230
 209.75712 210.90094 211.12875 211.35557 211.29139 210.99520 210.62702 210.25583
 209.87165 209.58047 209.38728 209.25010 209.17692 209.50673 209.89155 210.27936
 211.07118 212.24800 213.49681 215.27863 217.20545 219.24726 221.34108 223.42290
 225.48171 227.56453 229.66034 231.76516 233.89298 236.06379 238.31861 240.68743
 243.30724 245.55706 247.55787 249.32169 250.73751 251.85932 252.68014 252.99496
 253.03077 252.80359 252.16240 251.10922 249.71404 247.87385 245.78167 243.61349
 241.40330 239.20612 237.02493 234.86275 232.72157 230.58738 228.61220 226.76802
 225.04983 223.52065 222.14946 220.92028 219.80110 218.75991 217.86273 217.00255
 216.24336 215.42218 214.51899 213.88181 213.33063 214.37987 216.85881 219.53592
 221.74728 223.30977 224.64384 226.11836 227.48949 228.05266 227.10939 225.40796
 224.68590 226.68376 230.95952 235.88429 240.60483 245.08377 249.33208 253.20638
 256.62830 259.79327 262.81888 265.59036 267.90167 269.76810 271.40668 273.00452
 274.53619 276.06137 277.57574 278.94489 280.13470 281.19571 282.17313 283.06949
 283.89163 284.64243 285.30957 286.23578
 366.78100 356.33423 345.76545 334.63068 323.03291 311.22614 299.09536 286.89759
 274.60882 262.50504 250.51327 239.81350 229.93472 221.03795 213.21918 206.22041
 200.05363 194.99086 191.57209 189.61331 188.64954 188.71277 189.54699 190.85422
 192.57845 194.67268 196.93490 199.29313 201.73736 204.21658 206.30381 208.14504
 209.77027 210.91449 211.14272 211.36995 211.30617 211.01040 210.64263 210.27185
 209.88808 209.59731 209.40454 209.26776 209.19499 209.52522 209.91044 210.29867
 211.09090 212.26813 213.51735 215.29958 217.22681 219.26903 221.36326 223.44549
 225.50471 227.58794 229.68417 231.78940 233.91762 236.08885 238.34408 240.71330
 243.33353 245.58376 247.58498 249.34921 250.76544 251.88767 252.70889 253.02412
 253.06035 252.83357 252.19280 251.14003 249.74526 247.90548 245.81371 243.64594
 241.43616 239.23939 237.05862 234.89684 232.75607 230.62230 228.64753 226.80375
 225.08598 223.55721 222.18643 220.95766 219.83889 218.79811 217.90134 217.04157
 216.28280 215.46202 214.55925 213.92248 213.37170 214.41345 216.87466 219.54027
 221.78842 223.37175 224.66185 226.09778 227.45555 228.01132 227.09113 225.43784
 224.71254 226.67920 230.97000 235.90831 240.62157 245.08417 249.32080 253.18837
 256.60635 259.76703 262.78714 265.55939 267.87692 269.75046 271.39145 272.97723
 274.48511 276.00186 277.51389 278.88116 280.07129 281.13156 282.10825 283.00479
 283.82596 284.58157 285.24826 286.16669
 366.78100 356.33463 345.76625 334.63188 323.03451 311.22813 299.09776 286.90039
 274.61201 262.50864 250.51727 239.81789 229.93952 221.04315 213.22477 206.22640
 200.06003 194.99765 191.57928 189.62091 188.65753 188.72116 189.55579 190.86341
 192.58804 194.68267 196.94529 199.30392 201.74855 204.22817 206.31580 208.15743
 209.78305 210.92768 211.15631 211.38393 211.32056 211.02519 210.65781 210.28744
 209.90407 209.61369 209.42132 209.28495 209.21257 209.54320 209.92883 210.31745
 211.11008 212.28771 213.53733 215.31996 217.24759 219.29021 221.38484 223.46747
 225.52709 227.61072 229.70735 231.81297 233.94160 236.11323 238.36885 240.73848
 243.35911 245.60973 247.61136 249.37599 250.79261 251.91524 252.73687 253.05249
 253.08912 252.86275 252.22237 251.17000 249.77563 247.93625 245.84488 243.67751
 241.46813 239.27176 237.09139 234.93001 232.78964 230.65627 228.68189 226.83852
 225.12115 223.59277 222.22240 220.99403 219.87565 218.83528 217.93891 217.07953
 216.32116 215.50079 214.59841 213.96204 213.41167 214.44615 216.89024 219.54372
 221.82317 223.43445 224.69048 226.08340 227.40891 227.94867 227.06195 225.47530
 224.75554 226.68056 230.98386 235.93587 240.63924 245.09120 249.31483 253.17029
 256.58237 259.73767 262.75305 265.52658 267.85403 269.73874 271.38220 272.95636
 274.44333 275.94568 277.45309 278.81842 280.00827 281.06702 282.04449 282.93906
 283.76196 284.51187 285.17987 286.08133
 366.78100 356.33490 345.76680 334.63269 323.03559 311.22949 299.09939 286.90228
 274.61418 262.51108 250.51998 239.82088 229.94277 221.04667 213.22857 206.23047
 200.06437 195.00226 191.58416 189.62606 188.66296 188.72685 189.56175 190.86965
 192.59455 194.68945 196.95234 199.31124 201.75614 204.23604 206.32393 208.16583
 209.79173 210.93663 211.16553 211.39342 211.33032 211.03522 210.66812 210.29801
 209.91491 209.62481 209.43271 209.29661 209.22450 209.55540 209.94130 210.33020
 211.12310 212.30099 213.55089 215.33379 217.26169 219.30458 221.39948 223.48238
 225.54228 227.62618 229.72307 231.82897 233.95787 236.12977 238.38566 240.75556
 243.37646 245.62736 247.62926 249.39415 250.81105 251.93395 252.75585 253.07175
 253.10864 252.88254 252.24244 251.19034 249.79623 247.95713 245.86603 243.69893
 241.48983 239.29372 237.11362 234.95252 232.81242 230.67931 228.70521 226.86211
 225.14501 223.61691 222.24680 221.01870 219.90060 218.86050 217.96439 217.10529
 216.34719 215.52709 214.62499 213.98888 213.43878 214.47205 216.91327 219.53903
 221.85591 223.50134 224.72400 226.07260 227.35304 227.86943 227.02057 225.50883
 224.80853 226.69301 230.99973 235.96863 240.66322 245.09979 249.31120 253.15370
 256.55655 259.70541 262.71454 265.48953 267.82910 269.72845 271.37680 272.94101
 274.41339 275.89185 277.39194 278.75647 279.94562 281.00449 281.97989 282.87479
 283.69489 284.44901 285.11310 285.99744
 366.78100 356.33519 345.76739 334.63358 323.03677 311.23097 299.10116 286.90436
 274.61655 262.51374 250.52294 239.82413 229.94632 221.05052 213.23271 206.23491
 200.06910 195.00729 191.58949 189.63168 188.66887 188.73307 189.56826 190.87645
 192.60165 194.69684 196.96004 199.31923 201.76442 204.24462 206.33281 208.17500
 209.80120 210.94639 211.17559 211.40378 211.34097 211.04617 210.67936 210.30955
 209.92675 209.63694 209.44513 209.30933 209.23752 209.56872 209.95491 210.34410
 211.13730 212.31549 213.56568 215.34888 217.27707 219.32027 221.41546 223.49865
 225.55885 227.64304 229.74023 231.84643 233.97562 236.14781 238.40401 240.77420
 243.39540 245.64659 247.64878 249.41398 250.83117 251.95436 252.77656 253.09275
 253.12995 252.90414 252.26433 251.21253 249.81872 247.97991 245.88911 243.72230
 241.51349 239.31769 237.13788 234.97708 232.83727 230.70446 228.73066 226.88785
 225.17104 223.64324 222.27343 221.04563 219.92782 218.88801 217.99221 217.13340
 216.37559 215.55579 214.65398 214.01817 213.46837 214.49944 216.93542 219.53372
 221.87910 223.57240 224.76413 226.06483 227.29445 227.77376 226.97012 225.54320
 224.86792 226.71301 231.01401 236.00070 240.68941 245.11563 249.31201 253.13898
 256.53226 259.67120 262.67166 265.44687 267.80093 269.71729 271.37106 272.92575
 274.38632 275.84048 277.33279 278.69577 279.88373 280.94238 281.91663 282.81219
 283.63269 284.38422 285.04880 285.92365
 366.78100 356.33567 345.76834 334.63500 323.03867 311.23334 299.10401 286.90768
 274.62034 262.51801 250.52768 239.82935 229.95202 221.05668 213.23935 206.24202
 200.07669 195.01535 191.59802 189.64069 188.67836 188.74303 189.57869 190.88736
 192.61303 194.70870 196.97237 199.33203 201.77770 204.25837 206.34704 208.18971
 209.81637 210.96204 211.19171 211.42038 211.35805 211.06371 210.69738 210.32805
 209.94572 209.65639 209.46505 209.32972 209.25839 209.59006 209.97672 210.36639
 211.16006 212.33873 213.58940 215.37306 217.30173 219.34540 221.44107 223.52474
 225.58540 227.67007 229.76774 231.87441 234.00408 236.17674 238.43341 240.80408
 243.42575 245.67742 247.68008 249.44575 250.86342 251.98709 252.80975 253.12642
 253.16409 252.93876 252.29943 251.24809 249.85476 248.01643 245.92610 243.75977
 241.55143 239.35610 237.17677 235.01644 232.87711 230.74477 228.77144 226.92911
 225.21278 223.68545 222.31611 221.08878 219.97145 218.93212 218.03679 217.17845
 216.42112 215.60179 214.70046 214.06512 213.51579 214.53578 216.94560 219.54036
 221.88655 223.62967 224.83990 226.07829 227.20264 227.64691 226.92564 225.58163
 224.92009 226.73232 231.03050 236.02838 240.72287 245.14037 249.31960 253.12462
 256.50497 259.63336 262.62650 265.40265 267.76990 269.70663 271.36700 272.91080
 274.36166 275.79285 277.27426 278.63647 279.82321 280.88083 281.85431 282.74854
 283.57010 284.32034 284.98019 285.84708
 366.78100 356.33595 345.76891 334.63586 323.03982 311.23477 299.10573 286.90968
 274.62263 262.52059 250.53054 239.83250 229.95545 221.06040 213.24336 206.24631
 200.08127 195.02022 191.60318 189.64613 188.68408 188.74904 189.58499 190.89395
 192.61990 194.71585 196.97981 199.33976 201.78572 204.26667 206.35563 208.19858
 209.82553 210.97149 211.20144 211.43040 211.36835 211.07430 210.70826 210.33921
 209.95717 209.66812 209.47708 209.34203 209.27098 209.60294 209.98989 210.37985
 211.17380 212.35275 213.60371 215.38766 217.31662 219.36057 221.45653 223.54048
 225.60143 227.68639 229.78434 231.89130 234.02125 236.19421 238.45116 240.82211
 243.44407 245.69602 247.69898 249.46493 250.88288 252.00684 252.82979 253.14675
 253.18470 252.95966 252.32061 251.26956 249.87652 248.03847 245.94843 243.78238
 241.57433 239.37929 237.20024 235.04020 232.90115 230.76911 228.79606 226.95401
 225.23797 223.71092 222.34188 221.11483 219.99778 218.95874 218.06369 217.20565
 216.44860 215.62956 214.72851 214.09346 213.54442 214.56169 216.96512 219.54211
 221.88795 223.68912 224.90707 226.08379 227.11543 227.52396 226.88078 225.61485
 224.96295 226.75360 231.04927 236.04799 240.76511 245.18074 249.33476 253.11032
 256.47345 259.59253 262.57947 265.35709 267.73962 269.69653 271.36243 272.89609
 274.33905 275.75049 277.21490 278.57349 279.75952 280.81757 281.78912 282.68280
 283.50388 284.25391 284.90839 285.76471
 366.78100 356.33625 345.76949 334.63674 323.04098 311.23623 299.10748 286.91172
 274.62497 262.52321 250.53346 239.83571 229.95895 221.06420 213.24745 206.25069
 200.08594 195.02518 191.60843 189.65168 188.68992 188.75517 189.59141 190.90066
 192.62691 194.72315 196.98740 199.34764 201.79389 204.27514 206.36438 208.20763
 209.83487 210.98112 211.21137 211.44061 211.37886 211.08511 210.71935 210.35060
 209.96884 209.68009 209.48934 209.35458 209.28383 209.61607 210.00332 210.39357
 211.18781 212.36706 213.61830 215.40255 217.33180 219.37604 221.47229 223.55653
 225.61778 227.70303 229.80127 231.90852 234.03877 236.21201 238.46926 240.84050
 243.46275 245.71500 247.71824 249.48449 250.90273 252.02698 252.85023 253.16747
 253.20572 252.98096 252.34221 251.29146 249.89870 248.06095 245.97119 243.80544
 241.59769 239.40293 237.22418 235.06442 232.92567 230.79392 228.82116 226.97941
 225.26366 223.73690 222.36815 221.14139 220.02464 218.98589 218.09113 217.23338
 216.47662 215.65787 214.75712 214.12236 213.57361 214.58691 216.98097 219.55440
 221.88153 223.73973 224.97571 226.09390 227.03609 227.39941 226.82957 225.63277
 224.99695 226.78697 231.06096 236.06400 240.81367 245.22865 249.35623 253.10025
 256.44284 259.54922 262.53003 265.30884 267.70837 269.68719 271.35748 272.87726
 274.31274 275.71060 277.15903 278.51373 279.70102 280.75708 281.72708 282.61948
 283.44052 284.19153 284.83762 285.68979
 366.78100 356.33652 345.77004 334.63756 323.04208 311.23759 299.10911 286.91363
 274.62715 262.52567 250.53619 239.83871 229.96223 221.06774 213.25126 206.25478
 200.09030 195.02982 191.61334 189.65686 188.69538 188.76089 189.59741 190.90693
 192.63345 194.72997 196.99449 199.35501 201.80153 204.28304 206.37256 208.21608
 209.84360 210.99012 211.22064 211.45016 211.38868 211.09519 210.72971 210.36123
 209.97975 209.69127 209.50079 209.36631 209.29583 209.62834 210.01586 210.40638
 211.20090 212.38042 213.63194 215.41646 217.34598 219.39049 221.48701 223.57153
 225.63305 227.71857 229.81709 231.92461 234.05513 236.22864 238.48616 240.85768
 243.48020 245.73272 247.73624 249.50276 250.92128 252.04579 252.86931 253.18683
 253.22535 253.00087 252.36239 251.31191 249.91943 248.08194 245.99246 243.82698
 241.61950 239.42502 237.24654 235.08706 232.94858 230.81709 228.84461 227.00313
 225.28765 223.76117 222.39269 221.16621 220.04973 219.01124 218.11676 217.25928
 216.50280 215.68432 214.78384 214.14936 213.60088 214.60994 216.99399 219.56894
 221.87836 223.77122 225.05078 226.10806 226.95166 227.27815 226.77917 225.63271
 225.02092 226.82860 231.07193 236.08107 240.85800 245.27353 249.37943 253.09366
 256.41724 259.51190 262.48553 265.26517 267.67911 269.67548 271.34634 272.85025
 274.27371 275.67279 277.10901 278.45978 279.64578 280.70175 281.67078 282.56204
 283.38089 284.13345 284.77731 285.61938
 366.78100 356.33675 345.77050 334.63825 323.04300 311.23875 299.11050 286.91525
 274.62900 262.52775 250.53850 239.84125 229.96500 221.07075 213.25450 206.25825
 200.09400 195.03375 191.61750 189.66125 188.70000 188.76575 189.60250 190.91225
 192.63900 194.73575 197.00050 199.36125 201.80800 204.28975 206.37950 208.22325
 209.85100 210.99775 211.22850 211.45825 211.39700 211.10375 210.73850 210.37025
 209.98900 209.70075 209.51050 209.37625 209.30600 209.63875 210.02650 210.41725
 211.21200 212.39175 213.64350 215.42825 217.35800 219.40275 221.49950 223.58425
 225.64600 227.73175 229.83050 231.93825 234.06900 236.24275 238.50050 240.87225
 243.49500 245.74775 247.75150 249.51825 250.93700 252.06175 252.88550 253.20324
 253.24199 253.01774 252.37949 251.32924 249.93699 248.09974 246.01049 243.84524
 241.63799 239.44374 237.26549 235.10624 232.96799 230.83674 228.86449 227.02324
 225.30799 223.78174 222.41349 221.18724 220.07099 219.03274 218.13849 217.28124
 216.52499 215.70674 214.80649 214.17224 213.62399 214.62956 217.00533 219.57130
 221.88446 223.78139 225.11215 226.12282 226.88173 227.18359 226.72556 225.60201
 225.03032 226.87288 231.09064 236.10201 240.90147 245.32375 249.40947 253.09094
 256.38824 259.46750 262.43484 265.21658 267.64746 269.66705 271.34085 272.83801
 274.25934 275.64410 277.03702 278.37943 279.56497 280.62079 281.58661 282.47787
 283.29919 284.05627 284.69125 285.53741
 366.78100 356.33722 345.77145 334.63967 323.04489 311.24112 299.11334 286.91856
 274.63279 262.53201 250.54324 239.84646 229.97068 221.07691 213.26113 206.26535
 200.10158 195.04180 191.62602 189.67025 188.70947 188.77569 189.61292 190.92314
 192.65037 194.74759 197.01281 199.37404 201.82126 204.30348 206.39371 208.23793
 209.86615 211.01338 211.24460 211.47482 211.41405 211.12127 210.75650 210.38872
 210.00794 209.72017 209.53039 209.39661 209.32684 209.66006 210.04828 210.43951
 211.23473 212.41495 213.66718 215.45240 217.38263 219.42785 221.52507 223.61030
 225.67252 227.75874 229.85797 231.96619 234.09741 236.27164 238.52986 240.90208
 243.52531 245.77853 247.78276 249.54998 250.96920 252.09443 252.91865 253.23687
 253.27610 253.05232 252.41454 251.36477 249.97299 248.13621 246.04744 243.88266
 241.67588 239.48211 237.30433 235.14556 233.00778 230.87700 228.90523 227.06445
 225.34967 223.82390 222.45612 221.23034 220.11457 219.07679 218.18301 217.32624
 216.57046 215.75269 214.85291 214.21913 213.67136 214.66542 217.01404 219.57076
 221.90973 223.78049 225.12874 226.10728 226.81587 227.13860 226.70648 225.54446
 224.99498 226.89546 231.10509 236.12025 240.94702 245.37979 249.45695 253.12054
 256.39401 259.44833 262.39099 265.15192 267.56851 269.58118 271.25427 272.74979
 274.17993 275.59204 276.99860 278.34430 279.53043 280.58557 281.55307 282.44156
 283.26627 284.02429 284.65298 285.49243
 366.78100 356.33777 345.77255 334.64132 323.04709 311.24387 299.11664 286.92241
 274.63719 262.53696 250.54873 239.85251 229.97728 221.08406 213.26883 206.27360
 200.11038 195.05115 191.63592 189.68070 188.72047 188.78724 189.62502 190.93579
 192.66356 194.76134 197.02711 199.38888 201.83666 204.31943 206.41020 208.25498
 209.88375 211.03153 211.26330 211.49407 211.43385 211.14162 210.77739 210.41017
 210.02994 209.74271 209.55349 209.42026 209.35103 209.68481 210.07358 210.46535
 211.26113 212.44190 213.69467 215.48045 217.41122 219.45699 221.55477 223.64054
 225.70332 227.79009 229.88986 231.99864 234.13041 236.30518 238.56396 240.93673
 243.56050 245.81428 247.81905 249.58682 251.00660 252.13237 252.95714 253.27592
 253.31569 253.09246 252.45524 251.40601 250.01479 248.17856 246.09033 243.92611
 241.71988 239.52665 237.34943 235.19120 233.05397 230.92375 228.95252 227.11229
 225.39807 223.87284 222.50561 221.28039 220.16516 219.12793 218.23471 217.37848
 216.62325 215.80603 214.90680 214.27358 213.72635 214.70253 217.00885 219.55829
 221.94957 223.79932 225.11316 226.04977 226.72740 227.08791 226.72345 225.56918
 224.99481 226.87991 231.10962 236.12506 240.93224 245.40329 249.50735 253.16161
 256.44141 259.46860 262.38922 265.13196 267.54071 269.53326 271.15979 272.62732
 274.07849 275.48944 276.88123 278.19525 279.36499 280.41098 281.36804 282.24673
 283.07202 283.81091 284.42831 285.21500
 366.78100 356.33744 345.77189 334.64033 323.04577 311.24221 299.11466 286.92010
 274.63454 262.53399 250.54543 239.84887 229.97331 221.07976 213.26420 206.26864
 200.10509 195.04553 191.62997 189.67441 188.71386 188.78030 189.61774 190.92819
 192.65563 194.75307 197.01851 199.37996 201.82740 204.30984 206.40028 208.24473
 209.87317 211.02061 211.25206 211.48250 211.42194 211.12938 210.76483 210.39727
 210.01671 209.72916 209.53960 209.40604 209.33648 209.66993 210.05837 210.44981
 211.24526 212.42570 213.67814 215.46358 217.39403 219.43947 221.53691 223.62236
 225.68480 227.77124 229.87068 231.97913 234.11057 236.28501 238.54346 240.91590
 243.53934 245.79278 247.79723 249.56467 250.98411 252.10956 252.93400 253.25244
 253.29188 253.06833 252.43077 251.38121 249.98966 248.15310 246.06454 243.89998
 241.69343 239.49987 237.32231 235.16375 233.02620 230.89564 228.92408 227.08353
 225.36897 223.84341 222.47585 221.25030 220.13474 219.09718 218.20363 217.34707
 216.59151 215.77395 214.87440 214.24084 213.69328 214.69785 217.07124 219.50620
 221.92636 223.75740 225.04755 226.02718 226.72446 227.05626 226.66624 225.62033
 225.04965 226.87115 231.08810 236.11163 240.97510 245.44777 249.51514 253.14583
 256.44260 259.45703 262.38080 265.13232 267.55423 269.55212 271.16278 272.58167
 274.01080 275.42102 276.73993 277.96500 279.04944 280.08975 281.06512 281.97006
 282.78790 283.53235 284.18915 285.02615
 366.78100 356.33725 345.77150 334.63975 323.04500 311.24125 299.11350 286.91875
 274.63300 262.53225 250.54350 239.84675 229.97100 221.07725 213.26150 206.26575
 200.10200 195.04225 191.62650 189.67075 188.71000 188.77625 189.61350 190.92375
 192.65100 194.74825 197.01349 199.37474 201.82199 204.30424 206.39449 208.23874
 209.86699 211.01424 211.24549 211.47574 211.41499 211.12224 210.75749 210.38974
 210.00899 209.72124 209.53149 209.39774 209.32799 209.66124 210.04949 210.44074
 211.23599 212.41624 213.66849 215.45374 217.38399 219.42924 221.52649 223.61174
 225.67399 227.76024 229.85949 231.96774 234.09899 236.27324 238.53149 240.90374
 243.52699 245.78024 247.78449 249.55174 250.97099 252.09624 252.92049 253.23874
 253.27799 253.05424 252.41649 251.36674 249.97499 248.13824 246.04948 243.88473
 241.67798 239.48423 237.30648 235.14773 233.00998 230.87923 228.90748 227.06673
 225.35198 223.82623 222.45848 221.23273 220.11698 219.07923 218.18548 217.32873
 216.57298 215.75523 214.85548 214.22173 213.67398 214.69614 217.12448 219.52388
 221.79291 223.60617 225.01158 226.07268 226.76468 227.03645 226.59813 225.70720
 225.03772 226.85838 231.03734 236.07806 240.92064 245.42227 249.49370 253.11229
 256.39102 259.42395 262.35477 265.10388 267.52945 269.55023 271.18945 272.52609
 274.00299 275.39514 276.66058 277.78134 278.87796 279.93130 280.91327 281.85339
 282.73288 283.51608 284.20023 285.07214
 366.78100 356.33828 345.77356 334.64283 323.04911 311.24639 299.11967 286.92595
 274.64122 262.54150 250.55378 239.85806 229.98334 221.09062 213.27589 206.28117
 200.11845 195.05973 191.64501 189.69028 188.73056 188.79784 189.63612 190.94740
 192.67567 194.77395 197.04023 199.40251 201.85079 204.33406 206.42534 208.27062
 209.89990 211.04818 211.28046 211.51173 211.45201 211.16029 210.79657 210.42985
 210.05012 209.76340 209.57468 209.44196 209.37324 209.70751 210.09679 210.48907
 211.28535 212.46663 213.71990 215.50618 217.43746 219.48374 221.58202 223.66830
 225.73157 227.81885 229.91913 232.02841 234.16069 236.33596 238.59524 240.96852
 243.59280 245.84708 247.85235 249.62063 251.04091 252.16719 252.99247 253.31174
 253.35202 253.12930 252.49258 251.44386 250.05314 248.21741 246.12969 243.96597
 241.76025 239.56753 237.39080 235.23308 233.09636 230.96664 228.99592 227.15619
 225.44247 223.91775 222.55103 221.32631 220.21158 219.17486 218.28214 217.42642
 216.67170 215.85498 214.95625 214.32353 213.77681 214.75810 217.10675 219.59996
 221.66719 223.47160 225.03424 226.06883 226.73303 227.02014 226.58826 225.72124
 225.00735 226.84744 231.05222 236.05429 240.83902 245.33495 249.51346 253.11526
 256.35788 259.39859 262.31949 265.06531 267.50522 269.55576 271.20386 272.62292
 274.07669 275.42804 276.63138 277.78366 278.95923 280.03522 281.08435 282.10635
 283.02557 283.84412 284.55917 285.47046
 366.78100 356.33850 345.77400 334.64350 323.04999 311.24749 299.12099 286.92749
 274.64299 262.54349 250.55598 239.86048 229.98598 221.09348 213.27898 206.28448
 200.12197 195.06347 191.64897 189.69447 188.73497 188.80247 189.64097 190.95246
 192.68096 194.77946 197.04596 199.40846 201.85696 204.34045 206.43195 208.27745
 209.90695 211.05545 211.28795 211.51945 211.45994 211.16844 210.80494 210.43844
 210.05894 209.77244 209.58393 209.45143 209.38293 209.71743 210.10693 210.49943
 211.29592 212.47742 213.73092 215.51742 217.44892 219.49542 221.59392 223.68041
 225.74391 227.83141 229.93191 232.04141 234.17391 236.34940 238.60890 240.98240
 243.60690 245.86140 247.86690 249.63540 251.05589 252.18239 253.00789 253.32739
 253.36789 253.14539 252.50888 251.46038 250.06988 248.23438 246.14688 243.98338
 241.77787 239.58537 237.40887 235.25137 233.11487 230.98537 229.01487 227.17536
 225.46186 223.93736 222.57086 221.34636 220.23186 219.19535 218.30285 217.44735
 216.69285 215.87635 214.97785 214.34534 213.79884 214.77731 217.12685 219.59540
 221.66106 223.44263 225.00925 226.04643 226.70218 227.01486 226.56796 225.68085
 225.08659 226.99478 231.10628 236.04900 240.81245 245.26749 249.48259 253.12111
 256.34384 259.37381 262.28864 265.02148 267.47614 269.54794 271.22073 272.65491
 274.05646 275.38770 276.55200 277.83347 279.03506 280.14069 281.25464 282.28305
 283.20801 284.03168 284.75122 285.66818
 366.78100 356.33834 345.77368 334.64302 323.04935 311.24669 299.12003 286.92637
 274.64171 262.54205 250.55439 239.85873 229.98406 221.09140 213.27674 206.28208
 200.11942 195.06076 191.64610 189.69143 188.73177 188.79911 189.63745 190.94879
 192.67713 194.77547 197.04181 199.40414 201.85248 204.33582 206.42716 208.27250
 209.90184 211.05018 211.28251 211.51385 211.45419 211.16253 210.79887 210.43221
 210.05255 209.76589 209.57722 209.44456 209.37590 209.71024 210.09958 210.49192
 211.28826 212.46960 213.72293 215.50927 217.44061 219.48695 221.58529 223.67163
 225.73497 227.82230 229.92264 232.03198 234.16432 236.33966 238.59900 240.97234
 243.59668 245.85101 247.85635 249.62469 251.04503 252.17137 252.99671 253.31605
 253.35638 253.13372 252.49706 251.44840 250.05774 248.22208 246.13442 243.97076
 241.76509 239.57243 237.39577 235.23811 233.10145 230.97179 229.00113 227.16146
 225.44780 223.92314 222.55648 221.33182 220.21716 219.18050 218.28784 217.43217
 216.67751 215.86085 214.96219 214.32953 213.78287 214.77968 217.17404 219.54927
 221.73149 223.47195 224.98784 226.05226 226.70680 226.92610 226.53018 225.67667
 225.28166 227.13797 231.15179 236.03906 240.80667 245.24097 249.42206 253.10091
 256.34976 259.37946 262.28464 264.99475 267.43170 269.55869 271.30988 272.76382
 274.11679 275.38815 276.55295 277.83234 279.04901 280.23889 281.40536 282.46210
 283.41251 284.25888 284.99823 285.94046
 366.78100 356.33748 345.77196 334.64044 323.04592 311.24240 299.11488 286.92036
 274.63484 262.53432 250.54580 239.84928 229.97376 221.08024 213.26472 206.26920
 200.10568 195.04616 191.63064 189.67512 188.71460 188.78108 189.61856 190.92904
 192.65652 194.75400 197.01948 199.38096 201.82844 204.31092 206.40140 208.24588
 209.87436 211.02184 211.25332 211.48380 211.42328 211.13076 210.76624 210.39872
 210.01820 209.73068 209.54116 209.40764 209.33812 209.67160 210.06008 210.45156
 211.24704 212.42752 213.68000 215.46548 217.39596 219.44144 221.53892 223.62440
 225.68687 227.77335 229.87283 231.98131 234.11279 236.28727 238.54575 240.91823
 243.54171 245.79519 247.79967 249.56715 250.98663 252.11211 252.93659 253.25507
 253.29455 253.07103 252.43351 251.38399 249.99247 248.15595 246.06743 243.90291
 241.69639 239.50287 237.32535 235.16683 233.02931 230.89879 228.92727 227.08675
 225.37223 223.84671 222.47919 221.25367 220.13815 219.10063 218.20711 217.35059
 216.59507 215.77755 214.87803 214.24451 213.69699 214.74394 217.24213 219.49060
 221.76764 223.45255 224.91777 226.03760 226.68959 226.84373 226.49081 225.61426
 225.38918 227.19920 231.18411 236.04170 240.81265 245.21127 249.37766 253.09349
 256.35855 259.40796 262.27982 264.94672 267.34607 269.51282 271.35822 272.89651
 274.25067 275.48654 276.61118 277.90698 279.12802 280.30731 281.47391 282.53076
 283.48129 284.32776 285.06717 286.00952
 366.78100 356.33694 345.77088 334.63883 323.04377 311.23971 299.11165 286.91659
 274.63053 262.52948 250.54042 239.84336 229.96730 221.07324 213.25718 206.26113
 200.09707 195.03701 191.62095 189.66489 188.70383 188.76978 189.60672 190.91666
 192.64360 194.74054 197.00549 199.36643 201.81337 204.29531 206.38525 208.22919
 209.85714 211.00408 211.23502 211.46496 211.40390 211.11084 210.74579 210.37773
 209.99667 209.70861 209.51855 209.38449 209.31444 209.64738 210.03532 210.42626
 211.22120 212.40114 213.65309 215.43803 217.36797 219.41291 221.50985 223.59480
 225.65674 227.74268 229.84162 231.94956 234.08050 236.25445 238.51239 240.88433
 243.50727 245.76021 247.76415 249.53110 250.95004 252.07498 252.89892 253.21686
 253.25580 253.03175 252.39369 251.34363 249.95157 248.11451 246.02546 243.86040
 241.65334 239.45928 237.28122 235.12216 232.98411 230.85305 228.88099 227.03993
 225.32487 223.79881 222.43076 221.20470 220.08864 219.05058 218.15652 217.29946
 216.54341 215.72535 214.82529 214.19123 213.64317 214.71846 217.27414 219.50308
 221.70581 223.38490 224.77460 226.04214 226.65408 226.69214 226.52544 225.42621
 225.36227 227.26845 231.18161 236.02769 240.81691 245.23827 249.33966 253.06310
 256.36227 259.45273 262.33893 264.94019 267.25748 269.33615 271.17905 272.78555
 274.20639 275.48911 276.69028 277.98688 279.19052 280.29260 281.40518 282.46423
 283.41672 284.26492 285.00589 285.95016
 366.78100 356.33844 345.77388 334.64331 323.04975 311.24719 299.12063 286.92707
 274.64251 262.54294 250.55538 239.85982 229.98526 221.09270 213.27813 206.28357
 200.12101 195.06245 191.64789 189.69333 188.73376 188.80120 189.63964 190.95108
 192.67952 194.77795 197.04439 199.40683 201.85527 204.33871 206.43014 208.27558
 209.90502 211.05346 211.28590 211.51734 211.45777 211.16621 210.80265 210.43609
 210.05653 209.76996 209.58140 209.44884 209.38028 209.71472 210.10416 210.49659
 211.29303 212.47447 213.72791 215.51435 217.44578 219.49222 221.59066 223.67710
 225.74054 227.82798 229.92841 232.03785 234.17029 236.34573 238.60517 240.97860
 243.60304 245.85748 247.86292 249.63136 251.05179 252.17823 253.00367 253.32311
 253.36355 253.14099 252.50442 251.45586 250.06530 248.22974 246.14218 243.97861
 241.77305 239.58049 237.40393 235.24637 233.10981 230.98024 229.00968 227.17012
 225.45656 223.93200 222.56543 221.34087 220.22631 219.18975 218.29719 217.44163
 216.68706 215.87050 214.97194 214.33938 213.79282 214.79510 217.18697 219.60944
 221.66383 223.37793 224.79228 226.01804 226.60432 226.57501 226.29657 225.63097
 225.61649 227.19942 231.22302 236.01900 240.80411 245.26018 249.34485 253.07024
 256.35284 259.45825 262.41318 265.04062 267.28400 269.26743 271.00870 272.55884
 274.00400 275.31454 276.55957 277.85080 279.04587 280.13104 281.16931 282.16614
 283.06268 283.86105 284.55850 285.44733
 366.78100 356.33957 345.77615 334.64672 323.05430 311.25287 299.12745 286.93502
 274.65159 262.55317 250.56674 239.87232 229.99889 221.10747 213.29404 206.30061
 200.13919 195.08176 191.66834 189.71491 188.75649 188.82506 189.66464 190.97721
 192.70678 194.80636 197.07393 199.43751 201.88708 204.37166 206.46423 208.31080
 209.94138 211.09095 211.32453 211.55710 211.49868 211.20825 210.84582 210.48040
 210.10197 209.81655 209.62912 209.49770 209.43027 209.76584 210.15642 210.54999
 211.34757 212.53014 213.78472 215.57229 217.50487 219.55244 221.65201 223.73959
 225.80416 227.89274 229.99431 232.10489 234.23846 236.41503 238.67561 241.05018
 243.67576 245.93133 247.93791 249.70748 251.12905 252.25663 253.08320 253.40378
 253.44535 253.22393 252.58850 251.54107 250.15165 248.31722 246.23080 244.06837
 241.86395 239.67252 237.49710 235.34067 233.20524 231.07682 229.10739 227.26897
 225.55654 224.03312 222.66769 221.44426 220.33084 219.29541 218.40399 217.54956
 216.79614 215.98071 215.08328 214.45186 213.90643 214.85783 217.14427 219.66856
 221.57396 223.32713 224.86966 225.88956 226.45146 226.58098 226.21854 225.73714
 225.54590 227.27919 231.30469 236.03180 240.80148 245.28252 249.39212 253.10764
 256.41235 259.49152 262.38733 264.95068 267.31812 269.30991 270.97647 272.46783
 273.88409 275.20816 276.49030 277.80737 279.01007 280.10651 281.21558 282.25931
 283.19800 284.03394 284.76419 285.69479
 366.78100 356.34053 345.77805 334.64958 323.05811 311.25764 299.13316 286.94169
 274.65922 262.56175 250.57627 239.88280 230.01033 221.11985 213.30738 206.31491
 200.15444 195.09796 191.68549 189.73302 188.77554 188.84507 189.68560 190.99913
 192.72965 194.83018 197.09871 199.46324 201.91376 204.39929 206.49282 208.34034
 209.97187 211.12240 211.35693 211.59045 211.53298 211.24351 210.88204 210.51756
 210.14009 209.85562 209.66914 209.53867 209.47220 209.80873 210.20025 210.59478
 211.39331 212.57683 213.83236 215.62089 217.55442 219.60294 221.70347 223.79200
 225.85753 227.94705 230.04958 232.16111 234.29563 236.47316 238.73469 241.11022
 243.73674 245.99327 248.00080 249.77133 251.19385 252.32238 253.14991 253.47143
 253.51396 253.29349 252.65902 251.61254 250.22407 248.39060 246.30512 244.14365
 241.94018 239.74971 237.57523 235.41976 233.28529 231.15782 229.18934 227.35187
 225.64040 224.11792 222.75345 221.53098 220.41851 219.38403 218.49356 217.64009
 216.88762 216.07314 215.17667 214.54620 214.00172 214.91096 217.10167 219.71140
 221.55502 223.29875 224.89807 225.75214 226.25998 226.50937 226.19804 225.71106
 225.52928 227.38689 231.37306 236.04956 240.81285 245.31465 249.43350 253.14967
 256.49100 259.56421 262.39545 264.91568 267.25595 269.29404 270.98749 272.46625
 273.87726 275.21686 276.56116 277.92285 279.13364 280.23648 281.35034 282.41644
 283.37531 284.22916 284.97507 285.92563
 366.78100 356.34093 345.77886 334.65079 323.05972 311.25965 299.13557 286.94450
 274.66243 262.56536 250.58029 239.88722 230.01515 221.12508 213.31301 206.32094
 200.16087 195.10480 191.69272 189.74065 188.78358 188.85351 189.69444 191.00837
 192.73930 194.84023 197.10916 199.47409 201.92502 204.41095 206.50487 208.35280
 209.98473 211.13566 211.37059 211.60452 211.54745 211.25838 210.89731 210.53324
 210.15617 209.87210 209.68602 209.55595 209.48988 209.82681 210.21874 210.61367
 211.41260 212.59653 213.85246 215.64139 217.57532 219.62425 221.72517 223.81410
 225.88003 227.96996 230.07289 232.18482 234.31975 236.49768 238.75961 241.13554
 243.76247 246.01940 248.02732 249.79825 251.22118 252.35011 253.17804 253.49997
 253.54290 253.32283 252.68876 251.64269 250.25462 248.42155 246.33647 244.17540
 241.97233 239.78226 237.60819 235.45312 233.31905 231.19198 229.22391 227.38684
 225.67577 224.15370 222.78962 221.56755 220.45548 219.42141 218.53134 217.67827
 216.92620 216.11213 215.21606 214.58599 214.04192 214.93889 217.08896 219.68857
 221.64828 223.35637 224.77457 225.64636 226.19789 226.34622 226.00658 225.78325
 225.74773 227.42305 231.45712 236.07379 240.82985 245.35135 249.47853 253.21002
 256.58405 259.66064 262.43997 264.89389 267.14697 269.20111 270.96198 272.48074
 273.91464 275.26978 276.58066 277.95029 279.15231 280.25485 281.29819 282.32245
 283.24365 284.06403 284.78067 285.69394
 366.78100 356.34072 345.77844 334.65015 323.05887 311.25859 299.13431 286.94303
 274.66075 262.56346 250.57818 239.88490 230.01262 221.12234 213.31006 206.31777
 200.15749 195.10121 191.68893 189.73665 188.77937 188.84908 189.68980 191.00352
 192.73424 194.83496 197.10368 199.46839 201.91911 204.40483 206.49855 208.34627
 209.97799 211.12870 211.36342 211.59714 211.53986 211.25058 210.88929 210.52501
 210.14773 209.86345 209.67717 209.54689 209.48060 209.81732 210.20904 210.60376
 211.40248 212.58620 213.84191 215.63063 217.56435 219.61307 221.71379 223.80251
 225.86822 227.95794 230.06066 232.17238 234.30710 236.48482 238.74653 241.12225
 243.74897 246.00569 248.01341 249.78412 251.20684 252.33556 253.16328 253.48500
 253.52772 253.30743 252.67315 251.62687 250.23859 248.40531 246.32003 244.15874
 241.95546 239.76518 237.59090 235.43562 233.30134 231.17405 229.20577 227.36849
 225.65721 224.13493 222.77065 221.54836 220.43608 219.40180 218.51152 217.65824
 216.90596 216.09167 215.19539 214.56511 214.02083 214.93890 217.14108 219.62730
 221.67326 223.28078 224.64066 225.62378 226.13858 226.18689 225.76888 225.89207
 225.87634 227.43494 231.56279 236.12386 240.85538 245.37897 249.52051 253.27780
 256.67850 259.76590 262.52866 264.92880 267.09518 269.10699 270.86029 272.41013
 273.87958 275.25980 276.62271 277.99329 279.20459 280.30750 281.39636 282.46140
 283.41928 284.27228 285.01743 285.96704
 366.78100 356.34075 345.77850 334.65025 323.05900 311.25875 299.13451 286.94326
 274.66101 262.56376 250.57851 239.88526 230.01301 221.12276 213.31051 206.31826
 200.15801 195.10177 191.68952 189.73727 188.78002 188.84977 189.69052 191.00427
 192.73502 194.83577 197.10452 199.46928 201.92003 204.40578 206.49953 208.34728
 209.97903 211.12978 211.36453 211.59828 211.54103 211.25178 210.89054 210.52629
 210.14904 209.86479 209.67854 209.54829 209.48204 209.81879 210.21054 210.60529
 211.40404 212.58780 213.84355 215.63230 217.56605 219.61480 221.71555 223.80430
 225.87005 227.95980 230.06255 232.17431 234.30906 236.48681 238.74856 241.12431
 243.75106 246.00781 248.01556 249.78631 251.20906 252.33781 253.16557 253.48732
 253.53007 253.30982 252.67557 251.62932 250.24107 248.40782 246.32257 244.16132
 241.95807 239.76783 237.59358 235.43833 233.30408 231.17683 229.20858 227.37133
 225.66008 224.13783 222.77358 221.55134 220.43909 219.40484 218.51459 217.66134
 216.90909 216.09484 215.19859 214.56834 214.02409 214.94974 217.17795 219.61565
 221.62868 223.29059 224.67160 225.60066 225.95015 225.97031 225.69447 225.79666
 225.89394 227.72353 231.63202 236.18562 240.90041 245.42490 249.58415 253.35744
 256.76572 259.84650 262.60043 264.97171 267.09866 269.08267 270.83096 272.38080
 273.85645 275.24423 276.70114 278.08698 279.32260 280.45792 281.63477 282.70093
 283.65982 284.51370 285.25964 286.21027
 366.78100 356.34159 345.78019 334.65278 323.06238 311.26297 299.13956 286.94916
 274.66775 262.57134 250.58694 239.89453 230.02313 221.13372 213.32231 206.33091
 200.17150 195.11610 191.70469 189.75328 188.79688 188.86747 189.70906 191.02366
 192.75525 194.85685 197.12644 199.49203 201.94363 204.43022 206.52481 208.37341
 210.00600 211.15760 211.39319 211.62778 211.57138 211.28297 210.92257 210.55916
 210.18275 209.89935 209.71394 209.58453 209.51913 209.85672 210.24932 210.64491
 211.44450 212.62910 213.88569 215.67529 217.60988 219.65947 221.76107 223.85066
 225.91725 228.00785 230.11144 232.22404 234.35963 236.53822 238.80082 241.17741
 243.80501 246.06260 248.07119 249.84279 251.26638 252.39597 253.22457 253.54716
 253.59076 253.37135 252.73794 251.69254 250.30513 248.47273 246.38832 244.22791
 242.02551 239.83610 237.66269 235.50829 233.37488 231.24848 229.28107 227.44466
 225.73426 224.21285 222.84944 221.62804 220.51663 219.48323 218.59382 217.74141
 216.99001 216.17660 215.28120 214.65179 214.10838 214.99622 217.13928 219.67203
 221.56537 223.24930 224.66109 225.53064 225.77657 225.68578 225.67171 225.53571
 225.85678 227.91719 231.74002 236.26259 240.96696 245.49789 249.67015 253.45731
 256.86655 259.92032 262.62924 264.96637 267.07526 269.07214 270.83456 272.38687
 273.85388 275.27338 276.74686 278.13446 279.37253 280.51312 281.60272 282.59595
 283.48923 284.28473 284.97964 285.86523
 366.78100 356.34194 345.78088 334.65383 323.06377 311.26471 299.14165 286.95160
 274.67054 262.57448 250.59042 239.89836 230.02731 221.13825 213.32719 206.33613
 200.17708 195.12202 191.71096 189.75990 188.80384 188.87479 189.71673 191.03167
 192.76361 194.86555 197.13550 199.50144 201.95338 204.44032 206.53527 208.38421
 210.01715 211.16909 211.40503 211.63998 211.58392 211.29586 210.93580 210.57275
 210.19669 209.91363 209.72857 209.59951 209.53446 209.87240 210.26534 210.66128
 211.46123 212.64617 213.90311 215.69305 217.62799 219.67794 221.77988 223.86982
 225.93676 228.02770 230.13165 232.24459 234.38053 236.55947 238.82242 241.19936
 243.82730 246.08524 248.09418 249.86613 251.29007 252.42001 253.24895 253.57190
 253.61584 253.39678 252.76372 251.71866 250.33161 248.49955 246.41549 244.25543
 242.05338 239.86432 237.69126 235.53720 233.40414 231.27809 229.31103 227.47497
 225.76491 224.24385 222.88080 221.65974 220.54868 219.51562 218.62657 217.77451
 217.02345 216.21039 215.31533 214.68628 214.14322 215.01820 217.11700 219.68527
 221.61760 223.24440 224.58060 225.39778 225.64536 225.47755 225.49300 225.34311
 225.88779 227.99100 231.88306 236.37114 241.06380 245.59204 249.76057 253.55957
 256.97589 260.01260 262.67059 264.96786 267.04819 269.01953 270.78229 272.34146
 273.81238 275.23230 276.75659 278.13818 279.36420 280.47543 281.50565 282.47018
 283.33768 284.11020 284.78503 285.64505
 366.78100 356.34148 345.77997 334.65245 323.06194 311.26242 299.13890 286.94839
 274.66687 262.57036 250.58584 239.89333 230.02181 221.13229 213.32078 206.32926
 200.16975 195.11423 191.70271 189.75120 188.79468 188.86517 189.70665 191.02113
 192.75262 194.85410 197.12359 199.48907 201.94056 204.42704 206.52152 208.37001
 210.00249 211.15398 211.38946 211.62394 211.56743 211.27891 210.91840 210.55488
 210.17836 209.89485 209.70933 209.57982 209.51430 209.85179 210.24427 210.63975
 211.43924 212.62372 213.88021 215.66969 217.60417 219.65366 221.75514 223.84463
 225.91111 228.00159 230.10508 232.21756 234.35305 236.53153 238.79402 241.17050
 243.79798 246.05547 248.06395 249.83544 251.25892 252.38840 253.21689 253.53937
 253.58286 253.36334 252.72982 251.68431 250.29679 248.46428 246.37976 244.21925
 242.01673 239.82721 237.65370 235.49918 233.36567 231.23915 229.27163 227.43512
 225.72460 224.20309 222.83957 221.61806 220.50654 219.47302 218.58351 217.73099
 216.97948 216.16596 215.27044 214.64093 214.09741 215.00136 217.15482 219.63028
 221.69914 223.31750 224.47295 225.22704 225.52960 225.32349 225.21909 225.21201
 225.97731 228.14751 232.02519 236.50797 241.19600 245.70877 249.85233 253.65192
 257.07336 260.09955 262.73407 265.00693 267.06146 269.00000 270.72253 272.25705
 273.72668 275.20059 276.70520 278.08588 279.30731 280.40460 281.40775 282.32770
 283.16586 283.91223 284.56424 285.39517
 366.78100 356.34126 345.77952 334.65179 323.06105 311.26131 299.13757 286.94684
 274.66510 262.56836 250.58362 239.89089 230.01915 221.12941 213.31767 206.32594
 200.16620 195.11046 191.69872 189.74699 188.79025 188.86051 189.70177 191.01604
 192.74730 194.84856 197.11782 199.48309 201.93435 204.42061 206.51487 208.36313
 209.99540 211.14666 211.38192 211.61618 211.55945 211.27071 210.90997 210.54623
 210.16950 209.88576 209.70002 209.57028 209.50455 209.84181 210.23407 210.62933
 211.42860 212.61286 213.86912 215.65838 217.59265 219.64191 221.74317 223.83243
 225.89870 227.98896 230.09222 232.20448 234.33974 236.51801 238.78027 241.15653
 243.78379 246.04106 248.04932 249.82058 251.24384 252.37311 253.20137 253.52363
 253.56689 253.34716 252.71342 251.66768 250.27994 248.44721 246.36247 244.20173
 241.99899 239.80926 237.63552 235.48078 233.34704 231.22030 229.25257 227.41583
 225.70509 224.18335 222.81962 221.59788 220.48614 219.45240 218.56267 217.70993
 216.95819 216.14445 215.24872 214.61898 214.07524 214.99794 217.20296 219.59644
 221.67134 223.22606 224.36073 225.15562 225.42157 225.11417 224.93645 225.04283
 226.03030 228.21947 232.16118 236.66513 241.34087 245.83080 249.95415 253.74210
 257.15479 260.16254 262.78738 265.05374 267.10107 269.02481 270.70645 272.21527
 273.65283 275.11255 276.66452 278.04898 279.27597 280.38324 281.40894 282.35632
 283.20840 283.96716 284.63000 285.47473
 366.78100 356.34141 345.77982 334.65222 323.06163 311.26204 299.13845 286.94786
 274.66627 262.56967 250.58508 239.89249 230.02090 221.13131 213.31972 206.32812
 200.16853 195.11294 191.70135 189.74976 188.79317 188.86357 189.70498 191.01939
 192.75080 194.85221 197.12162 199.48702 201.93843 204.42484 206.51925 208.36766
 210.00007 211.15147 211.38688 211.62129 211.56470 211.27611 210.91551 210.55192
 210.17533 209.89174 209.70615 209.57656 209.51096 209.84837 210.24078 210.63619
 211.43560 212.62001 213.87641 215.66582 217.60023 219.64964 221.75105 223.84046
 225.90686 227.99727 230.10068 232.21309 234.34850 236.52691 238.78931 241.16572
 243.79313 246.05054 248.05895 249.83036 251.25376 252.38317 253.21158 253.53399
 253.57740 253.35780 252.72421 251.67862 250.29103 248.45844 246.37385 244.21325
 242.01066 239.82107 237.64748 235.49289 233.35930 231.23270 229.26511 227.42852
 225.71793 224.19634 222.83275 221.61115 220.49956 219.46597 218.57638 217.72379
 216.97220 216.15860 215.26301 214.63342 214.08983 215.01495 217.24303 219.58141
 221.65118 223.19652 224.43311 225.12123 225.21481 224.86694 224.65727 224.96494
 226.12453 228.45168 232.33623 236.84370 241.49539 245.95522 250.07051 253.84833
 257.24323 260.22690 262.83612 265.09857 267.16357 269.07288 270.73132 272.20251
 273.62640 275.09116 276.65005 278.04791 279.29694 280.47089 281.56436 282.55496
 283.44592 284.23929 284.93240 285.81564
 366.78100 356.34138 345.77977 334.65215 323.06153 311.26192 299.13830 286.94769
 274.66607 262.56945 250.58484 239.89222 230.02060 221.13099 213.31937 206.32776
 200.16814 195.11252 191.70091 189.74929 188.79267 188.86306 189.70444 191.01883
 192.75021 194.85159 197.12098 199.48636 201.93774 204.42413 206.51851 208.36690
 209.99928 211.15066 211.38605 211.62043 211.56381 211.27520 210.91458 210.55097
 210.17435 209.89073 209.70512 209.57550 209.50988 209.84727 210.23965 210.63503
 211.43442 212.61880 213.87519 215.66457 217.59895 219.64834 221.74972 223.83910
 225.90549 227.99587 230.09926 232.21164 234.34702 236.52541 238.78779 241.16417
 243.79156 246.04894 248.05733 249.82871 251.25209 252.38148 253.20986 253.53224
 253.57563 253.35601 252.72240 251.67678 250.28916 248.45655 246.37193 244.21131
 242.00870 239.81908 237.64546 235.49085 233.35723 231.23062 229.26300 227.42638
 225.71577 224.19415 222.83053 221.60892 220.49730 219.46369 218.57407 217.72145
 216.96984 216.15622 215.26060 214.63099 214.08737 215.02330 217.28719 219.56703
 221.61916 223.30693 224.53717 224.96165 224.95670 224.67331 224.38719 224.94748
 226.13365 228.62845 232.52098 237.03250 241.66301 246.09180 250.18980 253.96442
 257.35120 260.30222 262.86804 265.13586 267.24237 269.17709 270.80624 272.24103
 273.62396 275.15594 276.72852 278.15515 279.50873 280.77594 281.93207 282.97946
 283.92148 284.76035 285.49316 286.42703
 366.78100 356.34196 345.78091 334.65387 323.06383 311.26478 299.14174 286.95170
 274.67065 262.57461 250.59057 239.89852 230.02748 221.13844 213.32739 206.33635
 200.17731 195.12226 191.71122 189.76018 188.80413 188.87509 189.71705 191.03200
 192.76396 194.86592 197.13587 199.50183 201.95379 204.44074 206.53570 208.38466
 210.01761 211.16957 211.40553 211.64048 211.58444 211.29640 210.93635 210.57331
 210.19727 209.91422 209.72918 209.60014 209.53509 209.87305 210.26601 210.66196
 211.46192 212.64688 213.90383 215.69379 217.62875 219.67870 221.78066 223.87062
 225.93757 228.02853 230.13249 232.24544 234.38140 236.56036 238.82331 241.20027
 243.82823 246.08618 248.09514 249.86710 251.29105 252.42101 253.24997 253.57292
 253.61688 253.39784 252.76479 251.71975 250.33271 248.50066 246.41662 244.25658
 242.05453 239.86549 237.69245 235.53840 233.40536 231.27932 229.31227 227.47623
 225.76619 224.24515 222.88210 221.66106 220.55002 219.51697 218.62793 217.77589
 217.02484 216.21180 215.31676 214.68771 214.14467 215.05551 217.27188 219.60475
 221.54353 223.33730 224.51202 224.75793 224.80423 224.51483 224.08696 224.76254
 226.10716 228.74928 232.70450 237.23329 241.84782 246.24556 250.31541 254.08018
 257.45337 260.37628 262.91132 265.14938 267.27789 269.26413 270.91806 272.34283
 273.66284 275.26685 276.83929 278.27377 279.64691 280.91763 282.07697 283.12726
 284.07187 284.91306 285.64789 286.58438
 366.78100 356.34253 345.78206 334.65558 323.06611 311.26764 299.14517 286.95569
 274.67522 262.57975 250.59628 239.90481 230.03433 221.14586 213.33539 206.34492
 200.18645 195.13197 191.72150 189.77103 188.81556 188.88708 189.72961 191.04514
 192.77767 194.88020 197.15072 199.51725 201.96978 204.45731 206.55283 208.40236
 210.03589 211.18842 211.42495 211.66047 211.60500 211.31753 210.95806 210.59559
 210.22011 209.93764 209.75317 209.62470 209.56022 209.89875 210.29228 210.68881
 211.48934 212.67486 213.93239 215.72292 217.65845 219.70897 221.81150 223.90203
 225.96956 228.06109 230.16561 232.27914 234.41567 236.59520 238.85872 241.23625
 243.86478 246.12331 248.13284 249.90536 251.32989 252.46042 253.28995 253.61348
 253.65800 253.43953 252.80706 251.76259 250.37611 248.54464 246.46117 244.30170
 242.10023 239.91175 237.73928 235.58581 233.45334 231.32786 229.36139 227.52592
 225.81645 224.29598 222.93350 221.71303 220.60256 219.57009 218.68162 217.83014
 217.07967 216.26720 215.37273 214.74425 214.20178 215.08205 217.21590 219.66440
 221.51588 223.13805 224.32381 224.64409 224.75093 224.30345 223.76219 224.32156
 226.08461 228.83694 232.88660 237.44228 242.04074 246.41228 250.44769 254.18236
 257.51910 260.43069 262.98990 265.24649 267.30884 269.22830 270.88687 272.33524
 273.74911 275.25616 276.81970 278.21814 279.46765 280.64310 281.73901 282.73181
 283.62473 284.41989 285.11450 285.99973
 366.78100 356.34282 345.78263 334.65645 323.06726 311.26908 299.14689 286.95771
 274.67753 262.58234 250.59916 239.90797 230.03779 221.14960 213.33942 206.34924
 200.19105 195.13687 191.72668 189.77650 188.82132 188.89313 189.73595 191.05176
 192.78458 194.88739 197.15821 199.52503 201.97784 204.46566 206.56147 208.41129
 210.04510 211.19792 211.43474 211.67055 211.61537 211.32818 210.96900 210.60681
 210.23163 209.94945 209.76526 209.63708 209.57289 209.91171 210.30552 210.70234
 211.50316 212.68897 213.94679 215.73760 217.67342 219.72424 221.82705 223.91787
 225.98568 228.07750 230.18231 232.29613 234.43295 236.61276 238.87658 241.25439
 243.88321 246.14202 248.15184 249.92466 251.34947 252.48029 253.31010 253.63392
 253.67873 253.46055 252.82837 251.78418 250.39800 248.56681 246.48363 244.32444
 242.12326 239.93508 237.76289 235.60971 233.47752 231.35234 229.38615 227.55097
 225.84179 224.32160 222.95942 221.73923 220.62905 219.59687 218.70868 217.85750
 217.10731 216.29513 215.40094 214.77276 214.23058 215.10202 217.21269 219.64848
 221.61139 222.97122 224.17361 224.71805 224.56917 223.90840 223.65997 224.08543
 225.89217 228.96770 233.11819 237.65796 242.23268 246.57791 250.57137 254.28020
 257.59708 260.47778 263.04575 265.40555 267.51682 269.35144 270.87900 272.23782
 273.61890 275.13211 276.69443 278.08774 279.33350 280.50189 281.59290 282.58127
 283.47021 284.26181 284.95334 285.83463
 366.78100 356.34284 345.78268 334.65652 323.06736 311.26920 299.14704 286.95788
 274.67772 262.58256 250.59940 239.90824 230.03808 221.14992 213.33976 206.34960
 200.19145 195.13729 191.72713 189.77697 188.82181 188.89365 189.73649 191.05233
 192.78517 194.88801 197.15885 199.52569 201.97853 204.46637 206.56221 208.41205
 210.04589 211.19873 211.43557 211.67141 211.61625 211.32909 210.96993 210.60777
 210.23261 209.95045 209.76629 209.63813 209.57397 209.91281 210.30665 210.70350
 211.50434 212.69018 213.94802 215.73886 217.67470 219.72554 221.82838 223.91922
 225.98706 228.07890 230.18374 232.29758 234.43442 236.61426 238.87810 241.25594
 243.88478 246.14362 248.15346 249.92630 251.35114 252.48198 253.31182 253.63566
 253.68050 253.46234 252.83018 251.78602 250.39986 248.56870 246.48555 244.32639
 242.12523 239.93707 237.76491 235.61175 233.47959 231.35443 229.38827 227.55311
 225.84395 224.32379 222.96163 221.74147 220.63131 219.59915 218.71099 217.85983
 217.10967 216.29751 215.40335 214.77519 214.23303 215.11990 217.28545 219.58234
 221.66284 223.11607 224.24789 224.62923 224.30057 223.62482 223.38957 224.11583
 225.89581 229.15359 233.37335 237.90768 242.44771 246.74117 250.66653 254.38065
 257.67361 260.53561 263.12778 265.55380 267.74542 269.54852 270.94293 272.19257
 273.67715 275.20749 276.81268 278.31668 279.73047 280.98129 282.12250 283.15634
 284.08618 284.91418 285.63751 286.55933
 366.78100 356.34289 345.78278 334.65667 323.06755 311.26944 299.14733 286.95822
 274.67811 262.58300 250.59989 239.90877 230.03866 221.15055 213.34044 206.35033
 200.19222 195.13811 191.72799 189.77788 188.82277 188.89466 189.73755 191.05344
 192.78632 194.88921 197.16010 199.52699 201.97988 204.46777 206.56366 208.41354
 210.04743 211.20032 211.43721 211.67310 211.61799 211.33088 210.97176 210.60965
 210.23454 209.95243 209.76832 209.64021 209.57610 209.91498 210.30887 210.70576
 211.50665 212.69254 213.95043 215.74132 217.67720 219.72809 221.83098 223.92187
 225.98976 228.08165 230.18654 232.30042 234.43731 236.61720 238.88109 241.25898
 243.88787 246.14676 248.15664 249.92953 251.35442 252.48531 253.31520 253.63909
 253.68397 253.46586 252.83375 251.78964 250.40353 248.57242 246.48931 244.33019
 242.12908 239.94097 237.76886 235.61575 233.48364 231.35853 229.39241 227.55730
 225.84819 224.32808 222.96597 221.74586 220.63575 219.60363 218.71552 217.86441
 217.11430 216.30219 215.40808 214.77997 214.23785 215.13843 217.34497 219.55090
 221.64253 223.29980 224.25342 224.40584 224.12531 223.44574 223.20869 223.88879
 225.70903 229.18709 233.56146 238.13515 242.67572 246.92181 250.81900 254.48021
 257.75354 260.61017 263.18658 265.66754 267.97235 269.87610 271.21191 272.23700
 273.81769 275.47202 277.20813 278.78705 280.15344 281.36234 282.46527 283.46448
 284.36313 285.16342 285.86252 286.75342
 366.78100 356.34384 345.78467 334.65951 323.07134 311.27418 299.15301 286.96485
 274.68569 262.59152 250.60936 239.91919 230.05003 221.16287 213.35370 206.36454
 200.20737 195.15421 191.74504 189.79588 188.84172 188.91455 189.75839 191.07522
 192.80906 194.91290 197.18473 199.55257 202.00640 204.49524 206.59207 208.44291
 210.07775 211.23158 211.46942 211.70625 211.65209 211.36592 211.00776 210.64660
 210.27243 209.99127 209.80810 209.68094 209.61778 209.95761 210.35245 210.75028
 211.55212 212.73895 213.99779 215.78963 217.72646 219.77830 221.88213 223.97397
 226.04281 228.13564 230.24148 232.35631 234.49415 236.67498 238.93982 241.31866
 243.94849 246.20833 248.21916 249.99300 251.41883 252.55067 253.38151 253.70634
 253.75218 253.53501 252.90385 251.86069 250.47552 248.64536 246.56319 244.40503
 242.20486 240.01770 237.84654 235.69437 233.56321 231.43904 229.47388 227.63972
 225.93155 224.41239 223.05122 221.83206 220.72289 219.69173 218.80457 217.95440
 217.20524 216.39407 215.50091 214.87374 214.33258 215.18962 217.32253 219.58122
 221.56203 223.35307 224.21397 224.12376 223.90994 223.30307 223.01949 223.65833
 225.59546 229.24713 233.73103 238.34029 242.86911 247.09492 250.97975 254.62939
 257.89130 260.72964 263.28964 265.75558 268.10080 270.16513 271.67026 272.49615
 273.97244 275.77869 277.54581 279.15292 280.54376 281.77429 282.89697 283.91403
 284.82877 285.64334 286.35492 287.26178
 366.78100 356.34423 345.78546 334.66069 323.07293 311.27616 299.15539 286.96762
 274.68885 262.59508 250.61332 239.92355 230.05478 221.16801 213.35924 206.37047
 200.21371 195.16094 191.75217 189.80340 188.84963 188.92286 189.76710 191.08433
 192.81856 194.92279 197.19502 199.56325 202.01749 204.50672 206.60395 208.45518
 210.09041 211.24464 211.48288 211.72011 211.66634 211.38057 211.02280 210.66203
 210.28826 210.00750 209.82473 209.69796 209.63519 209.97542 210.37065 210.76889
 211.57112 212.75835 214.01758 215.80981 217.74704 219.79928 221.90351 223.99574
 226.06497 228.15820 230.26443 232.37967 234.51790 236.69913 238.96436 241.34359
 243.97382 246.23406 248.24529 250.01952 251.44575 252.57798 253.40921 253.73444
 253.78068 253.56391 252.93314 251.89037 250.50560 248.67583 246.59407 244.43630
 242.23653 240.04976 237.87899 235.72722 233.59646 231.47269 229.50792 227.67415
 225.96638 224.44761 223.08685 221.86808 220.75931 219.72854 218.84177 217.99200
 217.24324 216.43247 215.53970 214.91293 214.37216 215.20555 217.27382 219.63159
 221.45886 223.20935 224.17448 223.92458 223.57516 223.10257 222.69896 223.58952
 225.63367 229.40158 233.93309 238.55240 243.05156 247.25819 251.12306 254.77635
 258.02878 260.84985 263.43597 265.91745 268.23636 270.21069 271.77640 272.86288
 274.07077 275.76675 277.38577 278.92346 280.31979 281.55521 282.68234 283.70343
 284.62180 285.43961 286.15402 287.06448
 366.78100 356.34407 345.78513 334.66020 323.07227 311.27534 299.15440 286.96647
 274.68754 262.59360 250.61167 239.92174 230.05281 221.16587 213.35694 206.36801
 200.21107 195.15814 191.74921 189.80028 188.84634 188.91941 189.76348 191.08054
 192.81461 194.91868 197.19075 199.55881 202.01288 204.50195 206.59901 208.45008
 210.08515 211.23922 211.47728 211.71435 211.66042 211.37448 211.01655 210.65562
 210.28169 210.00075 209.81782 209.69089 209.62795 209.96802 210.36309 210.76116
 211.56322 212.75029 214.00936 215.80142 217.73849 219.79056 221.89462 223.98669
 226.05576 228.14883 230.25489 232.36996 234.50803 236.68909 238.95416 241.33323
 243.96330 246.22336 248.23443 250.00850 251.43456 252.56663 253.39770 253.72277
 253.76883 253.55190 252.92097 251.87803 250.49310 248.66317 246.58124 244.42330
 242.22337 240.03644 237.86550 235.71357 233.58264 231.45871 229.49377 227.65984
 225.95191 224.43297 223.07204 221.85311 220.74418 219.71324 218.82631 217.97638
 217.22744 216.41651 215.52358 214.89665 214.35571 215.19475 217.24232 219.67438
 221.40532 222.94315 224.04747 223.84627 223.36493 222.71591 222.34659 223.44077
 225.56789 229.52568 234.15443 238.76413 243.23329 247.41223 251.27061 254.89882
 258.13245 260.95142 263.54181 266.05881 268.40964 270.39621 271.91183 272.98773
 274.03168 275.43088 276.98550 278.37286 279.62527 280.80536 281.89001 282.87262
 283.75638 284.54340 285.23090 286.10703
 366.78100 356.34423 345.78546 334.66069 323.07292 311.27615 299.15538 286.96761
 274.68884 262.59507 250.61330 239.92353 230.05476 221.16799 213.35922 206.37045
 200.21368 195.16091 191.75214 189.80337 188.84960 188.92283 189.76706 191.08429
 192.81852 194.92275 197.19498 199.56321 202.01744 204.50667 206.60390 208.45513
 210.09036 211.24459 211.48282 211.72005 211.66628 211.38051 211.02274 210.66197
 210.28820 210.00743 209.82466 209.69789 209.63512 209.97535 210.37058 210.76881
 211.57104 212.75827 214.01750 215.80973 217.74696 219.79919 221.90342 223.99565
 226.06488 228.15811 230.26434 232.37957 234.51780 236.69903 238.96426 241.34349
 243.97372 246.23395 248.24518 250.01941 251.44564 252.57787 253.40910 253.73433
 253.78056 253.56379 252.93302 251.89025 250.50548 248.67571 246.59394 244.43617
 242.23640 240.04963 237.87886 235.72709 233.59631 231.47254 229.50777 227.67400
 225.96623 224.44746 223.08669 221.86792 220.75915 219.72838 218.84161 217.99184
 217.24307 216.43230 215.53953 214.91276 214.37199 215.20197 217.19853 219.72064
 221.44156 222.66150 223.91176 223.77837 223.18007 222.32486 221.96533 223.23598
 225.49371 229.62988 234.37056 238.96252 243.41463 247.58537 251.41460 255.01591
 258.24438 261.07208 263.68811 266.21786 268.58270 270.60925 272.10620 273.24594
 274.27856 275.33157 276.53696 277.67850 278.87668 279.96979 280.99976 281.94733
 282.79953 283.55844 284.22144 285.06631
 366.78100 356.34351 345.78401 334.65852 323.07002 311.27253 299.15103 286.96254
 274.68304 262.58855 250.60605 239.91556 230.04606 221.15857 213.34907 206.35958
 200.20208 195.14859 191.73910 189.78960 188.83511 188.90761 189.75112 191.06762
 192.80113 194.90463 197.17614 199.54364 201.99715 204.48565 206.58216 208.43266
 210.06717 211.22067 211.45818 211.69469 211.64019 211.35370 210.99520 210.63371
 210.25921 209.97772 209.79422 209.66673 209.60323 209.94274 210.33724 210.73475
 211.53625 212.72276 213.98127 215.77277 217.70928 219.76078 221.86429 223.95579
 226.02430 228.11680 230.22231 232.33681 234.47432 236.65482 238.91933 241.29783
 243.92734 246.18684 248.19735 249.97086 251.39636 252.52787 253.35837 253.68288
 253.72838 253.51089 252.87939 251.83590 250.45040 248.61991 246.53741 244.37892
 242.17842 239.99093 237.81943 235.66694 233.53545 231.41095 229.44546 227.61096
 225.90247 224.38297 223.02148 221.80198 220.69249 219.66099 218.77350 217.92300
 217.17351 216.36201 215.46852 214.84102 214.29953 215.16759 217.22040 219.66789
 221.60185 222.78117 223.77124 223.61038 222.90535 222.02356 221.79178 223.15546
 225.61896 229.77722 234.57730 239.18645 243.59744 247.75467 251.54959 255.15607
 258.39047 261.21506 263.85178 266.38351 268.73325 270.72375 272.22632 273.36420
 274.38321 275.49878 276.55865 277.59622 278.55731 279.42007 280.20093 281.00800
 281.85681 282.62643 283.29877 284.15558
 366.78100 356.34286 345.78272 334.65658 323.06744 311.26930 299.14716 286.95802
 274.67788 262.58274 250.59960 239.90846 230.03831 221.15017 213.34003 206.34989
 200.19175 195.13761 191.72747 189.77733 188.82219 188.89405 189.73691 191.05277
 192.78563 194.88849 197.15935 199.52621 201.97907 204.46693 206.56279 208.41265
 210.04651 211.19937 211.43622 211.67208 211.61694 211.32980 210.97066 210.60852
 210.23338 209.95124 209.76710 209.63896 209.57482 209.91368 210.30754 210.70440
 211.50526 212.69112 213.94898 215.73984 217.67570 219.72656 221.82942 223.92028
 225.98813 228.07999 230.18485 232.29871 234.43557 236.61543 238.87929 241.25715
 243.88601 246.14487 248.15473 249.92759 251.35245 252.48331 253.31317 253.63703
 253.68189 253.46375 252.83161 251.78747 250.40133 248.57019 246.48704 244.32790
 242.12676 239.93862 237.76648 235.61334 233.48120 231.35606 229.38992 227.55478
 225.84564 224.32550 222.96336 221.74322 220.63308 219.60094 218.71280 217.86166
 217.11152 216.29938 215.40524 214.77710 214.23495 215.13809 217.27185 219.60957
 221.66972 222.89716 223.65251 223.44716 222.63924 221.72557 221.59349 223.06902
 225.71909 229.92448 234.73157 239.40736 243.79462 247.88826 251.67677 255.30286
 258.52432 261.34851 263.98566 266.53375 268.89267 270.87680 272.40598 273.55539
 274.44461 275.52802 276.58719 277.62509 278.62259 279.44440 280.05194 280.57349
 281.06546 281.77048 282.40973 283.22440
 366.78100 356.34266 345.78231 334.65597 323.06663 311.26829 299.14594 286.95660
 274.67626 262.58091 250.59757 239.90623 230.03588 221.14754 213.33720 206.34686
 200.18851 195.13417 191.72383 189.77348 188.81814 188.88980 189.73246 191.04811
 192.78077 194.88343 197.15408 199.52074 201.97340 204.46105 206.55671 208.40637
 210.04003 211.19268 211.42934 211.66500 211.60965 211.32231 210.96297 210.60063
 210.22528 209.94294 209.75860 209.63025 209.56591 209.90457 210.29822 210.69488
 211.49554 212.68120 213.93885 215.72951 217.66517 219.71582 221.81848 223.90914
 225.97680 228.06845 230.17311 232.28677 234.42342 236.60308 238.86674 241.24440
 243.87305 246.13171 248.14137 249.91402 251.33868 252.46934 253.29899 253.62265
 253.66731 253.44897 252.81662 251.77228 250.38594 248.55459 246.47125 244.31191
 242.11057 239.92222 237.74988 235.59654 233.46419 231.33885 229.37251 227.53716
 225.82782 224.30748 222.94514 221.72479 220.61445 219.58211 218.69376 217.84242
 217.09208 216.27974 215.38539 214.75705 214.21471 215.13161 217.29787 219.58200
 221.67827 222.95047 223.56432 223.29555 222.41264 221.41412 221.33752 222.95656
 225.75706 230.05400 234.88307 239.62010 244.01932 248.01846 251.80408 255.42276
 258.64041 261.49097 264.14087 266.69550 269.03738 271.02036 272.52237 273.74158
 274.42154 275.60654 276.68741 277.70950 278.62964 279.38492 279.96851 280.43085
 280.87524 281.36118 281.97574 282.78036
 366.78100 356.34288 345.78276 334.65663 323.06751 311.26939 299.14727 286.95815
 274.67802 262.58290 250.59978 239.90866 230.03854 221.15041 213.34029 206.35017
 200.19205 195.13793 191.72780 189.77768 188.82256 188.89444 189.73732 191.05319
 192.78607 194.88895 197.15983 199.52671 201.97958 204.46746 206.56334 208.41322
 210.04710 211.19997 211.43685 211.67273 211.61761 211.33049 210.97136 210.60924
 210.23412 209.95200 209.76788 209.63975 209.57563 209.91451 210.30839 210.70527
 211.50614 212.69202 213.94990 215.74078 217.67666 219.72753 221.83041 223.92129
 225.98917 228.08105 230.18592 232.29980 234.43668 236.61656 238.88044 241.25831
 243.88719 246.14607 248.15595 249.92883 251.35370 252.48458 253.31446 253.63834
 253.68322 253.46509 252.83297 251.78885 250.40273 248.57161 246.48848 244.32936
 242.12824 239.94012 237.76800 235.61487 233.48275 231.35763 229.39151 227.55639
 225.84727 224.32714 222.96502 221.74490 220.63478 219.60266 218.71453 217.86341
 217.11329 216.30117 215.40705 214.77892 214.23680 215.14745 217.29893 219.58250
 221.64232 222.95323 223.51607 223.15819 222.18272 221.09016 221.03920 222.83995
 225.80069 230.18430 235.04977 239.81020 244.25531 248.17395 251.91846 255.54109
 258.76611 261.62946 264.28531 266.83951 269.16412 271.12567 272.62680 273.79379
 274.65021 275.80716 276.84180 277.83691 278.69525 279.38669 279.93744 280.35602
 280.75607 281.26230 281.87387 282.68234
 366.78100 356.34357 345.78413 334.65870 323.07026 311.27283 299.15139 286.96296
 274.68353 262.58909 250.60666 239.91622 230.04679 221.15935 213.34992 206.36049
 200.20305 195.14962 191.74018 189.79075 188.83631 188.90888 189.75245 191.06901
 192.80258 194.90614 197.17771 199.54527 201.99884 204.48741 206.58397 208.43454
 210.06910 211.22267 211.46023 211.69680 211.64237 211.35593 210.99750 210.63606
 210.26163 209.98019 209.79676 209.66933 209.60589 209.94546 210.34002 210.73759
 211.53915 212.72572 213.98429 215.77585 217.71242 219.76398 221.86755 223.95911
 226.02768 228.12025 230.22581 232.34038 234.47794 236.65851 238.92307 241.30164
 243.93121 246.19077 248.20134 249.97490 251.40047 252.53204 253.36260 253.68717
 253.73273 253.51530 252.88386 251.84043 250.45500 248.62456 246.54213 244.38369
 242.18326 239.99582 237.82439 235.67196 233.54052 231.41609 229.45065 227.61622
 225.90778 224.38835 223.02692 221.80748 220.69805 219.66661 218.77918 217.92874
 217.17931 216.36788 215.47444 214.84701 214.30557 215.18794 217.27264 219.60645
 221.59370 222.90356 223.50494 223.05957 221.95676 220.75475 220.70592 222.72771
 225.86314 230.31509 235.22078 239.99521 244.45442 248.38788 252.02121 255.65771
 258.89221 261.76624 264.41953 266.96381 269.26602 271.21155 272.71506 273.92526
 274.85922 275.98032 277.00400 277.98630 278.82678 279.51492 280.09872 280.51389
 280.81924 281.36798 281.98114 282.78787
 366.78100 356.34407 345.78515 334.66022 323.07230 311.27537 299.15445 286.96652
 274.68760 262.59367 250.61175 239.92182 230.05290 221.16597 213.35704 206.36812
 200.21119 195.15827 191.74934 189.80042 188.84649 188.91957 189.76364 191.08072
 192.81479 194.91887 197.19094 199.55901 202.01309 204.50216 206.59924 208.45031
 210.08539 211.23946 211.47754 211.71461 211.66069 211.37476 211.01684 210.65591
 210.28198 210.00106 209.81813 209.69121 209.62828 209.96836 210.36343 210.76151
 211.56358 212.75066 214.00973 215.80180 217.73888 219.79095 221.89503 223.98710
 226.05618 228.14925 230.25533 232.37040 234.50848 236.68955 238.95463 241.33370
 243.96377 246.22385 248.23492 250.00900 251.43507 252.56715 253.39822 253.72330
 253.76937 253.55245 252.92152 251.87860 250.49367 248.66374 246.58182 244.42389
 242.22397 240.03704 237.86612 235.71419 233.58327 231.45934 229.49442 227.66049
 225.95257 224.43364 223.07271 221.85379 220.74486 219.71394 218.82701 217.97709
 217.22816 216.41724 215.52431 214.89739 214.35646 215.22018 217.26080 219.60788
 221.57382 222.83586 223.45219 223.01816 221.80219 220.41844 220.32033 222.64597
 225.94090 230.43800 235.39081 240.18156 244.62955 248.60890 252.16571 255.73906
 258.99509 261.88077 264.53455 267.07611 269.37079 271.27625 272.83530 274.06323
 275.07071 276.12039 277.16922 278.13120 278.98743 279.71243 280.34845 280.79059
 281.09381 281.60342 282.21194 283.01337
 366.78100 356.34417 345.78534 334.66051 323.07268 311.27585 299.15502 286.96719
 274.68836 262.59453 250.61270 239.92287 230.05404 221.16721 213.35838 206.36955
 200.21271 195.15988 191.75105 189.80222 188.84839 188.92156 189.76573 191.08290
 192.81707 194.92124 197.19341 199.56158 202.01575 204.50492 206.60209 208.45326
 210.08843 211.24260 211.48077 211.71794 211.66411 211.37828 211.02045 210.65962
 210.28579 210.00496 209.82213 209.69530 209.63247 209.97264 210.36780 210.76597
 211.56814 212.75531 214.01448 215.80665 217.74382 219.79599 221.90016 223.99233
 226.06150 228.15467 230.26084 232.37601 234.51418 236.69535 238.96052 241.33969
 243.96986 246.23003 248.24120 250.01537 251.44154 252.57371 253.40488 253.73005
 253.77622 253.55939 252.92856 251.88573 250.50089 248.67106 246.58923 244.43140
 242.23157 240.04474 237.87391 235.72208 233.59125 231.46742 229.50259 227.66876
 225.96093 224.44210 223.08127 221.86244 220.75361 219.72278 218.83595 217.98612
 217.23729 216.42646 215.53363 214.90680 214.36597 215.23053 217.27316 219.58760
 221.56494 222.80885 223.31691 222.94672 221.72395 219.98402 220.01324 222.61588
 225.99675 230.56474 235.56232 240.36053 244.79300 248.79431 252.35751 255.79874
 259.08862 261.98703 264.64703 267.16226 269.45697 271.37677 272.91061 274.15833
 275.20752 276.30023 277.37445 278.29855 279.13699 279.90744 280.59531 281.17093
 281.59137 281.98892 282.57877 283.36942
 366.78100 356.34434 345.78568 334.66102 323.07335 311.27669 299.15603 286.96837
 274.68971 262.59605 250.61438 239.92472 230.05606 221.16940 213.36074 206.37208
 200.21541 195.16275 191.75409 189.80543 188.85177 188.92511 189.76945 191.08678
 192.82112 194.92546 197.19780 199.56614 202.02048 204.50981 206.60715 208.45849
 210.09383 211.24817 211.48651 211.72385 211.67018 211.38452 211.02686 210.66620
 210.29254 210.01188 209.82921 209.70255 209.63989 209.98023 210.37557 210.77391
 211.57624 212.76358 214.02292 215.81526 217.75260 219.80494 221.90928 224.00161
 226.07095 228.16429 230.27063 232.38597 234.52431 236.70564 238.97098 241.35032
 243.98066 246.24100 248.25234 250.02667 251.45301 252.58535 253.41669 253.74203
 253.78837 253.57171 252.94104 251.89838 250.51372 248.68406 246.60240 244.44474
 242.24507 240.05841 237.88775 235.73609 233.60543 231.48177 229.51710 227.68344
 225.97578 224.45712 223.09646 221.87780 220.76914 219.73847 218.85181 218.00215
 217.25349 216.44283 215.55017 214.92350 214.38284 215.24315 217.27571 219.57367
 221.53636 222.80763 223.20668 222.77567 221.59505 219.70671 219.71291 222.47534
 226.05266 230.71916 235.73047 240.53740 244.95915 248.97067 252.58664 255.91925
 259.12808 262.04123 264.69952 267.19305 269.52057 271.40070 273.07611 274.37216
 275.37982 276.54239 277.63892 278.56451 279.32025 280.00165 280.70154 281.36264
 281.91568 282.38483 282.81573 283.48309
 366.78100 356.34461 345.78623 334.66184 323.07445 311.27806 299.15768 286.97029
 274.69190 262.59851 250.61713 239.92774 230.05935 221.17296 213.36458 206.37619
 200.21980 195.16741 191.75903 189.81064 188.85725 188.93087 189.77548 191.09309
 192.82770 194.93232 197.20493 199.57354 202.02815 204.51777 206.61538 208.46699
 210.10260 211.25722 211.49583 211.73344 211.68005 211.39467 211.03728 210.67689
 210.30351 210.02312 209.84073 209.71434 209.65196 209.99257 210.38818 210.78679
 211.58941 212.77702 214.03663 215.82924 217.76686 219.81947 221.92408 224.01669
 226.08631 228.17992 230.28653 232.40215 234.54076 236.72237 238.98798 241.36760
 243.99821 246.25882 248.27043 250.04505 251.47166 252.60427 253.43588 253.76150
 253.80811 253.59172 252.96133 251.91895 250.53456 248.70517 246.62379 244.46640
 242.26701 240.08062 237.91024 235.75885 233.62846 231.50507 229.54069 227.70730
 225.99991 224.48152 223.12114 221.90275 220.79436 219.76397 218.87759 218.02820
 217.27981 216.46943 215.57704 214.95065 214.41026 215.26126 217.27185 219.56839
 221.50005 222.79199 223.13506 222.57654 221.41646 219.51591 219.44424 222.31499
 226.08994 230.85725 235.87996 240.69058 245.10815 249.15282 252.81540 256.13052
 259.18268 262.04904 264.71313 267.26984 269.59079 271.49820 273.12341 274.40591
 275.50726 276.79617 277.83881 278.79318 279.50977 280.11548 280.81952 281.53928
 282.18344 282.71030 283.09723 283.62988
 366.78100 356.34480 345.78661 334.66241 323.07521 311.27901 299.15882 286.97162
 274.69342 262.60022 250.61903 239.92983 230.06163 221.17544 213.36724 206.37904
 200.22284 195.17065 191.76245 189.81425 188.86106 188.93486 189.77966 191.09746
 192.83227 194.93707 197.20987 199.57867 202.03348 204.52328 206.62108 208.47289
 210.10869 211.26349 211.50229 211.74010 211.68690 211.40170 211.04450 210.68431
 210.31111 210.03091 209.84872 209.72252 209.66032 210.00112 210.39693 210.79573
 211.59853 212.78634 214.04614 215.83894 217.77674 219.82955 221.93435 224.02715
 226.09695 228.19076 230.29756 232.41336 234.55217 236.73397 238.99977 241.37957
 244.01038 246.27118 248.28298 250.05778 251.48459 252.61739 253.44919 253.77500
 253.82180 253.60560 252.97540 251.93321 250.54901 248.71981 246.63861 244.48142
 242.28222 240.09602 237.92583 235.77463 233.64443 231.52123 229.55704 227.72384
 226.01664 224.49845 223.13825 221.92005 220.81185 219.78166 218.89546 218.04626
 217.29806 216.48787 215.59567 214.96947 214.42928 215.27408 217.27002 219.56169
 221.46117 222.77376 223.07948 222.37366 221.19037 219.34027 219.20428 222.16861
 226.13573 230.99025 236.01305 240.82344 245.24117 249.32007 253.05127 256.38437
 259.30115 262.03845 264.75778 267.33600 269.65778 271.55020 273.07635 274.34872
 275.69781 277.00348 278.07062 279.01266 279.73312 280.26804 280.85684 281.53238
 282.17776 282.77292 283.20639 283.67422
 366.78100 356.34496 345.78693 334.66289 323.07586 311.27982 299.15979 286.97275
 274.69471 262.60168 250.62064 239.93161 230.06357 221.17754 213.36950 206.38147
 200.22543 195.17339 191.76536 189.81732 188.86429 188.93825 189.78322 191.10118
 192.83614 194.94111 197.21407 199.58304 202.03800 204.52797 206.62593 208.47789
 210.11386 211.26882 211.50779 211.74575 211.69272 211.40768 211.05065 210.69061
 210.31757 210.03754 209.85550 209.72947 209.66743 210.00840 210.40436 210.80332
 211.60629 212.79425 214.05422 215.84718 217.78515 219.83811 221.94307 224.03604
 226.10600 228.19997 230.30693 232.42290 234.56186 236.74383 239.00979 241.38975
 244.02072 246.28168 248.29365 250.06861 251.49558 252.62854 253.46050 253.78647
 253.83343 253.61740 252.98736 251.94533 250.56129 248.73225 246.65122 244.49418
 242.29515 240.10911 237.93908 235.78804 233.65801 231.53497 229.57093 227.73790
 226.03086 224.51283 223.15279 221.93476 220.82672 219.79668 218.91065 218.06161
 217.31358 216.50354 215.61151 214.98547 214.44543 215.28508 217.26883 219.55751
 221.42314 222.74445 223.03334 222.19174 220.93236 219.10435 218.94440 222.04539
 226.20094 231.12767 236.14639 240.95926 245.38019 249.48308 253.26717 256.63333
 259.54822 262.27588 264.86984 267.41748 269.64020 271.48401 273.03177 274.40869
 275.90591 277.20288 278.19644 279.09619 279.81119 280.36557 280.95517 281.60425
 282.20413 282.75528 283.20251 283.72620
 366.78100 356.34506 345.78712 334.66317 323.07623 311.28029 299.16035 286.97341
 274.69546 262.60252 250.62158 239.93264 230.06469 221.17875 213.37081 206.38287
 200.22693 195.17498 191.76704 189.81910 188.86616 188.94022 189.78527 191.10333
 192.83839 194.94345 197.21650 199.58556 202.04062 204.53068 206.62874 208.48079
 210.11685 211.27191 211.51097 211.74903 211.69608 211.41114 211.05420 210.69426
 210.32132 210.04137 209.85943 209.73349 209.67155 210.01260 210.40866 210.80772
 211.61078 212.79884 214.05889 215.85195 217.79001 219.84307 221.94813 224.04118
 226.11124 228.20530 230.31236 232.42842 234.56747 236.74953 239.01559 241.39565
 244.02670 246.28776 248.29982 250.07488 251.50194 252.63499 253.46705 253.79311
 253.84017 253.62423 252.99428 251.95234 250.56840 248.73946 246.65851 244.50157
 242.30263 240.11669 237.94675 235.79580 233.66586 231.54292 229.57898 227.74604
 226.03909 224.52115 223.16121 221.94327 220.83533 219.80538 218.91944 218.07050
 217.32256 216.51261 215.62067 214.99473 214.45479 215.29016 217.26381 219.55141
 221.39732 222.69669 222.99176 222.04572 220.64651 218.76140 218.66351 221.95345
 226.29202 231.30377 236.32222 241.13290 245.54759 249.67271 253.48032 256.86545
 259.81021 262.50903 265.06284 267.38702 269.45316 271.27448 272.95038 274.45206
 275.82953 277.11697 278.23242 279.14728 279.87610 280.41553 281.06363 281.63101
 282.15759 282.64285 283.07269 283.69016
 354.97500 345.04800 334.58700 324.11500 313.32600 302.53700 291.65000 280.76700
 269.93100 259.19300 248.62200 238.61700 229.08700 220.35500 212.54000 205.53500
 199.46400 194.49300 191.14300 189.19000 188.08900 188.01400 188.72400 189.90600
 191.46900 193.38200 195.40300 197.55600 199.80700 202.06000 204.28800 206.47900
 208.55200 210.37800 212.02500 213.65900 214.99800 216.11800 217.17200 218.25900
 219.49400 220.64500 221.67900 222.61400 223.54500 224.98200 226.57100 228.19000
 229.79700 231.81100 233.86500 235.97200 238.24200 240.55300 242.89900 245.25300
 247.48800 249.53500 251.36600 252.84800 254.09800 255.16700 256.02700 256.25300
 256.09500 255.54300 253.93500 252.56600 251.38400 250.24500 249.05200 247.70100
 246.01600 243.99600 241.78400 239.39300 236.81300 234.22300 231.65800 229.14400
 226.74000 224.47300 222.33500 220.32500 218.44000 216.67700 214.96200 213.47200
 212.20000 211.10800 210.26000 209.63900 209.24400 209.03100 209.05800 209.33300
 209.78400 210.62600 211.33100 212.39100 213.62500 214.84668 217.72949 219.47640
 220.32566 220.86828 220.88710 220.27371 219.43733 218.84250 219.04934 220.86203
 222.60583 225.72206 229.03064 232.61777 236.12270 239.51333 242.70767 245.68587
 248.41061 250.90679 253.19353 254.91714 256.48655 257.94920 259.39966 260.69384
 261.81714 262.77997 263.71679 264.54570 265.26305 265.89772 266.47676 267.00133
 267.47312 267.89325 268.26027 268.72800
