|-------------------------------------------------------------------------|
|   File Name : in_temp.dat
|   Subject   : temperature profiles used for initial guess atmosphere
|   File Type : input of gmtr
|   Data Type : atmospherical data
|   Author/s  : WRF-Chem
|   Date      : Fri Jul 26 15:39:24 2024
|-------------------------------------------------------------------------|

 WRF-Chem temperature
#
 values of T (K)    (8f10.5)
#
 354.97500 345.04800 334.58700 324.11500 313.32600 302.53700 291.65000 280.76700
 269.93100 259.19300 248.62200 238.61700 229.08700 220.35500 212.54000 205.53500
 199.46400 194.49300 191.14300 189.19000 188.08900 188.01400 188.72400 189.90600
 191.46900 193.38200 195.40300 197.55600 199.80700 202.06000 204.28800 206.47900
 208.55200 210.37800 212.02500 213.65900 214.99800 216.11800 217.17200 218.25900
 219.49400 220.64500 221.67900 222.61400 223.54500 224.98200 226.57100 228.19000
 229.79700 231.81100 233.86500 235.97200 238.24200 240.55300 242.89900 245.25300
 247.48800 249.53500 251.36600 252.84800 254.09800 255.16700 256.02700 256.25300
 256.09500 255.54300 253.93500 252.56600 251.38400 250.24500 249.05200 247.70100
 246.01600 243.99600 241.78400 239.39300 236.81300 234.22300 231.65800 229.14400
 226.74000 224.47300 222.33500 220.32500 218.44000 216.67700 214.96200 213.47200
 212.20000 211.10800 210.26000 209.63900 209.24400 209.03100 209.05800 209.33300
 209.78400 210.62600 211.33100 212.39100 213.62500 214.84668 217.72949 219.47640
 220.32566 220.86828 220.88710 220.27371 219.43733 218.84250 219.04934 220.86203
 222.60583 225.72206 229.03064 232.61777 236.12270 239.51333 242.70767 245.68587
 248.41061 250.90679 253.19353 254.91714 256.48655 257.94920 259.39966 260.69384
 261.81714 262.77997 263.71679 264.54570 265.26305 265.89772 266.47676 267.00133
 267.47312 267.89325 268.26027 268.72800
 366.78100 356.33500 345.76700 334.63300 323.03600 311.23000 299.10000 286.90300
 274.61500 262.51200 250.52100 239.82200 229.94400 221.04800 213.23000 206.23200
 200.06600 195.00400 191.58600 189.62800 188.66500 188.72900 189.56400 190.87200
 192.59700 194.69200 196.95500 199.31400 201.75900 204.23900 206.32700 208.16900
 209.79500 210.94000 211.16900 211.39700 211.33400 211.03900 210.67200 210.30200
 209.91900 209.62900 209.43700 209.30100 209.22900 209.56000 209.94600 210.33500
 211.12800 212.30600 213.55600 215.33900 217.26700 219.31000 221.40500 223.48800
 225.54800 227.63200 229.72900 231.83500 233.96400 236.13600 238.39200 240.76200
 243.38300 245.63400 247.63600 249.40100 250.81800 251.94100 252.76300 253.07900
 253.11600 252.89000 252.25000 251.19800 249.80400 247.96500 245.87400 243.70700
 241.49800 239.30200 237.12200 234.96100 232.82100 230.68800 228.71400 226.87100
 225.15400 223.62600 222.25600 221.02800 219.91000 218.87000 217.97400 217.11500
 216.35700 215.53700 214.63500 213.99900 213.44900 212.85855 212.01316 212.61654
 214.26826 216.08686 218.14273 220.53346 223.40855 226.78828 231.49734 235.90155
 239.42278 243.28576 247.23140 251.11907 254.80144 258.23331 261.38913 264.27520
 266.89312 269.26852 271.44504 273.08845 274.58484 275.98591 277.39845 278.65879
 279.75272 280.69038 281.56708 282.34086 283.01050 283.60295 284.14348 284.63317
 285.07358 285.46577 285.80838 286.24500
 381.81900 372.39900 361.20600 349.77600 337.62200 324.85300 311.81000 298.35300
 284.86000 271.32400 258.56100 246.30400 236.08700 226.79600 218.44800 211.29000
 205.52200 200.89400 197.38100 194.84800 193.01500 192.31500 192.25000 192.43100
 192.91200 193.53700 194.13600 194.71200 195.26200 195.83100 196.39300 196.97600
 197.60400 198.14900 198.58400 199.05700 199.69500 200.37800 201.05400 201.70800
 202.31300 202.85700 203.35500 203.86200 204.56900 205.29700 206.02600 206.98700
 208.19300 209.44100 210.96900 212.57600 214.46200 216.51300 218.63000 220.85300
 223.34100 225.96200 228.73900 231.69700 234.70600 237.70600 240.69200 243.65700
 246.73700 249.69900 252.52100 255.06300 257.29000 259.23300 260.63300 261.68000
 262.46100 262.79800 262.69100 262.22400 261.06900 259.52500 257.70700 255.50700
 253.00100 250.30200 247.39800 244.45200 241.65400 239.05400 236.73300 234.59000
 232.59500 230.72500 228.83400 226.82600 224.66600 222.38700 220.10400 217.71500
 215.45900 213.06600 210.54600 208.09300 205.35400 202.08130 196.05959 200.71215
 209.01611 216.90438 223.84126 229.78593 235.00632 240.20838 245.98943 250.68668
 254.32982 257.93487 261.55666 264.96801 268.15192 271.06452 273.76717 276.25691
 278.57680 280.74479 282.77456 284.60533 286.27232 287.81705 289.31715 290.65561
 291.81734 292.81312 293.70701 294.49387 295.17482 295.77730 296.32696 296.82492
 297.27278 297.67160 298.02000 298.46400
 399.33000 389.90700 379.81300 368.66800 357.52200 345.30100 333.07400 320.22700
 307.21600 293.84800 280.37600 267.29600 254.61000 242.98700 232.15100 221.97700
 212.67200 204.28600 197.66900 192.82100 189.48600 187.45200 186.81400 187.08900
 187.78100 189.05400 190.64800 192.54200 194.63000 196.75200 198.67100 200.15800
 201.53500 202.48700 202.97500 203.34000 203.53900 203.49700 203.38500 203.24700
 203.00500 202.78600 202.60300 202.43700 202.42600 202.88800 203.42000 203.95100
 204.89500 205.99200 207.30100 208.95800 210.73800 213.10000 215.56400 218.18000
 220.96600 223.91800 226.96100 230.09200 233.29300 236.55700 239.95500 243.53700
 246.84500 249.39000 251.54200 253.47400 255.19500 256.48400 257.43100 258.05900
 258.21200 258.04000 257.58200 256.64300 255.23900 253.50700 251.40800 249.05600
 246.57600 243.99400 241.38900 238.83000 236.34400 233.98600 231.96900 230.11800
 228.42300 226.89900 225.54800 224.29700 223.10500 221.96500 220.95800 220.11300
 219.49000 218.92000 218.32500 217.88100 217.42300 216.96366 216.35568 216.80261
 217.73415 218.28582 218.64258 219.10077 220.44626 222.53987 226.38451 230.35736
 233.59734 237.39164 241.29814 245.22796 248.98002 252.51130 255.78595 258.80109
 261.54781 264.05210 266.34239 268.04198 269.58951 271.01303 272.35754 273.55718
 274.59842 275.49092 276.28989 276.99307 277.60161 278.14001 278.63122 279.07623
 279.47646 279.83287 280.14422 280.54100
 399.73800 389.78500 379.66200 368.15100 356.64100 344.35000 331.79200 318.88800
 305.72600 292.49300 279.20900 266.73800 254.69600 244.21100 234.45700 225.43300
 217.56900 210.45100 204.30000 199.30600 195.45800 192.57600 191.02700 190.38600
 190.23900 190.53400 191.16600 191.92500 192.79500 193.76600 194.73200 195.31200
 195.80000 196.05200 196.11500 196.11500 196.03900 195.72300 195.34000 194.98900
 194.75100 194.79200 195.13300 195.59800 196.50600 198.13600 199.85800 201.56600
 204.17900 206.82300 209.89300 213.28400 216.82800 220.60500 224.38700 228.20900
 232.03200 235.82500 239.56000 243.25800 246.84500 250.20100 253.70900 257.46800
 261.53000 264.22100 266.60100 268.68100 270.32900 271.74100 272.83600 273.47400
 273.89800 274.00200 273.75700 273.28800 272.37100 271.10000 269.58900 267.77900
 265.81600 263.72100 261.39300 258.91600 256.29800 253.42300 250.33100 247.11400
 243.83700 240.52900 237.24900 233.99900 230.72800 227.51500 224.25400 220.95200
 217.62700 213.65600 210.12100 206.78900 204.01000 201.99491 199.07309 198.76551
 199.40006 200.48994 201.46112 202.31912 203.45100 204.96110 207.47502 210.85391
 213.70530 217.29629 220.99574 224.72316 228.28753 231.64854 234.68024 237.40893
 239.70644 241.60899 243.46854 245.67368 247.68154 249.52395 251.24767 252.78566
 254.12057 255.26479 256.23740 257.09036 257.82852 258.48160 259.07744 259.61723
 260.10271 260.53504 260.91270 261.39400
 399.73800 389.78500 379.66200 368.15100 356.64100 344.35000 331.79200 318.88800
 305.72600 292.49300 279.20900 266.73800 254.69600 244.21100 234.45700 225.43300
 217.56900 210.45100 204.30000 199.30600 195.45800 192.57600 191.02700 190.38600
 190.23900 190.53400 191.16600 191.92500 192.79500 193.76600 194.73200 195.31200
 195.80000 196.05200 196.11500 196.11500 196.03900 195.72300 195.34000 194.98900
 194.75100 194.79200 195.13300 195.59800 196.50600 198.13600 199.85800 201.56600
 204.17900 206.82300 209.89300 213.28400 216.82800 220.60500 224.38700 228.20900
 232.03200 235.82500 239.56000 243.25800 246.84500 250.20100 253.70900 257.46800
 261.53000 264.22100 266.60100 268.68100 270.32900 271.74100 272.83600 273.47400
 273.89800 274.00200 273.75700 273.28800 272.37100 271.10000 269.58900 267.77900
 265.81600 263.72100 261.39300 258.91600 256.29800 253.42300 250.33100 247.11400
 243.83700 240.52900 237.24900 233.99900 230.72800 227.51500 224.25400 220.95200
 217.62700 213.65600 210.12100 206.78900 204.01000 201.99491 199.07309 198.76551
 199.40006 200.48994 201.46112 202.31912 203.45100 204.96110 207.47502 210.85391
 213.70530 217.29629 220.99574 224.72316 228.28753 231.64854 234.68024 237.40893
 239.70644 241.60899 243.46854 245.67368 247.68154 249.52395 251.24767 252.78566
 254.12057 255.26479 256.23740 257.09036 257.82852 258.48160 259.07744 259.61723
 260.10271 260.53504 260.91270 261.39400
 399.33000 389.90700 379.81300 368.66800 357.52200 345.30100 333.07400 320.22700
 307.21600 293.84800 280.37600 267.29600 254.61000 242.98700 232.15100 221.97700
 212.67200 204.28600 197.66900 192.82100 189.48600 187.45200 186.81400 187.08900
 187.78100 189.05400 190.64800 192.54200 194.63000 196.75200 198.67100 200.15800
 201.53500 202.48700 202.97500 203.34000 203.53900 203.49700 203.38500 203.24700
 203.00500 202.78600 202.60300 202.43700 202.42600 202.88800 203.42000 203.95100
 204.89500 205.99200 207.30100 208.95800 210.73800 213.10000 215.56400 218.18000
 220.96600 223.91800 226.96100 230.09200 233.29300 236.55700 239.95500 243.53700
 246.84500 249.39000 251.54200 253.47400 255.19500 256.48400 257.43100 258.05900
 258.21200 258.04000 257.58200 256.64300 255.23900 253.50700 251.40800 249.05600
 246.57600 243.99400 241.38900 238.83000 236.34400 233.98600 231.96900 230.11800
 228.42300 226.89900 225.54800 224.29700 223.10500 221.96500 220.95800 220.11300
 219.49000 218.92000 218.32500 217.88100 217.42300 216.96366 216.35568 216.80261
 217.73415 218.28582 218.64258 219.10077 220.44626 222.53987 226.38451 230.35736
 233.59734 237.39164 241.29814 245.22796 248.98002 252.51130 255.78595 258.80109
 261.54781 264.05210 266.34239 268.04198 269.58951 271.01303 272.35754 273.55718
 274.59842 275.49092 276.28989 276.99307 277.60161 278.14001 278.63122 279.07623
 279.47646 279.83287 280.14422 280.54100
 381.81900 372.39900 361.20600 349.77600 337.62200 324.85300 311.81000 298.35300
 284.86000 271.32400 258.56100 246.30400 236.08700 226.79600 218.44800 211.29000
 205.52200 200.89400 197.38100 194.84800 193.01500 192.31500 192.25000 192.43100
 192.91200 193.53700 194.13600 194.71200 195.26200 195.83100 196.39300 196.97600
 197.60400 198.14900 198.58400 199.05700 199.69500 200.37800 201.05400 201.70800
 202.31300 202.85700 203.35500 203.86200 204.56900 205.29700 206.02600 206.98700
 208.19300 209.44100 210.96900 212.57600 214.46200 216.51300 218.63000 220.85300
 223.34100 225.96200 228.73900 231.69700 234.70600 237.70600 240.69200 243.65700
 246.73700 249.69900 252.52100 255.06300 257.29000 259.23300 260.63300 261.68000
 262.46100 262.79800 262.69100 262.22400 261.06900 259.52500 257.70700 255.50700
 253.00100 250.30200 247.39800 244.45200 241.65400 239.05400 236.73300 234.59000
 232.59500 230.72500 228.83400 226.82600 224.66600 222.38700 220.10400 217.71500
 215.45900 213.06600 210.54600 208.09300 205.35400 202.08130 196.05959 200.71215
 209.01611 216.90438 223.84126 229.78593 235.00632 240.20838 245.98943 250.68668
 254.32982 257.93487 261.55666 264.96801 268.15192 271.06452 273.76717 276.25691
 278.57680 280.74479 282.77456 284.60533 286.27232 287.81705 289.31715 290.65561
 291.81734 292.81312 293.70701 294.49387 295.17482 295.77730 296.32696 296.82492
 297.27278 297.67160 298.02000 298.46400
 366.78100 356.34656 345.79011 334.66767 323.08223 311.28778 299.16934 286.98389
 274.70745 262.61601 250.63656 239.94912 230.08268 221.19823 213.39179 206.40534
 200.25090 195.20046 191.79401 189.84757 188.89613 188.97168 189.81824 191.13779
 192.87435 194.98091 197.25546 199.62602 202.08258 204.57413 206.67369 208.52725
 210.16480 211.32136 211.56191 211.80147 211.75003 211.46658 211.11114 210.75270
 210.38125 210.10281 209.92236 209.79792 209.73748 210.08003 210.47759 210.87815
 211.68270 212.87226 214.13381 215.92837 217.86793 219.92248 222.02904 224.12360
 226.19515 228.29071 230.39927 232.51682 234.65738 236.84093 239.10849 241.49005
 244.12260 246.38516 248.39872 250.17527 251.60383 252.73838 253.57194 253.89950
 253.94805 253.73361 253.10517 252.06472 250.68228 248.85483 246.77539 244.61995
 242.42250 240.23806 238.06962 235.92017 233.79173 231.67029 229.70784 227.87640
 226.17095 224.65451 223.29607 222.07962 220.97318 219.94474 219.06029 218.21285
 217.46640 216.65796 215.76752 215.14307 214.60463 213.29659 210.22623 209.54874
 210.32701 210.62038 211.84511 215.32375 219.68544 224.46257 230.23360 235.22868
 239.07518 243.09781 247.39021 251.60231 255.24495 258.38370 261.08621 263.63858
 266.47247 269.17636 271.78461 274.39746 276.52072 278.13980 279.43588 281.01559
 282.98184 284.77167 286.32272 287.68301 288.85974 289.90021 290.84952 291.70782
 292.47772 293.16177 293.75543 294.49582
 366.78100 356.34687 345.79075 334.66862 323.08349 311.28936 299.17124 286.98611
 274.70998 262.61885 250.63973 239.95260 230.08647 221.20234 213.39622 206.41009
 200.25596 195.20583 191.79971 189.85358 188.90245 188.97832 189.82520 191.14507
 192.88194 194.98882 197.26369 199.63456 202.09143 204.58331 206.68318 208.53705
 210.17492 211.33180 211.57267 211.81254 211.76141 211.47829 211.12316 210.76503
 210.39390 210.11578 209.93565 209.81152 209.75139 210.09427 210.49214 210.89301
 211.69789 212.88776 214.14963 215.94450 217.88438 219.93925 222.04612 224.14099
 226.21287 228.30874 230.41761 232.53548 234.67636 236.86023 239.12810 241.50997
 244.14285 246.40572 248.41959 250.19646 251.62534 252.76021 253.59408 253.92196
 253.97083 253.75670 253.12857 252.08845 250.70632 248.87919 246.80006 244.64494
 242.44781 240.26368 238.09555 235.94643 233.81830 231.69717 229.73504 227.90392
 226.19879 224.68266 223.32453 222.10841 221.00228 219.97415 219.09003 218.24290
 217.49677 216.68864 215.79852 215.17439 214.63626 213.33601 210.28307 209.61513
 210.33517 210.68481 211.87584 215.27217 219.64281 224.42050 230.14745 235.13695
 238.98463 243.00926 247.30511 251.52267 255.17830 258.35629 261.08047 263.61984
 266.44019 269.13269 271.72818 274.32208 276.42444 278.03998 279.37158 280.98337
 282.93655 284.72858 286.27835 287.63870 288.81488 289.85678 290.80588 291.66348
 292.43369 293.11774 293.71182 294.45377
 366.78100 356.34727 345.79153 334.66980 323.08506 311.29133 299.17359 286.98886
 274.71313 262.62239 250.64366 239.95692 230.09119 221.20745 213.40172 206.41599
 200.26225 195.21252 191.80678 189.86105 188.91031 188.98658 189.83384 191.15411
 192.89138 194.99864 197.27391 199.64517 202.10244 204.59470 206.69497 208.54924
 210.18750 211.34477 211.58603 211.82630 211.77556 211.49283 211.13810 210.78036
 210.40963 210.13189 209.95216 209.82842 209.76869 210.11196 210.51022 210.91149
 211.71675 212.90702 214.16928 215.96455 217.90482 219.96008 222.06735 224.16261
 226.23488 228.33114 230.44041 232.55867 234.69994 236.88421 239.15247 241.53474
 244.16800 246.43127 248.44553 250.22280 251.65207 252.78733 253.62160 253.94986
 253.99913 253.78539 253.15766 252.11793 250.73619 248.90946 246.83072 244.67599
 242.47925 240.29552 238.12779 235.97905 233.85132 231.73058 229.76885 227.93811
 226.23338 224.71765 223.35991 222.14418 221.03844 220.01071 219.12697 218.28024
 217.53450 216.72677 215.83704 215.21330 214.67557 213.37842 210.33191 209.67911
 210.35385 210.74747 211.91121 215.23172 219.59041 224.36060 230.06609 235.05530
 238.90355 242.92712 247.22243 251.44151 255.10776 258.32404 261.07101 263.59802
 266.40506 269.08582 271.66873 274.24261 276.32645 277.94070 279.30649 280.94742
 282.89282 284.68402 286.23349 287.59344 288.76935 289.81064 290.75922 291.61740
 292.38708 293.07089 293.66489 294.40799
 366.78100 356.34767 345.79235 334.67102 323.08669 311.29337 299.17604 286.99171
 274.71638 262.62606 250.64773 239.96140 230.09608 221.21275 213.40742 206.42210
 200.26877 195.21944 191.81412 189.86879 188.91846 188.99513 189.84281 191.16348
 192.90115 195.00883 197.28450 199.65617 202.11385 204.60652 206.70719 208.56187
 210.20054 211.35821 211.59988 211.84056 211.79023 211.50790 211.15358 210.79625
 210.42592 210.14860 209.96927 209.84594 209.78662 210.13029 210.52896 210.93064
 211.73631 212.92698 214.18965 215.98533 217.92600 219.98167 222.08935 224.18502
 226.25769 228.35437 230.46404 232.58271 234.72439 236.90906 239.17773 241.56040
 244.19408 246.45775 248.47242 250.25010 251.67977 252.81544 253.65012 253.97879
 254.02846 253.81514 253.18781 252.14848 250.76715 248.94083 246.86250 244.70817
 242.51185 240.32852 238.16119 236.01287 233.88554 231.76521 229.80389 227.97356
 226.26923 224.75390 223.39658 222.18125 221.07592 220.04860 219.16527 218.31894
 217.57362 216.76629 215.87696 215.25364 214.71631 213.42085 210.37750 209.73868
 210.38197 210.80363 211.95166 215.20320 219.53209 224.29456 229.99025 234.97929
 238.82553 242.84709 247.13989 251.35985 255.03641 258.29022 261.05893 263.57361
 266.36646 269.03485 271.60452 274.15872 276.22580 277.84152 279.24216 280.90820
 282.84778 284.63831 286.18686 287.54633 288.72232 289.76257 290.71057 291.56830
 292.33749 293.02029 293.61511 294.35712
 366.78100 356.34812 345.79324 334.67236 323.08847 311.29559 299.17871 286.99483
 274.71995 262.63007 250.65218 239.96630 230.10142 221.21854 213.41366 206.42878
 200.27589 195.22701 191.82213 189.87725 188.92737 189.00449 189.85260 191.17372
 192.91184 195.01996 197.29608 199.66820 202.12631 204.61943 206.72055 208.57567
 210.21479 211.37291 211.61502 211.85614 211.80626 211.52438 211.17050 210.81362
 210.44373 210.16685 209.98797 209.86509 209.80621 210.15033 210.54944 210.95156
 211.75768 212.94880 214.21192 216.00804 217.94915 220.00527 222.11339 224.20951
 226.28263 228.37975 230.48986 232.60898 234.75110 236.93622 239.20534 241.58846
 244.22257 246.48669 248.50181 250.27993 251.71005 252.84617 253.68128 254.01040
 254.06052 253.84764 253.22076 252.18188 250.80099 248.97511 246.89723 244.74335
 242.54747 240.36459 238.19770 236.04982 233.92294 231.80306 229.84218 228.01230
 226.30841 224.79353 223.43665 222.22177 221.11689 220.09001 219.20712 218.36124
 217.61636 216.80948 215.92060 215.29772 214.76083 213.46432 210.41769 209.79668
 210.41899 210.85469 211.99409 215.18536 219.47046 224.22693 229.91734 234.90631
 238.74873 242.76730 247.05852 251.27930 254.96683 258.25586 261.04416 263.54507
 266.32431 268.97903 271.53519 274.06937 276.12357 277.74387 279.17889 280.86969
 282.80026 284.59045 286.13690 287.49689 288.67126 289.71118 290.65961 291.51572
 292.28427 292.96667 293.55988 294.30209
 366.78100 356.34847 345.79394 334.67340 323.08987 311.29734 299.18081 286.99727
 274.72274 262.63321 250.65568 239.97014 230.10561 221.22308 213.41855 206.43401
 200.28148 195.23295 191.82842 189.88388 188.93435 189.01182 189.86029 191.18176
 192.92022 195.02869 197.30516 199.67763 202.13609 204.62956 206.73103 208.58650
 210.22596 211.38443 211.62690 211.86837 211.81883 211.53730 211.18377 210.82724
 210.45770 210.18117 210.00264 209.88011 209.82157 210.16604 210.56551 210.96798
 211.77445 212.96591 214.22938 216.02585 217.96732 220.02378 222.13225 224.22872
 226.30219 228.39965 230.51012 232.62959 234.77206 236.95752 239.22699 241.61046
 244.24493 246.50939 248.52486 250.30333 251.73380 252.87027 253.70573 254.03520
 254.08567 253.87314 253.24660 252.20807 250.82754 249.00201 246.92447 244.77094
 242.57541 240.39288 238.22634 236.07881 233.95228 231.83275 229.87221 228.04268
 226.33915 224.82462 223.46808 222.25355 221.14902 220.12249 219.23996 218.39442
 217.64989 216.84336 215.95483 215.33229 214.79576 213.50195 210.46077 209.85101
 210.46245 210.90344 212.03389 215.17621 219.40562 224.15759 229.84816 234.83383
 238.67308 242.68976 246.97920 251.20148 254.90083 258.22116 261.02515 263.51248
 266.27783 268.91888 271.46039 273.97595 276.02036 277.64792 279.11292 280.82660
 282.75195 284.53961 286.08438 287.44254 288.61716 289.65604 290.60269 291.45868
 292.22638 292.90759 293.49896 294.23499
 366.78100 356.34874 345.79448 334.67423 323.09097 311.29871 299.18245 286.99920
 274.72494 262.63568 250.65842 239.97317 230.10891 221.22665 213.42239 206.43814
 200.28588 195.23762 191.83336 189.88911 188.93985 189.01759 189.86633 191.18808
 192.92682 195.03556 197.31230 199.68505 202.14379 204.63753 206.73927 208.59502
 210.23476 211.39350 211.63624 211.87798 211.82873 211.54747 211.19421 210.83795
 210.46870 210.19244 210.01418 209.89192 209.83367 210.17841 210.57815 210.98089
 211.78764 212.97938 214.24312 216.03986 217.98161 220.03835 222.14709 224.24383
 226.31758 228.41532 230.52606 232.64580 234.78855 236.97429 239.24403 241.62777
 244.26252 246.52726 248.54300 250.32174 251.75248 252.88923 253.72497 254.05471
 254.10545 253.89320 253.26694 252.22868 250.84842 249.02317 246.94591 244.79265
 242.59739 240.41514 238.24888 236.10162 233.97536 231.85611 229.89585 228.06659
 226.36333 224.84908 223.49282 222.27856 221.17430 220.14805 219.26579 218.42053
 217.67627 216.87001 215.98176 215.35950 214.82324 213.53404 210.50293 209.91788
 210.49916 210.94623 212.07326 215.17255 219.34286 224.08293 229.77914 234.76169
 238.59888 242.61549 246.90305 251.12531 254.83566 258.18542 261.00412 263.47800
 266.23083 268.85657 271.38077 273.87762 275.91660 277.55502 279.04782 280.78174
 282.70508 284.48489 286.02628 287.38272 288.55621 289.59375 290.53867 291.39261
 292.15631 292.83340 293.42038 294.14090
 366.78100 356.34910 345.79520 334.67529 323.09239 311.30049 299.18459 287.00169
 274.72779 262.63888 250.66198 239.97708 230.11318 221.23128 213.42738 206.44347
 200.29157 195.24367 191.83977 189.89587 188.94697 189.02506 189.87416 191.19626
 192.93536 195.04446 197.32155 199.69465 202.15375 204.64785 206.74995 208.60605
 210.24614 211.40524 211.64834 211.89044 211.84154 211.56064 211.20773 210.85183
 210.48293 210.20703 210.02913 209.90723 209.84932 210.19442 210.59452 210.99762
 211.80472 212.99681 214.26091 216.05801 218.00011 220.05721 222.16631 224.26340
 226.33750 228.43560 230.54670 232.66680 234.80990 236.99599 239.26609 241.65019
 244.28529 246.55039 248.56648 250.34558 251.77668 252.91378 253.74988 254.07998
 254.13107 253.91917 253.29327 252.25537 250.87547 249.05057 246.97366 244.82076
 242.62586 240.44396 238.27806 236.13116 234.00525 231.88635 229.92645 228.09755
 226.39465 224.88074 223.52484 222.31094 221.20704 220.18114 219.29924 218.45433
 217.71043 216.90453 216.01663 215.39473 214.85883 213.56940 210.53709 209.98854
 210.55089 210.97928 212.11580 215.17580 219.26790 224.00513 229.71329 234.68802
 238.52196 242.53973 246.82663 251.04926 254.77231 258.15253 260.98816 263.44684
 266.18695 268.79346 271.29645 273.77255 275.80893 277.46078 278.97864 280.72989
 282.65341 284.42157 285.96161 287.31693 288.49060 289.52777 290.47238 291.32590
 292.08762 292.76428 293.34930 294.05582
 366.78100 356.34951 345.79601 334.67652 323.09402 311.30253 299.18703 287.00454
 274.73104 262.64255 250.66605 239.98156 230.11806 221.23657 213.43307 206.44958
 200.29808 195.25059 191.84709 189.90360 188.95510 189.03361 189.88311 191.20562
 192.94512 195.05463 197.33213 199.70564 202.16514 204.65965 206.76215 208.61866
 210.25916 211.41867 211.66217 211.90468 211.85618 211.57569 211.22319 210.86770
 210.49920 210.22371 210.04621 209.92472 209.86722 210.21273 210.61323 211.01674
 211.82424 213.01675 214.28125 216.07876 218.02126 220.07877 222.18827 224.28578
 226.36028 228.45879 230.57029 232.69080 234.83430 237.02081 239.29131 241.67582
 244.31132 246.57683 248.59333 250.37284 251.80434 252.94185 253.77835 254.10886
 254.16036 253.94887 253.32337 252.28588 250.90638 249.08189 247.00539 244.85290
 242.65840 240.47691 238.31141 236.16492 234.03942 231.92093 229.96143 228.13294
 226.43044 224.91695 223.56146 222.34796 221.24447 220.21897 219.33748 218.49298
 217.74949 216.94399 216.05650 215.43500 214.89951 213.60680 210.56606 210.04945
 210.62732 211.03081 212.13611 215.16837 219.19235 223.91814 229.64102 234.61049
 238.44574 242.46890 246.75658 250.98033 254.71680 258.12555 260.97647 263.41815
 266.14319 268.72702 271.20471 273.65921 275.69659 277.36456 278.90359 280.66995
 282.59732 284.35510 285.89548 287.25101 288.42255 289.46100 290.40164 291.25522
 292.01669 292.69037 293.26437 293.93747
 366.78100 356.35022 345.79744 334.67866 323.09688 311.30610 299.19132 287.00954
 274.73676 262.64898 250.67320 239.98942 230.12664 221.24586 213.44308 206.46030
 200.30952 195.26274 191.85996 189.91718 188.96940 189.04862 189.89884 191.22206
 192.96228 195.07250 197.35072 199.72494 202.18516 204.68038 206.78360 208.64082
 210.28204 211.44226 211.68648 211.92970 211.88192 211.60214 211.25036 210.89558
 210.52780 210.25302 210.07624 209.95546 209.89868 210.24490 210.64612 211.05034
 211.85856 213.05178 214.31700 216.11522 218.05844 220.11666 222.22688 224.32510
 226.40032 228.49954 230.61176 232.73298 234.87720 237.06443 239.33565 241.72087
 244.35709 246.62331 248.64053 250.42075 251.85297 252.99119 253.82841 254.15963
 254.21185 254.00107 253.37629 252.33951 250.96073 249.13695 247.06117 244.90939
 242.71561 240.53483 238.37005 236.22427 234.09949 231.98171 230.02293 228.19515
 226.49337 224.98059 223.62581 222.41303 221.31025 220.28547 219.40469 218.56091
 217.81813 217.01335 216.12657 215.50579 214.97101 213.65889 210.57199 210.11876
 210.74222 211.06270 212.13425 215.16005 219.10088 223.82802 229.57504 234.54349
 238.37990 242.40907 246.69283 250.91505 254.66232 258.09744 260.96304 263.38791
 266.09900 268.65857 271.10916 273.54279 275.58524 277.27267 278.82999 280.60843
 282.53705 284.28293 285.82364 287.17908 288.35315 289.38751 290.32953 291.18137
 291.94437 292.61816 293.18054 293.79962
 366.78100 356.35147 345.79994 334.68241 323.10188 311.31236 299.19883 287.01830
 274.74677 262.66024 250.68571 240.00318 230.14165 221.26212 213.46060 206.47907
 200.32954 195.28401 191.88248 189.94095 188.99442 189.07489 189.92637 191.25084
 192.99231 195.10378 197.38325 199.75872 202.22019 204.71666 206.82113 208.67961
 210.32208 211.48355 211.72902 211.97349 211.92696 211.64843 211.29790 210.94437
 210.57785 210.30432 210.12879 210.00926 209.95373 210.30120 210.70367 211.10914
 211.91862 213.11309 214.37956 216.17903 218.12350 220.18297 222.29444 224.39391
 226.47038 228.57086 230.68433 232.80680 234.95227 237.14074 239.41321 241.79968
 244.43715 246.70462 248.72310 250.50457 251.93804 253.07751 253.91598 254.24845
 254.30192 254.09239 253.46887 252.43334 251.05581 249.23328 247.15875 245.00822
 242.81569 240.63616 238.47263 236.32811 234.20458 232.08805 230.13052 228.30399
 226.60346 225.09193 223.73840 222.52687 221.42535 220.40182 219.52229 218.67976
 217.93823 217.13470 216.24917 215.62964 215.09612 213.73616 210.53671 210.22548
 210.86018 211.08772 212.14455 215.12151 219.00595 223.73859 229.51158 234.47684
 238.31415 242.34860 246.62939 250.84937 254.60904 258.07037 260.95084 263.36029
 266.05740 268.59183 271.01163 273.42349 275.47678 277.18488 278.75757 280.54285
 282.46967 284.20764 285.74905 287.10577 288.27643 289.31070 290.25021 291.10156
 291.86523 292.53934 293.09213 293.62857
 366.78100 356.35256 345.80213 334.68569 323.10625 311.31782 299.20538 287.02594
 274.75550 262.67007 250.69663 240.01519 230.15476 221.27632 213.47588 206.49545
 200.34701 195.30257 191.90214 189.96170 189.01626 189.09782 189.95039 191.27595
 193.01851 195.13108 197.41164 199.78820 202.25077 204.74833 206.85389 208.71346
 210.35702 211.51958 211.76614 212.01171 211.96627 211.68883 211.33940 210.98696
 210.62152 210.34909 210.17465 210.05621 210.00178 210.35034 210.75390 211.16046
 211.97103 213.16659 214.43415 216.23472 218.18028 220.24084 222.35341 224.45397
 226.53153 228.63309 230.74766 232.87122 235.01778 237.20735 239.48091 241.86847
 244.50704 246.77560 248.79516 250.57773 252.01229 253.15285 253.99241 254.32598
 254.38054 254.17210 253.54967 252.51523 251.13879 249.31736 247.24392 245.09448
 242.90305 240.72461 238.56217 236.41873 234.29630 232.18086 230.22442 228.39899
 226.69955 225.18911 223.83668 222.62624 221.52580 220.50337 219.62493 218.78349
 218.04305 217.24062 216.35618 215.73774 215.20531 213.80946 210.52432 210.22189
 211.13637 211.17981 211.98053 215.05751 218.94064 223.64177 229.44792 234.41406
 238.25563 242.30032 246.57690 250.79393 254.56450 258.04791 260.93961 263.33105
 266.01147 268.51868 270.90762 273.29883 275.36411 277.09360 278.67990 280.47281
 282.39505 284.12894 285.67191 287.02716 288.19757 289.22742 290.16611 291.01852
 291.78632 292.46481 292.95181 293.40121
 366.78100 356.35238 345.80176 334.68514 323.10552 311.31690 299.20428 287.02466
 274.75404 262.66843 250.69481 240.01319 230.15257 221.27395 213.47333 206.49271
 200.34409 195.29947 191.89885 189.95823 189.01261 189.09399 189.94637 191.27175
 193.01413 195.12651 197.40689 199.78328 202.24566 204.74304 206.84842 208.70780
 210.35118 211.51356 211.75994 212.00532 211.95970 211.68208 211.33246 210.97984
 210.61422 210.34160 210.16698 210.04836 209.99375 210.34213 210.74551 211.15189
 211.96227 213.15765 214.42503 216.22541 218.17079 220.23117 222.34355 224.44393
 226.52131 228.62269 230.73707 232.86045 235.00683 237.19622 239.46960 241.85698
 244.49536 246.76374 248.78312 250.56550 251.99988 253.14026 253.97964 254.31302
 254.36740 254.15878 253.53616 252.50154 251.12492 249.30330 247.22968 245.08007
 242.88845 240.70983 238.54721 236.40359 234.28097 232.16535 230.20873 228.38311
 226.68349 225.17287 223.82025 222.60963 221.50901 220.48639 219.60777 218.76615
 218.02554 217.22292 216.33830 215.71968 215.18706 213.82158 210.60565 210.15515
 211.20679 211.33398 212.01324 214.99864 218.85483 223.58527 229.39360 234.36473
 238.21095 242.26407 246.53162 250.74126 254.51810 258.01987 260.92096 263.29218
 265.95987 268.44165 270.80069 273.17233 275.25162 277.00497 278.60107 280.39896
 282.31659 284.04675 285.59027 286.94467 288.11237 289.13678 290.07471 290.92587
 291.69928 292.37741 292.77878 293.12994
 366.78100 356.35220 345.80141 334.68461 323.10482 311.31602 299.20323 287.02343
 274.75264 262.66684 250.69305 240.01125 230.15046 221.27166 213.47087 206.49007
 200.34128 195.29648 191.89569 189.95489 189.00910 189.09030 189.94251 191.26771
 193.00992 195.12212 197.40232 199.77853 202.24073 204.73794 206.84314 208.70235
 210.34555 211.50776 211.75396 211.99917 211.95337 211.67558 211.32578 210.97299
 210.60719 210.33440 210.15960 210.04081 209.98601 210.33422 210.73742 211.14363
 211.95383 213.14903 214.41624 216.21644 218.16165 220.22185 222.33406 224.43426
 226.51147 228.61267 230.72688 232.85008 234.99629 237.18549 239.45870 241.84590
 244.48411 246.75231 248.77152 250.55372 251.98793 253.12813 253.96734 254.30054
 254.35475 254.14595 253.52315 252.48836 251.11156 249.28977 247.21597 245.06618
 242.87438 240.69559 238.53279 236.38900 234.26620 232.15041 230.19361 228.36782
 226.66802 225.15723 223.80443 222.59364 221.49284 220.47005 219.59125 218.74946
 218.00866 217.20586 216.32107 215.70227 215.16948 213.83119 210.67778 210.16052
 211.17024 211.40402 212.18054 214.99190 218.74638 223.51944 229.34781 234.32628
 238.17279 242.23096 246.48520 250.68367 254.46461 257.98270 260.89096 263.25491
 265.91074 268.36612 270.69449 273.04840 275.14188 276.91779 278.52155 280.32211
 282.23392 283.96304 285.50806 286.86316 288.02524 289.03918 289.97528 290.82898
 291.60501 292.26385 292.57465 292.83582
 366.78100 356.35221 345.80142 334.68462 323.10483 311.31604 299.20325 287.02345
 274.75266 262.66687 250.69308 240.01129 230.15049 221.27170 213.47091 206.49012
 200.34133 195.29653 191.89574 189.95495 189.00916 189.09036 189.94257 191.26778
 193.00999 195.12220 197.40240 199.77861 202.24082 204.73803 206.84324 208.70244
 210.34565 211.50786 211.75407 211.99927 211.95348 211.67569 211.32590 210.97311
 210.60731 210.33452 210.15973 210.04094 209.98615 210.33435 210.73756 211.14377
 211.95398 213.14918 214.41639 216.21660 218.16181 220.22202 222.33422 224.43443
 226.51164 228.61285 230.72706 232.85026 234.99647 237.18568 239.45889 241.84609
 244.48430 246.75251 248.77172 250.55393 251.98813 253.12834 253.96755 254.30076
 254.35496 254.14617 253.52338 252.48859 251.11180 249.29000 247.21621 245.06642
 242.87463 240.69584 238.53304 236.38925 234.26646 232.15067 230.19387 228.36808
 226.66829 225.15750 223.80471 222.59391 221.49312 220.47033 219.59154 218.74975
 218.00895 217.20616 216.32137 215.70258 215.16978 213.84787 210.73526 210.20367
 211.15022 211.42274 212.31219 214.99585 218.66005 223.44702 229.30336 234.28998
 238.13091 242.19460 246.43758 250.62718 254.42282 257.96228 260.89291 263.23770
 265.86621 268.30264 270.58813 272.91351 275.01404 276.81079 278.43286 280.24826
 282.15347 283.87143 285.41180 286.76511 287.91916 288.91901 289.84372 290.70065
 291.47427 292.06302 292.34195 292.58380
 366.78100 356.35186 345.80072 334.68357 323.10343 311.31429 299.20115 287.02100
 274.74986 262.66372 250.68958 240.00743 230.14629 221.26715 213.46601 206.48486
 200.33572 195.29058 191.88944 189.94829 189.00215 189.08301 189.93487 191.25972
 193.00158 195.11344 197.39330 199.76915 202.23101 204.72787 206.83273 208.69158
 210.33444 211.49630 211.74216 211.98701 211.94087 211.66273 211.31259 210.95944
 210.59330 210.32016 210.14502 210.02587 209.97073 210.31859 210.72145 211.12730
 211.93716 213.13202 214.39888 216.19873 218.14359 220.20345 222.31531 224.41516
 226.49202 228.59288 230.70674 232.82959 234.97545 237.16431 239.43717 241.82402
 244.46188 246.72974 248.74860 250.53045 251.96431 253.10417 253.94303 254.27588
 254.32974 254.12060 253.49746 252.46231 251.08517 249.26303 247.18889 245.03874
 242.84660 240.66746 238.50432 236.36017 234.23703 232.12089 230.16375 228.33760
 226.63746 225.12632 223.77318 222.56203 221.46089 220.43775 219.55861 218.71646
 217.97532 217.17218 216.28704 215.66789 215.13475 213.84845 210.83456 210.23906
 211.13603 211.44220 212.38492 215.00119 218.61771 223.37531 229.24066 234.23541
 238.06303 242.14156 246.37587 250.55043 254.37463 257.91995 260.87454 263.32202
 265.87427 268.25415 270.52005 272.80515 274.90756 276.71375 278.36206 280.17422
 282.06314 283.79761 285.34146 286.68536 287.82373 288.81927 289.75174 290.60956
 291.36563 291.61188 291.61636 291.62210
 366.78100 356.35117 345.79934 334.68152 323.10069 311.31086 299.19703 287.01621
 274.74438 262.65755 250.68272 239.99989 230.13807 221.25824 213.45641 206.47458
 200.32476 195.27893 191.87710 189.93527 188.98844 189.06862 189.91979 191.24396
 192.98513 195.09631 197.37548 199.75065 202.21182 204.70799 206.81217 208.67034
 210.31251 211.47368 211.71886 211.96303 211.91620 211.63737 211.28654 210.93272
 210.56589 210.29206 210.11623 209.99641 209.94058 210.28775 210.68992 211.09509
 211.90427 213.09844 214.36461 216.16378 218.10796 220.16713 222.27830 224.37747
 226.45364 228.55382 230.66699 232.78916 234.93433 237.12251 239.39468 241.78085
 244.41802 246.68520 248.70337 250.48454 251.91771 253.05688 253.89506 254.22723
 254.28040 254.07057 253.44675 252.41092 251.03309 249.21026 247.13543 244.98461
 242.79178 240.61195 238.44812 236.30330 234.17947 232.06264 230.10481 228.27798
 226.57716 225.06533 223.71150 222.49967 221.39785 220.37402 219.49419 218.65136
 217.90953 217.10571 216.21988 215.60005 215.06622 213.83490 210.97290 210.26596
 211.07620 211.43315 212.45392 215.01692 218.59175 223.31230 229.18097 234.18547
 237.99976 242.09671 246.32770 250.48326 254.34181 257.88544 260.82251 263.27307
 265.85416 268.34055 270.58157 272.79962 274.86401 276.63297 278.28979 280.10550
 281.93362 283.64526 285.17145 286.49377 287.60791 288.55658 289.46838 290.28452
 291.00134 291.64047 292.19882 292.91037
 366.78100 356.35131 345.79961 334.68192 323.10123 311.31154 299.19784 287.01715
 274.74546 262.65876 250.68407 240.00138 230.13969 221.25999 213.45830 206.47661
 200.32691 195.28122 191.87953 189.93784 188.99114 189.07145 189.92276 191.24706
 192.98837 195.09968 197.37899 199.75429 202.21560 204.71191 206.81621 208.67452
 210.31683 211.47813 211.72344 211.96775 211.92106 211.64236 211.29167 210.93798
 210.57128 210.29759 210.12190 210.00221 209.94651 210.29382 210.69613 211.10143
 211.91074 213.10505 214.37136 216.17066 218.11497 220.17428 222.28558 224.38489
 226.46120 228.56151 230.67481 232.79712 234.94243 237.13073 239.40304 241.78935
 244.42666 246.69396 248.71227 250.49358 251.92688 253.06619 253.90450 254.23681
 254.29011 254.08042 253.45673 252.42103 251.04334 249.22065 247.14596 244.99526
 242.80257 240.62288 238.45918 236.31449 234.19080 232.07411 230.11641 228.28972
 226.58903 225.07733 223.72364 222.51195 221.41025 220.38656 219.50687 218.66418
 217.92248 217.11879 216.23310 215.61340 215.07971 213.86644 211.06387 210.28889
 211.02252 211.43384 212.52457 215.02211 218.57162 223.25388 229.12239 234.11909
 237.92892 242.03981 246.28023 250.43094 254.32481 257.89410 260.76712 263.28720
 265.92798 268.32248 270.53586 272.73911 274.81845 276.57803 278.23132 280.05438
 281.86188 283.54260 285.03363 286.31653 287.44797 288.48227 289.46002 290.40396
 291.26776 292.03702 292.70901 293.56537
 366.78100 356.35224 345.80149 334.68473 323.10497 311.31622 299.20346 287.02371
 274.75295 262.66719 250.69344 240.01168 230.15092 221.27217 213.47141 206.49066
 200.34190 195.29714 191.89639 189.95563 189.00987 189.09112 189.94336 191.26861
 193.01085 195.12309 197.40334 199.77958 202.24182 204.73907 206.84431 208.70355
 210.34680 211.50904 211.75529 212.00053 211.95477 211.67702 211.32726 210.97450
 210.60875 210.33599 210.16124 210.04248 209.98772 210.33597 210.73921 211.14545
 211.95570 213.15094 214.41819 216.21843 218.16367 220.22392 222.33616 224.43640
 226.51365 228.61489 230.72913 232.85238 234.99862 237.18787 239.46111 241.84835
 244.48660 246.75484 248.77408 250.55633 251.99057 253.13082 253.97006 254.30330
 254.35755 254.14879 253.52603 252.49128 251.11452 249.29277 247.21901 245.06925
 242.87750 240.69874 238.53598 236.39223 234.26947 232.15371 230.19696 228.37120
 226.67145 225.16069 223.80793 222.59718 221.49642 220.47366 219.59491 218.75315
 218.01240 217.20964 216.32488 215.70613 215.17337 213.93716 211.07809 210.25473
 211.06310 211.56241 212.63365 215.06473 218.56310 223.20567 229.06474 234.04514
 237.85452 241.96715 246.19872 250.34511 254.24916 257.81686 260.72147 263.31473
 265.94724 268.32327 270.53015 272.70578 274.76501 276.54761 278.20410 280.00232
 281.80835 283.49390 284.99652 286.31903 287.47977 288.52362 289.49823 290.41080
 291.24197 291.98215 292.62875 293.45279
 366.78100 356.35433 345.80566 334.69099 323.11332 311.32665 299.21598 287.03831
 274.76964 262.68597 250.71430 240.03463 230.17596 221.29929 213.50062 206.52195
 200.37528 195.33261 191.93394 189.99527 189.05160 189.13493 189.98926 191.31659
 193.06092 195.17525 197.45758 199.83591 202.30024 204.79957 206.90690 208.76823
 210.41356 211.57789 211.82622 212.07355 212.02988 211.75421 211.40654 211.05587
 210.69220 210.42153 210.24886 210.13219 210.07951 210.42984 210.83517 211.24350
 212.05583 213.25316 214.52249 216.32482 218.27215 220.33448 222.44881 224.55114
 226.63047 228.73380 230.85013 232.97546 235.12379 237.31512 239.59045 241.97978
 244.62011 246.89044 248.91177 250.69610 252.13243 253.27476 254.11609 254.45142
 254.50775 254.30108 253.68041 252.64774 251.27307 249.45340 247.38173 245.23406
 243.04439 240.86772 238.70705 236.56538 234.44471 232.33104 230.37637 228.55270
 226.85503 225.34636 223.99569 222.78702 221.68835 220.66768 219.79101 218.95134
 218.21267 217.41200 216.52933 215.91266 215.38199 214.07416 211.04329 210.16302
 211.09258 211.67485 212.80281 215.21747 218.61981 223.18567 229.03293 234.00847
 237.81549 241.92447 246.13943 250.27074 254.14914 257.65115 260.50928 263.18970
 265.94556 268.36261 270.56064 272.69525 274.71426 276.48462 278.11295 279.89847
 281.67694 283.32355 284.79150 286.10706 287.26590 288.30936 289.26843 290.13513
 290.91071 291.60135 292.20471 292.97360
 366.78100 356.35604 345.80907 334.69611 323.12014 311.33518 299.22622 287.05025
 274.78329 262.70133 250.73136 240.05340 230.19643 221.32147 213.52451 206.54754
 200.40258 195.36161 191.96465 190.02769 189.08572 189.17076 190.02679 191.35583
 193.10187 195.21790 197.50194 199.88198 202.34801 204.84905 206.95808 208.82112
 210.46816 211.63419 211.88423 212.13326 212.09130 211.81734 211.47137 211.12241
 210.76044 210.49148 210.32052 210.20555 210.15459 210.50663 210.91366 211.32370
 212.13773 213.33677 214.60781 216.41184 218.36088 220.42491 222.54095 224.64499
 226.72602 228.83106 230.94910 233.07613 235.22617 237.41920 239.69624 242.08728
 244.72931 247.00135 249.02438 250.81042 252.24846 253.39249 254.23553 254.57256
 254.63060 254.42564 253.80667 252.77571 251.40275 249.58478 247.51482 245.36885
 243.18089 241.00593 238.84696 236.70700 234.58803 232.47607 230.52311 228.70114
 227.00518 225.49821 224.14925 222.94229 221.84532 220.82636 219.95140 219.11343
 218.37647 217.57750 216.69654 216.08158 215.55261 214.20432 211.08163 210.05838
 211.00877 211.80084 213.01611 215.32990 218.63780 223.14531 228.96925 233.93692
 237.75453 241.86679 246.07384 250.19200 254.05812 257.51471 260.38480 263.12701
 265.85254 268.29321 270.53482 272.67249 274.68408 276.47919 278.14139 279.89288
 281.62845 283.22714 284.64322 285.94424 287.11954 288.18213 289.16605 290.08984
 290.92136 291.66183 292.30869 293.13306
 366.78100 356.35474 345.80649 334.69223 323.11498 311.32872 299.21847 287.04121
 274.77296 262.68970 250.71845 240.03919 230.18094 221.30468 213.50642 206.52817
 200.38191 195.33966 191.94140 190.00315 189.05989 189.14364 189.99838 191.32613
 193.07087 195.18562 197.46836 199.84710 202.31185 204.81159 206.91934 208.78108
 210.42683 211.59157 211.84032 212.08806 212.04481 211.76955 211.42230 211.07204
 210.70878 210.43853 210.26627 210.15002 210.09776 210.44851 210.85425 211.26300
 212.07574 213.27349 214.54323 216.34598 218.29372 220.35646 222.47121 224.57395
 226.65370 228.75744 230.87419 232.99993 235.14868 237.34042 239.61617 242.00591
 244.64666 246.91740 248.93914 250.72389 252.16063 253.30338 254.14512 254.48087
 254.53761 254.33136 253.71110 252.67885 251.30459 249.48534 247.41408 245.26682
 243.07757 240.90131 238.74106 236.59980 234.47955 232.36629 230.41204 228.58878
 226.89153 225.38327 224.03302 222.82476 221.72650 220.70625 219.82999 218.99074
 218.25248 217.45223 216.56997 215.95372 215.42346 214.15291 211.19974 210.12013
 210.96492 211.90677 213.12863 215.30284 218.57529 223.08771 228.91171 233.87155
 237.70209 241.81499 246.02159 250.14644 254.01094 257.44800 260.36694 262.99481
 265.63672 268.12747 270.41617 272.61475 274.69226 276.57907 278.28775 280.01666
 281.70572 283.22858 284.58368 285.88437 287.06226 288.12100 289.09845 290.00830
 290.83713 291.57520 292.21994 293.04163
 366.78100 356.35125 345.79950 334.68175 323.10100 311.31125 299.19750 287.01675
 274.74500 262.65825 250.68351 240.00076 230.13901 221.25926 213.45751 206.47576
 200.32601 195.28026 191.87851 189.93676 188.99001 189.07026 189.92151 191.24576
 192.98701 195.09826 197.37751 199.75276 202.21401 204.71026 206.81452 208.67277
 210.31502 211.47627 211.72152 211.96577 211.91902 211.64027 211.28952 210.93577
 210.56902 210.29527 210.11952 209.99977 209.94402 210.29127 210.69352 211.09877
 211.90802 213.10227 214.36853 216.16778 218.11203 220.17128 222.28253 224.38178
 226.45803 228.55828 230.67153 232.79378 234.93903 237.12728 239.39953 241.78578
 244.42303 246.69028 248.70853 250.48978 251.92303 253.06229 253.90054 254.23279
 254.28604 254.07629 253.45254 252.41679 251.03904 249.21629 247.14154 244.99079
 242.79804 240.61829 238.45454 236.30979 234.18604 232.06929 230.11154 228.28479
 226.58404 225.07230 223.71855 222.50680 221.40505 220.38130 219.50155 218.65880
 217.91705 217.11330 216.22755 215.60780 215.07405 213.96571 211.38417 210.34706
 211.01915 211.76648 213.00952 215.19157 218.44707 223.00853 228.86383 233.82011
 237.63994 241.76535 245.98999 250.14345 254.05643 257.55457 260.35526 263.06107
 265.78735 268.11169 270.28119 272.41022 274.49991 276.41364 278.16690 279.92313
 281.56870 283.09872 284.49841 285.82904 286.99634 288.04425 288.99429 289.85416
 290.63144 291.32361 291.92828 292.69888
 366.78100 356.34915 345.79530 334.67546 323.09261 311.30076 299.18491 287.00207
 274.72822 262.63937 250.66252 239.97768 230.11383 221.23198 213.42813 206.44428
 200.29244 195.24459 191.84074 189.89689 188.94805 189.02620 189.87535 191.19750
 192.93665 195.04581 197.32296 199.69611 202.15526 204.64942 206.75157 208.60772
 210.24787 211.40703 211.65018 211.89233 211.84348 211.56263 211.20979 210.85394
 210.48509 210.20924 210.03140 209.90955 209.85170 210.19685 210.59700 211.00016
 211.80731 212.99946 214.26361 216.06077 218.00292 220.06007 222.16922 224.26638
 226.34053 228.43868 230.54983 232.66998 234.81314 236.99929 239.26944 241.65359
 244.28875 246.55390 248.57005 250.34920 251.78035 252.91751 253.75366 254.08381
 254.13496 253.92312 253.29727 252.25942 250.87957 249.05473 246.97788 244.82503
 242.63018 240.44833 238.28249 236.13564 234.00979 231.89094 229.93110 228.10225
 226.39940 224.88555 223.52970 222.31586 221.21201 220.18616 219.30431 218.45947
 217.71562 216.90977 216.02192 215.40008 214.86423 213.87448 211.57043 210.51103
 211.08035 211.73022 212.98080 215.19777 218.45885 222.98610 228.83342 233.77124
 237.59386 241.73212 245.97955 250.15401 254.11880 257.69217 260.35425 263.17462
 265.91718 268.33752 270.46292 272.49353 274.41412 276.18509 277.87921 279.61679
 281.16748 282.67154 284.09055 285.45239 286.69748 287.83218 288.86740 289.80524
 290.64871 291.39984 292.05600 292.89221
 366.78100 356.35083 345.79867 334.68050 323.09933 311.30917 299.19500 287.01383
 274.74167 262.65450 250.67933 239.99617 230.13400 221.25384 213.45167 206.46950
 200.31934 195.27317 191.87100 189.92884 188.98167 189.06150 189.91234 191.23617
 192.97700 195.08784 197.36667 199.74150 202.20234 204.69817 206.80200 208.65984
 210.30167 211.46251 211.70734 211.95117 211.90401 211.62484 211.27367 210.91951
 210.55234 210.27817 210.10201 209.98184 209.92567 210.27251 210.67434 211.07917
 211.88801 213.08184 214.34767 216.14651 218.09034 220.14917 222.26001 224.35884
 226.43468 228.53451 230.64734 232.76918 234.91401 237.10184 239.37368 241.75951
 244.39634 246.66318 248.68101 250.46184 251.89468 253.03351 253.87134 254.20318
 254.25601 254.04584 253.42168 252.38551 251.00734 249.18418 247.10901 244.95785
 242.76468 240.58451 238.42035 236.27518 234.15101 232.03385 230.07568 228.24851
 226.54735 225.03518 223.68101 222.46885 221.36668 220.34251 219.46235 218.61918
 217.87701 217.07285 216.18668 215.56652 215.03235 213.98700 211.56105 210.56429
 211.26324 211.95743 213.13976 215.16740 218.28918 222.84486 228.79436 233.68402
 237.52354 241.67770 245.93977 250.13242 254.14095 257.65082 260.53564 263.32843
 266.01886 268.37347 270.50027 272.57205 274.48624 276.20746 277.90393 279.55170
 281.04773 282.61124 284.25266 285.83859 287.21106 288.42535 289.53320 290.53683
 291.43951 292.24335 292.94556 293.84042
 366.78100 356.35145 345.79990 334.68234 323.10179 311.31224 299.19869 287.01814
 274.74658 262.66003 250.68548 240.00293 230.14138 221.26182 213.46027 206.47872
 200.32917 195.28362 191.88206 189.94051 188.99396 189.07441 189.92586 191.25030
 192.99175 195.10320 197.38265 199.75809 202.21954 204.71599 206.82044 208.67889
 210.32133 211.48278 211.72823 211.97268 211.92613 211.64757 211.29702 210.94347
 210.57692 210.30337 210.12781 210.00826 209.95271 210.30016 210.70261 211.10805
 211.91750 213.11195 214.37840 216.17785 218.12229 220.18174 222.29319 224.39264
 226.46909 228.56953 230.68298 232.80543 234.95088 237.13933 239.41177 241.79822
 244.43567 246.70312 248.72157 250.50301 251.93646 253.07591 253.91436 254.24681
 254.30025 254.09070 253.46715 252.43160 251.05404 249.23149 247.15694 245.00639
 242.81384 240.63428 238.47073 236.32618 234.20263 232.08608 230.12852 228.30197
 226.60142 225.08987 223.73632 222.52476 221.42321 220.39966 219.52011 218.67756
 217.93600 217.13245 216.24690 215.62735 215.09380 214.02197 211.54977 210.58002
 211.33098 212.20335 213.29691 215.06848 218.15376 222.74852 228.64459 233.55751
 237.37862 241.52808 245.78760 249.98851 253.97829 257.48499 260.40137 263.11804
 265.84607 268.28378 270.53598 272.68661 274.70810 276.51334 278.16071 279.86038
 281.42587 282.87299 284.39694 285.84140 287.21420 288.42877 289.53690 290.54077
 291.44366 292.24768 292.95004 293.84515
 366.78100 356.34980 345.79660 334.67740 323.09521 311.30401 299.18881 287.00661
 274.73341 262.64521 250.66901 239.98482 230.12162 221.24042 213.43722 206.45402
 200.30282 195.25562 191.85242 189.90923 188.96103 189.03983 189.88963 191.21243
 192.95223 195.06203 197.33984 199.71364 202.17344 204.66824 206.77104 208.62784
 210.26864 211.42845 211.67225 211.91505 211.86685 211.58665 211.23445 210.87925
 210.51106 210.23586 210.05866 209.93746 209.88026 210.22606 210.62686 211.03066
 211.83847 213.03127 214.29607 216.09387 218.03667 220.09447 222.20427 224.30208
 226.37688 228.47568 230.58748 232.70828 234.85208 237.03888 239.30969 241.69449
 244.33029 246.59609 248.61289 250.39269 251.82449 252.96230 253.79910 254.12990
 254.18170 253.97050 253.34530 252.30810 250.92891 249.10471 247.02851 244.87631
 242.68211 240.50091 238.33571 236.18951 234.06432 231.94612 229.98692 228.15872
 226.45652 224.94332 223.58812 222.37493 221.27173 220.24653 219.36533 218.52113
 217.77793 216.97273 216.08554 215.46434 214.92914 213.93542 211.64009 210.72722
 211.30408 212.07651 213.27901 215.08911 218.11493 222.67152 228.56731 233.47350
 237.27649 241.42300 245.67813 249.89079 253.89008 257.36383 260.07568 262.85327
 265.86096 268.16919 270.32230 272.44580 274.47186 276.35925 278.07697 279.75385
 281.35803 282.74063 284.12735 285.49069 286.70517 287.84454 288.88403 289.82574
 290.67273 291.42694 292.08582 292.92551
 366.78100 356.34806 345.79311 334.67217 323.08822 311.29528 299.17833 286.99439
 274.71944 262.62950 250.65155 239.96561 230.10066 221.21772 213.41277 206.42783
 200.27488 195.22594 191.82099 189.87605 188.92610 189.00316 189.85121 191.17227
 192.91032 195.01838 197.29443 199.66649 202.12454 204.61760 206.71865 208.57371
 210.21277 211.37082 211.61288 211.85393 211.80399 211.52204 211.16810 210.81115
 210.44121 210.16426 209.98532 209.86237 209.80343 210.14748 210.54654 210.94859
 211.75465 212.94570 214.20876 216.00481 217.94587 220.00192 222.10998 224.20603
 226.27909 228.37614 230.48620 232.60525 234.74731 236.93237 239.20142 241.58448
 244.21853 246.48259 248.49764 250.27570 251.70575 252.84181 253.67686 254.00592
 254.05597 253.84303 253.21608 252.17714 250.79619 248.97025 246.89230 244.73836
 242.54241 240.35947 238.19252 236.04458 233.91763 231.79769 229.83674 228.00680
 226.30285 224.78791 223.43096 222.21602 221.11108 220.08413 219.20119 218.35524
 217.61030 216.80335 215.91441 215.29146 214.75452 213.87488 211.80736 210.75667
 211.31772 212.02629 213.24036 215.17346 218.19728 222.69160 228.58118 233.47119
 237.27348 241.42021 245.68346 249.92039 253.95834 257.47797 260.30777 262.97116
 265.75391 268.19626 270.34711 272.37436 274.30756 276.12646 277.96103 279.59167
 281.14035 282.54749 283.95633 285.35300 286.63657 287.77222 288.80829 289.74692
 290.59113 291.34286 291.99960 292.83652
 366.78100 356.34623 345.78946 334.66669 323.08092 311.28615 299.16737 286.98160
 274.70483 262.61306 250.63329 239.94552 230.07875 221.19398 213.38721 206.40044
 200.24567 195.19490 191.78812 189.84135 188.88958 188.96481 189.81104 191.13027
 192.86650 194.97273 197.24696 199.61719 202.07342 204.56465 206.66387 208.51710
 210.15433 211.31056 211.55079 211.79002 211.73825 211.45448 211.09871 210.73994
 210.36817 210.08940 209.90862 209.78385 209.72308 210.06531 210.46254 210.86277
 211.66700 212.85623 214.11746 215.91169 217.85092 219.90514 222.01137 224.10560
 226.17683 228.27206 230.38029 232.49752 234.63775 236.82098 239.08821 241.46944
 244.10167 246.36389 248.37712 250.15335 251.58158 252.71581 253.54904 253.87627
 253.92450 253.70973 253.08096 252.04019 250.65742 248.82964 246.74987 244.59410
 242.39633 240.21156 238.04279 235.89302 233.76425 231.64248 229.67971 227.84794
 226.14216 224.62539 223.26662 222.04985 220.94308 219.91431 219.02954 218.18177
 217.43500 216.62623 215.73546 215.11069 214.57191 213.81071 211.96503 210.75621
 211.21707 211.92064 213.24493 215.29593 218.28554 222.72743 228.60518 233.47774
 237.28198 241.43275 245.70435 249.95615 254.02202 257.55548 260.50555 263.20984
 265.90182 268.36624 270.54770 272.56302 274.40988 276.13815 277.97479 279.57474
 280.99332 282.36954 283.80319 285.25504 286.53525 287.66794 288.70132 289.63751
 290.47949 291.22931 291.88431 292.71902
 366.78100 356.34476 345.78652 334.66228 323.07504 311.27880 299.15856 286.97132
 274.69308 262.59984 250.61860 239.92936 230.06112 221.17488 213.36664 206.37840
 200.22216 195.16992 191.76168 189.81344 188.86020 188.93396 189.77872 191.09648
 192.83124 194.93600 197.20876 199.57752 202.03228 204.52204 206.61980 208.47156
 210.10732 211.26208 211.50084 211.73860 211.68536 211.40012 211.04288 210.68264
 210.30940 210.02916 209.84692 209.72068 209.65844 209.99920 210.39496 210.79372
 211.59648 212.78424 214.04400 215.83676 217.77452 219.82728 221.93204 224.02480
 226.09456 228.18832 230.29508 232.41084 234.54960 236.73136 238.99712 241.37688
 244.00764 246.26840 248.28016 250.05492 251.48168 252.61444 253.44620 253.77196
 253.81872 253.60248 252.97224 251.93000 250.54576 248.71652 246.63528 244.47804
 242.27880 240.09256 237.92232 235.77108 233.64084 231.51760 229.55336 227.72012
 226.01288 224.49464 223.13440 221.91616 220.80792 219.77768 218.89144 218.04220
 217.29396 216.48372 215.59148 214.96524 214.42500 213.75145 212.09151 210.83176
 211.14447 211.88052 213.28027 215.34578 218.28130 222.69458 228.58595 233.44809
 237.23334 241.38028 245.65654 249.92365 254.03430 257.52795 260.46817 263.16965
 265.87558 268.43903 270.65091 272.65652 274.50995 276.20834 277.97488 279.63116
 280.94904 282.25549 283.67920 285.13284 286.41614 287.55151 288.58737 289.52579
 290.36978 291.12140 291.77795 292.61469
 366.78100 356.34456 345.78611 334.66167 323.07423 311.27778 299.15734 286.96990
 274.69145 262.59801 250.61657 239.92712 230.05868 221.17224 213.36379 206.37535
 200.21891 195.16646 191.75802 189.80958 188.85613 188.92969 189.77425 191.09180
 192.82636 194.93092 197.20347 199.57203 202.02659 204.51614 206.61370 208.46526
 210.10081 211.25537 211.49393 211.73148 211.67804 211.39260 211.03515 210.67471
 210.30127 210.02082 209.83838 209.71194 209.64949 209.99005 210.38561 210.78416
 211.58672 212.77427 214.03383 215.82639 217.76394 219.81650 221.92106 224.01361
 226.08317 228.17673 230.28328 232.39884 234.53740 236.71895 238.98451 241.36407
 243.99462 246.25518 248.26674 250.04129 251.46785 252.60041 253.43196 253.75752
 253.80408 253.58763 252.95719 251.91475 250.53030 248.70086 246.61942 244.46197
 242.26253 240.07609 237.90564 235.75420 233.62376 231.50031 229.53587 227.70243
 225.99498 224.47654 223.11610 221.89765 220.78921 219.75877 218.87232 218.02288
 217.27444 216.46399 215.57155 214.94511 214.40466 213.76332 212.16827 210.96806
 211.20140 211.96039 213.26906 215.23547 218.16608 222.62018 228.53073 233.37123
 237.16164 241.31445 245.60033 249.89871 253.99133 257.47159 260.36880 263.01154
 265.67975 268.31213 270.66223 272.70779 274.41348 276.25537 278.04013 279.62451
 280.89523 282.28113 283.85141 285.27679 286.51038 287.60178 288.59750 289.49957
 290.31085 291.03333 291.66446 292.46878
 366.78100 356.34558 345.78816 334.66475 323.07833 311.28291 299.16349 286.97708
 274.69966 262.60724 250.62682 239.93841 230.07099 221.18557 213.37815 206.39074
 200.23532 195.18390 191.77648 189.82907 188.87665 188.95123 189.79681 191.11540
 192.85098 194.95656 197.23014 199.59973 202.05531 204.54589 206.64447 208.49706
 210.13364 211.28922 211.52880 211.76739 211.71497 211.43055 211.07413 210.71472
 210.34230 210.06288 209.88146 209.75605 209.69463 210.03621 210.43279 210.83238
 211.63596 212.82454 214.08512 215.87871 217.81729 219.87087 221.97645 224.07004
 226.14062 228.23520 230.34278 232.45937 234.59895 236.78153 239.04811 241.42870
 244.06028 246.32186 248.33444 250.11003 251.53761 252.67119 253.50377 253.83036
 253.87794 253.66252 253.03310 251.99169 250.60827 248.77985 246.69943 244.54302
 242.34460 240.15918 237.98976 235.83935 233.70993 231.58751 229.62409 227.79168
 226.08526 224.56784 223.20842 221.99101 220.88359 219.85417 218.96875 218.12034
 217.37292 216.56350 215.67208 215.04667 214.50725 213.84160 212.19211 211.05942
 211.31108 212.05627 213.25240 215.17236 218.15309 222.52798 228.42250 233.28461
 237.08105 241.24054 245.54488 249.88443 253.97609 257.49774 260.35895 262.92313
 265.55621 268.28055 270.59628 272.63187 274.35400 276.41489 278.06955 279.56339
 280.90735 282.61908 284.20828 285.60370 286.81131 287.87973 288.85452 289.73761
 290.53186 291.23914 291.85699 292.64438
 366.78100 356.34595 345.78890 334.66585 323.07980 311.28475 299.16569 286.97964
 274.70259 262.61054 250.63049 239.94244 230.07539 221.19034 213.38329 206.39624
 200.24119 195.19014 191.78308 189.83603 188.88398 188.95893 189.80488 191.12383
 192.85978 194.96573 197.23968 199.60963 202.06558 204.55653 206.65547 208.50842
 210.14537 211.30132 211.54127 211.78022 211.72817 211.44412 211.08807 210.72902
 210.35697 210.07792 209.89686 209.77181 209.71076 210.05271 210.44966 210.84961
 211.65356 212.84251 214.10346 215.89741 217.83636 219.89030 221.99625 224.09020
 226.16115 228.25610 230.36405 232.48100 234.62095 236.80390 239.07085 241.45180
 244.08375 246.34569 248.35864 250.13459 251.56254 252.69649 253.52944 253.85639
 253.90434 253.68929 253.06024 252.01919 250.63614 248.80808 246.72803 244.57198
 242.37393 240.18888 238.01983 235.86978 233.74073 231.61868 229.65563 227.82358
 226.11753 224.60047 223.24142 222.02437 220.91732 219.88827 219.00322 218.15517
 217.40812 216.59907 215.70802 215.08297 214.54391 213.87495 212.23749 211.10765
 211.26381 212.09604 213.32077 215.21146 218.13261 222.54630 228.39638 233.24765
 237.03621 241.19460 245.49684 249.81087 253.89801 257.43103 260.31717 262.86508
 265.49350 268.20123 270.57028 272.71323 274.41025 276.44052 278.00174 279.69781
 281.29553 283.09659 284.75934 286.21939 287.48291 288.60083 289.62073 290.54471
 291.37573 292.11575 292.76221 293.58606
 366.78100 356.34502 345.78704 334.66307 323.07609 311.28011 299.16013 286.97315
 274.69517 262.60220 250.62122 239.93224 230.06426 221.17828 213.37031 206.38233
 200.22635 195.17437 191.76639 189.81842 188.86544 188.93946 189.78448 191.10250
 192.83752 194.94255 197.21557 199.58459 202.03961 204.52963 206.62766 208.47968
 210.11570 211.27072 211.50974 211.74777 211.69479 211.40981 211.05283 210.69285
 210.31987 210.03990 209.85792 209.73194 209.66996 210.01098 210.40701 210.80603
 211.60905 212.79707 214.05709 215.85012 217.78814 219.84116 221.94618 224.03920
 226.10922 228.20325 230.31027 232.42629 234.56531 236.74733 239.01336 241.39338
 244.02440 246.28542 248.29744 250.07247 251.49949 252.63251 253.46453 253.79055
 253.83757 253.62160 252.99162 251.94964 250.56566 248.73668 246.65571 244.49873
 242.29975 240.11377 237.94379 235.79282 233.66284 231.53986 229.57588 227.74290
 226.03592 224.51795 223.15797 221.93999 220.83201 219.80203 218.91606 218.06708
 217.31910 216.50912 215.61714 214.99117 214.45119 213.83815 212.32721 211.18399
 211.15549 211.95123 213.30969 215.28912 218.11505 222.56186 228.42720 233.26472
 237.05341 241.21487 245.51541 249.81244 253.88977 257.42422 260.32620 262.86655
 265.56052 268.20355 270.59979 272.77353 274.59073 276.37344 278.11813 279.74744
 281.41531 283.18860 284.90170 286.40591 287.70770 288.85944 289.91022 290.86215
 291.71832 292.48074 293.14679 293.99557
 366.78100 356.34692 345.79084 334.66877 323.08369 311.28961 299.17153 286.98645
 274.71038 262.61930 250.64022 239.95314 230.08706 221.20299 213.39691 206.41083
 200.25675 195.20667 191.80060 189.85452 188.90344 188.97936 189.82629 191.14621
 192.88313 194.99005 197.26497 199.63590 202.09282 204.58474 206.68466 208.53858
 210.17651 211.33343 211.57435 211.81427 211.76319 211.48012 211.12504 210.76696
 210.39588 210.11780 209.93773 209.81365 209.75357 210.09649 210.49441 210.89534
 211.70026 212.89018 214.15210 215.94702 217.88695 219.94187 222.04879 224.14371
 226.21563 228.31156 230.42048 232.53840 234.67932 236.86324 239.13117 241.51309
 244.14601 246.40893 248.42286 250.19978 251.62870 252.76362 253.59754 253.92547
 253.97439 253.76031 253.13223 252.09215 250.71008 248.88300 246.80392 244.64884
 242.45176 240.26769 238.09961 235.95053 233.82245 231.70137 229.73930 227.90822
 226.20314 224.68706 223.32898 222.11291 221.00683 219.97875 219.09467 218.24759
 217.50152 216.69344 215.80336 215.17928 214.64120 213.93704 212.26170 211.23851
 211.31752 211.93692 213.20663 215.17259 218.11784 222.56120 228.32217 233.19037
 236.98677 241.16934 245.48868 249.80856 253.91655 257.42709 260.21881 262.79974
 265.59546 268.26193 270.68213 272.85126 274.73975 276.31982 278.26721 280.01086
 281.59344 283.32825 284.97226 286.57117 287.95486 289.17911 290.29605 291.30789
 292.21796 293.02838 293.73633 294.63855
 366.78100 356.34615 345.78930 334.66645 323.08059 311.28574 299.16689 286.98104
 274.70419 262.61234 250.63249 239.94464 230.07778 221.19293 213.38608 206.39923
 200.24438 195.19353 191.78668 189.83983 188.88797 188.96312 189.80927 191.12842
 192.86457 194.97072 197.24487 199.61502 202.07116 204.56231 206.66146 208.51461
 210.15176 211.30791 211.54806 211.78721 211.73535 211.45150 211.09565 210.73680
 210.36495 210.08610 209.90525 209.78040 209.71954 210.06169 210.45884 210.85899
 211.66314 212.85229 214.11344 215.90759 217.84673 219.90088 222.00703 224.10118
 226.17233 228.26748 230.37563 232.49278 234.63292 236.81607 239.08322 241.46437
 244.09652 246.35867 248.37182 250.14797 251.57611 252.71026 253.54341 253.87056
 253.91871 253.70386 253.07501 252.03415 250.65130 248.82345 246.74360 244.58775
 242.38990 240.20505 238.03620 235.88634 233.75749 231.63564 229.67279 227.84094
 226.13509 224.61824 223.25939 222.04253 220.93568 219.90683 219.02198 218.17413
 217.42728 216.61843 215.72758 215.10272 214.56387 213.89059 212.30011 211.24458
 211.18756 211.87735 213.16335 215.12544 218.11794 222.47491 228.15517 233.01001
 236.83955 241.02892 245.36874 249.66823 253.68213 257.12302 259.98306 262.67462
 265.45886 268.10889 270.47736 272.65506 274.65292 276.52246 278.31067 280.06824
 281.71176 283.11401 284.42398 285.64722 286.73721 287.76086 288.74942 289.66071
 290.48029 291.21014 291.84775 292.66028
 366.78100 356.34546 345.78792 334.66439 323.07785 311.28231 299.16277 286.97623
 274.69869 262.60616 250.62562 239.93708 230.06954 221.18400 213.37646 206.38893
 200.23339 195.18185 191.77431 189.82677 188.87424 188.94870 189.79416 191.11262
 192.84808 194.95354 197.22701 199.59647 202.05193 204.54239 206.64085 208.49332
 210.12978 211.28524 211.52470 211.76316 211.71062 211.42609 211.06955 210.71001
 210.33747 210.05793 209.87639 209.75086 209.68932 210.03078 210.42724 210.82670
 211.63017 212.81863 214.07909 215.87255 217.81101 219.86447 221.96994 224.06340
 226.13386 228.22832 230.33578 232.45225 234.59171 236.77417 239.04063 241.42109
 244.05255 246.31402 248.32648 250.10194 251.52940 252.66286 253.49532 253.82179
 253.86925 253.65371 253.02417 251.98263 250.59910 248.77056 246.69002 244.53348
 242.33494 240.14940 237.97987 235.82933 233.69979 231.57725 229.61371 227.78118
 226.07464 224.55710 223.19756 221.98002 220.87248 219.84295 218.95741 218.10887
 217.36133 216.55179 215.66025 215.03472 214.49518 213.83588 212.27896 211.46381
 211.37436 211.98370 213.28969 215.10359 217.99695 222.31476 228.17468 232.86235
 236.76878 240.94872 245.30949 249.61523 253.65559 257.08954 259.88617 262.50229
 265.28262 267.86530 270.20172 272.39337 274.45825 276.39972 278.20288 279.98114
 281.58328 282.93387 284.11728 285.21844 286.14911 286.91736 287.56339 288.09256
 288.51126 288.80634 289.10858 289.59262
 366.78100 356.34219 345.78138 334.65457 323.06476 311.26595 299.14314 286.95333
 274.67252 262.57671 250.59290 239.90109 230.03028 221.14147 213.33066 206.33985
 200.18104 195.12623 191.71542 189.76461 188.80880 188.87999 189.72218 191.03737
 192.76956 194.87175 197.14194 199.50813 201.96032 204.44751 206.54270 208.39189
 210.02507 211.17726 211.41345 211.64864 211.59283 211.30502 210.94521 210.58240
 210.20659 209.92378 209.73897 209.61016 209.54535 209.88354 210.27673 210.67292
 211.47311 212.65830 213.91549 215.70568 217.64087 219.69106 221.79325 223.88344
 225.95063 228.04182 230.14601 232.25920 234.39539 236.57458 238.83777 241.21496
 243.84315 246.10134 248.11053 249.88272 251.30691 252.43710 253.26629 253.58948
 253.63367 253.41486 252.78205 251.73724 250.35043 248.51862 246.43481 244.27500
 242.07319 239.88438 237.71157 235.55776 233.42495 231.29914 229.33233 227.49652
 225.78671 224.26590 222.90309 221.68228 220.57147 219.53866 218.64984 217.79803
 217.04722 216.23441 215.33960 214.71079 214.16798 213.71713 212.62138 211.25409
 211.34996 211.91891 213.17964 215.20525 218.14230 222.38463 228.11331 232.93495
 236.69189 240.89154 245.25450 249.58330 253.64467 257.12198 259.96979 262.57697
 265.20050 267.69232 269.97760 272.23019 274.38470 276.34863 278.10120 279.85172
 281.47650 282.87997 284.06003 285.06699 285.89825 286.57376 287.10965 287.65845
 288.42999 289.11703 289.71725 290.48212
 366.78100 356.33916 345.77532 334.64547 323.05263 311.25079 299.12495 286.93211
 274.64826 262.54942 250.56258 239.86774 229.99390 221.10205 213.28821 206.29437
 200.13253 195.07468 191.66084 189.70700 188.74816 188.81632 189.65547 190.96763
 192.69679 194.79595 197.06311 199.42626 201.87542 204.35958 206.45174 208.29790
 209.92805 211.07721 211.31037 211.54253 211.48369 211.19284 210.83000 210.46416
 210.08532 209.79947 209.61163 209.47979 209.41195 209.74711 210.13726 210.53042
 211.32758 212.50974 213.76390 215.55105 217.48321 219.53037 221.62953 223.71669
 225.78084 227.86900 229.97016 232.08032 234.21348 236.38963 238.64979 241.02395
 243.64911 245.90426 247.91042 249.67958 251.10074 252.22790 253.05405 253.37421
 253.41537 253.19353 252.55769 251.50984 250.12000 248.28516 246.19832 244.03548
 241.83063 239.63879 237.46295 235.30611 233.17027 231.04142 229.07158 227.23274
 225.51990 223.99605 222.63021 221.40637 220.29253 219.25669 218.36484 217.51000
 216.75616 215.94032 215.04248 214.41063 213.86479 213.62315 212.88297 211.32039
 211.17430 211.73856 213.29286 215.50522 218.40413 222.56902 228.18285 232.90178
 236.66229 240.85953 245.20856 249.57329 253.66777 257.15094 259.96075 262.67432
 265.30719 267.80933 270.14404 272.29807 274.34705 276.31976 278.11130 279.86099
 281.39505 282.62936 283.51102 284.69028 285.96332 287.08963 288.11722 289.04813
 289.88541 290.63098 291.28232 292.11237
 366.78100 356.34173 345.78046 334.65319 323.06292 311.26365 299.14038 286.95011
 274.66884 262.57257 250.58829 239.89602 230.02475 221.13548 213.32421 206.33294
 200.17367 195.11840 191.70713 189.75586 188.79959 188.87032 189.71205 191.02678
 192.75851 194.86024 197.12997 199.49570 201.94743 204.43415 206.52888 208.37761
 210.01034 211.16207 211.39780 211.63253 211.57626 211.28799 210.92772 210.56445
 210.18818 209.90491 209.71964 209.59037 209.52510 209.86283 210.25556 210.65129
 211.45102 212.63574 213.89247 215.68220 217.61693 219.66666 221.76839 223.85812
 225.92485 228.01558 230.11931 232.23204 234.36777 236.54650 238.80923 241.18596
 243.81369 246.07142 248.08015 249.85188 251.27560 252.40533 253.23406 253.55679
 253.60052 253.38125 252.74798 251.70271 250.31544 248.48317 246.39890 244.23863
 242.03636 239.84709 237.67382 235.51955 233.38628 231.26001 229.29274 227.45646
 225.74619 224.22492 222.86165 221.64038 220.52911 219.49584 218.60657 217.75430
 217.00303 216.18976 215.29449 214.66522 214.12195 213.77101 212.83026 211.50868
 211.07394 211.75282 213.46463 215.59523 218.43167 222.56339 228.17006 232.85490
 236.60258 240.80399 245.14435 249.50520 253.59703 257.03122 259.83023 262.61920
 265.46475 268.09964 270.40555 272.48932 274.40692 276.26846 278.01447 279.66519
 281.15054 282.42725 283.76953 285.21606 286.51620 287.66647 288.71591 289.66666
 290.52173 291.28317 291.94836 292.79608
 366.78100 356.34252 345.78205 334.65557 323.06610 311.26762 299.14514 286.95567
 274.67519 262.57972 250.59624 239.90476 230.03429 221.14581 213.33534 206.34486
 200.18638 195.13191 191.72143 189.77096 188.81548 188.88700 189.72953 191.04505
 192.77758 194.88010 197.15062 199.51715 201.96967 204.45720 206.55272 208.40224
 210.03577 211.18829 211.42482 211.66034 211.60486 211.31739 210.95791 210.59544
 210.21996 209.93748 209.75301 209.62453 209.56006 209.89858 210.29210 210.68863
 211.48915 212.67468 213.93220 215.72272 217.65825 219.70877 221.81130 223.90182
 225.96934 228.06087 230.16539 232.27892 234.41544 236.59496 238.85849 241.23601
 243.86454 246.12306 248.13258 249.90511 251.32963 252.46016 253.28968 253.61320
 253.65773 253.43925 252.80678 251.76230 250.37582 248.54435 246.46087 244.30140
 242.09992 239.91144 237.73897 235.58549 233.45302 231.32754 229.36106 227.52559
 225.81611 224.29564 222.93316 221.71268 220.60221 219.56973 218.68126 217.82978
 217.07930 216.26683 215.37235 214.74388 214.20140 213.84669 212.88963 211.63026
 211.03102 211.81390 213.51945 215.58873 218.40369 222.49086 228.15645 232.85226
 236.60500 240.77895 245.12177 249.46388 253.52359 256.88953 259.60974 262.24277
 265.16006 268.00720 270.53189 272.59485 274.33374 276.32880 278.05670 279.37009
 280.66870 282.15872 283.84250 285.32678 286.61127 287.74774 288.78458 289.72388
 290.56866 291.32098 291.97818 292.81570
 366.78100 356.34037 345.77773 334.64910 323.05747 311.25683 299.13220 286.94057
 274.65793 262.56030 250.57467 239.88104 230.00840 221.11777 213.30514 206.31250
 200.15187 195.09524 191.68260 189.72997 188.77234 188.84170 189.68207 190.99544
 192.72580 194.82617 197.09454 199.45891 201.90927 204.39464 206.48801 208.33537
 209.96674 211.11711 211.35147 211.58484 211.52721 211.23757 210.87594 210.51131
 210.13367 209.84904 209.66241 209.53178 209.46514 209.80151 210.19288 210.58724
 211.38561 212.56898 213.82434 215.61271 217.54608 219.59444 221.69481 223.78318
 225.84854 227.93791 230.04028 232.15165 234.28601 236.46338 238.72475 241.10011
 243.72648 245.98285 247.99021 249.76058 251.18295 252.31131 253.13868 253.46005
 253.50241 253.28178 252.64715 251.60052 250.21188 248.37825 246.29262 244.13098
 241.92735 239.73672 237.56208 235.40645 233.27182 231.14418 229.17555 227.33792
 225.62628 224.10365 222.73902 221.51639 220.40375 219.36912 218.47849 217.62485
 216.87222 216.05759 215.16095 214.53032 213.98569 213.79587 213.07919 211.67897
 210.88828 211.58929 213.32771 215.64833 218.56726 222.56371 228.12553 232.88608
 236.68018 240.88277 245.25507 249.62227 253.67374 257.07623 259.90628 262.58673
 265.36795 268.05374 270.30856 272.22424 274.33658 276.35889 277.93539 279.36810
 280.41312 281.30844 282.08319 282.76349 283.35220 283.87311 284.34833 284.77884
 285.16605 285.51083 285.81207 286.19592
 366.78100 356.34252 345.78203 334.65555 323.06607 311.26759 299.14510 286.95562
 274.67514 262.57966 250.59617 239.90469 230.03421 221.14572 213.33524 206.34476
 200.18628 195.13179 191.72131 189.77083 188.81535 188.88686 189.72938 191.04490
 192.77742 194.87993 197.15045 199.51697 201.96948 204.45700 206.55252 208.40204
 210.03555 211.18807 211.42459 211.66011 211.60462 211.31714 210.95766 210.59517
 210.21969 209.93721 209.75273 209.62424 209.55976 209.89828 210.29180 210.68831
 211.48883 212.67435 213.93186 215.72238 217.65790 219.70842 221.81093 223.90145
 225.96897 228.06049 230.16500 232.27852 234.41504 236.59455 238.85807 241.23559
 243.86411 246.12262 248.13214 249.90466 251.32918 252.45969 253.28921 253.61273
 253.65725 253.43876 252.80628 251.76180 250.37531 248.54383 246.46035 244.30087
 242.09938 239.91090 237.73842 235.58494 233.45245 231.32697 229.36049 227.52500
 225.81552 224.29504 222.93256 221.71207 220.60159 219.56911 218.68063 217.82914
 217.07866 216.26618 215.37169 214.74321 214.20073 213.90855 213.06071 211.88643
 211.02495 211.46352 213.10243 215.32571 218.25943 222.40411 228.03432 232.81926
 236.63937 240.90170 245.32938 249.76933 253.98485 257.53741 260.29202 262.89255
 265.78311 268.53497 270.87045 272.51349 274.35464 276.32135 277.94186 279.92581
 282.48596 284.69104 286.59918 288.27466 289.72464 291.00751 292.17792 293.23825
 294.19189 295.04111 295.78296 296.72839
 366.78100 356.34699 345.79098 334.66896 323.08395 311.28994 299.17193 286.98691
 274.71090 262.61989 250.64088 239.95386 230.08785 221.20384 213.39783 206.41181
 200.25780 195.20779 191.80178 189.85576 188.90475 188.98074 189.82773 191.14771
 192.88470 194.99169 197.26668 199.63766 202.09465 204.58664 206.68663 208.54061
 210.17860 211.33559 211.57658 211.81656 211.76555 211.48254 211.12753 210.76951
 210.39850 210.12049 209.94048 209.81646 209.75645 210.09944 210.49743 210.89841
 211.70340 212.89339 214.15538 215.95036 217.89035 219.94534 222.05233 224.14731
 226.21930 228.31529 230.42428 232.54226 234.68325 236.86724 239.13523 241.51721
 244.15020 246.41319 248.42718 250.20416 251.63315 252.76814 253.60213 253.93011
 253.97910 253.76509 253.13708 252.09706 250.71505 248.88804 246.80903 244.65401
 242.45700 240.27299 238.10498 235.95596 233.82795 231.70694 229.74493 227.91391
 226.20890 224.69289 223.33488 222.11886 221.01285 219.98484 219.10083 218.25381
 217.50780 216.69979 215.80978 215.18576 214.64775 214.11308 212.85759 211.98267
 211.43771 211.84001 213.14873 214.97653 217.83171 222.21851 227.69704 232.54926
 236.38342 240.67397 245.13297 249.53264 253.61938 257.13104 260.07501 262.80524
 265.69492 268.43307 270.76373 272.74619 274.58105 276.59888 278.61652 280.44717
 282.27139 284.11749 285.94095 287.57135 288.98233 290.23068 291.36963 292.40143
 293.32941 294.15579 294.87769 295.79770
 366.78100 356.34792 345.79284 334.67176 323.08769 311.29461 299.17753 286.99345
 274.71837 262.62829 250.65021 239.96413 230.09906 221.21598 213.41090 206.42582
 200.27274 195.22366 191.81858 189.87351 188.92343 189.00035 189.84827 191.16919
 192.90711 195.01503 197.29096 199.66288 202.12080 204.61372 206.71464 208.56956
 210.20848 211.36640 211.60833 211.84925 211.79917 211.51709 211.16301 210.80593
 210.43585 210.15878 209.97970 209.85662 209.79754 210.14146 210.54038 210.94230
 211.74822 212.93915 214.20207 215.99799 217.93891 219.99483 222.10275 224.19867
 226.27160 228.36852 230.47844 232.59736 234.73928 236.92420 239.19312 241.57604
 244.20997 246.47389 248.48881 250.26673 251.69665 252.83257 253.66749 253.99642
 254.04634 253.83326 253.20618 252.16710 250.78602 248.95994 246.88187 244.72779
 242.53171 240.34863 238.18155 236.03347 233.90639 231.78631 229.82524 227.99516
 226.29108 224.77600 223.41892 222.20384 221.09876 220.07169 219.18861 218.34253
 217.59745 216.79037 215.90129 215.27821 214.74113 214.16428 212.80418 211.85620
 211.28287 211.87633 213.38954 215.28108 218.03690 222.20596 227.62083 232.38754
 236.22054 240.47597 244.90108 249.24167 253.24883 256.71237 259.67691 262.46381
 265.30557 268.07913 270.46805 272.56696 274.52750 276.51816 278.56122 280.47668
 282.21445 283.75513 285.20380 286.55704 287.75732 288.86667 289.90674 290.84897
 291.69641 292.45105 293.11029 293.95041
 366.78100 356.34638 345.78977 334.66715 323.08154 311.28692 299.16831 286.98269
 274.70607 262.61446 250.63484 239.94723 230.08061 221.19599 213.38938 206.40276
 200.24815 195.19753 191.79092 189.84430 188.89268 188.96807 189.81445 191.13384
 192.87022 194.97660 197.25099 199.62137 202.07776 204.56914 206.66853 208.52191
 210.15929 211.31568 211.55606 211.79545 211.74383 211.46021 211.10460 210.74598
 210.37437 210.09575 209.91514 209.79052 209.72990 210.07229 210.46967 210.87006
 211.67444 212.86382 214.12521 215.91959 217.85898 219.91336 222.01975 224.11413
 226.18551 228.28090 230.38928 232.50667 234.64705 236.83043 239.09782 241.47920
 244.11159 246.37397 248.38736 250.16374 251.59212 252.72651 253.55989 253.88728
 253.93566 253.72104 253.09243 252.05181 250.66920 248.84158 246.76197 244.60635
 242.40873 240.22412 238.05550 235.90589 233.77727 231.65565 229.69304 227.86142
 226.15581 224.63919 223.28058 222.06396 220.95734 219.92873 219.04411 218.19650
 217.44988 216.64127 215.75065 215.12603 214.58742 214.10339 212.94852 211.91022
 211.02902 211.59566 213.34785 215.45544 218.24580 222.35132 227.75804 232.45662
 236.28203 240.50862 244.91599 249.24521 253.25406 256.69144 259.60608 262.36456
 265.20810 267.98169 270.43338 272.52313 274.38629 276.32559 278.38483 280.32376
 282.02383 283.49033 284.71750 285.78802 286.90164 287.95444 288.97931 289.94733
 290.81796 291.59326 292.27054 293.13367
 366.78100 356.34642 345.78984 334.66725 323.08167 311.28709 299.16851 286.98293
 274.70634 262.61476 250.63518 239.94760 230.08101 221.19643 213.38985 206.40327
 200.24869 195.19810 191.79152 189.84494 188.89336 188.96878 189.81519 191.13461
 192.87103 194.97745 197.25187 199.62228 202.07870 204.57012 206.66954 208.52295
 210.16037 211.31679 211.55721 211.79663 211.74504 211.46146 211.10588 210.74730
 210.37572 210.09713 209.91655 209.79197 209.73139 210.07381 210.47122 210.87164
 211.67606 212.86548 214.12689 215.92131 217.86073 219.91515 222.02157 224.11598
 226.18740 228.28282 230.39124 232.50866 234.64907 236.83249 239.09991 241.48133
 244.11375 246.37616 248.38958 250.16600 251.59442 252.72883 253.56225 253.88967
 253.93809 253.72351 253.09492 252.05434 250.67176 248.84418 246.76460 244.60901
 242.41143 240.22685 238.05827 235.90869 233.78010 231.65852 229.69594 227.86436
 226.15878 224.64219 223.28361 222.06703 220.96045 219.93186 219.04728 218.19970
 217.45312 216.64454 215.75395 215.12937 214.59079 214.13216 213.02782 211.99704
 211.16988 211.58603 213.19855 215.32205 218.23959 222.41098 227.77522 232.52394
 236.30539 240.55313 244.96219 249.29362 253.32443 256.76233 259.65408 262.40613
 265.24500 267.97525 270.47781 272.61594 274.50479 276.40689 278.40323 280.26575
 281.90555 283.27444 284.39142 285.62347 286.89169 288.10538 289.21265 290.21579
 291.11798 291.92139 292.62323 293.51764
 366.78100 356.34662 345.79025 334.66787 323.08249 311.28812 299.16974 286.98436
 274.70799 262.61661 250.63723 239.94986 230.08348 221.19910 213.39273 206.40635
 200.25197 195.20160 191.79522 189.84885 188.89747 188.97309 189.81972 191.13934
 192.87596 194.98259 197.25721 199.62783 202.08446 204.57608 206.67570 208.52933
 210.16695 211.32357 211.56420 211.80382 211.75244 211.46907 211.11369 210.75531
 210.38394 210.10556 209.92518 209.80081 209.74043 210.08305 210.48068 210.88130
 211.68592 212.87555 214.13717 215.93180 217.87142 219.92604 222.03267 224.12729
 226.19891 228.29454 230.40316 232.52078 234.66141 236.84503 239.11265 241.49428
 244.12690 246.38952 248.40315 250.17977 251.60839 252.74302 253.57664 253.90426
 253.95289 253.73851 253.11013 252.06976 250.68738 248.86000 246.78063 244.62525
 242.42787 240.24350 238.07512 235.92575 233.79737 231.67599 229.71362 227.88224
 226.17686 224.66049 223.30211 222.08573 220.97936 219.95098 219.06660 218.21923
 217.47285 216.66447 215.77410 215.14972 214.61134 214.15845 213.05876 211.98441
 211.36267 211.66939 213.05008 215.10526 218.07082 222.31136 227.71034 232.44835
 236.24722 240.51764 244.94806 249.28522 253.29727 256.70294 259.57919 262.36499
 265.25562 268.04498 270.58588 272.72519 274.61435 276.51724 278.51068 280.38547
 282.05499 283.43610 284.47330 285.60855 286.81818 287.98450 289.04965 290.01459
 290.88242 291.65524 292.33038 293.19073
 366.78100 356.34668 345.79036 334.66805 323.08273 311.28841 299.17009 286.98478
 274.70846 262.61714 250.63782 239.95050 230.08419 221.19987 213.39355 206.40723
 200.25291 195.20260 191.79628 189.84996 188.89864 188.97433 189.82101 191.14069
 192.87737 194.98405 197.25874 199.62942 202.08610 204.57778 206.67747 208.53115
 210.16883 211.32551 211.56619 211.80588 211.75456 211.47124 211.11592 210.75761
 210.38629 210.10797 209.92765 209.80333 209.74302 210.08570 210.48338 210.88406
 211.68874 212.87843 214.14011 215.93479 217.87447 219.92916 222.03584 224.13052
 226.20220 228.29788 230.40657 232.52425 234.66493 236.84861 239.11630 241.49798
 244.13066 246.39334 248.40702 250.18371 251.61239 252.74707 253.58075 253.90843
 253.95712 253.74280 253.11448 252.07416 250.69185 248.86453 246.78521 244.62989
 242.43257 240.24826 238.07994 235.93062 233.80230 231.68099 229.71867 227.88735
 226.18203 224.66571 223.30740 222.09108 220.98476 219.95644 219.07212 218.22481
 217.47849 216.67017 215.77985 215.15554 214.61722 214.15865 213.06461 212.02495
 211.38721 211.68677 213.06525 215.09042 218.00012 222.21645 227.69789 232.34828
 236.21201 240.46481 244.89806 249.19820 253.13629 256.52921 259.45511 262.26254
 265.11639 267.89090 270.41803 272.62802 274.61179 276.55420 278.51309 280.39761
 282.06946 283.50110 284.69977 285.72595 286.65488 287.62543 288.58994 289.52496
 290.40823 291.19479 291.88193 292.75757
 366.78100 356.34638 345.78976 334.66713 323.08151 311.28689 299.16827 286.98265
 274.70603 262.61440 250.63478 239.94716 230.08054 221.19592 213.38930 206.40267
 200.24805 195.19743 191.79081 189.84419 188.89256 188.96794 189.81432 191.13370
 192.87008 194.97646 197.25083 199.62121 202.07759 204.56897 206.66835 208.52172
 210.15910 211.31548 211.55586 211.79524 211.74362 211.45999 211.10437 210.74575
 210.37413 210.09551 209.91489 209.79026 209.72964 210.07202 210.46940 210.86978
 211.67415 212.86353 214.12491 215.91929 217.85867 219.91305 222.01942 224.11380
 226.18518 228.28056 230.38894 232.50632 234.64669 236.83007 239.09745 241.47883
 244.11121 246.37358 248.38696 250.16334 251.59172 252.72610 253.55948 253.88685
 253.93523 253.72061 253.09199 252.05137 250.66875 248.84112 246.76150 244.60588
 242.40826 240.22364 238.05501 235.90539 233.77677 231.65515 229.69253 227.86091
 226.15528 224.63866 223.28004 222.06342 220.95680 219.92817 219.04355 218.19593
 217.44931 216.64069 215.75007 215.12544 214.58682 214.14865 213.10947 212.06024
 211.35959 211.73912 213.19258 215.17836 217.98569 222.17188 227.70207 232.26938
 236.16241 240.42216 244.87476 249.17850 253.11317 256.48560 259.37619 262.15631
 264.99548 267.75000 270.24472 272.44455 274.47244 276.46158 278.43994 280.31671
 281.99060 283.42276 284.62155 285.62894 286.51443 287.32568 288.17764 289.03696
 289.83435 290.59833 291.27960 292.14780
 366.78100 356.34491 345.78681 334.66272 323.07562 311.27953 299.15944 286.97234
 274.69425 262.60115 250.62006 239.93097 230.06287 221.17678 213.36868 206.38059
 200.22450 195.17240 191.76431 189.81622 188.86312 188.93703 189.78193 191.09984
 192.83475 194.93965 197.21256 199.58146 202.03637 204.52628 206.62418 208.47609
 210.11199 211.26690 211.50581 211.74371 211.69062 211.40552 211.04843 210.68834
 210.31524 210.03515 209.85305 209.72696 209.66487 210.00577 210.40168 210.80058
 211.60349 212.79140 214.05130 215.84421 217.78211 219.83502 221.93993 224.03283
 226.10274 228.19665 230.30355 232.41946 234.55836 236.74027 239.00618 241.38608
 244.01699 246.27789 248.28980 250.06471 251.49161 252.62452 253.45642 253.78233
 253.82924 253.61314 252.98305 251.94095 250.55686 248.72777 246.64667 244.48958
 242.29048 240.10439 237.93430 235.78320 233.65311 231.53001 229.56592 227.73283
 226.02573 224.50764 223.14755 221.92945 220.82136 219.79126 218.90517 218.05608
 217.30798 216.49789 215.60579 214.97970 214.43961 214.08391 213.23676 212.06056
 211.26312 211.70461 213.25432 215.28368 218.03975 222.16269 227.65933 232.21249
 236.10176 240.37399 244.83139 249.13629 253.07220 256.44888 259.35709 262.14987
 264.97348 267.70261 270.16562 272.34872 274.40103 276.42697 278.41898 280.29156
 281.95847 283.38199 284.56268 285.55029 286.40384 287.17407 287.94803 288.80344
 289.60019 290.36395 291.04694 291.91733
 366.78100 356.34588 345.78875 334.66563 323.07951 311.28439 299.16526 286.97914
 274.70202 262.60989 250.62977 239.94165 230.07453 221.18940 213.38228 206.39516
 200.24003 195.18891 191.78179 189.83467 188.88254 188.95742 189.80330 191.12217
 192.85805 194.96393 197.23781 199.60768 202.06356 204.55444 206.65331 208.50619
 210.14307 211.29895 211.53882 211.77770 211.72558 211.44145 211.08533 210.72621
 210.35409 210.07496 209.89384 209.76872 209.70759 210.04947 210.44635 210.84622
 211.65010 212.83898 214.09986 215.89373 217.83261 219.88649 221.99236 224.08624
 226.15712 228.25200 230.35987 232.47675 234.61663 236.79950 239.06638 241.44726
 244.07914 246.34101 248.35389 250.12977 251.55764 252.69152 253.52440 253.85128
 253.89915 253.68403 253.05491 252.01378 250.63066 248.80254 246.72242 244.56629
 242.36817 240.18305 238.01392 235.86380 233.73468 231.61256 229.64943 227.81731
 226.11119 224.59406 223.23494 222.01782 220.91070 219.88157 218.99645 218.14833
 217.40120 216.59208 215.70096 215.07584 214.53671 214.14029 213.19897 212.17180
 211.26959 211.62627 213.23819 215.35042 218.10191 222.16992 227.61050 232.15257
 236.03067 240.31075 244.76559 249.06029 252.98340 256.36542 259.31323 262.14392
 264.96512 267.68127 270.12949 272.30637 274.37476 276.42053 278.40729 280.25970
 281.90039 283.30042 284.47974 285.43845 286.26837 287.05197 287.86340 288.72830
 289.53317 290.30545 290.98624 291.85385
 366.78100 356.34797 345.79294 334.67192 323.08789 311.29486 299.17783 286.99380
 274.71877 262.62875 250.65072 239.96469 230.09966 221.21663 213.41161 206.42658
 200.27355 195.22452 191.81949 189.87447 188.92444 189.00141 189.84938 191.17035
 192.90832 195.01630 197.29227 199.66424 202.12221 204.61518 206.71616 208.57113
 210.21010 211.36807 211.61004 211.85101 211.80099 211.51896 211.16493 210.80790
 210.43787 210.16085 209.98182 209.85879 209.79976 210.14373 210.54271 210.94468
 211.75065 212.94162 214.20459 216.00056 217.94154 219.99751 222.10548 224.20145
 226.27442 228.37140 230.48137 232.60034 234.74231 236.92728 239.19625 241.57923
 244.21320 246.47717 248.49214 250.27011 251.70009 252.83606 253.67103 254.00000
 254.04997 253.83695 253.20992 252.17089 250.78986 248.96383 246.88580 244.73178
 242.53575 240.35272 238.18569 236.03766 233.91064 231.79061 229.82958 227.99955
 226.29552 224.78049 223.42347 222.20844 221.10341 220.07638 219.19335 218.34733
 217.60230 216.79527 215.90624 215.28321 214.74619 214.25847 213.10539 212.22705
 211.41360 211.59985 213.14812 215.33917 218.15329 222.19542 227.56873 232.10597
 235.96097 240.25047 244.69902 248.97798 252.87352 256.25070 259.23993 262.11560
 264.94611 267.65570 270.09860 272.27679 274.36084 276.41641 278.39325 280.21692
 281.82327 283.19791 284.39716 285.30649 286.11813 286.95541 287.85822 288.72836
 289.54410 290.31134 290.98160 291.83575
 366.78100 356.34741 345.79182 334.67022 323.08563 311.29204 299.17445 286.98985
 274.71426 262.62367 250.64508 239.95848 230.09289 221.20930 213.40371 206.41811
 200.26452 195.21493 191.80934 189.86374 188.91315 188.98956 189.83697 191.15737
 192.89478 195.00219 197.27760 199.64900 202.10641 204.59882 206.69923 208.55364
 210.19204 211.34945 211.59086 211.83127 211.78067 211.49808 211.14349 210.78590
 210.41530 210.13771 209.95812 209.83453 209.77493 210.11834 210.51675 210.91816
 211.72356 212.91397 214.17638 215.97179 217.91219 219.96760 222.07501 224.17042
 226.24282 228.33923 230.44864 232.56705 234.70845 236.89286 239.16127 241.54368
 244.17709 246.44049 248.45490 250.23231 251.66172 252.79712 253.63153 253.95994
 254.00935 253.79575 253.16816 252.12857 250.74698 248.92038 246.84179 244.68720
 242.49061 240.30701 238.13942 235.99083 233.86324 231.74264 229.78105 227.95046
 226.24587 224.73027 223.37268 222.15709 221.05150 220.02391 219.14031 218.29372
 217.54813 216.74054 215.85094 215.22735 214.68976 214.24591 213.18962 212.13345
 211.50546 211.62492 213.09410 215.31464 218.18889 222.23000 227.55586 232.08749
 235.91542 240.21278 244.65926 248.92737 252.79825 256.16821 259.18692 262.09543
 264.93192 267.63232 270.06073 272.23212 274.32812 276.39297 278.35590 280.15018
 281.73288 283.10123 284.26837 285.19894 286.06665 286.86697 287.80685 288.68109
 289.51617 290.27502 290.93793 291.78275
 366.78100 356.34609 345.78918 334.66627 323.08036 311.28544 299.16653 286.98062
 274.70371 262.61180 250.63189 239.94398 230.07707 221.19216 213.38524 206.39833
 200.24342 195.19251 191.78560 189.83869 188.88678 188.96187 189.80796 191.12705
 192.86313 194.96922 197.24331 199.61340 202.06949 204.56058 206.65967 208.51276
 210.14985 211.30593 211.54602 211.78511 211.73320 211.44929 211.09338 210.73447
 210.36256 210.08365 209.90273 209.77782 209.71691 210.05900 210.45609 210.85618
 211.66027 212.84936 214.11045 215.90453 217.84362 219.89771 222.00380 224.09789
 226.16898 228.26407 230.37216 232.48925 234.62934 236.81242 239.07951 241.46060
 244.09269 246.35478 248.36787 250.14396 251.57205 252.70614 253.53922 253.86631
 253.91440 253.69949 253.07058 252.02967 250.64676 248.81885 246.73894 244.58302
 242.38511 240.20020 238.03129 235.88138 233.75247 231.63056 229.66765 227.83574
 226.12982 224.61291 223.25400 222.03709 220.93018 219.90127 219.01636 218.16845
 217.42154 216.61263 215.72171 215.09680 214.55789 214.18492 213.29063 212.11061
 211.53754 211.63705 213.05170 215.29865 218.20847 222.25008 227.56369 232.07256
 235.88130 240.18297 244.63257 248.89415 252.74542 256.11063 259.15054 262.08136
 264.91644 267.60236 270.01639 272.17386 274.26797 276.33075 278.28082 280.05823
 281.63110 282.99170 284.14224 285.14233 286.05853 286.86465 287.80667 288.69418
 289.54688 290.32632 291.00723 291.87500
 366.78100 356.34648 345.78996 334.66745 323.08193 311.28741 299.16889 286.98338
 274.70686 262.61534 250.63582 239.94831 230.08179 221.19727 213.39075 206.40423
 200.24972 195.19920 191.79268 189.84616 188.89465 188.97013 189.81661 191.13609
 192.87257 194.97906 197.25354 199.62402 202.08050 204.57199 206.67147 208.52495
 210.16243 211.31892 211.55940 211.79888 211.74736 211.46384 211.10833 210.74981
 210.37829 210.09977 209.91926 209.79474 209.73422 210.07670 210.47419 210.87467
 211.67915 212.86863 214.13011 215.92460 217.86408 219.91856 222.02504 224.11953
 226.19101 228.28649 230.39497 232.51246 234.65294 236.83642 239.10390 241.48538
 244.11787 246.38035 248.39383 250.17031 251.59880 252.73328 253.56676 253.89424
 253.94272 253.72821 253.09969 252.05917 250.67665 248.84914 246.76962 244.61410
 242.41658 240.23207 238.06355 235.91403 233.78551 231.66399 229.70148 227.86996
 226.16444 224.64792 223.28941 222.07289 220.96637 219.93785 219.05334 218.20582
 217.45930 216.65078 215.76026 215.13575 214.59723 214.20583 213.26991 212.21165
 211.57887 211.56979 213.03546 215.33000 218.21765 222.23318 227.52364 232.02245
 235.81635 240.12906 244.58459 248.84180 252.67731 256.04211 259.10840 262.06219
 264.89554 267.57584 269.98001 272.12238 274.21875 276.27722 278.20605 279.95682
 281.51187 282.85321 284.00848 285.08762 285.96417 286.82971 287.79184 288.69058
 289.56467 290.34631 291.02914 291.89932
 366.78100 356.34730 345.79161 334.66991 323.08522 311.29152 299.17383 286.98913
 274.71344 262.62274 250.64405 239.95735 230.09166 221.20796 213.40227 206.41657
 200.26288 195.21318 191.80749 189.86179 188.91109 188.98740 189.83470 191.15501
 192.89231 194.99962 197.27492 199.64623 202.10353 204.59584 206.69614 208.55045
 210.18875 211.34606 211.58736 211.82767 211.77697 211.49428 211.13958 210.78188
 210.41119 210.13349 209.95380 209.83010 209.77041 210.11371 210.51202 210.91332
 211.71863 212.90893 214.17124 215.96654 217.90685 219.96215 222.06946 224.16476
 226.23707 228.33337 230.44267 232.56098 234.70228 236.88659 239.15489 241.53720
 244.17050 246.43381 248.44811 250.22542 251.65472 252.79003 253.62433 253.95264
 254.00194 253.78825 253.16055 252.12086 250.73916 248.91246 246.83377 244.67907
 242.48238 240.29868 238.13099 235.98229 233.85460 231.73390 229.77221 227.94151
 226.23682 224.72112 223.36343 222.14773 221.04204 220.01434 219.13065 218.28395
 217.53825 216.73056 215.84086 215.21717 214.67947 214.25522 213.24298 212.30119
 211.53433 211.49580 213.08868 215.40076 218.25267 222.21547 227.44536 231.95482
 235.74004 240.06883 244.53044 248.78363 252.60793 255.98073 259.08789 262.06241
 264.88913 267.56464 269.95294 272.08609 274.19882 276.25937 278.17639 279.89365
 281.40012 282.68616 283.83640 284.92285 285.90219 286.84122 287.81595 288.76865
 289.62552 290.38855 291.05511 291.90457
 366.78100 356.34636 345.78972 334.66709 323.08145 311.28681 299.16817 286.98254
 274.70590 262.61426 250.63462 239.94699 230.08035 221.19571 213.38907 206.40244
 200.24780 195.19716 191.79052 189.84388 188.89225 188.96761 189.81397 191.13333
 192.86970 194.97606 197.25042 199.62078 202.07715 204.56851 206.66787 208.52123
 210.15860 211.31496 211.55532 211.79468 211.74304 211.45941 211.10377 210.74513
 210.37349 210.09486 209.91422 209.78958 209.72894 210.07131 210.46867 210.86903
 211.67339 212.86276 214.12412 215.91848 217.85784 219.91220 222.01857 224.11293
 226.18429 228.27965 230.38802 232.50538 234.64574 236.82910 239.09647 241.47783
 244.11019 246.37255 248.38592 250.16228 251.59064 252.72500 253.55836 253.88573
 253.93409 253.71945 253.09081 252.05018 250.66754 248.83990 246.76026 244.60463
 242.40699 240.22235 238.05371 235.90408 233.77544 231.65380 229.69116 227.85952
 226.15389 224.63725 223.27861 222.06197 220.95534 219.92670 219.04206 218.19442
 217.44779 216.63915 215.74851 215.12387 214.58524 214.22246 213.33681 212.33087
 211.46906 211.56815 213.18527 215.48410 218.33755 222.24989 227.39149 231.89018
 235.68427 240.01936 244.48296 248.73293 252.55267 255.93410 259.07697 262.07043
 264.88031 267.54141 269.91376 272.06802 274.19809 276.25656 278.15161 279.86157
 281.35187 282.63763 283.79327 284.88986 286.08188 287.18396 288.21320 289.14563
 289.98422 290.73102 291.38339 292.21478
 366.78100 356.34551 345.78803 334.66454 323.07805 311.28256 299.16308 286.97659
 274.69910 262.60661 250.62613 239.93764 230.07015 221.18467 213.37718 206.38969
 200.23420 195.18272 191.77523 189.82774 188.87525 188.94977 189.79528 191.11379
 192.84931 194.95482 197.22833 199.59784 202.05336 204.54387 206.64238 208.49490
 210.13141 211.28692 211.52643 211.76495 211.71246 211.42797 211.07148 210.71200
 210.33951 210.06002 209.87854 209.75305 209.69156 210.03307 210.42959 210.82910
 211.63261 212.82112 214.08164 215.87515 217.81366 219.86718 221.97269 224.06620
 226.13671 228.23123 230.33874 232.45525 234.59476 236.77728 239.04379 241.42430
 244.05582 246.31733 248.32984 250.10535 251.53287 252.66638 253.49889 253.82541
 253.87292 253.65743 253.02794 251.98646 250.60297 248.77448 246.69399 244.53751
 242.33902 240.15353 237.98405 235.83356 233.70407 231.58158 229.61810 227.78561
 226.07912 224.56163 223.20215 221.98466 220.87717 219.84769 218.96220 218.11371
 217.36622 216.55674 215.66525 215.03976 214.50027 214.19237 213.41447 212.38937
 211.51497 211.63786 213.22227 215.53572 218.40775 222.29953 227.39626 231.82805
 235.63737 239.98473 244.45692 248.69899 252.50172 255.88293 259.06320 262.09552
 264.91522 267.53891 269.90875 272.07028 274.16818 276.21832 278.08679 279.75659
 281.22934 282.52078 283.80737 285.20905 286.51300 287.67325 288.73181 289.69080
 290.55331 291.32138 291.99234 292.84741
 366.78100 356.34571 345.78841 334.66512 323.07882 311.28353 299.16423 286.97794
 274.70064 262.60835 250.62805 239.93976 230.07246 221.18717 213.37987 206.39258
 200.23729 195.18599 191.77870 189.83140 188.87911 188.95381 189.79952 191.11822
 192.85393 194.95963 197.23334 199.60304 202.05875 204.54945 206.64816 208.50086
 210.13757 211.29328 211.53298 211.77169 211.71939 211.43510 211.07880 210.71951
 210.34721 210.06792 209.88662 209.76133 209.70003 210.04174 210.43844 210.83815
 211.64185 212.83056 214.09127 215.88497 217.82368 219.87738 221.98309 224.07679
 226.14750 228.24220 230.34991 232.46661 234.60632 236.78902 239.05573 241.43643
 244.06814 246.32985 248.34255 250.11826 251.54596 252.67967 253.51237 253.83908
 253.88678 253.67149 253.04219 252.00090 250.61760 248.78931 246.70901 244.55272
 242.35442 240.16913 237.99984 235.84954 233.72025 231.59795 229.63466 227.80236
 226.09607 224.57877 223.21948 222.00218 220.89489 219.86559 218.98030 218.13200
 217.38471 216.57542 215.68412 215.05883 214.51953 214.23883 213.45712 212.34717
 211.66098 211.81752 213.31593 215.58873 218.39632 222.24452 227.39713 231.80856
 235.58891 239.90327 244.34630 248.55411 252.33168 255.74234 258.95300 261.99869
 264.84192 267.46521 269.84708 272.04852 274.17334 276.22488 278.16238 279.90552
 281.38782 283.03253 284.79556 286.34366 287.68338 288.86871 289.95013 290.92981
 291.81094 292.59561 293.28107 294.15460
 366.78100 356.34584 345.78869 334.66553 323.07937 311.28421 299.16506 286.97890
 274.70174 262.60958 250.62943 239.94127 230.07411 221.18895 213.38180 206.39464
 200.23948 195.18832 191.78117 189.83401 188.88185 188.95670 189.80254 191.12138
 192.85722 194.96307 197.23691 199.60675 202.06259 204.55344 206.65228 208.50512
 210.14196 211.29781 211.53765 211.77649 211.72434 211.44018 211.08402 210.72486
 210.35271 210.07355 209.89239 209.76723 209.70608 210.04792 210.44476 210.84460
 211.64845 212.83729 214.09813 215.89197 217.83082 219.88466 221.99050 224.08435
 226.15519 228.25003 230.35787 232.47472 234.61456 236.79740 239.06424 241.44509
 244.07693 246.33877 248.35161 250.12746 251.55530 252.68914 253.52198 253.84883
 253.89667 253.68151 253.05236 252.01120 250.62804 248.79988 246.71973 244.56357
 242.36541 240.18025 238.01110 235.86094 233.73178 231.60962 229.64647 227.81431
 226.10815 224.59100 223.23184 222.01468 220.90752 219.87837 218.99321 218.14505
 217.39789 216.58874 215.69758 215.07242 214.53326 214.30203 213.48106 212.21143
 211.62216 211.90849 213.38893 215.68771 218.52136 222.27223 227.27315 231.72878
 235.54527 239.86143 244.26874 248.41542 252.16641 255.62085 258.88528 261.96170
 264.82690 267.46432 269.90735 272.22540 274.42792 276.52591 278.40036 280.41901
 282.89209 285.01187 286.84622 288.45688 289.85080 291.08405 292.20920 293.22852
 294.14526 294.96164 295.67480 296.58365
 366.78100 356.34751 345.79201 334.67052 323.08602 311.29253 299.17503 286.99054
 274.71504 262.62455 250.64605 239.95956 230.09406 221.21057 213.40507 206.41958
 200.26608 195.21659 191.81109 189.86560 188.91510 188.99161 189.83912 191.15962
 192.89713 195.00463 197.28014 199.65164 202.10915 204.60165 206.70216 208.55666
 210.19517 211.35267 211.59418 211.83468 211.78419 211.50169 211.14720 210.78970
 210.41921 210.14171 209.96222 209.83873 209.77923 210.12274 210.52124 210.92275
 211.72825 212.91876 214.18126 215.97677 217.91727 219.97278 222.08028 224.17579
 226.24829 228.34480 230.45430 232.57281 234.71431 236.89882 239.16732 241.54983
 244.18334 246.44684 248.46135 250.23885 251.66836 252.80386 253.63837 253.96687
 254.01638 253.80288 253.17539 252.13589 250.75440 248.92790 246.84941 244.69491
 242.49842 240.31492 238.14743 235.99893 233.87144 231.75095 229.78945 227.95896
 226.25446 224.73897 223.38147 222.16598 221.06048 220.03299 219.14949 218.30300
 217.55750 216.75001 215.86051 215.23702 214.69952 214.37888 213.42137 212.14761
 211.64763 212.03629 213.34856 215.60103 218.46710 222.28735 227.31073 231.76692
 235.57785 239.90846 244.35240 248.53682 252.28212 255.69781 258.95523 262.02127
 264.83127 267.40054 269.77554 272.05664 274.32510 276.53058 278.67694 280.83896
 283.15317 285.28116 287.12256 288.73947 290.13876 291.37677 292.50626 293.52951
 294.44980 295.26932 295.98526 296.89761
 366.78100 356.34837 345.79373 334.67310 323.08946 311.29683 299.18019 286.99656
 274.72192 262.63229 250.65465 239.96902 230.10438 221.22175 213.41711 206.43248
 200.27984 195.23121 191.82657 189.88194 188.93230 189.00967 189.85803 191.17940
 192.91776 195.02613 197.30249 199.67486 202.13322 204.62659 206.72795 208.58332
 210.22268 211.38105 211.62341 211.86478 211.81514 211.53351 211.17987 210.82324
 210.45360 210.17697 209.99833 209.87570 209.81706 210.16143 210.56079 210.96316
 211.76952 212.96089 214.22425 216.02062 217.96198 220.01835 222.12671 224.22308
 226.29644 228.39381 230.50417 232.62354 234.76590 236.95127 239.22063 241.60400
 244.23836 246.50273 248.51809 250.29646 251.72682 252.86319 253.69856 254.02792
 254.07829 253.86565 253.23902 252.20038 250.81975 248.99411 246.91648 244.76284
 242.56721 240.38457 238.21794 236.07030 233.94367 231.82403 229.86340 228.03376
 226.33013 224.81549 223.45886 222.24422 221.13959 220.11295 219.23032 218.38468
 217.64005 216.83341 215.94478 215.32214 214.78551 214.38597 213.36606 212.18376
 211.75963 212.10341 213.30408 215.43457 218.39742 222.35649 227.22365 231.76750
 235.53136 239.85129 244.27986 248.44908 252.19318 255.64561 258.94431 262.06757
 264.93677 267.54437 269.89673 272.02042 274.02679 275.97510 277.80673 279.45081
 280.89069 282.12216 283.58148 285.10556 286.46625 287.67014 288.76849 289.76352
 290.65845 291.45535 292.15155 293.03876
 366.78100 356.34855 345.79410 334.67365 323.09020 311.29775 299.18130 286.99785
 274.72340 262.63395 250.65650 239.97105 230.10660 221.22415 213.41970 206.43525
 200.28280 195.23434 191.82989 189.88544 188.93599 189.01354 189.86209 191.18364
 192.92219 195.03074 197.30729 199.67984 202.13839 204.63194 206.73349 208.58904
 210.22859 211.38714 211.62969 211.87124 211.82179 211.54034 211.18689 210.83044
 210.46099 210.18454 210.00609 209.88364 209.82519 210.16974 210.56929 210.97184
 211.77839 212.96994 214.23349 216.03003 217.97158 220.02813 222.13668 224.23323
 226.30678 228.40433 230.51488 232.63443 234.77698 236.96253 239.23208 241.61563
 244.25018 246.51473 248.53028 250.30883 251.73938 252.87593 253.71148 254.04103
 254.09158 253.87913 253.25268 252.21423 250.83378 249.00833 246.93088 244.77743
 242.58198 240.39953 238.23308 236.08563 233.95918 231.83972 229.87927 228.04982
 226.34637 224.83192 223.47547 222.26102 221.15657 220.13012 219.24767 218.40222
 217.65777 216.85132 215.96287 215.34042 214.80397 214.38103 213.34256 212.28912
 211.88397 212.13293 213.24191 215.30710 218.29370 222.25616 227.12553 231.65495
 235.45497 239.75502 244.13571 248.23387 251.91093 255.35298 258.71130 261.92273
 264.88931 267.60712 270.04773 272.18039 274.08444 275.92813 277.70093 279.28244
 280.61722 281.82208 282.93152 284.09360 285.44385 286.69598 287.83841 288.87332
 289.80414 290.63303 291.35715 292.27991
 366.78100 356.34730 345.79159 334.66989 323.08519 311.29148 299.17378 286.98907
 274.71337 262.62267 250.64396 239.95726 230.09156 221.20785 213.40215 206.41645
 200.26274 195.21304 191.80733 189.86163 188.91093 188.98722 189.83452 191.15482
 192.89211 194.99941 197.27471 199.64600 202.10330 204.59559 206.69589 208.55019
 210.18848 211.34578 211.58708 211.82737 211.77667 211.49396 211.13926 210.78156
 210.41085 210.13315 209.95345 209.82974 209.77004 210.11334 210.51163 210.91293
 211.71822 212.90852 214.17082 215.96611 217.90641 219.96171 222.06900 224.16430
 226.23660 228.33289 230.44219 232.56048 234.70178 236.88608 239.15437 241.53667
 244.16997 246.43326 248.44756 250.22486 251.65415 252.78945 253.62374 253.95204
 254.00134 253.78763 253.15993 252.12023 250.73852 248.91182 246.83312 244.67841
 242.48171 240.29800 238.13030 235.98160 233.85389 231.73319 229.77149 227.94078
 226.23608 224.72037 223.36267 222.14697 221.04126 220.01356 219.12986 218.28315
 217.53745 216.72975 215.84004 215.21634 214.67863 214.32442 213.41637 212.24382
 211.93282 212.15562 213.26709 215.33253 218.27751 222.23460 227.11407 231.63934
 235.43542 239.74313 244.12596 248.20938 251.83907 255.23836 258.58194 261.79761
 264.80054 267.59842 270.13431 272.33530 274.27859 276.14407 277.88007 279.35324
 280.54984 281.68259 282.87640 284.26859 285.66095 286.91373 288.05667 289.09213
 290.02341 290.85269 291.57715 292.50040
 366.78100 356.34499 345.78698 334.66297 323.07595 311.27994 299.15993 286.97292
 274.69491 262.60190 250.62088 239.93187 230.06386 221.17785 213.36984 206.38183
 200.22582 195.17380 191.76579 189.81778 188.86477 188.93876 189.78375 191.10173
 192.83672 194.94171 197.21470 199.58369 202.03868 204.52867 206.62665 208.47864
 210.11463 211.26962 211.50861 211.74660 211.69358 211.40857 211.05156 210.69155
 210.31854 210.03853 209.85652 209.73050 209.66849 210.00948 210.40547 210.80446
 211.60745 212.79543 214.05542 215.84841 217.78640 219.83939 221.94438 224.03737
 226.10735 228.20134 230.30833 232.42432 234.56331 236.74530 239.01128 241.39127
 244.02226 246.28325 248.29524 250.07023 251.49721 252.63020 253.46219 253.78818
 253.83517 253.61916 252.98915 251.94713 250.56312 248.73411 246.65310 244.49609
 242.29708 240.11106 237.94105 235.79004 233.66003 231.53702 229.57301 227.74000
 226.03298 224.51497 223.15496 221.93695 220.82894 219.79893 218.91291 218.06390
 217.31589 216.50588 215.61387 214.98786 214.44785 214.18938 213.52675 212.35135
 211.71942 211.86021 213.13744 215.26222 218.19818 222.18465 227.17665 231.65747
 235.50064 239.81299 244.21553 248.31955 251.97206 255.36150 258.63489 261.75098
 264.67657 267.42459 270.01398 272.30621 274.36029 276.22174 277.91034 279.34433
 280.55640 281.69354 283.02863 284.36288 285.57285 286.71255 287.83548 288.85275
 289.76770 290.58243 291.29419 292.20123
 366.78100 356.34582 345.78864 334.66545 323.07927 311.28409 299.16491 286.97873
 274.70154 262.60936 250.62918 239.94100 230.07382 221.18863 213.38145 206.39427
 200.23909 195.18791 191.78073 189.83354 188.88136 188.95618 189.80200 191.12082
 192.85663 194.96245 197.23627 199.60609 202.06191 204.55272 206.65154 208.50436
 210.14118 211.29700 211.53681 211.77563 211.72345 211.43927 211.08309 210.72390
 210.35172 210.07254 209.89136 209.76618 209.70500 210.04681 210.44363 210.84345
 211.64727 212.83609 214.09690 215.89072 217.82954 219.88336 221.98918 224.08299
 226.15381 228.24863 230.35645 232.47327 234.61308 236.79590 239.06272 241.44354
 244.07536 246.33717 248.34999 250.12581 251.55363 252.68745 253.52027 253.84708
 253.89490 253.67972 253.05054 252.00936 250.62617 248.79799 246.71781 244.56163
 242.36345 240.17826 238.00908 235.85890 233.72972 231.60754 229.64435 227.81217
 226.10599 224.58881 223.22963 222.01244 220.90526 219.87608 218.99090 218.14272
 217.39554 216.58635 215.69517 215.06999 214.53081 214.19325 213.39526 212.65112
 211.99835 211.71890 212.88504 215.09544 218.00743 222.02731 227.22868 231.55052
 235.48717 239.79353 244.22589 248.38071 252.09924 255.49921 258.73080 261.75729
 264.61078 267.25327 269.71643 272.04782 274.14563 276.05032 277.77545 279.29825
 280.61316 281.79660 282.93881 284.10168 285.20218 286.11288 287.01855 287.85849
 288.62479 289.33893 289.97397 290.78320
 366.78100 356.34667 345.79033 334.66800 323.08267 311.28833 299.17000 286.98466
 274.70833 262.61700 250.63766 239.95033 230.08400 221.19966 213.39333 206.40699
 200.25266 195.20233 191.79599 189.84966 188.89833 188.97399 189.82066 191.14033
 192.87699 194.98366 197.25832 199.62899 202.08566 204.57732 206.67699 208.53066
 210.16832 211.32499 211.56565 211.80532 211.75399 211.47065 211.11532 210.75699
 210.38565 210.10732 209.92699 209.80265 209.74232 210.08498 210.48265 210.88332
 211.68798 212.87765 214.13932 215.93398 217.87365 219.92831 222.03498 224.12965
 226.20131 228.29698 230.40565 232.52331 234.66398 236.84764 239.11531 241.49698
 244.12964 246.39231 248.40598 250.18264 251.61131 252.74598 253.57964 253.90731
 253.95597 253.74164 253.11331 252.07297 250.69064 248.86331 246.78397 244.62864
 242.43130 240.24697 238.07864 235.92930 233.80097 231.67964 229.71730 227.88597
 226.18064 224.66430 223.30597 222.08963 220.98330 219.95497 219.07063 218.22330
 217.47697 216.66863 215.77830 215.15396 214.61563 214.23045 213.32045 212.67567
 212.24298 211.88516 212.78456 214.96709 217.90565 221.93750 227.20116 231.43661
 235.43451 239.74089 244.17664 248.31296 252.02429 255.49132 258.81787 261.88980
 264.63141 267.20578 269.62003 271.88431 273.97540 275.89822 277.64832 279.17432
 280.48398 281.64651 282.74976 283.87692 284.99384 285.85217 286.60275 287.34073
 288.10068 288.79306 289.40939 290.24823
 366.78100 356.34498 345.78695 334.66293 323.07591 311.27989 299.15986 286.97284
 274.69482 262.60179 250.62077 239.93175 230.06373 221.17770 213.36968 206.38166
 200.22563 195.17361 191.76559 189.81757 188.86454 188.93852 189.78350 191.10147
 192.83645 194.94143 197.21441 199.58338 202.03836 204.52834 206.62631 208.47829
 210.11427 211.26925 211.50822 211.74620 211.69318 211.40816 211.05113 210.69111
 210.31809 210.03806 209.85604 209.73002 209.66800 210.00897 210.40495 210.80393
 211.60690 212.79488 214.05486 215.84784 217.78581 219.83879 221.94377 224.03674
 226.10672 228.20070 230.30768 232.42365 234.56263 236.74461 239.01058 241.39056
 244.02154 246.28252 248.29449 250.06947 251.49645 252.62942 253.46140 253.78738
 253.83436 253.61833 252.98831 251.94629 250.56226 248.73324 246.65222 244.49520
 242.29617 240.11015 237.94013 235.78910 233.65908 231.53606 229.57204 227.73901
 226.03199 224.51397 223.15394 221.93592 220.82790 219.79788 218.91185 218.06283
 217.31481 216.50478 215.61276 214.98674 214.44672 214.14627 213.43642 212.65437
 212.20743 211.91989 212.74921 214.94044 217.93941 221.95232 227.19434 231.46497
 235.40755 239.72885 244.14473 248.24567 251.91695 255.41753 258.83746 261.97223
 264.74466 267.30240 269.67474 271.85901 273.91965 275.84299 277.57742 279.05051
 280.33374 281.49268 282.58441 283.70840 284.83984 285.66345 286.36792 287.04361
 287.81152 288.50610 289.13062 289.98032
 366.78100 356.34350 345.78400 334.65849 323.06999 311.27249 299.15099 286.96248
 274.68298 262.58848 250.60598 239.91547 230.04597 221.15847 213.34897 206.35946
 200.20196 195.14846 191.73896 189.78945 188.83495 188.90745 189.75095 191.06744
 192.80094 194.90444 197.17594 199.54343 201.99693 204.48543 206.58193 208.43242
 210.06692 211.22042 211.45792 211.69441 211.63991 211.35341 210.99491 210.63340
 210.25890 209.97740 209.79390 209.66639 209.60289 209.94239 210.33689 210.73438
 211.53588 212.72238 213.98088 215.77237 217.70887 219.76037 221.86387 223.95536
 226.02386 228.11636 230.22186 232.33635 234.47385 236.65435 238.91885 241.29734
 243.92684 246.18634 248.19684 249.97033 251.39583 252.52733 253.35783 253.68232
 253.72782 253.51032 252.87882 251.83531 250.44981 248.61931 246.53681 244.37830
 242.17780 239.99030 237.81880 235.66629 233.53479 231.41029 229.44479 227.61028
 225.90178 224.38228 223.02078 221.80127 220.69177 219.66027 218.77277 217.92226
 217.17276 216.36126 215.46776 214.84025 214.29875 214.06808 213.52310 212.73627
 212.19012 211.90855 212.70648 214.90361 217.94199 221.95325 227.16647 231.44380
 235.40532 239.70271 244.08838 248.15024 251.79462 255.32388 258.73175 262.00934
 264.89111 267.44547 269.75140 271.86752 273.87570 275.77176 277.43640 278.86371
 280.14682 281.30698 282.40851 283.53427 284.63321 285.42334 286.12439 286.83170
 287.59656 288.28699 288.90164 289.72424
 366.78100 356.34288 345.78276 334.65663 323.06751 311.26939 299.14727 286.95814
 274.67802 262.58290 250.59978 239.90865 230.03853 221.15041 213.34029 206.35017
 200.19204 195.13792 191.72780 189.77768 188.82255 188.89443 189.73731 191.05319
 192.78606 194.88894 197.15982 199.52670 201.97958 204.46745 206.56333 208.41321
 210.04709 211.19996 211.43684 211.67272 211.61760 211.33048 210.97135 210.60923
 210.23411 209.95199 209.76786 209.63974 209.57562 209.91450 210.30837 210.70525
 211.50613 212.69201 213.94989 215.74076 217.67664 219.72752 221.83040 223.92127
 225.98915 228.08103 230.18591 232.29978 234.43666 236.61654 238.88042 241.25830
 243.88717 246.14605 248.15593 249.92881 251.35368 252.48456 253.31444 253.63832
 253.68319 253.46507 252.83295 251.78883 250.40271 248.57158 246.48846 244.32934
 242.12822 239.94009 237.76797 235.61485 233.48273 231.35761 229.39148 227.55636
 225.84724 224.32712 222.96499 221.74487 220.63475 219.60263 218.71450 217.86338
 217.11326 216.30114 215.40702 214.77889 214.23677 214.04787 213.60159 212.67793
 212.27098 211.99362 212.64981 214.83421 217.94247 221.97542 227.13206 231.52242
 235.34212 239.66183 244.01431 248.04082 251.64908 255.14847 258.57123 261.86124
 264.88586 267.54507 269.85370 271.93967 273.88626 275.68048 277.25421 278.64642
 279.94223 281.13858 282.25412 283.33765 284.35617 285.09430 285.74731 286.54578
 287.32098 288.03366 288.66806 289.47653
 366.78100 356.34388 345.78476 334.65965 323.07153 311.27441 299.15329 286.96518
 274.68606 262.59194 250.60982 239.91971 230.05059 221.16347 213.35435 206.36524
 200.20812 195.15500 191.74588 189.79676 188.84265 188.91553 189.75941 191.07629
 192.81018 194.91406 197.18594 199.55382 202.00771 204.49659 206.59347 208.44435
 210.07924 211.23312 211.47100 211.70788 211.65376 211.36765 211.00953 210.64841
 210.27429 209.99318 209.81006 209.68294 209.61982 209.95971 210.35459 210.75247
 211.55435 212.74123 214.00012 215.79200 217.72888 219.78076 221.88465 223.97653
 226.04541 228.13829 230.24418 232.35906 234.49694 236.67782 238.94271 241.32159
 243.95147 246.21135 248.22223 249.99612 251.42200 252.55388 253.38476 253.70965
 253.75553 253.53841 252.90729 251.86418 250.47906 248.64894 246.56682 244.40871
 242.20859 240.02147 237.85035 235.69823 233.56712 231.44300 229.47788 227.64376
 225.93565 224.41653 223.05541 221.83629 220.72718 219.69606 218.80894 217.95882
 217.20971 216.39859 215.50547 214.87835 214.33723 214.12848 213.59991 212.67902
 212.16557 211.77238 212.69341 214.94498 218.09218 222.11223 227.19330 231.67494
 235.42235 239.69009 243.99677 247.98276 251.61942 255.12186 258.53406 261.77136
 264.74182 267.36368 269.69180 271.85852 273.86417 275.60593 277.13263 278.48105
 279.68198 280.81213 281.91479 282.86938 283.71970 284.75156 285.82840 286.80392
 287.68130 288.46262 289.14514 290.01495
 366.78100 356.34492 345.78683 334.66275 323.07567 311.27958 299.15950 286.97241
 274.69433 262.60125 250.62016 239.93108 230.06300 221.17691 213.36883 206.38074
 200.22466 195.17258 191.76449 189.81641 188.86333 188.93724 189.78216 191.10007
 192.83499 194.93991 197.21282 199.58174 202.03666 204.52657 206.62449 208.47640
 210.11232 211.26724 211.50615 211.74407 211.69099 211.40590 211.04882 210.68873
 210.31565 210.03557 209.85348 209.72740 209.66532 210.00623 210.40215 210.80107
 211.60398 212.79190 214.05181 215.84473 217.78265 219.83556 221.94048 224.03340
 226.10331 228.19723 230.30414 232.42006 234.55898 236.74089 239.00681 241.38673
 244.01764 246.27856 248.29047 250.06539 251.49231 252.62522 253.45714 253.78306
 253.82997 253.61389 252.98380 251.94172 250.55764 248.72855 246.64747 244.49039
 242.29130 240.10522 237.93514 235.78405 233.65397 231.53088 229.56680 227.73372
 226.02663 224.50855 223.14847 221.93038 220.82230 219.79221 218.90613 218.05705
 217.30896 216.49888 215.60680 214.98071 214.44063 214.20644 213.59763 212.74669
 212.17958 211.94345 212.84439 214.94580 218.08846 222.12589 227.26500 231.67433
 235.47787 239.76057 244.08809 248.08473 251.71278 255.24178 258.66071 261.86417
 264.78668 267.36469 269.66705 271.75577 273.59229 275.17120 276.62640 278.32071
 279.79608 280.91797 281.90805 282.78122 283.76239 284.63049 285.42249 286.13998
 286.78531 287.35995 287.86194 288.50171
 366.78100 356.34348 345.78395 334.65843 323.06991 311.27239 299.15086 286.96234
 274.68282 262.58830 250.60577 239.91525 230.04573 221.15821 213.34868 206.35916
 200.20164 195.14812 191.73859 189.78907 188.83455 188.90702 189.75050 191.06698
 192.80046 194.90393 197.17541 199.54289 201.99637 204.48484 206.58132 208.43180
 210.06628 211.21975 211.45723 211.69371 211.63919 211.35266 210.99414 210.63262
 210.25810 209.97657 209.79305 209.66553 209.60200 209.94148 210.33596 210.73344
 211.53491 212.72139 213.97987 215.77135 217.70782 219.75930 221.86278 223.95426
 226.02273 228.11521 230.22069 232.33517 234.47264 236.65312 238.91760 241.29607
 243.92555 246.18503 248.19551 249.96898 251.39446 252.52594 253.35642 253.68089
 253.72637 253.50885 252.87733 251.83380 250.44828 248.61776 246.53524 244.37671
 242.17619 239.98867 237.81714 235.66462 233.53310 231.40858 229.44305 227.60853
 225.90001 224.38049 223.01896 221.79944 220.68992 219.65840 218.77087 217.92035
 217.17083 216.35931 215.46578 214.83826 214.29674 214.13889 213.69411 212.78610
 212.22311 212.03799 212.75043 214.75432 217.92094 222.05655 227.15492 231.66611
 235.48441 239.76512 244.06563 248.05025 251.68927 255.23961 258.69690 261.91956
 264.86353 267.49164 269.82199 271.86691 273.62991 275.12869 276.62473 278.44046
 279.82278 280.95551 281.84949 282.66586 283.89639 284.98508 285.97836 286.87820
 287.68750 288.40820 289.03778 289.84012
 366.78100 356.34198 345.78095 334.65393 323.06390 311.26488 299.14186 286.95183
 274.67081 262.57478 250.59076 239.89874 230.02771 221.13869 213.32766 206.33664
 200.17762 195.12259 191.71157 189.76055 188.80452 188.87550 189.71747 191.03245
 192.76443 194.86640 197.13638 199.50235 201.95433 204.44131 206.53628 208.38526
 210.01823 211.17021 211.40619 211.64116 211.58514 211.29711 210.93709 210.57407
 210.19804 209.91502 209.72999 209.60097 209.53595 209.87392 210.26690 210.66288
 211.46285 212.64783 213.90480 215.69478 217.62976 219.67973 221.78171 223.87168
 225.93866 228.02964 230.13361 232.24659 234.38256 236.56154 238.82452 241.20149
 243.82947 246.08744 248.09642 249.86840 251.29237 252.42235 253.25132 253.57430
 253.61828 253.39925 252.76623 251.72120 250.33418 248.50216 246.41813 244.25811
 242.05609 239.86706 237.69404 235.54001 233.40699 231.28097 229.31394 227.47792
 225.76789 224.24687 222.88385 221.66282 220.55180 219.51877 218.62975 217.77773
 217.02670 216.21368 215.31865 214.68963 214.14661 214.04231 213.75883 212.94345
 212.21317 211.76863 212.50293 214.58150 217.78380 221.96945 227.13834 231.68216
 235.52142 239.76819 244.03635 248.01031 251.65115 255.15855 258.57391 261.76495
 264.70694 267.41016 269.82764 271.93228 273.71179 275.21875 276.65106 278.33051
 279.75171 280.81799 281.82687 282.81143 283.76526 284.59543 285.53934 286.39444
 287.16351 287.84836 288.44666 289.20908
 366.78100 356.34188 345.78076 334.65364 323.06351 311.26439 299.14127 286.95115
 274.67003 262.57391 250.58979 239.89766 230.02654 221.13742 213.32630 206.33518
 200.17606 195.12094 191.70981 189.75869 188.80257 188.87345 189.71533 191.03021
 192.76209 194.86396 197.13384 199.49972 201.95160 204.43848 206.53336 208.38224
 210.01511 211.16699 211.40287 211.63775 211.58163 211.29351 210.93339 210.57026
 210.19414 209.91102 209.72590 209.59678 209.53166 209.86954 210.26241 210.65829
 211.45817 212.64305 213.89993 215.68981 217.62469 219.67456 221.77644 223.86632
 225.93320 228.02408 230.12796 232.24084 234.37671 236.55559 238.81847 241.19535
 243.82323 246.08111 248.08999 249.86186 251.28574 252.41562 253.24450 253.56738
 253.61126 253.39213 252.75901 251.71389 250.32677 248.49465 246.41053 244.25041
 242.04828 239.85916 237.68604 235.53192 233.39880 231.27268 229.30556 227.46943
 225.75931 224.23819 222.87507 221.65395 220.54283 219.50971 218.62058 217.76846
 217.01734 216.20422 215.30910 214.67998 214.13686 214.02713 213.74963 213.05405
 212.49409 211.77533 212.28711 214.31123 217.53548 221.78615 227.08063 231.64314
 235.55045 239.82294 244.14612 248.17853 251.83705 255.29202 258.63834 261.75601
 264.61404 267.27274 269.69534 271.83969 273.62439 275.10397 276.51852 278.34665
 279.68112 280.75885 281.75684 282.76303 283.67334 284.48862 285.26447 286.08182
 286.83090 287.49796 288.08069 288.82330
 366.78100 356.33975 345.77651 334.64726 323.05501 311.25376 299.12852 286.93627
 274.65302 262.55477 250.56853 239.87428 230.00103 221.10978 213.29654 206.30329
 200.14204 195.08479 191.67155 189.71830 188.76005 188.82880 189.66856 190.98131
 192.71106 194.81081 197.07857 199.44232 201.89207 204.37682 206.46958 208.31633
 209.94708 211.09683 211.33059 211.56334 211.50509 211.21484 210.85260 210.48735
 210.10910 209.82385 209.63661 209.50536 209.43811 209.77386 210.16462 210.55837
 211.35612 212.53888 213.79363 215.58138 217.51413 219.56189 221.66164 223.74939
 225.81414 227.90290 230.00465 232.11540 234.24915 236.42591 238.68666 241.06141
 243.68716 245.94292 247.94967 249.71942 251.14117 252.26893 253.09568 253.41643
 253.45818 253.23694 252.60169 251.55444 250.16519 248.33095 246.24470 244.08245
 241.87820 239.68696 237.51171 235.35546 233.22021 231.09197 229.12272 227.28447
 225.57222 224.04898 222.68373 221.46048 220.34723 219.31199 218.42074 217.56649
 216.81325 215.99800 215.10075 214.46950 213.92426 213.92586 213.89931 213.01044
 212.46565 212.15335 212.51094 214.19196 217.27440 221.49432 226.80321 231.41373
 235.40311 239.74121 244.11714 248.20978 251.94301 255.47023 258.86002 261.98804
 264.82877 267.44876 269.84140 271.96289 273.70721 275.10281 276.44525 278.36624
 279.66830 280.73987 281.73590 282.77841 283.71167 284.49249 285.25726 286.05563
 286.78922 287.44250 288.01318 288.74045
 366.78100 356.33806 345.77312 334.64217 323.04823 311.24529 299.11835 286.92441
 274.63946 262.53952 250.55158 239.85564 229.98069 221.08775 213.27281 206.27787
 200.11493 195.05598 191.64104 189.68610 188.72616 188.79322 189.63127 190.94233
 192.67039 194.76845 197.03451 199.39656 201.84462 204.32768 206.41874 208.26380
 209.89285 211.04091 211.27297 211.50403 211.44408 211.15214 210.78820 210.42126
 210.04132 209.75437 209.56543 209.43249 209.36355 209.69761 210.08666 210.47872
 211.27478 212.45584 213.70890 215.49495 217.42601 219.47207 221.57013 223.65619
 225.71924 227.80630 229.90636 232.01542 234.14747 236.32253 238.58159 240.95465
 243.57871 245.83276 247.83782 249.60588 251.02594 252.15200 252.97705 253.29611
 253.33617 253.11323 252.47629 251.42734 250.03640 248.20046 246.11252 243.94858
 241.74263 239.54969 237.37275 235.21481 233.07786 230.94792 228.97698 227.13704
 225.42310 223.89815 222.53121 221.30627 220.19133 219.15439 218.26144 217.40550
 216.65056 215.83362 214.93468 214.30173 213.75479 213.84099 214.01590 213.13222
 212.21516 212.31631 212.84180 214.38631 217.34895 221.41115 226.60385 231.14113
 235.16193 239.45074 243.79066 247.89038 251.72906 255.41617 258.95129 262.19193
 265.10507 267.72839 270.08591 272.18536 273.89871 275.25290 276.35349 278.23245
 279.57971 280.84549 281.96268 282.98132 283.99838 284.73599 285.45187 286.24374
 286.99170 287.65775 288.23959 288.98108
 366.78100 356.33968 345.77635 334.64703 323.05471 311.25339 299.12806 286.93574
 274.65242 262.55410 250.56777 239.87345 230.00013 221.10881 213.29548 206.30216
 200.14084 195.08352 191.67019 189.71687 188.75855 188.82723 189.66690 190.97958
 192.70926 194.80894 197.07661 199.44029 201.88997 204.37465 206.46732 208.31400
 209.94468 211.09436 211.32803 211.56071 211.50239 211.21207 210.84974 210.48442
 210.10610 209.82078 209.63345 209.50213 209.43481 209.77049 210.16116 210.55484
 211.35252 212.53520 213.78987 215.57755 217.51023 219.55791 221.65758 223.74526
 225.80994 227.89862 230.00029 232.11097 234.24465 236.42133 238.68200 241.05668
 243.68236 245.93804 247.94471 249.71439 251.13607 252.26375 253.09042 253.41110
 253.45278 253.23146 252.59613 251.54881 250.15949 248.32517 246.23884 244.07652
 241.87220 239.68088 237.50555 235.34923 233.21391 231.08559 229.11626 227.27794
 225.56562 224.04230 222.67697 221.45365 220.34033 219.30501 218.41368 217.55936
 216.80604 215.99072 215.09339 214.46207 213.91675 213.93430 213.93976 213.28426
 212.18529 211.97044 212.71274 214.58598 217.65837 221.68076 226.74164 231.27803
 235.12955 239.37291 243.61426 247.62593 251.42838 255.17149 258.79053 262.13257
 265.15115 267.83957 270.19388 272.27191 273.89645 275.14780 276.46130 278.09735
 279.57394 280.88538 282.11450 283.34439 284.34915 285.28635 286.29962 287.21759
 288.04318 288.77838 289.42065 290.23914
 366.78100 356.34130 345.77960 334.65189 323.06119 311.26149 299.13779 286.94709
 274.66539 262.56868 250.58398 239.89128 230.01958 221.12988 213.31818 206.32647
 200.16677 195.11107 191.69937 189.74767 188.79097 188.86126 189.70256 191.01686
 192.74816 194.84946 197.11875 199.48405 201.93535 204.42165 206.51595 208.36425
 209.99654 211.14784 211.38314 211.61744 211.56074 211.27204 210.91133 210.54763
 210.17093 209.88723 209.70153 209.57183 209.50612 209.84342 210.23572 210.63102
 211.43032 212.61462 213.87091 215.66021 217.59451 219.64381 221.74511 223.83440
 225.90070 227.99100 230.09430 232.20660 234.34190 236.52019 238.78249 241.15879
 243.78609 246.04339 248.05169 249.82298 251.24628 252.37558 253.20388 253.52618
 253.56948 253.34977 252.71607 251.67037 250.28267 248.44997 246.36526 244.20456
 242.00186 239.81216 237.63846 235.48376 233.35005 231.22335 229.25565 227.41895
 225.70825 224.18655 222.82284 221.60114 220.48944 219.45574 218.56604 217.71334
 216.96163 216.14793 215.25223 214.62253 214.07883 214.03615 213.89301 213.29866
 212.38004 211.91422 212.54874 214.57199 217.77658 221.85390 226.95381 231.45587
 235.26895 239.49129 243.70058 247.66013 251.38208 255.08295 258.70636 262.07693
 265.14218 267.87589 270.26892 272.29288 273.77982 274.85687 276.40973 278.16757
 279.60840 280.98520 282.44235 283.76184 284.96918 286.04797 287.03220 287.92386
 288.72580 289.43991 290.06378 290.85880
 366.78100 356.33995 345.77689 334.64784 323.05579 311.25473 299.12968 286.93763
 274.65457 262.55652 250.57046 239.87641 230.00336 221.11230 213.29925 206.30620
 200.14514 195.08809 191.67504 189.72198 188.76393 188.83288 189.67282 190.98577
 192.71572 194.81566 197.08361 199.44756 201.89750 204.38245 206.47539 208.32234
 209.95329 211.10323 211.33718 211.57013 211.51207 211.22202 210.85997 210.49491
 210.11686 209.83181 209.64475 209.51370 209.44665 209.78259 210.17354 210.56749
 211.36543 212.54838 213.80332 215.59127 217.52422 219.57216 221.67211 223.76006
 225.82500 227.91395 230.01590 232.12684 234.26079 236.43774 238.69868 241.07363
 243.69958 245.95552 247.96247 249.73242 251.15436 252.28231 253.10925 253.43020
 253.47215 253.25109 252.61604 251.56899 250.17993 248.34588 246.25983 244.09777
 241.89372 239.70267 237.52761 235.37156 233.23651 231.10845 229.13940 227.30134
 225.58929 224.06624 222.70118 221.47813 220.36508 219.33002 218.43897 217.58492
 216.83186 216.01681 215.11976 214.48870 213.94365 213.97128 213.98573 213.35986
 212.46405 211.91075 212.38358 214.30550 217.55244 221.74655 226.93207 231.53381
 235.36896 239.59421 243.79787 247.72891 251.39941 255.03499 258.61191 262.00067
 265.14536 267.97888 270.41501 272.40997 273.84283 274.91583 276.36505 278.00269
 279.62140 281.13354 282.61426 283.97296 285.15414 286.19040 287.13580 287.99228
 288.76257 289.44852 290.04776 290.81143
 366.78100 356.34028 345.77756 334.64884 323.05712 311.25640 299.13168 286.93996
 274.65725 262.55953 250.57381 239.88009 230.00737 221.11665 213.30393 206.31121
 200.15049 195.09377 191.68105 189.72833 188.77061 188.83989 189.68017 190.99346
 192.72374 194.82402 197.09230 199.45658 201.90686 204.39214 206.48542 208.33270
 209.96398 211.11426 211.34854 211.58182 211.52410 211.23438 210.87267 210.50795
 210.13023 209.84551 209.65879 209.52807 209.46135 209.79763 210.18891 210.58319
 211.38147 212.56475 213.82003 215.60831 217.54159 219.58988 221.69016 223.77844
 225.84372 227.93300 230.03528 232.14656 234.28084 236.45812 238.71940 241.09468
 243.72096 245.97724 247.98452 249.75480 251.17708 252.30537 253.13265 253.45393
 253.49621 253.27549 252.64077 251.59405 250.20533 248.37161 246.28589 244.12417
 241.92045 239.72973 237.55501 235.39929 233.26458 231.13686 229.16814 227.33042
 225.61870 224.09598 222.73126 221.50854 220.39582 219.36110 218.47038 217.61666
 216.86394 216.04922 215.15250 214.52179 213.97707 213.98631 213.97659 213.53073
 212.65201 211.82399 212.28185 214.19066 217.35927 221.57446 226.82281 231.46945
 235.36465 239.65231 243.90959 247.85092 251.44217 254.94533 258.42624 261.75351
 264.89487 267.81171 270.37439 272.45148 273.87073 274.84030 276.11230 277.93738
 279.72815 281.29498 282.70319 284.05878 285.26324 286.34808 287.33780 288.23444
 289.04086 289.75897 290.38629 291.18576
 366.78100 356.34306 345.78312 334.65718 323.06823 311.27029 299.14835 286.95941
 274.67947 262.58453 250.60158 239.91064 230.04070 221.15276 213.34282 206.35288
 200.19493 195.14099 191.73105 189.78111 188.82617 188.89823 189.74128 191.05734
 192.79040 194.89346 197.16452 199.53158 201.98463 204.47269 206.56875 208.41881
 210.05287 211.20593 211.44298 211.67904 211.62410 211.33716 210.97822 210.61628
 210.24133 209.95939 209.77545 209.64751 209.58357 209.92263 210.31669 210.71374
 211.51480 212.70086 213.95892 215.74998 217.68604 219.73709 221.84015 223.93121
 225.99927 228.09133 230.19639 232.31044 234.44750 236.62756 238.89162 241.26968
 243.89874 246.15779 248.16785 249.94091 251.36597 252.49703 253.32709 253.65114
 253.69620 253.47826 252.84632 251.80238 250.41644 248.58549 246.50255 244.34361
 242.14267 239.95473 237.78279 235.62984 233.49790 231.37296 229.40702 227.57208
 225.86314 224.34319 222.98125 221.76131 220.65137 219.61943 218.73149 217.88055
 217.13060 216.31866 215.42472 214.79678 214.25484 214.15877 213.90472 213.54372
 212.84157 211.97427 212.31509 214.19650 217.31651 221.49031 226.74098 231.40242
 235.31630 239.61664 243.89143 247.88124 251.57146 255.12772 258.58032 261.85938
 264.93832 267.77362 270.27179 272.25558 273.62939 274.70636 276.08133 277.89835
 279.87198 281.71365 283.53906 285.15591 286.55515 287.79312 288.92258 289.94580
 290.86609 291.68558 292.40149 293.31381
 366.78100 356.34336 345.78371 334.65807 323.06943 311.27178 299.15014 286.96150
 274.68185 262.58721 250.60457 239.91393 230.04428 221.15664 213.34700 206.35735
 200.19971 195.14607 191.73642 189.78678 188.83214 188.90449 189.74785 191.06421
 192.79756 194.90092 197.17228 199.53963 201.99299 204.48135 206.57770 208.42806
 210.06242 211.21578 211.45313 211.68949 211.63485 211.34820 210.98956 210.62792
 210.25327 209.97163 209.78799 209.66034 209.59670 209.93606 210.33041 210.72777
 211.52913 212.71548 213.97384 215.76520 217.70156 219.75291 221.85627 223.94763
 226.01598 228.10834 230.21370 232.32805 234.46541 236.64577 238.91012 241.28848
 243.91784 246.17719 248.18755 249.96091 251.38626 252.51762 253.34798 253.67234
 253.71769 253.50005 252.86841 251.82476 250.43912 248.60848 246.52583 244.36719
 242.16655 239.97890 237.80726 235.65462 233.52297 231.39833 229.43269 227.59804
 225.88940 224.36976 223.00811 221.78847 220.67883 219.64719 218.75954 217.90890
 217.15926 216.34761 215.45397 214.82633 214.28468 214.21680 213.94733 213.43524
 212.91811 212.18718 212.31601 214.15199 217.22586 221.30693 226.56520 231.23306
 235.19002 239.52567 243.80859 247.79799 251.53261 255.21596 258.80179 262.18954
 265.35181 268.26169 270.85281 272.99640 274.45221 275.36115 276.24319 278.31577
 280.81073 283.22272 285.30991 287.14261 288.72864 290.13190 291.41211 292.57193
 293.61505 294.54398 295.35544 296.38956
 366.78100 356.34235 345.78170 334.65506 323.06541 311.26676 299.14411 286.95446
 274.67382 262.57817 250.59452 239.90287 230.03222 221.14357 213.33293 206.34228
 200.18363 195.12898 191.71833 189.76769 188.81204 188.88339 189.72574 191.04109
 192.77345 194.87580 197.14615 199.51250 201.96485 204.45220 206.54756 208.39691
 210.03026 211.18261 211.41896 211.65432 211.59867 211.31102 210.95137 210.58872
 210.21308 209.93043 209.74578 209.61713 209.55248 209.89083 210.28419 210.68054
 211.48089 212.66624 213.92359 215.71395 217.64930 219.69965 221.80200 223.89235
 225.95971 228.05106 230.15541 232.26876 234.40511 236.58447 238.84782 241.22517
 243.85352 246.11187 248.12122 249.89358 251.31793 252.44828 253.27763 253.60098
 253.64534 253.42669 252.79404 251.74939 250.36274 248.53110 246.44745 244.28780
 242.08615 239.89750 237.72485 235.57121 233.43856 231.31291 229.34626 227.51061
 225.80097 224.28032 222.91767 221.69702 220.58637 219.55373 218.66508 217.81343
 217.06278 216.25013 215.35549 214.72684 214.18419 214.15765 214.01021 213.40564
 212.86420 212.40483 212.62785 214.27383 217.27684 221.40103 226.45776 231.11496
 234.98557 239.23451 243.42052 247.35217 251.08585 254.77307 258.40005 261.87387
 265.17822 268.30426 271.13419 273.48404 275.22424 276.39172 277.38678 278.76593
 280.66599 282.53122 284.46783 286.32385 287.93008 289.35120 290.64774 291.82233
 292.87872 293.81946 294.64127 295.68854
 366.78100 356.34184 345.78068 334.65352 323.06336 311.26420 299.14105 286.95089
 274.66973 262.57357 250.58941 239.89725 230.02609 221.13693 213.32577 206.33461
 200.17545 195.12029 191.70914 189.75798 188.80182 188.87266 189.71450 191.02934
 192.76118 194.86302 197.13286 199.49870 201.95054 204.43739 206.53223 208.38107
 210.01391 211.16575 211.40159 211.63643 211.58027 211.29211 210.93195 210.56879
 210.19263 209.90948 209.72432 209.59516 209.53000 209.86784 210.26068 210.65652
 211.45636 212.64120 213.89804 215.68788 217.62273 219.67257 221.77441 223.86425
 225.93109 228.02193 230.12577 232.23861 234.37445 236.55329 238.81613 241.19297
 243.82082 246.07866 248.08750 249.85934 251.28318 252.41302 253.24186 253.56470
 253.60854 253.38938 252.75622 251.71107 250.32391 248.49175 246.40759 244.24743
 242.04527 239.85611 237.68295 235.52879 233.39563 231.26947 229.30231 227.46616
 225.75600 224.23484 222.87168 221.65052 220.53936 219.50620 218.61704 217.76488
 217.01372 216.20056 215.30541 214.67625 214.13309 214.11702 214.03625 213.50305
 212.82333 212.04260 212.54713 214.36079 217.42616 221.55881 226.67279 231.23923
 235.07553 239.29271 243.43918 247.29135 250.90601 254.47957 257.96536 261.27527
 264.44525 267.47031 270.22614 272.54117 274.37390 275.84763 277.24109 278.78867
 280.61063 282.41010 284.01672 285.45367 286.74533 287.94550 289.04047 290.03241
 290.92459 291.71906 292.41309 293.29758
 366.78100 356.34149 345.77998 334.65248 323.06197 311.26246 299.13895 286.94844
 274.66694 262.57043 250.58592 239.89341 230.02190 221.13240 213.32089 206.32938
 200.16987 195.11436 191.70286 189.75135 188.79484 188.86533 189.70683 191.02132
 192.75281 194.85430 197.12379 199.48929 201.94078 204.42727 206.52176 208.37025
 210.00275 211.15424 211.38973 211.62422 211.56771 211.27921 210.91870 210.55519
 210.17868 209.89517 209.70967 209.58016 209.51465 209.85214 210.24463 210.64013
 211.43962 212.62411 213.88060 215.67009 217.60459 219.65408 221.75557 223.84506
 225.91156 228.00205 230.10554 232.21803 234.35352 236.53202 238.79451 241.17100
 243.79849 246.05598 248.06448 249.83597 251.25946 252.38895 253.21744 253.53994
 253.58343 253.36392 252.73041 251.68490 250.29740 248.46489 246.38038 244.21987
 242.01736 239.82786 237.65435 235.49984 233.36633 231.23982 229.27232 227.43581
 225.72530 224.20379 222.84029 221.61878 220.50727 219.47376 218.58425 217.73175
 216.98024 216.16673 215.27122 214.64171 214.09821 214.11807 214.09004 213.51628
 212.92989 211.83705 212.32347 214.32509 217.45351 221.61966 226.85745 231.39432
 235.22084 239.46426 243.67072 247.57211 251.17159 254.68350 258.10617 261.33496
 264.36658 267.21054 269.79739 271.98236 273.57193 274.84180 276.40829 278.51944
 280.60486 282.44370 284.09232 285.60233 286.96582 288.17215 289.27277 290.26984
 291.16660 291.96518 292.66278 293.55182
 366.78100 356.34259 345.78218 334.65577 323.06636 311.26794 299.14553 286.95612
 274.67571 262.58030 250.59689 239.90548 230.03507 221.14666 213.33624 206.34583
 200.18742 195.13301 191.72260 189.77219 188.81678 188.88837 189.73095 191.04654
 192.77913 194.88172 197.15231 199.51890 201.97149 204.45908 206.55467 208.40425
 210.03784 211.19043 211.42702 211.66261 211.60720 211.31979 210.96038 210.59797
 210.22255 209.94014 209.75573 209.62732 209.56291 209.90150 210.29509 210.69168
 211.49227 212.67785 213.93544 215.72603 217.66162 219.71221 221.81480 223.90539
 225.97298 228.06456 230.16915 232.28274 234.41933 236.59892 238.86251 241.24010
 243.86869 246.12728 248.13686 249.90945 251.33404 252.46463 253.29422 253.61781
 253.66240 253.44399 252.81158 251.76716 250.38075 248.54934 246.46593 244.30652
 242.10511 239.91670 237.74429 235.59088 233.45846 231.33305 229.36664 227.53123
 225.82182 224.30141 222.93900 221.71859 220.60817 219.57576 218.68735 217.83594
 217.08553 216.27312 215.37871 214.75030 214.20789 214.20830 214.08989 213.60281
 213.00443 211.96306 212.14206 213.97702 217.15335 221.39711 226.82996 231.42950
 235.27361 239.52095 243.75790 247.73563 251.44209 255.00681 258.43979 261.65460
 264.61627 267.32300 269.72397 271.63193 272.97784 274.11050 276.06979 278.48953
 280.72250 282.83194 284.71695 286.37213 287.80457 289.07187 290.22812 291.27560
 292.21768 293.05661 293.78949 294.72345
 366.78100 356.34586 345.78872 334.66558 323.07944 311.28430 299.16516 286.97902
 274.70188 262.60974 250.62960 239.94146 230.07432 221.18918 213.38204 206.39490
 200.23976 195.18862 191.78148 189.83434 188.88220 188.95706 189.80292 191.12178
 192.85764 194.96350 197.23736 199.60722 202.06308 204.55394 206.65280 208.50566
 210.14252 211.29838 211.53824 211.77710 211.72496 211.44082 211.08468 210.72554
 210.35340 210.07426 209.89312 209.76798 209.70684 210.04870 210.44556 210.84542
 211.64928 212.83814 214.09900 215.89286 217.83172 219.88558 221.99144 224.08530
 226.15616 228.25102 230.35888 232.47574 234.61560 236.79846 239.06532 241.44618
 244.07804 246.33990 248.35276 250.12862 251.55648 252.69034 253.52320 253.85006
 253.89792 253.68278 253.05364 252.01250 250.62936 248.80122 246.72108 244.56494
 242.36680 240.18166 238.01252 235.86238 233.73324 231.61110 229.64796 227.81582
 226.10968 224.59254 223.23340 222.01626 220.90912 219.87998 218.99484 218.14670
 217.39956 216.59042 215.69928 215.07414 214.53500 214.40434 214.03212 213.69443
 213.10675 212.11829 212.08028 213.86195 216.96600 221.18643 226.51677 231.21123
 235.11809 239.43161 243.71669 247.75984 251.56471 255.24550 258.79001 262.09540
 265.10571 267.79443 270.04471 271.77084 272.96713 274.26974 276.50333 279.56387
 282.51596 285.04639 287.23602 289.15869 290.82260 292.29474 293.63782 294.85458
 295.94891 296.92343 297.77472 298.85962
 366.78100 356.34700 345.79100 334.66901 323.08401 311.29001 299.17201 286.98702
 274.71102 262.62002 250.64102 239.95402 230.08803 221.20403 213.39803 206.41203
 200.25803 195.20804 191.80204 189.85604 188.90504 188.98105 189.82805 191.14805
 192.88505 194.99205 197.26706 199.63806 202.09506 204.58706 206.68706 208.54107
 210.17907 211.33607 211.57707 211.81708 211.76608 211.48308 211.12808 210.77008
 210.39909 210.12109 209.94109 209.81709 209.75709 210.10010 210.49810 210.89910
 211.70410 212.89411 214.15611 215.95111 217.89111 219.94611 222.05312 224.14812
 226.22012 228.31612 230.42513 232.54313 234.68413 236.86813 239.13613 241.51814
 244.15114 246.41414 248.42814 250.20514 251.63415 252.76915 253.60315 253.93115
 253.98016 253.76616 253.13816 252.09816 250.71616 248.88917 246.81017 244.65517
 242.45817 240.27417 238.10618 235.95718 233.82918 231.70818 229.74619 227.91519
 226.21019 224.69419 223.33619 222.12020 221.01420 219.98620 219.10220 218.25520
 217.50921 216.70121 215.81121 215.18721 214.64922 214.47618 214.02185 213.63834
 213.13843 212.45206 212.48033 213.99657 216.91014 220.97777 226.22046 230.92175
 234.84543 239.12016 243.31685 247.31427 251.19374 255.04677 258.80688 262.35938
 265.63818 268.59860 271.14807 272.98724 273.89108 274.64145 276.91641 279.88040
 282.99319 285.66132 287.97015 289.99750 291.75195 293.30423 294.72043 296.00342
 297.15732 298.18488 299.08252 300.22647
 366.78100 356.34500 345.78700 334.66299 323.07599 311.27999 299.15999 286.97299
 274.69498 262.60198 250.62098 239.93198 230.06397 221.17797 213.36997 206.38197
 200.22597 195.17396 191.76596 189.81796 188.86496 188.93896 189.78395 191.10195
 192.83695 194.94195 197.21495 199.58394 202.03894 204.52894 206.62694 208.47894
 210.11493 211.26993 211.50893 211.74693 211.69392 211.40892 211.05192 210.69192
 210.31892 210.03891 209.85691 209.73091 209.66891 210.00991 210.40590 210.80490
 211.60790 212.79590 214.05590 215.84889 217.78689 219.83989 221.94489 224.03789
 226.10788 228.20188 230.30888 232.42488 234.56387 236.74587 239.01187 241.39187
 244.02287 246.28386 248.29586 250.07086 251.49786 252.63086 253.46285 253.78885
 253.83585 253.61985 252.98985 251.94784 250.56384 248.73484 246.65384 244.49684
 242.29783 240.11183 237.94183 235.79083 233.66082 231.53782 229.57382 227.74082
 226.03382 224.51581 223.15581 221.93781 220.82981 219.79981 218.91380 218.06480
 217.31680 216.50680 215.61480 214.98879 214.44879 214.36830 214.10742 213.57643
 213.02264 212.46027 212.80515 214.36650 217.15231 221.22839 226.23032 230.93867
 234.73494 238.88130 242.96654 246.86406 250.66098 254.45966 258.21643 261.81561
 265.18655 268.25024 270.89633 272.97580 274.34842 275.46768 276.99072 279.16455
 281.32312 283.34439 285.29318 287.00433 288.48523 289.79541 290.99075 292.07367
 293.04761 293.91492 294.67258 295.63815
 366.78100 356.34282 345.78264 334.65646 323.06728 311.26910 299.14693 286.95775
 274.67757 262.58239 250.59921 239.90803 230.03785 221.14967 213.33949 206.34931
 200.19114 195.13696 191.72678 189.77660 188.82142 188.89324 189.73606 191.05188
 192.78470 194.88752 197.15834 199.52517 201.97799 204.46581 206.56163 208.41145
 210.04527 211.19809 211.43491 211.67073 211.61555 211.32837 210.96920 210.60702
 210.23184 209.94966 209.76548 209.63730 209.57312 209.91194 210.30576 210.70258
 211.50341 212.68923 213.94705 215.73787 217.67369 219.72451 221.82733 223.91815
 225.98597 228.07779 230.18261 232.29644 234.43326 236.61308 238.87690 241.25472
 243.88354 246.14236 248.15218 249.92500 251.34982 252.48065 253.31047 253.63429
 253.67911 253.46093 252.82875 251.78457 250.39839 248.56721 246.48403 244.32485
 242.12368 239.93550 237.76332 235.61014 233.47796 231.35278 229.38660 227.55142
 225.84224 224.32206 222.95988 221.73971 220.62953 219.59735 218.70917 217.85799
 217.10781 216.29563 215.40145 214.77327 214.23109 214.25890 214.23590 213.61827
 213.03407 212.21684 212.42271 214.27289 217.31186 221.41299 226.40511 231.10352
 234.89075 239.08852 243.20209 247.06117 250.74280 254.40775 258.04007 261.52951
 264.82959 267.87405 270.53751 272.56165 273.93079 275.06613 276.67618 278.73206
 280.84445 282.69412 284.35440 286.03412 287.49670 288.79068 289.97125 291.04077
 292.00269 292.85928 293.60757 294.56119
 366.78100 356.34246 345.78191 334.65537 323.06583 311.26728 299.14474 286.95519
 274.67465 262.57911 250.59556 239.90402 230.03348 221.14493 213.33439 206.34384
 200.18530 195.13076 191.72021 189.76967 188.81413 188.88558 189.72804 191.04349
 192.77595 194.87841 197.14886 199.51532 201.96778 204.45523 206.55069 208.40014
 210.03360 211.18606 211.42251 211.65797 211.60243 211.31488 210.95534 210.59279
 210.21725 209.93471 209.75016 209.62162 209.55708 209.89553 210.28899 210.68544
 211.48590 212.67136 213.92881 215.71927 217.65473 219.70518 221.80764 223.89809
 225.96555 228.05701 230.16146 232.27492 234.41138 236.59083 238.85429 241.23174
 243.86020 246.11866 248.12811 249.90057 251.32503 252.45548 253.28494 253.60839
 253.65285 253.43431 252.80176 251.75722 250.37068 248.53913 246.45559 244.29604
 242.09450 239.90596 237.73341 235.57987 233.44733 231.32178 229.35524 227.51969
 225.81015 224.28961 222.92706 221.70652 220.59598 219.56343 218.67489 217.82334
 217.07280 216.26026 215.36571 214.73717 214.19463 214.25829 214.29054 213.63913
 213.21120 212.25836 212.11314 213.89468 217.04709 221.28053 226.37868 231.10684
 234.94229 239.18225 243.37117 247.31070 251.02740 254.66035 258.22256 261.62357
 264.83554 267.81378 270.42355 272.46021 273.85675 275.04282 276.68240 278.67508
 280.74545 282.61661 284.34866 285.98782 287.40637 288.66144 289.80649 290.84384
 291.77682 292.60764 293.33340 294.25836
 366.78100 356.34350 345.78400 334.65850 323.07000 311.27250 299.15100 286.96250
 274.68300 262.58851 250.60601 239.91551 230.04601 221.15851 213.34901 206.35951
 200.20201 195.14851 191.73901 189.78951 188.83501 188.90751 189.75101 191.06751
 192.80101 194.90451 197.17601 199.54352 201.99702 204.48552 206.58202 208.43252
 210.06702 211.22052 211.45802 211.69452 211.64002 211.35352 210.99502 210.63352
 210.25902 209.97752 209.79402 209.66652 209.60303 209.94253 210.33703 210.73453
 211.53603 212.72253 213.98103 215.77253 217.70903 219.76053 221.86403 223.95553
 226.02403 228.11653 230.22203 232.33653 234.47403 236.65453 238.91904 241.29754
 243.92704 246.18654 248.19704 249.97054 251.39604 252.52754 253.35804 253.68254
 253.72804 253.51054 252.87904 251.83554 250.45004 248.61954 246.53704 244.37855
 242.17805 239.99055 237.81905 235.66655 233.53505 231.41055 229.44505 227.61055
 225.90205 224.38255 223.02105 221.80155 220.69205 219.66055 218.77305 217.92255
 217.17305 216.36156 215.46806 214.84056 214.29906 214.32837 214.28194 213.66640
 213.28094 212.40088 212.10852 213.78711 216.90935 221.14732 226.24127 230.99641
 234.84988 239.11122 243.33562 247.33369 251.11478 254.78648 258.34891 261.71472
 264.87601 267.79688 270.36444 272.41544 273.81323 275.03427 276.69556 278.73462
 280.86359 282.76001 284.60693 286.28601 287.73907 289.02469 290.19760 291.26019
 292.21585 293.06689 293.81033 294.75778
 366.78100 356.34481 345.78662 334.66243 323.07524 311.27905 299.15885 286.97166
 274.69347 262.60028 250.61909 239.92990 230.06171 221.17552 213.36733 206.37914
 200.22295 195.17076 191.76256 189.81437 188.86118 188.93499 189.77980 191.09761
 192.83242 194.93723 197.21004 199.57885 202.03366 204.52347 206.62127 208.47308
 210.10889 211.26370 211.50251 211.74032 211.68713 211.40194 211.04475 210.68456
 210.31137 210.03118 209.84898 209.72279 209.66060 210.00141 210.39722 210.79603
 211.59884 212.78665 214.04646 215.83927 217.77708 219.82989 221.93469 224.02750
 226.09731 228.19112 230.29793 232.41374 234.55255 236.73436 239.00017 241.37998
 244.01079 246.27160 248.28340 250.05821 251.48502 252.61783 253.44964 253.77545
 253.82226 253.60607 252.97588 251.93369 250.54950 248.72031 246.63911 244.48192
 242.28273 240.09654 237.92635 235.77516 233.64497 231.52178 229.55759 227.72440
 226.01721 224.49902 223.13882 221.92063 220.81244 219.78225 218.89606 218.04687
 217.29868 216.48849 215.59630 214.97011 214.42992 214.40463 214.27069 213.75471
 213.23741 212.43312 212.15184 213.82599 216.93559 221.11217 226.14899 230.89613
 234.74347 239.00232 243.23373 247.26657 251.10770 254.83864 258.43430 261.79456
 264.92639 267.79889 270.33774 272.38571 273.69666 274.84503 276.62527 278.87335
 281.01666 282.91678 284.83047 286.53601 288.01199 289.31784 290.50925 291.58856
 292.55933 293.42377 294.17892 295.14130
 366.78100 356.34610 345.78919 334.66629 323.08039 311.28548 299.16658 286.98068
 274.70377 262.61187 250.63197 239.94406 230.07716 221.19226 213.38535 206.39845
 200.24354 195.19264 191.78574 189.83883 188.88693 188.96203 189.80812 191.12722
 192.86332 194.96941 197.24351 199.61361 202.06970 204.56080 206.65990 208.51299
 210.15009 211.30619 211.54628 211.78538 211.73348 211.44957 211.09367 210.73477
 210.36286 210.08396 209.90306 209.77815 209.71725 210.05934 210.45644 210.85654
 211.66063 212.84973 214.11083 215.90492 217.84402 219.89812 222.00421 224.09831
 226.16941 228.26450 230.37260 232.48970 234.62979 236.81289 239.07999 241.46108
 244.09318 246.35528 248.36837 250.14447 251.57257 252.70666 253.53976 253.86685
 253.91495 253.70005 253.07114 252.03024 250.64734 248.81943 246.73953 244.58363
 242.38572 240.20082 238.03192 235.88201 233.75311 231.63121 229.66830 227.83640
 226.13050 224.61359 223.25469 222.03779 220.93088 219.90198 219.01708 218.16917
 217.42227 216.61337 215.72246 215.09756 214.55865 214.48421 214.26773 213.83936
 213.24226 212.44951 212.14732 213.79846 216.91443 221.04959 226.07620 230.79451
 234.63678 238.87727 243.10675 247.17189 251.07590 254.88336 258.54169 261.93732
 265.06754 267.91705 270.43777 272.49884 273.75214 274.84979 276.61319 278.91342
 281.07452 283.08725 284.99649 286.67294 288.12375 289.40735 290.57846 291.63940
 292.59357 293.44330 294.18558 295.13156
 366.78100 356.34647 345.78994 334.66741 323.08188 311.28735 299.16882 286.98329
 274.70676 262.61523 250.63571 239.94818 230.08165 221.19712 213.39059 206.40406
 200.24953 195.19900 191.79247 189.84594 188.89441 188.96988 189.81635 191.13582
 192.87229 194.97876 197.25323 199.62370 202.08018 204.57165 206.67112 208.52459
 210.16206 211.31853 211.55900 211.79847 211.74694 211.46341 211.10788 210.74935
 210.37782 210.09929 209.91876 209.79423 209.73370 210.07617 210.47364 210.87412
 211.67859 212.86806 214.12953 215.92400 217.86347 219.91794 222.02441 224.11888
 226.19035 228.28582 230.39429 232.51176 234.65223 236.83570 239.10317 241.48464
 244.11711 246.37959 248.39306 250.16953 251.59800 252.73247 253.56594 253.89341
 253.94188 253.72735 253.09882 252.05829 250.67576 248.84823 246.76870 244.61317
 242.41564 240.23111 238.06258 235.91305 233.78453 231.66300 229.70047 227.86894
 226.16341 224.64688 223.28835 222.07182 220.96529 219.93676 219.05223 218.20470
 217.45817 216.64964 215.75911 215.13458 214.59605 214.52350 214.30037 213.85123
 213.26854 212.47267 212.22775 213.82895 216.92177 221.01741 226.00406 230.70421
 234.52422 238.73512 242.94279 247.01271 250.95947 254.83569 258.56558 262.01862
 265.19757 268.08084 270.63135 272.74286 274.06363 275.10208 276.73865 278.96988
 281.13208 283.20450 285.15594 286.86945 288.35233 289.66431 290.86130 291.94568
 292.92096 293.78946 294.54816 295.51501
 366.78100 356.34502 345.78704 334.66306 323.07608 311.28010 299.16012 286.97315
 274.69517 262.60219 250.62121 239.93223 230.06425 221.17827 213.37029 206.38231
 200.22633 195.17435 191.76637 189.81840 188.86542 188.93944 189.78446 191.10248
 192.83750 194.94252 197.21554 199.58456 202.03958 204.52960 206.62762 208.47964
 210.11567 211.27069 211.50971 211.74773 211.69475 211.40977 211.05279 210.69281
 210.31983 210.03985 209.85787 209.73189 209.66992 210.01094 210.40696 210.80598
 211.60900 212.79702 214.05704 215.85006 217.78808 219.84110 221.94612 224.03914
 226.10916 228.20319 230.31021 232.42623 234.56525 236.74727 239.01329 241.39331
 244.02433 246.28535 248.29737 250.07239 251.49941 252.63244 253.46446 253.79048
 253.83750 253.62152 252.99154 251.94956 250.56558 248.73660 246.65562 244.49864
 242.29966 240.11369 237.94371 235.79273 233.66275 231.53977 229.57579 227.74281
 226.03583 224.51785 223.15787 221.93989 220.83191 219.80193 218.91596 218.06698
 217.31900 216.50902 215.61704 214.99106 214.45108 214.47276 214.40752 213.79167
 213.31729 212.42754 212.27457 213.93719 217.02429 221.09158 225.98834 230.68533
 234.46400 238.64372 242.81648 246.85951 250.81085 254.70616 258.45670 261.93912
 265.16095 268.07690 270.65683 272.81039 274.26614 275.34717 276.93246 278.99191
 281.12622 283.01599 284.90222 286.57861 288.02939 289.31296 290.48401 291.54489
 292.49905 293.34872 294.09100 295.03693
 366.78100 356.34298 345.78295 334.65693 323.06791 311.26988 299.14786 286.95883
 274.67881 262.58379 250.60076 239.90974 230.03972 221.15169 213.34167 206.35164
 200.19362 195.13960 191.72957 189.77955 188.82453 188.89650 189.73948 191.05545
 192.78843 194.89141 197.16238 199.52936 201.98234 204.47031 206.56629 208.41626
 210.05024 211.20322 211.44019 211.67617 211.62115 211.33412 210.97510 210.61307
 210.23805 209.95603 209.77200 209.64398 209.57996 209.91893 210.31291 210.70989
 211.51086 212.69684 213.95481 215.74579 217.68177 219.73274 221.83572 223.92670
 225.99467 228.08665 230.19162 232.30560 234.44258 236.62255 238.88653 241.26451
 243.89348 246.15246 248.16243 249.93541 251.36039 252.49136 253.32134 253.64532
 253.69029 253.47227 252.84024 251.79622 250.41020 248.57917 246.49615 244.33713
 242.13610 239.94808 237.77605 235.62303 233.49101 231.36598 229.39996 227.56494
 225.85591 224.33589 222.97387 221.75384 220.64382 219.61179 218.72377 217.87275
 217.12272 216.31070 215.41668 214.78865 214.24663 214.39360 214.55641 213.70819
 213.34471 212.46333 212.21391 213.91483 217.03249 221.11760 226.01762 230.68665
 234.43706 238.60457 242.76967 246.80762 250.75943 254.65826 258.41208 261.89578
 265.11728 268.04361 270.61465 272.75598 274.21570 275.34012 276.96362 278.98468
 281.10001 282.95267 284.68103 286.24945 287.60675 288.80765 289.90326 290.89581
 291.78851 292.58347 293.27792 294.16290
 366.78100 356.34242 345.78185 334.65527 323.06570 311.26712 299.14454 286.95497
 274.67439 262.57881 250.59524 239.90366 230.03309 221.14451 213.33393 206.34336
 200.18478 195.13020 191.71963 189.76905 188.81348 188.88490 189.72732 191.04275
 192.77517 194.87759 197.14802 199.51444 201.96687 204.45429 206.54971 208.39914
 210.03256 211.18498 211.42141 211.65683 211.60126 211.31368 210.95410 210.59153
 210.21595 209.93337 209.74880 209.62022 209.55565 209.89407 210.28749 210.68392
 211.48434 212.66976 213.92719 215.71761 217.65304 219.70346 221.80588 223.89631
 225.96373 228.05515 230.15958 232.27300 234.40943 236.58885 238.85227 241.22970
 243.85812 246.11654 248.12597 249.89839 251.32282 252.45324 253.28266 253.60609
 253.65051 253.43193 252.79936 251.75478 250.36821 248.53663 246.45305 244.29348
 242.09190 239.90332 237.73075 235.57717 233.44460 231.31902 229.35244 227.51687
 225.80729 224.28671 222.92414 221.70356 220.59299 219.56041 218.67183 217.82026
 217.06968 216.25710 215.36253 214.73395 214.19138 214.37439 214.64769 213.74004
 213.17661 212.54338 212.26515 213.87383 216.97903 221.08728 226.00836 230.64885
 234.39098 238.56682 242.73972 246.78320 250.74500 254.65642 258.42053 261.91132
 265.13809 268.08115 270.69672 272.87192 274.35349 275.43442 277.05194 278.97327
 280.92130 282.73251 284.33456 285.83636 287.14108 288.29544 289.34860 290.30267
 291.16077 291.92493 292.59247 293.44318
 366.78100 356.34342 345.78384 334.65827 323.06969 311.27211 299.15053 286.96196
 274.68238 262.58780 250.60522 239.91465 230.04507 221.15749 213.34791 206.35834
 200.20076 195.14718 191.73760 189.78803 188.83345 188.90587 189.74929 191.06572
 192.79914 194.90256 197.17398 199.54141 201.99483 204.48325 206.57967 208.43010
 210.06452 211.21794 211.45536 211.69179 211.63721 211.35063 210.99205 210.63048
 210.25590 209.97432 209.79074 209.66317 209.59959 209.93901 210.33343 210.73085
 211.53228 212.71870 213.97712 215.76854 217.70497 219.75639 221.85981 223.95123
 226.01966 228.11208 230.21750 232.33192 234.46935 236.64977 238.91419 241.29261
 243.92204 246.18146 248.19188 249.96530 251.39073 252.52215 253.35257 253.67699
 253.72242 253.50484 252.87326 251.82968 250.44411 248.61353 246.53095 244.37237
 242.17180 239.98422 237.81264 235.66006 233.52849 231.40391 229.43833 227.60375
 225.89518 224.37560 223.01402 221.79444 220.68486 219.65329 218.76571 217.91513
 217.16555 216.35398 215.46040 214.83282 214.29124 214.41743 214.64449 213.99110
 212.89604 212.38582 212.33711 213.88417 216.96016 221.06143 226.01103 230.61264
 234.35889 238.50555 242.67070 246.71803 250.68117 254.59515 258.36209 261.85599
 265.09814 268.07523 270.72247 272.95172 274.54855 275.64490 277.16403 279.05988
 280.83099 282.48297 284.05307 285.45654 286.75735 287.92212 288.98483 289.94757
 290.81342 291.58447 292.25806 293.11646
 366.78100 356.34528 345.78756 334.66384 323.07713 311.28141 299.16169 286.97497
 274.69725 262.60453 250.62382 239.93510 230.06738 221.18166 213.37394 206.38622
 200.23051 195.17879 191.77107 189.82335 188.87063 188.94491 189.79019 191.10848
 192.84376 194.94904 197.22232 199.59160 202.04688 204.53717 206.63545 208.48773
 210.12401 211.27929 211.51857 211.75686 211.70414 211.41942 211.06270 210.70298
 210.33026 210.05054 209.86883 209.74311 209.68139 210.02267 210.41895 210.81823
 211.62152 212.80980 214.07008 215.86336 217.80164 219.85492 221.96021 224.05349
 226.12377 228.21805 230.32533 232.44161 234.58089 236.76318 239.02946 241.40974
 244.04102 246.30230 248.31458 250.08987 251.51715 252.65043 253.48271 253.80899
 253.85627 253.64056 253.01084 251.96912 250.58540 248.75668 246.67596 244.51924
 242.32053 240.13481 237.96509 235.81437 233.68465 231.56193 229.59822 227.76550
 226.05878 224.54106 223.18134 221.96362 220.85590 219.82619 218.94047 218.09175
 217.34403 216.53431 215.64259 215.01688 214.47716 214.51724 214.58513 214.19662
 212.92075 212.10901 212.26778 213.93672 217.00960 221.09761 226.06580 230.60199
 234.34447 238.48550 242.64624 246.67961 250.62244 254.52126 258.26520 261.74243
 264.98645 267.97852 270.66281 272.95291 274.60397 275.81894 277.30728 279.13071
 280.87628 282.38535 283.86774 285.25391 286.51785 287.63611 288.65637 289.58063
 290.41193 291.15216 291.79886 292.62296
 366.78100 356.34617 345.78934 334.66651 323.08068 311.28585 299.16702 286.98119
 274.70436 262.61253 250.63270 239.94487 230.07804 221.19321 213.38638 206.39955
 200.24472 195.19389 191.78706 189.84023 188.88840 188.96358 189.80975 191.12892
 192.86509 194.97126 197.24543 199.61560 202.07177 204.56294 206.66211 208.51528
 210.15245 211.30862 211.54879 211.78796 211.73613 211.45230 211.09647 210.73764
 210.36581 210.08698 209.90615 209.78132 209.72049 210.06266 210.45983 210.86000
 211.66417 212.85334 214.11451 215.90868 217.84785 219.90202 222.00819 224.10236
 226.17353 228.26870 230.37687 232.49404 234.63421 236.81739 239.08456 241.46573
 244.09790 246.36007 248.37324 250.14941 251.57758 252.71175 253.54492 253.87209
 253.92026 253.70543 253.07660 252.03577 250.65294 248.82511 246.74528 244.58945
 242.39162 240.20679 238.03796 235.88813 233.75930 231.63747 229.67464 227.84281
 226.13698 224.62015 223.26132 222.04449 220.93766 219.90883 219.02400 218.17617
 217.42934 216.62051 215.72968 215.10485 214.56602 214.59207 214.60387 214.15849
 213.11148 212.03009 212.13768 213.95290 217.07462 221.15262 226.16675 230.63414
 234.36981 238.50262 242.66768 246.70969 250.64655 254.50687 258.19577 261.63251
 264.85419 267.84723 270.55142 272.84506 274.55194 275.91003 277.44406 279.24274
 280.89774 282.47650 284.12411 285.64230 286.95621 288.11865 289.17920 290.13998
 291.00412 291.77362 292.44583 293.30252
 366.78100 356.34590 345.78880 334.66570 323.07960 311.28450 299.16541 286.97931
 274.70221 262.61011 250.63001 239.94191 230.07481 221.18971 213.38261 206.39551
 200.24041 195.18932 191.78222 189.83512 188.88302 188.95792 189.80382 191.12272
 192.85862 194.96452 197.23842 199.60833 202.06423 204.55513 206.65403 208.50693
 210.14383 211.29973 211.53963 211.77853 211.72643 211.44233 211.08624 210.72714
 210.35504 210.07594 209.89484 209.76974 209.70864 210.05054 210.44744 210.84734
 211.65124 212.84015 214.10105 215.89495 217.83385 219.88775 221.99365 224.08755
 226.15845 228.25335 230.36125 232.47815 234.61806 236.80096 239.06786 241.44876
 244.08066 246.34256 248.35546 250.13136 251.55926 252.69316 253.52607 253.85297
 253.90087 253.68577 253.05667 252.01557 250.63247 248.80437 246.72427 244.56817
 242.37007 240.18498 238.01588 235.86578 233.73668 231.61458 229.65148 227.81938
 226.11328 224.59618 223.23708 222.01998 220.91289 219.88379 218.99869 218.15059
 217.40349 216.59439 215.70329 215.07819 214.53909 214.61981 214.67477 214.09518
 213.23978 212.04216 211.97298 213.81224 217.00668 221.11089 226.23793 230.65016
 234.37648 238.50667 242.69058 246.76212 250.70850 254.55609 258.20596 261.57434
 264.73282 267.68771 270.41040 272.73682 274.50363 275.88220 277.42041 279.19534
 281.16669 283.24606 285.11435 286.75482 288.17453 289.43060 290.57657 291.61475
 292.54846 293.37994 294.10632 295.03198
 366.78100 356.34581 345.78861 334.66542 323.07923 311.28403 299.16484 286.97865
 274.70145 262.60926 250.62907 239.94087 230.07368 221.18849 213.38129 206.39410
 200.23891 195.18772 191.78052 189.83333 188.88114 188.95594 189.80175 191.12056
 192.85636 194.96217 197.23598 199.60578 202.06159 204.55240 206.65120 208.50401
 210.14082 211.29662 211.53643 211.77524 211.72304 211.43885 211.08266 210.72346
 210.35127 210.07208 209.89088 209.76569 209.70450 210.04631 210.44311 210.84292
 211.64673 212.83553 214.09634 215.89015 217.82895 219.88276 221.98857 224.08237
 226.15318 228.24799 230.35579 232.47260 234.61241 236.79521 239.06202 241.44283
 244.07463 246.33644 248.34925 250.12505 251.55286 252.68667 253.51947 253.84628
 253.89409 253.67890 253.04970 252.00851 250.62532 248.79712 246.71693 244.56074
 242.36254 240.17735 238.00816 235.85796 233.72877 231.60658 229.64338 227.81119
 226.10500 224.58780 223.22861 222.01142 220.90422 219.87503 218.98984 218.14164
 217.39445 216.58526 215.69406 215.06887 214.52968 214.65959 214.72272 214.07185
 213.29324 212.02940 211.79510 213.84209 217.02382 221.04608 226.15440 230.58427
 234.31810 238.45879 242.66840 246.78880 250.77422 254.63484 258.27615 261.63428
 264.76486 267.67828 270.34988 272.64755 274.39371 275.71552 277.16589 279.48532
 282.01459 284.19131 286.07492 287.72888 289.16022 290.42661 291.58197 292.62866
 293.57004 294.40836 295.14069 296.07394
 366.78100 356.34572 345.78843 334.66515 323.07886 311.28358 299.16429 286.97801
 274.70073 262.60844 250.62816 239.93987 230.07259 221.18730 213.38002 206.39274
 200.23745 195.18617 191.77888 189.83160 188.87931 188.95403 189.79975 191.11846
 192.85418 194.95989 197.23361 199.60332 202.05904 204.54975 206.64847 208.50119
 210.13790 211.29362 211.53333 211.77205 211.71976 211.43548 211.07920 210.71991
 210.34763 210.06834 209.88706 209.76177 209.70049 210.04221 210.43892 210.83864
 211.64235 212.83107 214.09178 215.88550 217.82422 219.87793 221.98365 224.07736
 226.14808 228.24279 230.35051 232.46723 234.60694 236.78966 239.05637 241.43709
 244.06880 246.33052 248.34324 250.11895 251.54667 252.68038 253.51310 253.83981
 253.88753 253.67225 253.04296 252.00168 250.61839 248.79011 246.70982 244.55354
 242.35526 240.16997 238.00069 235.85040 233.72112 231.59883 229.63555 227.80326
 226.09698 224.57970 223.22041 222.00313 220.89584 219.86656 218.98127 218.13299
 217.38571 216.57642 215.68514 215.05985 214.52057 214.67505 214.78218 213.99817
 213.25539 212.14378 211.86459 213.78680 216.99161 221.06235 226.10738 230.54259
 234.27417 238.41090 242.61795 246.75156 250.77438 254.64983 258.27728 261.61908
 264.75220 267.71600 270.47610 272.85159 274.59738 275.94754 277.27051 278.86365
 281.30588 283.49515 285.38959 287.05304 288.49261 289.76630 290.92831 291.98102
 292.92783 293.77097 294.50751 295.44614
 366.78100 356.34555 345.78811 334.66466 323.07822 311.28277 299.16333 286.97688
 274.69943 262.60699 250.62654 239.93810 230.07065 221.18521 213.37776 206.39031
 200.23487 195.18342 191.77598 189.82853 188.87609 188.95064 189.79619 191.11475
 192.85030 194.95586 197.22941 199.59896 202.05452 204.54507 206.64363 208.49618
 210.13274 211.28829 211.52784 211.76640 211.71395 211.42951 211.07306 210.71362
 210.34117 210.06172 209.88028 209.75483 209.69339 210.03494 210.43150 210.83105
 211.63460 212.82316 214.08371 215.87727 217.81582 219.86938 221.97493 224.06848
 226.13904 228.23359 230.34115 232.45770 234.59726 236.77981 239.04636 241.42692
 244.05847 246.32003 248.33258 250.10813 251.53569 252.66924 253.50180 253.82835
 253.87591 253.66046 253.03101 251.98957 250.60612 248.77768 246.69723 244.54079
 242.34234 240.15689 237.98745 235.83700 233.70756 231.58511 229.62167 227.78922
 226.08277 224.56533 223.20588 221.98844 220.88099 219.85155 218.96610 218.11765
 217.37021 216.56076 215.66932 215.04387 214.50443 214.64879 214.85896 214.02774
 213.08270 212.10773 212.01895 213.81290 217.03659 221.18990 226.07455 230.57832
 234.25578 238.36438 242.54225 246.65265 250.66342 254.52234 258.14166 261.48917
 264.62411 267.58783 270.34482 272.74933 274.70267 276.30359 277.74850 279.01120
 279.93188 281.00336 282.53409 284.10315 285.46106 286.66248 287.75858 288.75156
 289.64462 290.43991 291.13467 292.02005
 366.78100 356.34552 345.78804 334.66456 323.07809 311.28261 299.16313 286.97665
 274.69917 262.60669 250.62621 239.93773 230.07026 221.18478 213.37730 206.38982
 200.23434 195.18286 191.77538 189.82790 188.87543 188.94995 189.79547 191.11399
 192.84951 194.95503 197.22855 199.59807 202.05360 204.54412 206.64264 208.49516
 210.13168 211.28720 211.52672 211.76525 211.71277 211.42829 211.07181 210.71233
 210.33985 210.06037 209.87889 209.75342 209.69194 210.03346 210.42998 210.82950
 211.63302 212.82154 214.08206 215.87559 217.81411 219.86763 221.97315 224.06667
 226.13719 228.23171 230.33923 232.45576 234.59528 236.77780 239.04432 241.42484
 244.05636 246.31788 248.33041 250.10593 251.53345 252.66697 253.49949 253.82601
 253.87353 253.65805 253.02858 251.98710 250.60362 248.77514 246.69466 244.53818
 242.33970 240.15422 237.98475 235.83427 233.70479 231.58231 229.61883 227.78635
 226.07987 224.56239 223.20292 221.98544 220.87796 219.84848 218.96300 218.11452
 217.36704 216.55757 215.66609 215.04061 214.50113 214.63202 214.89339 214.16045
 213.03111 211.79536 211.67888 213.55621 216.86934 221.07205 226.14174 230.56197
 234.29958 238.37308 242.54883 246.66510 250.68198 254.54439 258.14993 261.45898
 264.54633 267.47107 270.19373 272.60995 274.59970 276.22110 277.65735 278.97473
 280.04059 280.71747 281.26248 282.17752 283.35104 284.44580 285.52390 286.50058
 287.37900 288.16125 288.84460 289.71545
 366.78100 356.34540 345.78780 334.66419 323.07759 311.28199 299.16239 286.97579
 274.69819 262.60558 250.62498 239.93638 230.06878 221.18318 213.37558 206.38797
 200.23237 195.18077 191.77317 189.82557 188.87297 188.94736 189.79276 191.11116
 192.84656 194.95196 197.22536 199.59475 202.05015 204.54055 206.63895 208.49135
 210.12775 211.28314 211.52254 211.76094 211.70834 211.42374 211.06714 210.70753
 210.33493 210.05533 209.87373 209.74813 209.68653 210.02792 210.42432 210.82372
 211.62712 212.81552 214.07592 215.86931 217.80771 219.86111 221.96651 224.05991
 226.13031 228.22470 230.33210 232.44850 234.58790 236.77030 239.03669 241.41709
 244.04849 246.30989 248.32229 250.09769 251.52508 252.65848 253.49088 253.81728
 253.86468 253.64908 253.01947 251.97787 250.59427 248.76567 246.68507 244.52847
 242.32986 240.14426 237.97466 235.82406 233.69446 231.57186 229.60825 227.77565
 226.06905 224.55145 223.19185 221.97425 220.86664 219.83704 218.95144 218.10284
 217.35524 216.54564 215.65403 215.02843 214.48883 214.62888 214.93127 214.19926
 213.08382 211.68347 211.47704 213.42569 216.78113 220.97340 226.17870 230.57809
 234.34711 238.42540 242.61937 246.74620 250.77429 254.64223 258.23581 261.50861
 264.54794 267.42706 270.12521 272.55527 274.57123 276.19281 277.60349 278.88187
 279.90970 280.55661 280.88519 281.41937 282.45801 283.55472 284.59094 285.53897
 286.39160 287.15088 287.81418 288.65945
 366.78100 356.34594 345.78888 334.66583 323.07977 311.28471 299.16565 286.97959
 274.70254 262.61048 250.63042 239.94236 230.07531 221.19025 213.38319 206.39613
 200.24107 195.19002 191.78296 189.83590 188.88384 188.95878 189.80473 191.12367
 192.85961 194.96555 197.23950 199.60944 202.06538 204.55632 206.65526 208.50821
 210.14515 211.30109 211.54103 211.77997 211.72792 211.44386 211.08780 210.72874
 210.35669 210.07763 209.89657 209.77151 209.71045 210.05240 210.44934 210.84928
 211.65322 212.84216 214.10311 215.89705 217.83599 219.88993 221.99587 224.08982
 226.16076 228.25570 230.36364 232.48059 234.62053 236.80347 239.07041 241.45135
 244.08330 246.34524 248.35818 250.13412 251.56206 252.69601 253.52895 253.85589
 253.90383 253.68878 253.05972 252.01866 250.63560 248.80754 246.72749 244.57143
 242.37337 240.18831 238.01925 235.86920 233.74014 231.61808 229.65502 227.82297
 226.11691 224.59985 223.24079 222.02373 220.91668 219.88762 219.00256 218.15450
 217.40744 216.59839 215.70733 215.08227 214.54321 214.66222 214.92863 214.25879
 213.10100 211.62909 211.38107 213.38065 216.75629 220.90631 226.20604 230.60553
 234.38361 238.46454 242.66333 246.78519 250.80997 254.67203 258.24973 261.49680
 264.51138 267.37531 270.07645 272.53033 274.58160 276.23318 277.64926 278.87482
 279.83566 280.38708 280.60971 281.02347 282.04245 283.11713 284.13193 285.03159
 285.85297 286.58441 287.22339 288.03769
 366.78100 356.34677 345.79054 334.66831 323.08308 311.28885 299.17061 286.98538
 274.70915 262.61792 250.63869 239.95146 230.08523 221.20100 213.39477 206.40854
 200.25431 195.20408 191.79784 189.85161 188.90038 188.97615 189.82292 191.14269
 192.87946 194.98623 197.26100 199.63177 202.08854 204.58031 206.68007 208.53384
 210.17161 211.32838 211.56915 211.80892 211.75769 211.47446 211.11923 210.76100
 210.38977 210.11154 209.93130 209.80707 209.74684 210.08961 210.48738 210.88815
 211.69292 212.88269 214.14446 215.93923 217.87900 219.93377 222.04053 224.13530
 226.20707 228.30284 230.41161 232.52938 234.67015 236.85392 239.12169 241.50346
 244.13623 246.39900 248.41276 250.18953 251.61830 252.75307 253.58684 253.91461
 253.96338 253.74915 253.12092 252.08069 250.69846 248.87122 246.79199 244.63676
 242.43953 240.25530 238.08707 235.93784 233.80961 231.68838 229.72615 227.89492
 226.18969 224.67345 223.31522 222.09899 220.99276 219.96453 219.08030 218.23307
 217.48684 216.67861 215.78838 215.16415 214.62592 214.70906 214.90150 214.33131
 213.17149 211.57164 211.24928 213.29678 216.72195 220.83759 226.21924 230.61801
 234.40121 238.48384 242.67979 246.78621 250.79980 254.65126 258.21353 261.44061
 264.44431 267.30884 270.02499 272.51318 274.60953 276.29062 277.69821 278.88663
 279.81284 280.32214 280.45407 280.79749 281.70300 282.75922 283.77652 284.69717
 285.54150 286.30255 286.96738 287.81464
 366.78100 356.34714 345.79128 334.66942 323.08456 311.29070 299.17284 286.98797
 274.71211 262.62125 250.64239 239.95553 230.08967 221.20581 213.39995 206.41409
 200.26023 195.21037 191.80451 189.85864 188.90778 188.98392 189.83106 191.15120
 192.88834 194.99548 197.27062 199.64176 202.09890 204.59104 206.69118 208.54531
 210.18345 211.34059 211.58173 211.82187 211.77101 211.48815 211.13329 210.77543
 210.40457 210.12671 209.94685 209.82298 209.76312 210.10626 210.50440 210.90554
 211.71068 212.90082 214.16296 215.95810 217.89824 219.95338 222.06052 224.15565
 226.22779 228.32393 230.43307 232.55121 234.69235 236.87649 239.14463 241.52677
 244.15991 246.42305 248.43719 250.21433 251.64346 252.77860 253.61274 253.94088
 253.99002 253.77616 253.14830 252.10844 250.72658 248.89972 246.82086 244.66600
 242.46913 240.28527 238.11741 235.96855 233.84069 231.71983 229.75797 227.92711
 226.22225 224.70639 223.34853 222.13267 221.02680 219.99894 219.11508 218.26822
 217.52236 216.71450 215.82464 215.20078 214.66292 214.73055 214.89035 214.36996
 213.24086 211.51053 211.10968 213.20358 216.69545 220.78331 226.24341 230.62733
 234.42012 238.50790 242.70511 246.79701 250.79999 254.64160 258.19202 261.40198
 264.39737 267.26187 269.98590 272.49918 274.62854 276.31967 277.70087 278.84033
 279.69409 280.18045 280.33502 280.66855 281.28625 282.19199 283.18378 284.11194
 284.93442 285.70697 286.38333 287.24527
 366.78100 356.34739 345.79178 334.67017 323.08556 311.29195 299.17434 286.98973
 274.71412 262.62351 250.64490 239.95829 230.09268 221.20907 213.40346 206.41785
 200.26424 195.21463 191.80902 189.86341 188.91280 188.98919 189.83658 191.15697
 192.89436 195.00175 197.27714 199.64854 202.10593 204.59832 206.69871 208.55310
 210.19149 211.34888 211.59027 211.83066 211.78005 211.49744 211.14283 210.78522
 210.41461 210.13700 209.95739 209.83378 209.77417 210.11756 210.51595 210.91734
 211.72273 212.91312 214.17551 215.97090 217.91129 219.96668 222.07407 224.16946
 226.24185 228.33824 230.44763 232.56602 234.70741 236.89180 239.16019 241.54258
 244.17597 246.43936 248.45375 250.23114 251.66053 252.79592 253.63031 253.95870
 254.00809 253.79448 253.16687 252.12726 250.74565 248.91904 246.84043 244.68582
 242.48922 240.30561 238.13800 235.98939 233.86178 231.74117 229.77956 227.94895
 226.24434 224.72873 223.37112 222.15551 221.04990 220.02229 219.13868 218.29207
 217.54646 216.73885 215.84924 215.22563 214.68802 214.74512 214.88004 214.39856
 213.29491 211.49507 211.03387 213.11554 216.66145 220.72382 226.25121 230.61258
 234.42155 238.51961 242.72243 246.80685 250.80748 254.64529 258.18936 261.38403
 264.37173 267.23001 269.95334 272.49017 274.64807 276.34509 277.69702 278.77054
 279.58203 280.01456 280.20883 280.53088 281.13904 281.94800 282.87659 283.78534
 284.66580 285.39902 286.07068 286.92664
 366.78100 356.34782 345.79265 334.67147 323.08730 311.29412 299.17694 286.99277
 274.71759 262.62741 250.64924 239.96306 230.09789 221.21471 213.40953 206.42436
 200.27118 195.22201 191.81683 189.87165 188.92148 188.99830 189.84612 191.16695
 192.90477 195.01260 197.28842 199.66024 202.11807 204.61089 206.71172 208.56654
 210.20536 211.36319 211.60501 211.84583 211.79566 211.51348 211.15931 210.80213
 210.43195 210.15478 209.97560 209.85243 209.79325 210.13707 210.53590 210.93772
 211.74354 212.93437 214.19719 215.99302 217.93384 219.98966 222.09749 224.19331
 226.26614 228.36296 230.47278 232.59161 234.73343 236.91825 239.18708 241.56990
 244.20373 246.46755 248.48237 250.26020 251.69002 252.82585 253.66067 253.98949
 254.03932 253.82614 253.19896 252.15979 250.77861 248.95244 246.87426 244.72008
 242.52391 240.34073 238.17356 236.02538 233.89820 231.77803 229.81685 227.98667
 226.28250 224.76732 223.41015 222.19497 221.08979 220.06262 219.17944 218.33327
 217.58809 216.78091 215.89174 215.26856 214.73138 214.77223 214.86876 214.41003
 213.35616 211.47864 210.96448 213.06889 216.63297 220.67058 226.21985 230.58684
 234.40210 238.51311 242.72516 246.81480 250.82016 254.65724 258.19626 261.37857
 264.35687 267.20346 269.91962 272.47083 274.64166 276.34296 277.66180 278.68005
 279.47476 279.90878 280.13019 280.47128 281.08749 281.86880 282.79346 283.67935
 284.50964 285.25507 285.91266 286.75311
 366.78100 356.34826 345.79353 334.67279 323.08906 311.29632 299.17959 286.99585
 274.72112 262.63138 250.65365 239.96791 230.10318 221.22044 213.41571 206.43097
 200.27824 195.22950 191.82477 189.88003 188.93030 189.00756 189.85583 191.17709
 192.91536 195.02362 197.29989 199.67215 202.13042 204.62368 206.72495 208.58021
 210.21948 211.37774 211.62001 211.86127 211.81154 211.52980 211.17607 210.81933
 210.44960 210.17286 209.99413 209.87139 209.81266 210.15692 210.55619 210.95845
 211.76472 212.95598 214.21925 216.01551 217.95678 220.01304 222.12131 224.21757
 226.29084 228.38810 230.49837 232.61763 234.75990 236.94516 239.21443 241.59769
 244.23196 246.49622 248.51149 250.28975 251.72002 252.85628 253.69155 254.02081
 254.07108 253.85834 253.23161 252.19287 250.81214 248.98640 246.90867 244.75493
 242.55920 240.37646 238.20973 236.06199 233.93526 231.81552 229.85479 228.02505
 226.32132 224.80658 223.44985 222.23511 221.13038 220.10364 219.22091 218.37517
 217.63044 216.82370 215.93497 215.31223 214.77550 214.80170 214.86360 214.41933
 213.39340 211.42554 210.87134 213.00293 216.60774 220.63902 226.17554 230.57634
 234.38113 238.50687 242.72913 246.83392 250.84459 254.67664 258.20898 261.38376
 264.35144 267.18475 269.89133 272.43765 274.59738 276.28955 277.57999 278.57928
 279.37109 279.83698 280.08966 280.44766 281.05652 281.88342 282.82047 283.71329
 284.56418 285.31717 285.98187 286.82898
 366.78100 356.34854 345.79408 334.67362 323.09016 311.29770 299.18124 286.99778
 274.72332 262.63386 250.65641 239.97095 230.10649 221.22403 213.41957 206.43511
 200.28265 195.23419 191.82973 189.88527 188.93581 189.01335 189.86189 191.18343
 192.92197 195.03051 197.30705 199.67959 202.13814 204.63168 206.73322 208.58876
 210.22830 211.38684 211.62938 211.87092 211.82146 211.54000 211.18654 210.83008
 210.46062 210.18416 210.00570 209.88324 209.82478 210.16932 210.56887 210.97141
 211.77795 212.96949 214.23303 216.02957 217.97111 220.02765 222.13619 224.23273
 226.30627 228.40381 230.51435 232.63389 234.77643 236.96197 239.23151 241.61505
 244.24960 246.51414 248.52968 250.30822 251.73876 252.87530 253.71084 254.04038
 254.09092 253.87846 253.25200 252.21354 250.83308 249.00762 246.93016 244.77670
 242.58124 240.39878 238.23232 236.08487 233.95841 231.83895 229.87849 228.04903
 226.34557 224.83111 223.47465 222.26019 221.15573 220.12927 219.24681 218.40135
 217.65689 216.85043 215.96197 215.33951 214.80305 214.81989 214.85966 214.43111
 213.43816 211.38992 210.80875 212.94861 216.56131 220.60213 226.14331 230.56467
 234.36864 238.50623 242.73566 246.84958 250.86493 254.69408 258.22232 261.39066
 264.34982 267.16959 269.86307 272.39749 274.53961 276.21674 277.48911 278.49066
 279.31677 279.82059 280.10028 280.47183 281.10361 281.96609 282.91547 283.81757
 284.68073 285.42209 286.08411 286.92773
 366.78100 356.34850 345.79399 334.67349 323.08998 311.29748 299.18097 286.99747
 274.72297 262.63346 250.65596 239.97045 230.10595 221.22344 213.41894 206.43444
 200.28193 195.23343 191.82892 189.88442 188.93491 189.01241 189.86091 191.18240
 192.92090 195.02939 197.30589 199.67838 202.13688 204.63037 206.73187 208.58737
 210.22686 211.38536 211.62785 211.86935 211.81984 211.53834 211.18484 210.82833
 210.45883 210.18232 210.00382 209.88131 209.82281 210.16731 210.56680 210.96930
 211.77579 212.96729 214.23078 216.02728 217.96878 220.02527 222.13377 224.23026
 226.30376 228.40125 230.51175 232.63125 234.77374 236.95924 239.22873 241.61223
 244.24672 246.51122 248.52672 250.30521 251.73571 252.87220 253.70770 254.03719
 254.08769 253.87519 253.24868 252.21018 250.82967 249.00417 246.92666 244.77316
 242.57765 240.39515 238.22865 236.08114 233.95464 231.83513 229.87463 228.04512
 226.34162 224.82712 223.47061 222.25611 221.15160 220.12510 219.24259 218.39709
 217.65259 216.84608 215.95758 215.33507 214.79857 214.82153 214.87581 214.40468
 213.52742 211.39774 210.74730 212.87427 216.48122 220.54861 226.11250 230.54662
 234.35526 238.49834 242.72935 246.84732 250.86888 254.69994 258.23169 261.39999
 264.35507 267.16180 269.83673 272.35141 274.46570 276.11768 277.37210 278.38788
 279.26544 279.84094 280.19702 280.60556 281.25577 282.07169 282.98859 283.90237
 284.78281 285.51291 286.17337 287.01505
 366.78100 356.34773 345.79247 334.67120 323.08694 311.29367 299.17640 286.99214
 274.71687 262.62660 250.64834 239.96207 230.09681 221.21354 213.40827 206.42301
 200.26974 195.22047 191.81521 189.86994 188.91968 188.99641 189.84414 191.16488
 192.90261 195.01035 197.28608 199.65781 202.11555 204.60828 206.70901 208.56375
 210.20248 211.36022 211.60195 211.84268 211.79242 211.51015 211.15589 210.79862
 210.42835 210.15109 209.97182 209.84855 209.78929 210.13302 210.53176 210.93349
 211.73922 212.92996 214.19269 215.98842 217.92916 219.98489 222.09263 224.18836
 226.26109 228.35783 230.46756 232.58630 234.72803 236.91276 239.18150 241.56423
 244.19796 246.46170 248.47643 250.25417 251.68390 252.81963 253.65437 253.98310
 254.03283 253.81957 253.19230 252.15304 250.77177 248.94550 246.86724 244.71297
 242.51671 240.33344 238.16617 236.01791 233.89064 231.77037 229.80911 227.97884
 226.27458 224.75931 223.40204 222.18678 221.08151 220.05424 219.17098 218.32471
 217.57945 216.77218 215.88291 215.25965 214.72238 214.78909 214.94672 214.32323
 213.61075 211.43520 210.63420 212.78401 216.41669 220.51199 226.05890 230.53519
 234.33136 238.48183 242.71318 246.84204 250.87021 254.70576 258.24387 261.42389
 264.37772 267.17221 269.82718 272.30173 274.37241 275.98788 277.22787 278.26810
 279.17886 279.83749 280.28284 280.75125 281.42130 282.21640 283.15384 284.09686
 284.97064 285.71655 286.38385 287.23422
 366.78100 356.34686 345.79072 334.66858 323.08344 311.28930 299.17115 286.98601
 274.70987 262.61873 250.63959 239.95245 230.08631 221.20217 213.39603 206.40989
 200.25574 195.20560 191.79946 189.85332 188.90218 188.97804 189.82490 191.14476
 192.88162 194.98848 197.26333 199.63419 202.09105 204.58291 206.68277 208.53663
 210.17449 211.33135 211.57221 211.81207 211.76093 211.47778 211.12264 210.76450
 210.39336 210.11522 209.93508 209.81094 209.75080 210.09366 210.49152 210.89237
 211.69723 212.88709 214.14895 215.94381 217.88367 219.93853 222.04539 224.14025
 226.21211 228.30796 230.41682 232.53468 234.67554 236.85940 239.12726 241.50912
 244.14198 246.40484 248.41870 250.19555 251.62441 252.75927 253.59313 253.92099
 253.96985 253.75571 253.12757 252.08743 250.70529 248.87815 246.79900 244.64386
 242.44672 240.26258 238.09444 235.94530 233.81716 231.69602 229.73388 227.90274
 226.19759 224.68145 223.32331 222.10717 221.00103 219.97289 219.08875 218.24161
 217.49547 216.68733 215.79718 215.17304 214.63490 214.75024 215.02277 214.26361
 213.64055 211.47006 210.58937 212.73175 216.34253 220.47794 226.00603 230.52017
 234.30194 238.45683 242.68753 246.82855 250.86714 254.71431 258.26743 261.46744
 264.42276 267.20129 269.82803 272.25037 274.26608 275.83624 277.06271 278.12714
 279.08514 279.85339 280.41064 280.93604 281.61871 282.52728 283.51321 284.42267
 285.24432 285.99973 286.66159 287.50504
 366.78100 356.34691 345.79081 334.66872 323.08363 311.28953 299.17144 286.98635
 274.71025 262.61916 250.64007 239.95297 230.08688 221.20279 213.39670 206.41060
 200.25651 195.20642 191.80032 189.85423 188.90314 188.97904 189.82595 191.14586
 192.88276 194.98967 197.26458 199.63548 202.09239 204.58430 206.68420 208.53811
 210.17602 211.33292 211.57383 211.81374 211.76264 211.47955 211.12446 210.76636
 210.39527 210.11718 209.93709 209.81299 209.75290 210.09581 210.49371 210.89462
 211.69953 212.88943 214.15134 215.94625 217.88615 219.94106 222.04797 224.14287
 226.21478 228.31069 230.41959 232.53750 234.67841 236.86231 239.13022 241.51213
 244.14503 246.40794 248.42185 250.19875 251.62766 252.76257 253.59648 253.92438
 253.97329 253.75920 253.13110 252.09101 250.70892 248.88182 246.80273 244.64764
 242.45054 240.26645 238.09836 235.94926 233.82117 231.70008 229.73798 227.90689
 226.20180 224.68570 223.32761 222.11152 221.00542 219.97733 219.09324 218.24615
 217.50005 216.69196 215.80187 215.17777 214.63968 214.75742 215.03560 214.26889
 213.66696 211.47353 210.57356 212.72983 216.31548 220.44083 225.92960 230.47917
 234.25449 238.41299 242.64626 246.80429 250.85831 254.72279 258.29565 261.51904
 264.47653 267.23776 269.83426 272.20212 274.16141 275.68533 276.89526 277.98425
 279.01868 279.89203 280.54550 281.12320 281.85196 282.81766 283.81775 284.73947
 285.57822 286.34113 287.00757 287.85690
 366.78100 356.34708 345.79116 334.66924 323.08431 311.29039 299.17247 286.98755
 274.71163 262.62071 250.64179 239.95486 230.08894 221.20502 213.39910 206.41318
 200.25926 195.20934 191.80341 189.85749 188.90657 188.98265 189.82973 191.14981
 192.88689 194.99397 197.26904 199.64012 202.09720 204.58928 206.68936 208.54344
 210.18152 211.33859 211.57967 211.81975 211.76883 211.48591 211.13099 210.77307
 210.40214 210.12422 209.94430 209.82038 209.76046 210.10354 210.50162 210.90269
 211.70777 212.89785 214.15993 215.95501 217.89509 219.95017 222.05724 224.15232
 226.22440 228.32048 230.42956 232.54764 234.68872 236.87279 239.14087 241.52295
 244.15603 246.41911 248.43319 250.21027 251.63935 252.77442 253.60850 253.93658
 253.98566 253.77174 253.14382 252.10390 250.72197 248.89505 246.81613 244.66121
 242.46429 240.28037 238.11245 235.96352 233.83560 231.71468 229.75276 227.92184
 226.21692 224.70100 223.34307 222.12715 221.02123 219.99331 219.10939 218.26247
 217.51655 216.70862 215.81870 215.19478 214.65686 214.77203 215.03487 214.26929
 213.64841 211.52672 210.58971 212.65297 216.24260 220.42339 225.84920 230.43404
 234.20583 238.37242 242.61324 246.78998 250.85675 254.73604 258.32669 261.57202
 264.53391 267.27853 269.84540 272.15955 274.05780 275.53992 276.73138 277.82330
 278.93579 279.87143 280.60651 281.23801 281.97424 283.03894 284.04819 284.99503
 285.86444 286.63864 287.31497 288.17688
 366.78100 356.34669 345.79037 334.66806 323.08275 311.28843 299.17012 286.98481
 274.70849 262.61718 250.63787 239.95055 230.08424 221.19993 213.39361 206.40730
 200.25299 195.20267 191.79636 189.85005 188.89874 188.97442 189.82111 191.14080
 192.87748 194.98417 197.25886 199.62954 202.08623 204.57792 206.67760 208.53129
 210.16898 211.32566 211.56635 211.80604 211.75472 211.47141 211.11610 210.75778
 210.38647 210.10816 209.92784 209.80353 209.74322 210.08590 210.48359 210.88428
 211.68896 212.87865 214.14034 215.93502 217.87471 219.92940 222.03608 224.13077
 226.20246 228.29815 230.40683 232.52452 234.66521 236.84889 239.11658 241.49827
 244.13095 246.39364 248.40733 250.18401 251.61270 252.74739 253.58107 253.90876
 253.95745 253.74313 253.11482 252.07451 250.69219 248.86488 246.78557 244.63025
 242.43294 240.24863 238.08031 235.93100 233.80269 231.68137 229.71906 227.88775
 226.18243 224.66612 223.30781 222.09149 220.98518 219.95687 219.07256 218.22524
 217.47893 216.67062 215.78030 215.15599 214.61768 214.75484 215.06104 214.27217
 213.56888 211.56419 210.62688 212.57053 216.17532 220.41797 225.79759 230.40205
 234.17867 238.35155 242.60071 246.78743 250.85799 254.74443 258.35245 261.62054
 264.58685 267.31274 269.84549 272.11298 273.95825 275.40427 276.57736 277.66672
 278.77560 279.75275 280.57230 281.33868 282.15158 283.16006 284.17526 285.12521
 285.98508 286.75082 287.41974 288.27219
 366.78100 356.34607 345.78913 334.66620 323.08026 311.28533 299.16640 286.98046
 274.70353 262.61159 250.63166 239.94372 230.07679 221.19186 213.38492 206.39799
 200.24305 195.19212 191.78519 189.83825 188.88632 188.96138 189.80745 191.12652
 192.86258 194.96865 197.24271 199.61278 202.06884 204.55991 206.65898 208.51204
 210.14911 211.30517 211.54524 211.78431 211.73237 211.44844 211.09250 210.73357
 210.36164 210.08270 209.90177 209.77683 209.71590 210.05796 210.45503 210.85510
 211.65916 212.84823 214.10929 215.90336 217.84243 219.89649 222.00256 224.09662
 226.16769 228.26276 230.37082 232.48789 234.62795 236.81102 239.07808 241.45915
 244.09122 246.35328 248.36635 250.14241 251.57048 252.70455 253.53761 253.86468
 253.91274 253.69781 253.06887 252.02794 250.64501 248.81707 246.73714 244.58120
 242.38327 240.19834 238.02940 235.87947 233.75053 231.62860 229.66567 227.83373
 226.12780 224.61086 223.25193 222.03499 220.92806 219.89913 219.01419 218.16626
 217.41932 216.61039 215.71946 215.09452 214.55559 214.72182 215.09717 214.27216
 213.56297 211.60945 210.61378 212.48849 216.11891 220.38040 225.74951 230.35391
 234.14932 238.33304 242.59349 246.78836 250.86273 254.75574 258.37717 261.65872
 264.62872 267.34354 269.84882 272.07349 273.85703 275.23175 276.34348 277.41272
 278.54373 279.61560 280.59973 281.50546 282.35934 283.35022 284.34543 285.25623
 286.07996 286.81351 287.45428 288.27094
 366.78100 356.34618 345.78935 334.66653 323.08070 311.28588 299.16706 286.98123
 274.70441 262.61258 250.63276 239.94494 230.07811 221.19329 213.38646 206.39964
 200.24482 195.19399 191.78717 189.84034 188.88852 188.96370 189.80987 191.12905
 192.86523 194.97140 197.24558 199.61575 202.07193 204.56311 206.66228 208.51546
 210.15263 211.30881 211.54899 211.78816 211.73634 211.45251 211.09669 210.73787
 210.36604 210.08722 209.90639 209.78157 209.72075 210.06292 210.46010 210.86027
 211.66445 212.85363 214.11480 215.90898 217.84815 219.90233 222.00851 224.10268
 226.17386 228.26903 230.37721 232.49439 234.63456 236.81774 239.08491 241.46609
 244.09827 246.36044 248.37362 250.14980 251.57797 252.71215 253.54532 253.87250
 253.92068 253.70585 253.07703 252.03620 250.65338 248.82556 246.74573 244.58991
 242.39208 240.20726 238.03844 235.88861 233.75979 231.63796 229.67514 227.84332
 226.13749 224.62067 223.26184 222.04502 220.93820 219.90937 219.02455 218.17672
 217.42990 216.62108 215.73025 215.10543 214.56660 214.72443 215.08824 214.29440
 213.58556 211.71066 210.62781 212.30232 216.02321 220.36420 225.70638 230.30228
 234.11223 238.29834 242.56183 246.75549 250.83194 254.74582 258.41638 261.74911
 264.72623 267.39474 269.81030 271.94446 273.66080 274.99615 276.12540 277.21057
 278.42233 279.62930 280.77689 281.80536 282.70764 283.77362 284.81439 285.37195
 286.13541 286.81528 287.40918 288.16608
 366.78100 356.34577 345.78854 334.66531 323.07908 311.28385 299.16462 286.97839
 274.70116 262.60893 250.62870 239.94047 230.07324 221.18801 213.38078 206.39355
 200.23832 195.18709 191.77986 189.83263 188.88040 188.95517 189.80094 191.11971
 192.85548 194.96125 197.23502 199.60479 202.06056 204.55133 206.65010 208.50287
 210.13964 211.29541 211.53518 211.77395 211.72171 211.43748 211.08125 210.72202
 210.34979 210.07056 209.88933 209.76410 209.70287 210.04464 210.44141 210.84118
 211.64495 212.83372 214.09449 215.88826 217.82703 219.88080 221.98657 224.08034
 226.15111 228.24588 230.35365 232.47042 234.61019 236.79296 239.05973 241.44050
 244.07227 246.33404 248.34681 250.12258 251.55035 252.68412 253.51689 253.84366
 253.89143 253.67620 253.04697 252.00574 250.62251 248.79428 246.71405 244.55782
 242.35959 240.17436 238.00513 235.85490 233.72567 231.60344 229.64021 227.80798
 226.10175 224.58452 223.22529 222.00806 220.90083 219.87160 218.98637 218.13814
 217.39091 216.58168 215.69045 215.06522 214.52599 214.67487 215.01767 214.30701
 213.58127 211.78760 210.70670 212.14532 215.92021 220.37599 225.67046 230.27643
 234.08034 238.26482 242.53186 246.72577 250.79730 254.72229 258.43527 261.81781
 264.79678 267.41101 269.73758 271.77960 273.41583 274.70486 275.84155 276.97183
 278.27921 279.59909 280.88812 282.05481 282.98154 284.06720 285.07184 285.62897
 286.33633 286.96625 287.51651 288.21777
 366.78100 356.34508 345.78717 334.66325 323.07634 311.28042 299.16051 286.97359
 274.69568 262.60276 250.62184 239.93293 230.06501 221.17910 213.37118 206.38327
 200.22735 195.17544 191.76752 189.81960 188.86669 188.94077 189.78586 191.10394
 192.83903 194.94411 197.21720 199.58628 202.04136 204.53145 206.62953 208.48162
 210.11770 211.27279 211.51187 211.74996 211.69704 211.41212 211.05521 210.69529
 210.32238 210.04246 209.86055 209.73463 209.67272 210.01380 210.40988 210.80897
 211.61205 212.80014 214.06022 215.85331 217.79139 219.84447 221.94956 224.04264
 226.11273 228.20681 230.31390 232.42998 234.56907 236.75115 239.01723 241.39732
 244.02840 246.28949 248.30157 250.07666 251.50374 252.63683 253.46891 253.79499
 253.84208 253.62616 252.99625 251.95433 250.57042 248.74150 246.66059 244.50367
 242.30475 240.11884 237.94892 235.79801 233.66809 231.54518 229.58126 227.74835
 226.04143 224.52351 223.16360 221.94568 220.83777 219.80785 218.92194 218.07302
 217.32511 216.51519 215.62327 214.99736 214.45744 214.59743 214.91739 214.30692
 213.56995 211.83385 210.80147 212.06879 215.84007 220.37375 225.63979 230.25459
 234.05818 238.24638 242.52226 246.71907 250.78326 254.70970 258.44751 261.85910
 264.83453 267.40561 269.66663 271.63901 273.20419 274.45380 275.59604 276.79724
 278.17685 279.58173 280.98993 282.25055 283.20468 284.34897 285.26010 285.86224
 286.48532 287.04016 287.52487 288.14255
 354.97500 345.04800 334.58700 324.11500 313.32600 302.53700 291.65000 280.76700
 269.93100 259.19300 248.62200 238.61700 229.08700 220.35500 212.54000 205.53500
 199.46400 194.49300 191.14300 189.19000 188.08900 188.01400 188.72400 189.90600
 191.46900 193.38200 195.40300 197.55600 199.80700 202.06000 204.28800 206.47900
 208.55200 210.37800 212.02500 213.65900 214.99800 216.11800 217.17200 218.25900
 219.49400 220.64500 221.67900 222.61400 223.54500 224.98200 226.57100 228.19000
 229.79700 231.81100 233.86500 235.97200 238.24200 240.55300 242.89900 245.25300
 247.48800 249.53500 251.36600 252.84800 254.09800 255.16700 256.02700 256.25300
 256.09500 255.54300 253.93500 252.56600 251.38400 250.24500 249.05200 247.70100
 246.01600 243.99600 241.78400 239.39300 236.81300 234.22300 231.65800 229.14400
 226.74000 224.47300 222.33500 220.32500 218.44000 216.67700 214.96200 213.47200
 212.20000 211.10800 210.26000 209.63900 209.24400 209.03100 209.05800 209.33300
 209.78400 210.62600 211.33100 212.39100 213.62500 214.84668 217.72949 219.47640
 220.32566 220.86828 220.88710 220.27371 219.43733 218.84250 219.04934 220.86203
 222.60583 225.72206 229.03064 232.61777 236.12270 239.51333 242.70767 245.68587
 248.41061 250.90679 253.19353 254.91714 256.48655 257.94920 259.39966 260.69384
 261.81714 262.77997 263.71679 264.54570 265.26305 265.89772 266.47676 267.00133
 267.47312 267.89325 268.26027 268.72800
