|-------------------------------------------------------------------------|
|   File Name : in_temp.dat
|   Subject   : temperature profiles used for initial guess atmosphere
|   File Type : input of gmtr
|   Data Type : atmospherical data
|   Author/s  : WRF-Chem
|   Date      : Fri Jul 26 15:39:24 2024
|-------------------------------------------------------------------------|

 WRF-Chem temperature
#
 values of T (K)    (8f10.5)
#
 354.97500 345.04800 334.58700 324.11500 313.32600 302.53700 291.65000 280.76700
 269.93100 259.19300 248.62200 238.61700 229.08700 220.35500 212.54000 205.53500
 199.46400 194.49300 191.14300 189.19000 188.08900 188.01400 188.72400 189.90600
 191.46900 193.38200 195.40300 197.55600 199.80700 202.06000 204.28800 206.47900
 208.55200 210.37800 212.02500 213.65900 214.99800 216.11800 217.17200 218.25900
 219.49400 220.64500 221.67900 222.61400 223.54500 224.98200 226.57100 228.19000
 229.79700 231.81100 233.86500 235.97200 238.24200 240.55300 242.89900 245.25300
 247.48800 249.53500 251.36600 252.84800 254.09800 255.16700 256.02700 256.25300
 256.09500 255.54300 253.93500 252.56600 251.38400 250.24500 249.05200 247.70100
 246.01600 243.99600 241.78400 239.39300 236.81300 234.22300 231.65800 229.14400
 226.74000 224.47300 222.33500 220.32500 218.44000 216.67700 214.96200 213.47200
 212.20000 211.10800 210.26000 209.63900 209.24400 209.03100 209.05800 209.33300
 209.78400 210.62600 211.33100 212.39100 213.62500 214.84668 217.72949 219.47640
 220.32566 220.86828 220.88710 220.27371 219.43733 218.84250 219.04934 220.86203
 222.60583 225.72206 229.03064 232.61777 236.12270 239.51333 242.70767 245.68587
 248.41061 250.90679 253.19353 254.91714 256.48655 257.94920 259.39966 260.69384
 261.81714 262.77997 263.71679 264.54570 265.26305 265.89772 266.47676 267.00133
 267.47312 267.89325 268.26027 268.72800
 366.78100 356.33500 345.76700 334.63300 323.03600 311.23000 299.10000 286.90300
 274.61500 262.51200 250.52100 239.82200 229.94400 221.04800 213.23000 206.23200
 200.06600 195.00400 191.58600 189.62800 188.66500 188.72900 189.56400 190.87200
 192.59700 194.69200 196.95500 199.31400 201.75900 204.23900 206.32700 208.16900
 209.79500 210.94000 211.16900 211.39700 211.33400 211.03900 210.67200 210.30200
 209.91900 209.62900 209.43700 209.30100 209.22900 209.56000 209.94600 210.33500
 211.12800 212.30600 213.55600 215.33900 217.26700 219.31000 221.40500 223.48800
 225.54800 227.63200 229.72900 231.83500 233.96400 236.13600 238.39200 240.76200
 243.38300 245.63400 247.63600 249.40100 250.81800 251.94100 252.76300 253.07900
 253.11600 252.89000 252.25000 251.19800 249.80400 247.96500 245.87400 243.70700
 241.49800 239.30200 237.12200 234.96100 232.82100 230.68800 228.71400 226.87100
 225.15400 223.62600 222.25600 221.02800 219.91000 218.87000 217.97400 217.11500
 216.35700 215.53700 214.63500 213.99900 213.44900 212.85855 212.01316 212.61654
 214.26826 216.08686 218.14273 220.53346 223.40855 226.78828 231.49734 235.90155
 239.42278 243.28576 247.23140 251.11907 254.80144 258.23331 261.38913 264.27520
 266.89312 269.26852 271.44504 273.08845 274.58484 275.98591 277.39845 278.65879
 279.75272 280.69038 281.56708 282.34086 283.01050 283.60295 284.14348 284.63317
 285.07358 285.46577 285.80838 286.24500
 381.81900 372.39900 361.20600 349.77600 337.62200 324.85300 311.81000 298.35300
 284.86000 271.32400 258.56100 246.30400 236.08700 226.79600 218.44800 211.29000
 205.52200 200.89400 197.38100 194.84800 193.01500 192.31500 192.25000 192.43100
 192.91200 193.53700 194.13600 194.71200 195.26200 195.83100 196.39300 196.97600
 197.60400 198.14900 198.58400 199.05700 199.69500 200.37800 201.05400 201.70800
 202.31300 202.85700 203.35500 203.86200 204.56900 205.29700 206.02600 206.98700
 208.19300 209.44100 210.96900 212.57600 214.46200 216.51300 218.63000 220.85300
 223.34100 225.96200 228.73900 231.69700 234.70600 237.70600 240.69200 243.65700
 246.73700 249.69900 252.52100 255.06300 257.29000 259.23300 260.63300 261.68000
 262.46100 262.79800 262.69100 262.22400 261.06900 259.52500 257.70700 255.50700
 253.00100 250.30200 247.39800 244.45200 241.65400 239.05400 236.73300 234.59000
 232.59500 230.72500 228.83400 226.82600 224.66600 222.38700 220.10400 217.71500
 215.45900 213.06600 210.54600 208.09300 205.35400 202.08130 196.05959 200.71215
 209.01611 216.90438 223.84126 229.78593 235.00632 240.20838 245.98943 250.68668
 254.32982 257.93487 261.55666 264.96801 268.15192 271.06452 273.76717 276.25691
 278.57680 280.74479 282.77456 284.60533 286.27232 287.81705 289.31715 290.65561
 291.81734 292.81312 293.70701 294.49387 295.17482 295.77730 296.32696 296.82492
 297.27278 297.67160 298.02000 298.46400
 399.33000 389.90700 379.81300 368.66800 357.52200 345.30100 333.07400 320.22700
 307.21600 293.84800 280.37600 267.29600 254.61000 242.98700 232.15100 221.97700
 212.67200 204.28600 197.66900 192.82100 189.48600 187.45200 186.81400 187.08900
 187.78100 189.05400 190.64800 192.54200 194.63000 196.75200 198.67100 200.15800
 201.53500 202.48700 202.97500 203.34000 203.53900 203.49700 203.38500 203.24700
 203.00500 202.78600 202.60300 202.43700 202.42600 202.88800 203.42000 203.95100
 204.89500 205.99200 207.30100 208.95800 210.73800 213.10000 215.56400 218.18000
 220.96600 223.91800 226.96100 230.09200 233.29300 236.55700 239.95500 243.53700
 246.84500 249.39000 251.54200 253.47400 255.19500 256.48400 257.43100 258.05900
 258.21200 258.04000 257.58200 256.64300 255.23900 253.50700 251.40800 249.05600
 246.57600 243.99400 241.38900 238.83000 236.34400 233.98600 231.96900 230.11800
 228.42300 226.89900 225.54800 224.29700 223.10500 221.96500 220.95800 220.11300
 219.49000 218.92000 218.32500 217.88100 217.42300 216.96366 216.35568 216.80261
 217.73415 218.28582 218.64258 219.10077 220.44626 222.53987 226.38451 230.35736
 233.59734 237.39164 241.29814 245.22796 248.98002 252.51130 255.78595 258.80109
 261.54781 264.05210 266.34239 268.04198 269.58951 271.01303 272.35754 273.55718
 274.59842 275.49092 276.28989 276.99307 277.60161 278.14001 278.63122 279.07623
 279.47646 279.83287 280.14422 280.54100
 399.73800 389.78500 379.66200 368.15100 356.64100 344.35000 331.79200 318.88800
 305.72600 292.49300 279.20900 266.73800 254.69600 244.21100 234.45700 225.43300
 217.56900 210.45100 204.30000 199.30600 195.45800 192.57600 191.02700 190.38600
 190.23900 190.53400 191.16600 191.92500 192.79500 193.76600 194.73200 195.31200
 195.80000 196.05200 196.11500 196.11500 196.03900 195.72300 195.34000 194.98900
 194.75100 194.79200 195.13300 195.59800 196.50600 198.13600 199.85800 201.56600
 204.17900 206.82300 209.89300 213.28400 216.82800 220.60500 224.38700 228.20900
 232.03200 235.82500 239.56000 243.25800 246.84500 250.20100 253.70900 257.46800
 261.53000 264.22100 266.60100 268.68100 270.32900 271.74100 272.83600 273.47400
 273.89800 274.00200 273.75700 273.28800 272.37100 271.10000 269.58900 267.77900
 265.81600 263.72100 261.39300 258.91600 256.29800 253.42300 250.33100 247.11400
 243.83700 240.52900 237.24900 233.99900 230.72800 227.51500 224.25400 220.95200
 217.62700 213.65600 210.12100 206.78900 204.01000 201.99491 199.07309 198.76551
 199.40006 200.48994 201.46112 202.31912 203.45100 204.96110 207.47502 210.85391
 213.70530 217.29629 220.99574 224.72316 228.28753 231.64854 234.68024 237.40893
 239.70644 241.60899 243.46854 245.67368 247.68154 249.52395 251.24767 252.78566
 254.12057 255.26479 256.23740 257.09036 257.82852 258.48160 259.07744 259.61723
 260.10271 260.53504 260.91270 261.39400
 399.73800 389.78500 379.66200 368.15100 356.64100 344.35000 331.79200 318.88800
 305.72600 292.49300 279.20900 266.73800 254.69600 244.21100 234.45700 225.43300
 217.56900 210.45100 204.30000 199.30600 195.45800 192.57600 191.02700 190.38600
 190.23900 190.53400 191.16600 191.92500 192.79500 193.76600 194.73200 195.31200
 195.80000 196.05200 196.11500 196.11500 196.03900 195.72300 195.34000 194.98900
 194.75100 194.79200 195.13300 195.59800 196.50600 198.13600 199.85800 201.56600
 204.17900 206.82300 209.89300 213.28400 216.82800 220.60500 224.38700 228.20900
 232.03200 235.82500 239.56000 243.25800 246.84500 250.20100 253.70900 257.46800
 261.53000 264.22100 266.60100 268.68100 270.32900 271.74100 272.83600 273.47400
 273.89800 274.00200 273.75700 273.28800 272.37100 271.10000 269.58900 267.77900
 265.81600 263.72100 261.39300 258.91600 256.29800 253.42300 250.33100 247.11400
 243.83700 240.52900 237.24900 233.99900 230.72800 227.51500 224.25400 220.95200
 217.62700 213.65600 210.12100 206.78900 204.01000 201.99491 199.07309 198.76551
 199.40006 200.48994 201.46112 202.31912 203.45100 204.96110 207.47502 210.85391
 213.70530 217.29629 220.99574 224.72316 228.28753 231.64854 234.68024 237.40893
 239.70644 241.60899 243.46854 245.67368 247.68154 249.52395 251.24767 252.78566
 254.12057 255.26479 256.23740 257.09036 257.82852 258.48160 259.07744 259.61723
 260.10271 260.53504 260.91270 261.39400
 399.33000 389.90700 379.81300 368.66800 357.52200 345.30100 333.07400 320.22700
 307.21600 293.84800 280.37600 267.29600 254.61000 242.98700 232.15100 221.97700
 212.67200 204.28600 197.66900 192.82100 189.48600 187.45200 186.81400 187.08900
 187.78100 189.05400 190.64800 192.54200 194.63000 196.75200 198.67100 200.15800
 201.53500 202.48700 202.97500 203.34000 203.53900 203.49700 203.38500 203.24700
 203.00500 202.78600 202.60300 202.43700 202.42600 202.88800 203.42000 203.95100
 204.89500 205.99200 207.30100 208.95800 210.73800 213.10000 215.56400 218.18000
 220.96600 223.91800 226.96100 230.09200 233.29300 236.55700 239.95500 243.53700
 246.84500 249.39000 251.54200 253.47400 255.19500 256.48400 257.43100 258.05900
 258.21200 258.04000 257.58200 256.64300 255.23900 253.50700 251.40800 249.05600
 246.57600 243.99400 241.38900 238.83000 236.34400 233.98600 231.96900 230.11800
 228.42300 226.89900 225.54800 224.29700 223.10500 221.96500 220.95800 220.11300
 219.49000 218.92000 218.32500 217.88100 217.42300 216.96366 216.35568 216.80261
 217.73415 218.28582 218.64258 219.10077 220.44626 222.53987 226.38451 230.35736
 233.59734 237.39164 241.29814 245.22796 248.98002 252.51130 255.78595 258.80109
 261.54781 264.05210 266.34239 268.04198 269.58951 271.01303 272.35754 273.55718
 274.59842 275.49092 276.28989 276.99307 277.60161 278.14001 278.63122 279.07623
 279.47646 279.83287 280.14422 280.54100
 381.81900 372.39900 361.20600 349.77600 337.62200 324.85300 311.81000 298.35300
 284.86000 271.32400 258.56100 246.30400 236.08700 226.79600 218.44800 211.29000
 205.52200 200.89400 197.38100 194.84800 193.01500 192.31500 192.25000 192.43100
 192.91200 193.53700 194.13600 194.71200 195.26200 195.83100 196.39300 196.97600
 197.60400 198.14900 198.58400 199.05700 199.69500 200.37800 201.05400 201.70800
 202.31300 202.85700 203.35500 203.86200 204.56900 205.29700 206.02600 206.98700
 208.19300 209.44100 210.96900 212.57600 214.46200 216.51300 218.63000 220.85300
 223.34100 225.96200 228.73900 231.69700 234.70600 237.70600 240.69200 243.65700
 246.73700 249.69900 252.52100 255.06300 257.29000 259.23300 260.63300 261.68000
 262.46100 262.79800 262.69100 262.22400 261.06900 259.52500 257.70700 255.50700
 253.00100 250.30200 247.39800 244.45200 241.65400 239.05400 236.73300 234.59000
 232.59500 230.72500 228.83400 226.82600 224.66600 222.38700 220.10400 217.71500
 215.45900 213.06600 210.54600 208.09300 205.35400 202.08130 196.05959 200.71215
 209.01611 216.90438 223.84126 229.78593 235.00632 240.20838 245.98943 250.68668
 254.32982 257.93487 261.55666 264.96801 268.15192 271.06452 273.76717 276.25691
 278.57680 280.74479 282.77456 284.60533 286.27232 287.81705 289.31715 290.65561
 291.81734 292.81312 293.70701 294.49387 295.17482 295.77730 296.32696 296.82492
 297.27278 297.67160 298.02000 298.46400
 366.78100 356.34480 345.78659 334.66239 323.07519 311.27898 299.15878 286.97158
 274.69337 262.60017 250.61896 239.92976 230.06156 221.17535 213.36715 206.37895
 200.22274 195.17054 191.76234 189.81413 188.86093 188.93473 189.77952 191.09732
 192.83212 194.93691 197.20971 199.57851 202.03330 204.52310 206.62089 208.47269
 210.10849 211.26328 211.50208 211.73988 211.68667 211.40147 211.04427 210.68406
 210.31086 210.03066 209.84845 209.72225 209.66005 210.00084 210.39664 210.79544
 211.59823 212.78603 214.04582 215.83862 217.77642 219.82921 221.93401 224.02681
 226.09660 228.19040 230.29720 232.41299 234.55179 236.73359 238.99938 241.37918
 244.00998 246.27077 248.28257 250.05737 251.48416 252.61696 253.44875 253.77455
 253.82135 253.60514 252.97494 251.93274 250.54853 248.71933 246.63813 244.48092
 242.28172 240.09552 237.92531 235.77411 233.64391 231.52070 229.55650 227.72330
 226.01609 224.49789 223.13768 221.91948 220.81128 219.78107 218.89487 218.04567
 217.29746 216.48726 215.59506 214.96885 214.42865 213.48648 211.26291 210.38097
 211.13930 212.84395 215.01167 216.82509 219.28352 223.44261 229.24367 234.35883
 238.21712 241.97911 245.71602 249.58839 253.66266 257.17163 259.84799 261.93124
 264.76428 267.57520 269.91837 271.83981 273.60526 275.32913 276.95282 278.61859
 280.35272 281.96094 283.43411 284.78754 285.96933 287.01663 287.97607 288.84964
 289.63873 290.34741 290.97192 291.80209
 366.78100 356.34419 345.78539 334.66058 323.07277 311.27597 299.15516 286.96735
 274.68854 262.59474 250.61293 239.92312 230.05432 221.16751 213.35870 206.36990
 200.21309 195.16028 191.75147 189.80267 188.84886 188.92205 189.76625 191.08344
 192.81763 194.92183 197.19402 199.56221 202.01640 204.50560 206.60279 208.45398
 210.08918 211.24337 211.48156 211.71876 211.66495 211.37914 211.02133 210.66053
 210.28672 210.00591 209.82311 209.69630 209.63349 209.97369 210.36888 210.76707
 211.56926 212.75646 214.01565 215.80784 217.74504 219.79723 221.90142 223.99362
 226.06281 228.15600 230.26219 232.37739 234.51558 236.69677 238.96197 241.34116
 243.97135 246.23155 248.24274 250.01693 251.44312 252.57532 253.40651 253.73170
 253.77790 253.56109 252.93028 251.88748 250.50267 248.67286 246.59106 244.43325
 242.23344 240.04663 237.87583 235.72402 233.59321 231.46941 229.50460 227.67079
 225.96299 224.44418 223.08337 221.86456 220.75576 219.72495 218.83814 217.98834
 217.23953 216.42872 215.53592 214.90911 214.36830 213.47516 211.36682 210.49377
 211.20695 212.95294 215.11061 216.84789 219.24292 223.37352 229.18373 234.27513
 238.11523 241.86972 245.61107 249.50706 253.62932 257.09549 259.71802 261.82333
 264.66742 267.49728 269.85971 271.76883 273.49414 275.18820 276.83200 278.51880
 280.25531 281.86023 283.33447 284.68942 285.87088 286.91861 287.87900 288.75092
 289.54218 290.25293 290.87628 291.70752
 366.78100 356.34370 345.78440 334.65909 323.07079 311.27349 299.15219 286.96389
 274.68458 262.59028 250.60798 239.91768 230.04838 221.16107 213.35177 206.36247
 200.20517 195.15187 191.74256 189.79326 188.83896 188.91166 189.75536 191.07205
 192.80575 194.90945 197.18115 199.54885 202.00254 204.49124 206.58794 208.43864
 210.07334 211.22703 211.46473 211.70143 211.64713 211.36083 211.00252 210.64122
 210.26692 209.98562 209.80232 209.67501 209.61171 209.95141 210.34611 210.74381
 211.54550 212.73220 213.99090 215.78260 217.71930 219.77099 221.87469 223.96639
 226.03509 228.12779 230.23349 232.34818 234.48588 236.66658 238.93128 241.30998
 243.93967 246.19937 248.21007 249.98377 251.40947 252.54116 253.37186 253.69656
 253.74226 253.52496 252.89365 251.85035 250.46505 248.63475 246.55245 244.39414
 242.19384 240.00654 237.83524 235.68294 233.55163 231.42733 229.46203 227.62773
 225.91943 224.40012 223.03882 221.81952 220.71022 219.67892 218.79161 217.94131
 217.19201 216.38071 215.48741 214.86010 214.31880 213.46846 211.46077 210.60394
 211.28061 213.07127 215.21036 216.88243 219.19537 223.30748 229.12338 234.19244
 238.01430 241.75960 245.50546 249.42537 253.59164 257.01285 259.58310 261.71228
 264.56525 267.41403 269.79663 271.69672 273.38806 275.05502 276.71628 278.42267
 280.16138 281.76447 283.23941 284.59500 285.77649 286.82410 287.78387 288.65802
 289.44995 290.15933 290.78519 291.61917
 366.78100 356.34325 345.78350 334.65775 323.06900 311.27124 299.14949 286.96074
 274.68099 262.58624 250.60349 239.91274 230.04299 221.15524 213.34549 206.35573
 200.19798 195.14423 191.73448 189.78473 188.82998 188.90223 189.74548 191.06173
 192.79497 194.89822 197.16947 199.53672 201.98997 204.47822 206.57447 208.42472
 210.05897 211.21222 211.44946 211.68571 211.63096 211.34421 210.98546 210.62371
 210.24896 209.96721 209.78346 209.65570 209.59195 209.93120 210.32545 210.72270
 211.52395 212.71020 213.96845 215.75970 217.69595 219.74719 221.85044 223.94169
 226.00994 228.10219 230.20744 232.32169 234.45894 236.63919 238.90344 241.28168
 243.91093 246.17018 248.18043 249.95368 251.37893 252.51018 253.34043 253.66468
 253.70992 253.49217 252.86042 251.81667 250.43092 248.60017 246.51742 244.35867
 242.15792 239.97017 237.79841 235.64566 233.51391 231.38916 229.42341 227.58866
 225.87991 224.36016 222.99841 221.77865 220.66890 219.63715 218.74940 217.89865
 217.14890 216.33715 215.44340 214.81565 214.27390 213.46324 211.54897 210.71065
 211.36511 213.19019 215.30780 216.93744 219.14839 223.23775 229.06256 234.11003
 237.91234 241.64888 245.40147 249.34721 253.55205 256.92575 259.44565 261.59985
 264.45734 267.32092 269.72452 271.61871 273.28302 274.93079 276.60971 278.33405
 280.07233 281.67477 283.14975 284.50549 285.68732 286.73615 287.69696 288.57086
 289.36234 290.07059 290.70001 291.53146
 366.78100 356.34278 345.78257 334.65635 323.06714 311.26892 299.14670 286.95749
 274.67727 262.58206 250.59884 239.90762 230.03741 221.14919 213.33898 206.34876
 200.19054 195.13633 191.72611 189.77590 188.82068 188.89246 189.73525 191.05103
 192.78382 194.88660 197.15738 199.52417 201.97695 204.46474 206.56052 208.41030
 210.04409 211.19687 211.43366 211.66944 211.61422 211.32701 210.96779 210.60558
 210.23036 209.94814 209.76393 209.63571 209.57150 209.91028 210.30406 210.70085
 211.50163 212.68742 213.94520 215.73598 217.67177 219.72255 221.82534 223.91612
 225.98390 228.07569 230.18047 232.29426 234.43104 236.61083 238.87461 241.25239
 243.88118 246.13996 248.14975 249.92253 251.34731 252.47810 253.30788 253.63167
 253.67645 253.45823 252.82602 251.78180 250.39559 248.56437 246.48115 244.32194
 242.12072 239.93251 237.76029 235.60707 233.47486 231.34964 229.38343 227.54821
 225.83899 224.31878 222.95656 221.73635 220.62613 219.59391 218.70570 217.85448
 217.10427 216.29205 215.39783 214.76962 214.22740 213.45622 211.63487 210.81349
 211.45703 213.30753 215.40195 217.00301 219.11171 223.16968 229.00375 234.02402
 237.80800 241.53650 245.30151 249.27493 253.50920 256.83563 259.30737 261.48471
 264.34189 267.21588 269.63873 271.53186 273.18204 274.81772 276.51392 278.25323
 279.99002 281.59113 283.06647 284.42212 285.60498 286.65347 287.61407 288.48862
 289.28107 289.99094 290.61752 291.44885
 366.78100 356.34230 345.78161 334.65491 323.06521 311.26652 299.14382 286.95412
 274.67343 262.57773 250.59404 239.90234 230.03164 221.14295 213.33225 206.34155
 200.18286 195.12816 191.71746 189.76677 188.81107 188.88237 189.72468 191.03998
 192.77228 194.87459 197.14489 199.51119 201.96350 204.45080 206.54611 208.39541
 210.02871 211.18102 211.41732 211.65262 211.59693 211.30923 210.94953 210.58684
 210.21114 209.92844 209.74375 209.61505 209.55035 209.88866 210.28196 210.67827
 211.47857 212.66387 213.92118 215.71148 217.64678 219.69709 221.79939 223.88969
 225.95700 228.04830 230.15260 232.26591 234.40221 236.58151 238.84482 241.22212
 243.85043 246.10873 248.11803 249.89034 251.31464 252.44494 253.27425 253.59755
 253.64185 253.42316 252.79046 251.74576 250.35907 248.52737 246.44367 244.28398
 242.08228 239.89358 237.72089 235.56719 233.43450 231.30880 229.34210 227.50641
 225.79671 224.27601 222.91332 221.69262 220.58192 219.54923 218.66053 217.80883
 217.05814 216.24544 215.35074 214.72205 214.17935 213.44768 211.71944 210.91765
 211.54909 213.42448 215.49655 217.06538 219.09406 223.10828 228.94464 233.93385
 237.70088 241.42476 245.20674 249.20724 253.46100 256.74179 259.16907 261.36871
 264.22037 267.09763 269.53726 271.43414 273.08200 274.71783 276.42953 278.17935
 279.91464 281.51221 282.98770 284.34509 285.52695 286.57550 287.53745 288.41116
 289.20581 289.91547 290.54175 291.37811
 366.78100 356.34174 345.78049 334.65323 323.06297 311.26371 299.14046 286.95020
 274.66894 262.57269 250.58843 239.89617 230.02491 221.13566 213.32440 206.33314
 200.17389 195.11863 191.70737 189.75612 188.79986 188.87060 189.71234 191.02709
 192.75883 194.86057 197.13032 199.49606 201.94780 204.43454 206.52929 208.37803
 210.01077 211.16252 211.39826 211.63300 211.57674 211.28849 210.92823 210.56497
 210.18872 209.90546 209.72020 209.59095 209.52569 209.86343 210.25617 210.65192
 211.45166 212.63640 213.89315 215.68289 217.61763 219.66737 221.76912 223.85886
 225.92560 228.01635 230.12009 232.23283 234.36857 236.54732 238.81006 241.18680
 243.81455 246.07229 248.08103 249.85277 251.27652 252.40626 253.23500 253.55775
 253.60149 253.38223 252.74898 251.70372 250.31646 248.48420 246.39995 244.23969
 242.03743 239.84818 237.67492 235.52066 233.38740 231.26115 229.29389 227.45763
 225.74738 224.22612 222.86286 221.64160 220.53035 219.49709 218.60783 217.75558
 217.00432 216.19106 215.29581 214.66655 214.12329 213.43434 211.80679 211.01917
 211.64290 213.53760 215.59200 217.12932 219.08124 223.05847 228.88712 233.83934
 237.59052 241.31270 245.11613 249.14449 253.40639 256.64575 259.03583 261.25793
 264.09482 266.96780 269.41937 271.32233 272.98087 274.63043 276.35626 278.11313
 279.84543 281.43900 282.91623 284.27301 285.45569 286.50552 287.46710 288.34195
 289.13467 289.84744 290.47394 291.31107
 366.78100 356.34119 345.77938 334.65157 323.06076 311.26095 299.13715 286.94634
 274.66453 262.56772 250.58291 239.89010 230.01829 221.12848 213.31667 206.32486
 200.16505 195.10924 191.69744 189.74563 188.78882 188.85901 189.70020 191.01439
 192.74558 194.84677 197.11596 199.48115 201.93234 204.41853 206.51273 208.36092
 209.99311 211.14430 211.37949 211.61368 211.55687 211.26806 210.90725 210.54344
 210.16663 209.88282 209.69702 209.56721 209.50140 209.83859 210.23078 210.62597
 211.42516 212.60935 213.86554 215.65473 217.58892 219.63811 221.73931 223.82850
 225.89469 227.98488 230.08807 232.20026 234.33545 236.51364 238.77583 241.15202
 243.77921 246.03641 248.04460 249.81579 251.23898 252.36817 253.19636 253.51855
 253.56174 253.34193 252.70812 251.66231 250.27450 248.44170 246.35689 244.19608
 241.99327 239.80346 237.62965 235.47484 233.34103 231.21422 229.24641 227.40960
 225.69879 224.17699 222.81318 221.59137 220.47956 219.44575 218.55594 217.70313
 216.95132 216.13751 215.24170 214.61189 214.06808 213.42104 211.89229 211.12277
 211.73424 213.65352 215.69080 217.18512 219.08615 223.01215 228.82347 233.74036
 237.48013 241.20436 245.03256 249.08687 253.34512 256.54330 258.90369 261.14990
 263.96576 266.82584 269.28598 271.19992 272.88257 274.55859 276.29672 278.05389
 279.78284 281.37094 282.85037 284.20804 285.39029 286.44101 287.40350 288.27802
 289.07108 289.78296 290.41153 291.25058
 366.78100 356.34090 345.77879 334.65069 323.05958 311.25948 299.13537 286.94427
 274.66216 262.56506 250.57995 239.88685 230.01474 221.12464 213.31253 206.32043
 200.16032 195.10422 191.69211 189.74001 188.78290 188.85280 189.69369 191.00759
 192.73848 194.83938 197.10827 199.47317 201.92406 204.40996 206.50385 208.35175
 209.98364 211.13454 211.36943 211.60333 211.54622 211.25712 210.89602 210.53191
 210.15481 209.87070 209.68460 209.55449 209.48839 209.82528 210.21718 210.61207
 211.41097 212.59486 213.85076 215.63965 217.57355 219.62244 221.72334 223.81223
 225.87813 227.96802 230.07092 232.18281 234.31771 236.49560 238.75750 241.13339
 243.76029 246.01718 248.02508 249.79597 251.21887 252.34776 253.17566 253.49755
 253.54045 253.32034 252.68624 251.64013 250.25203 248.41893 246.33382 244.17272
 241.96961 239.77951 237.60540 235.45030 233.31619 231.18909 229.22098 227.38388
 225.67277 224.15067 222.78656 221.56446 220.45235 219.41825 218.52814 217.67504
 216.92293 216.10883 215.21272 214.58262 214.03851 213.42087 211.96159 211.22525
 211.84315 213.76286 215.80031 217.24091 219.06940 222.97197 228.76138 233.63992
 237.36874 241.09659 244.95403 249.03358 253.27737 256.43665 258.77747 261.05130
 263.83829 266.67624 269.14120 271.06873 272.78436 274.49478 276.24396 277.99741
 279.72632 281.30591 282.78958 284.14703 285.33072 286.38126 287.34302 288.21921
 289.01233 289.72473 290.35352 291.19489
 366.78100 356.34057 345.77814 334.64971 323.05828 311.25785 299.13342 286.94199
 274.65955 262.56212 250.57669 239.88326 230.01083 221.12040 213.30797 206.31554
 200.15511 195.09868 191.68625 189.73382 188.77639 188.84596 189.68653 191.00010
 192.73066 194.83123 197.09980 199.46437 201.91494 204.40051 206.49408 208.34165
 209.97322 211.12379 211.35836 211.59193 211.53450 211.24507 210.88364 210.51920
 210.14177 209.85734 209.67091 209.54048 209.47405 209.81062 210.20219 210.59676
 211.39533 212.57890 213.83447 215.62304 217.55661 219.60518 221.70575 223.79431
 225.85988 227.94945 230.05202 232.16359 234.29816 236.47573 238.73730 241.11287
 243.73944 245.99601 248.00358 249.77415 251.19672 252.32529 253.15285 253.47442
 253.51699 253.29656 252.66213 251.61570 250.22727 248.39384 246.30841 244.14698
 241.94355 239.75312 237.57869 235.42326 233.28883 231.16140 229.19296 227.35553
 225.64410 224.12167 222.75724 221.53481 220.42238 219.38795 218.49752 217.64409
 216.89166 216.07723 215.18080 214.55037 214.00594 213.41977 212.03488 211.32016
 211.94676 213.87828 215.89250 217.29121 219.09445 222.93993 228.69286 233.53555
 237.25685 240.99580 244.88692 248.98875 253.21022 256.33374 258.66183 260.96158
 263.71024 266.51614 268.97891 270.92081 272.67709 274.43100 276.18970 277.93704
 279.66534 281.24036 282.73462 284.09351 285.27710 286.32785 287.28992 288.16635
 288.96094 289.67273 290.30121 291.14594
 366.78100 356.33948 345.77597 334.64645 323.05393 311.25242 299.12690 286.93439
 274.65087 262.55235 250.56584 239.87132 229.99780 221.10629 213.29277 206.29926
 200.13774 195.08022 191.66671 189.71319 188.75467 188.82316 189.66264 190.97512
 192.70461 194.80409 197.07158 199.43506 201.88454 204.36903 206.46151 208.30799
 209.93848 211.08796 211.32145 211.55393 211.49541 211.20490 210.84238 210.47686
 210.09835 209.81283 209.62532 209.49380 209.42628 209.76177 210.15225 210.54573
 211.34322 212.52570 213.78018 215.56767 217.50015 219.54764 221.64712 223.73460
 225.79909 227.88757 229.98905 232.09954 234.23302 236.40951 238.66999 241.04447
 243.66996 245.92544 247.93192 249.70141 251.12289 252.25037 253.07686 253.39734
 253.43883 253.21731 252.58179 251.53428 250.14476 248.31024 246.22373 244.06121
 241.85670 239.66518 237.48966 235.33315 233.19763 231.06911 229.09960 227.26108
 225.54857 224.02505 222.65953 221.43602 220.32250 219.28698 218.39547 217.54095
 216.78743 215.97192 215.07440 214.44289 213.89737 213.37968 212.15660 211.40419
 212.00359 213.99315 216.02269 217.34482 219.09880 222.90656 228.63123 233.44160
 237.15085 240.90489 244.83089 248.95047 253.13887 256.22415 258.54337 260.87082
 263.57755 266.34454 268.80252 270.76471 272.57153 274.37833 276.14771 277.88324
 279.60489 281.17917 282.68222 284.04166 285.22607 286.27704 287.23932 288.11490
 288.90869 289.62338 290.25409 291.09814
 366.78100 356.33845 345.77390 334.64335 323.04980 311.24724 299.12069 286.92714
 274.64259 262.54304 250.55549 239.85994 229.98539 221.09284 213.27829 206.28373
 200.12118 195.06263 191.64808 189.69353 188.73398 188.80143 189.63988 190.95133
 192.67978 194.77822 197.04467 199.40712 201.85557 204.33902 206.43047 208.27592
 209.90537 211.05382 211.28627 211.51771 211.45816 211.16661 210.80306 210.43651
 210.05696 209.77041 209.58186 209.44931 209.38076 209.71520 210.10465 210.49710
 211.29355 212.47500 213.72845 215.51490 217.44635 219.49280 221.59125 223.67769
 225.74114 227.82859 229.92904 232.03849 234.17094 236.34639 238.60584 240.97929
 243.60374 245.85818 247.86363 249.63208 251.05253 252.17898 253.00443 253.32388
 253.36433 253.14178 252.50523 251.45667 250.06612 248.23057 246.14302 243.97947
 241.77392 239.58137 237.40482 235.24727 233.11072 230.98116 229.01061 227.17106
 225.45751 223.93296 222.56641 221.34186 220.22731 219.19076 218.29821 217.44265
 216.68810 215.87155 214.97300 214.34045 213.79390 213.33754 212.25935 211.52679
 212.10641 214.01143 216.10344 217.45287 219.14250 222.90038 228.55568 233.32942
 237.03471 240.80855 244.77592 248.91335 253.06035 256.10913 258.42734 260.78616
 263.44977 266.17334 268.62692 270.61371 272.47449 274.33652 276.11432 277.83554
 279.54837 281.12112 282.63321 283.99341 285.17786 286.22943 287.19153 288.06732
 288.86261 289.57547 290.20621 291.05795
 366.78100 356.33761 345.77222 334.64083 323.04644 311.24305 299.11565 286.92126
 274.63587 262.53548 250.54709 239.85070 229.97531 221.08192 213.26653 206.27114
 200.10775 195.04836 191.63296 189.67757 188.71718 188.78379 189.62140 190.93201
 192.65962 194.75723 197.02284 199.38445 201.83206 204.31467 206.40527 208.24988
 209.87849 211.02610 211.25771 211.48832 211.42793 211.13554 210.77115 210.40376
 210.02337 209.73598 209.54658 209.41319 209.34380 209.67741 210.06602 210.45763
 211.25324 212.43385 213.68646 215.47207 217.40268 219.44829 221.54589 223.63150
 225.69411 227.78072 229.88033 231.98894 234.12055 236.29516 238.55377 240.92638
 243.54999 245.80359 247.80820 249.57581 250.99542 252.12103 252.94564 253.26425
 253.30386 253.08047 252.44308 251.39369 250.00230 248.16590 246.07751 243.91312
 241.70673 239.51334 237.33595 235.17756 233.04017 230.90978 228.93839 227.09800
 225.38361 223.85821 222.49082 221.26543 220.15004 219.11265 218.21926 217.36287
 216.60748 215.79009 214.89070 214.25731 213.70992 213.30885 212.36130 211.60336
 212.16182 214.18602 216.25439 217.50352 219.13362 222.82384 228.48540 233.22446
 236.92029 240.71898 244.72934 248.88281 252.98199 256.00006 258.32504 260.71454
 263.33047 266.00519 268.45084 270.46078 272.37485 274.29208 276.07742 277.78174
 279.48581 281.06479 282.58881 283.95120 285.13577 286.18820 287.14929 288.02747
 288.82086 289.53564 290.16684 291.01578
 366.78100 356.33718 345.77136 334.63954 323.04472 311.24091 299.11309 286.91827
 274.63245 262.53163 250.54281 239.84599 229.97017 221.07635 213.26054 206.26472
 200.10090 195.04108 191.62526 189.66944 188.70862 188.77480 189.61199 190.92217
 192.64935 194.74653 197.01171 199.37289 201.82007 204.30225 206.39243 208.23662
 209.86480 211.01198 211.24316 211.47334 211.41252 211.11970 210.75488 210.38706
 210.00625 209.71843 209.52861 209.39479 209.32497 209.65815 210.04633 210.43751
 211.23269 212.41288 213.66506 215.45024 217.38042 219.42560 221.52278 223.60796
 225.67014 227.75633 229.85551 231.96369 234.09487 236.26905 238.52723 240.89941
 243.52259 245.77577 247.77996 249.54714 250.96632 252.09150 252.91568 253.23386
 253.27304 253.04922 252.41140 251.36159 249.96977 248.13295 246.04413 243.87931
 241.67249 239.47867 237.30085 235.14203 233.00422 230.87340 228.90158 227.06076
 225.34594 223.82012 222.45230 221.22648 220.11067 219.07285 218.17903 217.32221
 216.56639 215.74857 214.84875 214.21493 213.66711 213.29964 212.43144 211.69846
 212.24841 214.32307 216.36850 217.56194 219.14670 222.74330 228.42255 233.12759
 236.81401 240.64082 244.69420 248.85854 252.90289 255.89088 258.22556 260.64380
 263.21155 265.83469 268.26846 270.30203 272.27069 274.24658 276.04010 277.72748
 279.42279 281.01135 282.54395 283.90811 285.09247 286.14557 287.10956 287.98645
 288.78128 289.49582 290.12643 290.97964
 366.78100 356.33653 345.77006 334.63759 323.04212 311.23765 299.10919 286.91372
 274.62725 262.52578 250.53631 239.83884 229.96237 221.06790 213.25143 206.25496
 200.09050 195.03003 191.61356 189.65709 188.69562 188.76115 189.59768 190.90721
 192.63374 194.73027 196.99481 199.35534 201.80187 204.28340 206.37293 208.21646
 209.84399 210.99052 211.22105 211.45058 211.38911 211.09565 210.73018 210.36171
 209.98024 209.69177 209.50130 209.36683 209.29636 209.62889 210.01642 210.40696
 211.20149 212.38102 213.63255 215.41708 217.34661 219.39114 221.48767 223.57220
 225.63373 227.71927 229.81780 231.92533 234.05586 236.22939 238.48692 240.85845
 243.48098 245.73351 247.73704 249.50357 250.92211 252.04664 252.87017 253.18770
 253.22623 253.00176 252.36329 251.31282 249.92035 248.08288 245.99342 243.82795
 241.62048 239.42601 237.24754 235.08807 232.94960 230.81813 228.84566 227.00419
 225.28872 223.76226 222.39379 221.16732 220.05085 219.01238 218.11791 217.26044
 216.50397 215.68550 214.78503 214.15057 213.60210 213.27722 212.50967 211.79503
 212.34787 214.44212 216.45239 217.62425 219.18211 222.68979 228.35927 233.03339
 236.71516 240.57195 244.66670 248.83778 252.81918 255.77448 258.11993 260.56552
 263.08838 265.66071 268.08414 270.14435 272.17197 274.20828 276.01172 277.67981
 279.36505 280.96136 282.49747 283.86215 285.04901 286.10248 287.06622 287.94479
 288.73874 289.45453 290.08569 290.94235
 366.78100 356.33557 345.76814 334.63472 323.03829 311.23286 299.10343 286.90700
 274.61958 262.51715 250.52672 239.82829 229.95086 221.05544 213.23801 206.24058
 200.07515 195.01372 191.59630 189.63887 188.67644 188.74101 189.57658 190.88515
 192.61073 194.70630 196.96987 199.32944 201.77501 204.25559 206.34416 208.18673
 209.81330 210.95887 211.18845 211.41702 211.35459 211.06016 210.69373 210.32431
 209.94188 209.65245 209.46102 209.32559 209.25417 209.58574 209.97231 210.36188
 211.15545 212.33403 213.58460 215.36817 217.29674 219.34031 221.43589 223.51946
 225.58003 227.66460 229.76217 231.86875 233.99832 236.17089 238.42746 240.79803
 243.41960 245.67118 247.67375 249.43932 250.85689 251.98046 252.80304 253.11961
 253.15718 252.93175 252.29232 251.24090 249.84747 248.00904 245.91861 243.75218
 241.54376 239.34833 237.16890 235.00847 232.86904 230.73662 228.76319 226.92076
 225.20433 223.67690 222.30748 221.08005 219.96262 218.92319 218.02776 217.16934
 216.41191 215.59248 214.69105 214.05562 213.50620 213.23836 212.60555 211.88786
 212.44112 214.55853 216.53383 217.68558 219.21637 222.65593 228.29620 232.94151
 236.62341 240.51096 244.64403 248.81747 252.72816 255.64720 258.00381 260.47913
 262.96371 265.49063 267.90637 269.99881 272.08319 274.17657 275.98792 277.63809
 279.30978 280.91238 282.45090 283.81836 285.00497 286.05905 287.02301 287.90128
 288.69772 289.41431 290.04483 290.90329
 366.78100 356.33450 345.76600 334.63151 323.03401 311.22751 299.09701 286.89952
 274.61102 262.50752 250.51602 239.81653 229.93803 221.04153 213.22303 206.22454
 200.05804 194.99554 191.57704 189.61855 188.65505 188.71855 189.55305 190.86056
 192.58506 194.67956 196.94206 199.30057 201.74507 204.22457 206.31207 208.15358
 209.77908 210.92358 211.15208 211.37959 211.31609 211.02059 210.65309 210.28260
 209.89910 209.60860 209.41610 209.27961 209.20711 209.53761 209.92311 210.31162
 211.10412 212.28162 213.53112 215.31363 217.24113 219.28363 221.37813 223.46064
 225.52014 227.60364 229.70014 231.80565 233.93415 236.10565 238.36115 240.73066
 243.35116 245.60166 247.60316 249.36766 250.78417 251.90667 252.72817 253.04367
 253.08018 252.85368 252.21318 251.16068 249.76619 247.92669 245.83519 243.66769
 241.45820 239.26170 237.08120 234.91970 232.77921 230.64571 228.67121 226.82771
 225.11022 223.58172 222.21122 220.98272 219.86423 218.82373 217.92723 217.06773
 216.30924 215.48874 214.58624 213.94974 213.39925 213.19356 212.70760 211.98340
 212.52945 214.67284 216.60999 217.74004 219.25044 222.63023 228.23732 232.85341
 236.53816 240.45605 244.62331 248.79324 252.62604 255.50635 257.87741 260.38583
 262.84296 265.33087 267.74219 269.86905 272.00504 274.14716 275.96405 277.59848
 279.25449 280.86429 282.40500 283.77267 284.96005 286.01465 286.98001 287.85843
 288.65518 289.37073 290.00281 290.86414
 366.78100 356.33336 345.76372 334.62808 323.02944 311.22180 299.09016 286.89152
 274.60188 262.49724 250.50460 239.80396 229.92432 221.02668 213.20704 206.20740
 200.03976 194.97612 191.55648 189.59684 188.63220 188.69456 189.52792 190.83428
 192.55764 194.65100 196.91236 199.26973 201.71309 204.19145 206.27781 208.11817
 209.74253 210.88589 211.11325 211.33961 211.27497 210.97833 210.60969 210.23805
 209.85341 209.56177 209.36813 209.23049 209.15685 209.48621 209.87057 210.25793
 211.04929 212.22565 213.47401 215.25537 217.18173 219.22309 221.31645 223.39781
 225.45617 227.53853 229.63389 231.73825 233.86561 236.03597 238.29033 240.65869
 243.27805 245.52741 247.52777 249.29113 250.70649 251.82785 252.64821 252.96257
 252.99793 252.77029 252.12865 251.07501 249.67937 247.83873 245.74609 243.57745
 241.36682 239.16918 236.98754 234.82490 232.68326 230.54862 228.57298 226.72834
 225.00970 223.48006 222.10842 220.87878 219.75914 218.71750 217.81986 216.95922
 216.19958 215.37794 214.47430 213.83666 213.28502 213.14479 212.81349 212.08080
 212.62144 214.78429 216.66867 217.79010 219.29866 222.60866 228.18303 232.77005
 236.45932 240.40581 244.60231 248.76205 252.51105 255.35248 257.74316 260.28741
 262.72775 265.18448 267.59488 269.75638 271.93631 274.11826 275.93765 277.55896
 279.20242 280.81656 282.36008 283.72833 284.91629 285.97165 286.93549 287.81564
 288.61276 289.32742 289.96243 290.82312
 366.78100 356.33217 345.76134 334.62450 323.02467 311.21584 299.08301 286.88318
 274.59234 262.48651 250.49268 239.79085 229.91002 221.01118 213.19035 206.18952
 200.02069 194.95586 191.53502 189.57419 188.60836 188.66953 189.50170 190.80686
 192.52903 194.62120 196.88137 199.23754 201.67970 204.15687 206.24204 208.08121
 209.70438 210.84654 211.07271 211.29788 211.23205 210.93422 210.56438 210.19155
 209.80572 209.51289 209.31806 209.17922 209.10439 209.43256 209.81573 210.20190
 210.99206 212.16723 213.41440 215.19457 217.11974 219.15991 221.25207 223.33224
 225.38941 227.47058 229.56475 231.66791 233.79408 235.96325 238.21642 240.58359
 243.20175 245.44992 247.44909 249.21126 250.62543 251.74559 252.56476 252.87793
 252.91210 252.68327 252.04043 250.98560 249.58877 247.74694 245.65311 243.48327
 241.27144 239.07261 236.88978 234.72595 232.58311 230.44728 228.47045 226.62462
 224.90479 223.37395 222.00112 220.77029 219.64946 218.60663 217.70779 216.84596
 216.08513 215.26230 214.35747 213.71863 213.16580 213.09314 212.92148 212.18314
 212.71780 214.88742 216.70494 217.83685 219.36165 222.59192 228.13368 232.69362
 236.38831 240.36189 244.57915 248.72211 252.38544 255.19049 257.60291 260.18286
 262.61508 265.04929 267.46289 269.65814 271.87738 274.09183 275.91315 277.52118
 279.15024 280.77106 282.31439 283.68323 284.87189 285.92734 286.89474 287.77267
 288.56894 289.28619 289.91852 290.78052
 366.78100 356.33097 345.75894 334.62091 323.01988 311.20984 299.07581 286.87478
 274.58275 262.47572 250.48069 239.77766 229.89563 220.99559 213.17356 206.17153
 200.00150 194.93547 191.51344 189.55141 188.58438 188.64435 189.47531 190.77928
 192.50025 194.59122 196.85019 199.20516 201.64613 204.12210 206.20606 208.04403
 209.66600 210.80697 211.03194 211.25591 211.18888 210.88985 210.51882 210.14478
 209.75775 209.46372 209.26769 209.12766 209.05163 209.37860 209.76057 210.14554
 210.93450 212.10847 213.35444 215.13341 217.05738 219.09635 221.18732 223.26629
 225.32225 227.40222 229.49519 231.59716 233.72213 235.89010 238.14207 240.50804
 243.12501 245.37197 247.36994 249.13091 250.54388 251.66285 252.48082 252.79279
 252.82576 252.59572 251.95169 250.89566 249.49763 247.65460 245.55957 243.38854
 241.17551 238.97548 236.79144 234.62641 232.48238 230.34535 228.36732 226.52029
 224.79926 223.26723 221.89319 220.66116 219.53913 218.49510 217.59507 216.73204
 215.97001 215.14598 214.23995 213.59991 213.04588 213.04066 213.02834 212.29547
 212.82056 214.97604 216.71614 217.88240 219.42958 222.58228 228.09058 232.62828
 236.32689 240.32335 244.55563 248.67506 252.25232 255.02406 257.45691 260.06818
 262.50089 264.92282 267.34424 269.57642 271.82996 274.06976 275.89130 277.48700
 279.10376 280.72540 282.27063 283.63940 284.82883 285.88464 286.85049 287.72949
 288.52692 289.24203 289.87650 290.74173
 366.78100 356.32977 345.75654 334.61730 323.01507 311.20384 299.06861 286.86638
 274.57314 262.46491 250.46868 239.76445 229.88122 220.97998 213.15675 206.15352
 199.98229 194.91506 191.49182 189.52859 188.56036 188.61913 189.44890 190.75166
 192.47143 194.56120 196.81897 199.17274 201.61250 204.08727 206.17004 208.00681
 209.62757 210.76734 210.99111 211.21388 211.14565 210.84541 210.47318 210.09795
 209.70972 209.41449 209.21725 209.07602 208.99879 209.32456 209.70533 210.08909
 210.87686 212.04963 213.29440 215.07217 216.99493 219.03270 221.12247 223.20024
 225.25501 227.33377 229.42554 231.52631 233.65008 235.81685 238.06761 240.43238
 243.04815 245.29392 247.29069 249.05045 250.46222 251.57999 252.39676 252.70753
 252.73929 252.50806 251.86283 250.80560 249.40637 247.56213 245.46590 243.29367
 241.07944 238.87821 236.69297 234.52674 232.38151 230.24328 228.26404 226.41581
 224.69358 223.16035 221.78512 220.55188 219.42865 218.38342 217.48219 216.61796
 215.85472 215.02949 214.12226 213.48103 212.92580 212.98753 213.13341 212.41992
 212.92647 215.04849 216.70837 217.91862 219.49519 222.57478 228.05594 232.57625
 236.27701 240.29431 244.53508 248.62518 252.11649 254.85355 257.30228 259.93896
 262.37927 264.80066 267.24017 269.51105 271.79688 274.05368 275.87393 277.45874
 279.06989 280.68143 282.22586 283.59589 284.78442 285.84106 286.80731 287.68607
 288.48544 289.20026 289.83606 290.69998
 366.78100 356.32850 345.75399 334.61349 323.00999 311.19748 299.06098 286.85748
 274.56297 262.45347 250.45596 239.75046 229.86596 220.96345 213.13895 206.13445
 199.96194 194.89344 191.46894 189.50443 188.53493 188.59243 189.42092 190.72242
 192.44091 194.52941 196.78591 199.13840 201.57690 204.05040 206.13189 207.96739
 209.58689 210.72538 210.94788 211.16938 211.09987 210.79837 210.42487 210.04836
 209.65886 209.36235 209.16385 209.02135 208.94284 209.26734 209.64684 210.02933
 210.81583 211.98733 213.23082 215.00732 216.92882 218.96531 221.05381 223.13030
 225.18380 227.26130 229.35179 231.45129 233.57379 235.73928 237.98878 240.35228
 242.96677 245.21127 247.20677 248.96526 250.37576 251.49226 252.30775 252.61725
 252.64774 252.41524 251.76874 250.71023 249.30973 247.46423 245.36672 243.19322
 240.97772 238.77521 236.58871 234.42121 232.27470 230.13520 228.15469 226.30519
 224.58169 223.04718 221.67068 220.43618 219.31167 218.26517 217.36267 216.49716
 215.73266 214.90616 213.99765 213.35515 212.79865 212.93065 213.24252 212.55313
 213.03995 215.10626 216.67323 217.94258 219.55382 222.57430 228.03050 232.53651
 236.23947 240.27705 244.52003 248.57423 251.97630 254.67435 257.13486 259.79193
 262.24985 264.68533 267.15118 269.46674 271.78189 274.04816 275.86322 277.43576
 279.04440 280.64005 282.18408 283.55389 284.74454 285.80057 286.76596 287.64627
 288.44415 289.16119 289.79416 290.66095
 366.78100 356.32729 345.75159 334.60988 323.00517 311.19146 299.05376 286.84905
 274.55334 262.44263 250.44393 239.73722 229.85151 220.94780 213.12210 206.11639
 199.94268 194.87297 191.44727 189.48156 188.51085 188.56714 189.39444 190.69473
 192.41202 194.49931 196.75461 199.10590 201.54319 204.01548 206.09578 207.93007
 209.54836 210.68565 210.90695 211.12724 211.05653 210.75382 210.37912 210.00141
 209.61070 209.31299 209.11329 208.96958 208.88987 209.21316 209.59146 209.97275
 210.75804 211.92833 213.17063 214.94592 216.86621 218.90150 220.98880 223.06409
 225.11638 227.19267 229.28197 231.38026 233.50155 235.66584 237.91414 240.27643
 242.88972 245.13301 247.12731 248.88460 250.29389 251.40918 252.22348 252.53177
 252.56106 252.32735 251.67965 250.61994 249.21823 247.37152 245.27282 243.09811
 240.88140 238.67770 236.48999 234.32128 232.17357 230.03287 228.05116 226.20045
 224.47574 222.94004 221.56233 220.32662 219.20091 218.15321 217.24950 216.38279
 215.61708 214.78938 213.87967 213.23596 212.67825 212.87686 213.34610 212.71382
 213.15253 215.13786 216.61465 217.94646 219.61098 222.56760 228.01176 232.50594
 236.21400 240.27280 244.51326 248.52420 251.83487 254.49222 256.96176 259.63480
 262.11865 264.57959 267.07864 269.44012 271.77838 274.04608 275.84988 277.40845
 279.01276 280.60269 282.14673 283.51669 284.70779 285.76385 286.73029 287.61017
 288.40836 289.12506 289.75891 290.62326
 366.78100 356.32503 345.74705 334.60308 322.99610 311.18013 299.04015 286.83318
 274.53520 262.42223 250.42125 239.71228 229.82430 220.91833 213.09035 206.08238
 199.90640 194.83443 191.40645 189.43848 188.46550 188.51953 189.34455 190.64258
 192.35760 194.44263 196.69565 199.04468 201.47970 203.94973 206.02775 207.85978
 209.47580 210.61083 210.82985 211.04788 210.97490 210.66993 210.29295 209.91298
 209.52000 209.22003 209.01805 208.87208 208.79010 209.11113 209.48715 209.86618
 210.64920 211.81723 213.05725 214.83028 216.74830 218.78133 220.86635 222.93938
 224.98940 227.06343 229.15045 231.24648 233.36550 235.52753 237.77355 240.13358
 242.74460 244.98563 246.97765 248.73268 250.13971 251.25273 252.06476 252.37078
 252.39781 252.16183 251.51186 250.44988 249.04591 247.19693 245.09596 242.91898
 240.70001 238.49403 236.30406 234.13308 231.98311 229.84013 227.85616 226.00318
 224.27621 222.73823 221.35826 220.12028 218.99231 217.94233 217.03636 216.16738
 215.39941 214.56943 213.65746 213.01148 212.45151 212.76947 213.52072 212.83348
 213.25966 215.17560 216.53326 217.93024 219.65691 222.58073 228.00208 232.48769
 236.20592 240.28712 244.51981 248.48096 251.70078 254.31560 256.78784 259.46786
 261.97791 264.47171 267.00912 269.41364 271.77380 274.03729 275.82553 277.37079
 278.97174 280.56992 282.11438 283.48456 284.67563 285.73254 286.69940 287.57819
 288.37506 289.09271 289.72757 290.59006
 366.78100 356.32360 345.74419 334.59879 322.99039 311.17298 299.03158 286.82317
 274.52377 262.40937 250.40696 239.69656 229.80716 220.89975 213.07035 206.06095
 199.88354 194.81014 191.38074 189.41133 188.43693 188.48952 189.31312 190.60972
 192.32331 194.40691 196.65851 199.00610 201.43970 203.90830 205.98489 207.81549
 209.43008 210.56368 210.78128 210.99787 210.92347 210.61707 210.23866 209.85726
 209.46286 209.16145 208.95805 208.81064 208.72724 209.04684 209.42143 209.79903
 210.58063 211.74722 212.98582 214.75742 216.67401 218.70561 220.78921 222.86080
 224.90940 226.98199 229.06759 231.16219 233.27978 235.44038 237.68498 240.04357
 242.65317 244.89277 246.88336 248.63696 250.04255 251.15415 251.96475 252.26934
 252.29494 252.05754 251.40613 250.34273 248.93733 247.08692 244.98452 242.80612
 240.58571 238.37831 236.18690 234.01450 231.86310 229.71869 227.73329 225.87889
 224.15048 222.61108 221.22968 219.99027 218.86087 217.80946 216.90206 216.03166
 215.26225 214.43085 213.51745 212.87004 212.30864 212.70720 213.64886 213.05023
 213.28705 215.14014 216.45784 217.93875 219.73712 222.59166 228.00957 232.49466
 236.21921 240.32138 244.53741 248.43829 251.56277 254.12808 256.59579 259.27667
 261.81479 264.35059 266.93372 269.38379 271.76801 274.02655 275.79868 277.33264
 278.92700 280.54196 282.08685 283.45721 284.64719 285.70374 286.66986 287.54929
 288.34723 289.06506 289.69681 290.55954
 366.78100 356.32634 345.74967 334.60701 323.00135 311.18668 299.04802 286.84235
 274.54569 262.43403 250.43436 239.72670 229.84004 220.93537 213.10871 206.10204
 199.92738 194.85672 191.43005 189.46339 188.49173 188.54706 189.37340 190.67273
 192.38907 194.47541 196.72974 199.08008 201.51642 203.98775 206.06709 207.90042
 209.51776 210.65410 210.87443 211.09377 211.02211 210.71844 210.34278 209.96411
 209.57245 209.27379 209.07312 208.92846 208.84780 209.17013 209.54747 209.92780
 210.71214 211.88148 213.12281 214.89715 216.81649 218.85082 220.93716 223.01149
 225.06283 227.13817 229.22650 231.32384 233.44418 235.60751 237.85485 240.21618
 242.82852 245.07086 247.06419 248.82053 250.22887 251.34320 252.15654 252.46387
 252.49221 252.25755 251.60888 250.54822 249.14556 247.29789 245.19823 243.02256
 240.80490 238.60024 236.41157 234.24191 232.09325 229.95158 227.96892 226.11725
 224.39159 222.85493 221.47626 220.23960 219.11294 218.06427 217.15961 216.29195
 215.52528 214.69662 213.78595 213.14129 212.58263 212.86235 213.52319 213.43465
 213.43646 214.94566 216.25610 217.94235 219.87917 222.67503 228.02444 232.50792
 236.23979 240.36038 244.55009 248.37804 251.39917 253.91280 256.37732 259.06311
 261.63846 264.22931 266.86670 269.36795 271.77408 274.02463 275.78229 277.30350
 278.87094 280.52905 282.06854 283.43427 284.62259 285.67697 286.64243 287.52203
 288.31946 289.03772 289.66669 290.53146
 366.78100 356.32711 345.75123 334.60934 323.00446 311.19057 299.05269 286.84780
 274.55191 262.44103 250.44214 239.73526 229.84937 220.94549 213.11960 206.11371
 199.93983 194.86994 191.44406 189.47817 188.50729 188.56340 189.39051 190.69063
 192.40774 194.49486 196.74997 199.10109 201.53820 204.01031 206.09043 207.92454
 209.54266 210.67977 210.90089 211.12100 211.05012 210.74723 210.37234 209.99446
 209.60357 209.30569 209.10580 208.96192 208.88203 209.20514 209.58326 209.96437
 210.74949 211.91960 213.16172 214.93683 216.85694 218.89206 220.97917 223.05429
 225.10640 227.18252 229.27163 231.36974 233.49086 235.65497 237.90309 240.26520
 242.87832 245.12143 247.11554 248.87266 250.28177 251.39689 252.21100 252.51912
 252.54823 252.31434 251.66646 250.60657 249.20469 247.35780 245.25892 243.08403
 240.86714 238.66326 236.47537 234.30649 232.15860 230.01772 228.03583 226.18494
 224.46006 222.92417 221.54629 220.31040 219.18452 218.13663 217.23275 216.36586
 215.59997 214.77209 213.86220 213.21832 212.66043 212.92117 213.53722 213.63283
 213.60262 214.82761 216.12019 217.95776 220.01083 222.78687 228.02727 232.51004
 236.25484 240.39514 244.55220 248.29854 251.21709 253.68484 256.15335 258.84927
 261.47110 264.12451 266.81937 269.36832 271.79019 274.02829 275.76822 277.27792
 278.82776 280.50641 282.04703 283.41159 284.59839 285.65176 286.61783 287.49561
 288.29300 289.00922 289.64200 290.49808
 366.78100 356.32674 345.75049 334.60823 323.00297 311.18871 299.05046 286.84520
 274.54894 262.43769 250.43843 239.73117 229.84491 220.94066 213.11440 206.10814
 199.93389 194.86363 191.43737 189.47112 188.49986 188.55560 189.38234 190.68209
 192.39883 194.48557 196.74032 199.09106 201.52780 203.99954 206.07929 207.91303
 209.53077 210.66752 210.88826 211.10800 211.03674 210.73349 210.35823 209.97997
 209.58872 209.29046 209.09020 208.94595 208.86569 209.18843 209.56617 209.94692
 210.73166 211.90140 213.14315 214.91789 216.83763 218.87237 220.95912 223.03386
 225.08560 227.16135 229.25009 231.34783 233.46857 235.63232 237.88006 240.24180
 242.85455 245.09729 247.09103 248.84777 250.25652 251.37126 252.18500 252.49275
 252.52149 252.28723 251.63898 250.57872 249.17646 247.32920 245.22995 243.05469
 240.83743 238.63318 236.44492 234.27566 232.12740 229.98615 228.00389 226.15263
 224.42738 222.89112 221.51286 220.27660 219.15035 218.10209 217.19783 216.33058
 215.56432 214.73606 213.82581 213.18155 212.62329 212.92131 213.62540 213.73685
 213.76381 214.81108 216.06281 217.94798 220.07692 222.87123 228.01132 232.50356
 236.26573 240.42665 244.54839 248.21117 251.03389 253.46368 255.93987 258.64609
 261.31750 264.03470 266.78320 269.37378 271.80481 274.02359 275.74246 277.24310
 278.78122 280.48730 282.02686 283.38846 284.57520 285.62631 286.59241 287.46933
 288.26642 288.98196 289.61343 290.46780
 366.78100 356.32668 345.75036 334.60804 323.00272 311.18840 299.05008 286.84476
 274.54844 262.43712 250.43781 239.73049 229.84417 220.93985 213.11353 206.10721
 199.93289 194.86257 191.43625 189.46993 188.49861 188.55429 189.38097 190.68065
 192.39733 194.48401 196.73869 199.08937 201.52605 203.99773 206.07742 207.91110
 209.52878 210.66546 210.88614 211.10582 211.03450 210.73118 210.35586 209.97754
 209.58622 209.28790 209.08758 208.94326 208.86294 209.18562 209.56330 209.94398
 210.72866 211.89834 213.14003 214.91471 216.83439 218.86907 220.95575 223.03043
 225.08211 227.15779 229.24647 231.34415 233.46483 235.62851 237.87619 240.23787
 242.85055 245.09323 247.08691 248.84359 250.25227 251.36695 252.18064 252.48832
 252.51700 252.28268 251.63436 250.57404 249.17172 247.32440 245.22508 243.04976
 240.83244 238.62812 236.43980 234.27048 232.12216 229.98084 227.99852 226.14720
 224.42188 222.88556 221.50725 220.27093 219.14461 218.09629 217.19197 216.32465
 215.55833 214.73001 213.81969 213.17537 212.61705 212.93645 213.69107 213.86011
 213.91240 214.83005 216.03519 217.91066 220.09749 222.93712 227.99124 232.50095
 236.28120 240.45998 244.54375 248.11998 250.85266 253.24857 255.73291 258.44925
 261.17017 263.95114 266.74966 269.37424 271.81216 274.01123 275.70911 277.20401
 278.73895 280.46051 282.00409 283.36667 284.55200 285.60315 286.56674 287.44345
 288.24036 288.95517 289.58423 290.43793
 366.78100 356.32699 345.75098 334.60897 323.00396 311.18995 299.05194 286.84693
 274.55092 262.43991 250.44090 239.73389 229.84788 220.94387 213.11786 206.11185
 199.93784 194.86783 191.44182 189.47581 188.50480 188.56079 189.38778 190.68777
 192.40476 194.49175 196.74674 199.09773 201.53472 204.00671 206.08670 207.92069
 209.53868 210.67567 210.89666 211.11665 211.04564 210.74263 210.36762 209.98961
 209.59860 209.30059 209.10058 208.95657 208.87656 209.19955 209.57754 209.95853
 210.74352 211.91352 213.15551 214.93050 216.85049 218.88548 220.97247 223.04746
 225.09945 227.17544 229.26443 231.36242 233.48341 235.64740 237.89539 240.25738
 242.87037 245.11336 247.10735 248.86434 250.27333 251.38832 252.20231 252.51030
 252.53929 252.30528 251.65727 250.59726 249.19525 247.34824 245.24923 243.07422
 240.85721 238.65320 236.46519 234.29618 232.14817 230.00716 228.02515 226.17414
 224.44913 222.91312 221.53511 220.29910 219.17309 218.12508 217.22107 216.35406
 215.58805 214.76004 213.85003 213.20602 212.64801 212.97069 213.73306 214.00751
 214.05162 214.85478 216.02043 217.86703 220.09937 222.99608 227.97475 232.50169
 236.30055 240.49188 244.53253 248.01801 250.66510 253.03125 255.52766 258.25473
 261.02640 263.86884 266.71347 269.36850 271.81296 273.99551 275.67715 277.17172
 278.72623 280.42975 281.97049 283.33408 284.51990 285.57263 286.53610 287.41385
 288.21005 288.92612 289.55542 290.40445
 366.78100 356.32743 345.75186 334.61030 323.00573 311.19216 299.05459 286.85003
 274.55446 262.44389 250.44532 239.73875 229.85319 220.94962 213.12405 206.11848
 199.94491 194.87535 191.44978 189.48421 188.51364 188.57008 189.39751 190.69794
 192.41537 194.50280 196.75824 199.10967 201.54710 204.01953 206.09996 207.93440
 209.55283 210.69026 210.91169 211.13213 211.06156 210.75899 210.38442 210.00685
 209.61629 209.31872 209.11915 208.97558 208.89601 209.21945 209.59788 209.97931
 210.76474 211.93518 213.17761 214.95304 216.87347 218.90890 220.99634 223.07177
 225.12420 227.20063 229.29006 231.38850 233.50993 235.67436 237.92279 240.28523
 242.89866 245.14209 247.13652 248.89395 250.30339 251.41882 252.23325 252.54168
 252.57111 252.33755 251.68998 250.63041 249.22884 247.38228 245.28371 243.10914
 240.89257 238.68900 236.50144 234.33287 232.18530 230.04473 228.06316 226.21260
 224.48803 222.95246 221.57489 220.33933 219.21376 218.16619 217.26262 216.39605
 215.63049 214.80292 213.89335 213.24978 212.69221 213.01285 213.77036 214.15331
 214.19495 214.88594 216.01932 217.83189 220.09186 223.04437 227.96101 232.50192
 236.31981 240.51797 244.50981 247.90115 250.46622 252.80779 255.32051 258.06378
 260.88708 263.78854 266.67566 269.35864 271.80984 273.97852 275.64587 277.14047
 278.71970 280.38776 281.93344 283.30176 284.48877 285.54291 286.50583 287.38422
 288.18024 288.89365 289.52484 290.36957
 366.78100 356.32789 345.75278 334.61167 323.00755 311.19444 299.05733 286.85322
 274.55811 262.44800 250.44988 239.74377 229.85866 220.95555 213.13044 206.12533
 199.95221 194.88310 191.45799 189.49288 188.52277 188.57966 189.40754 190.70843
 192.42632 194.51421 196.77010 199.12199 201.55987 204.03276 206.11365 207.94854
 209.56743 210.70532 210.92721 211.14809 211.07798 210.77587 210.40176 210.02465
 209.63454 209.33742 209.13831 208.99520 208.91609 209.23998 209.61887 210.00075
 210.78664 211.95753 213.20042 214.97631 216.89720 218.93308 221.02097 223.09686
 225.14975 227.22664 229.31653 231.41541 233.53730 235.70219 237.95108 240.31397
 242.92786 245.17175 247.16663 248.92452 250.33441 251.45030 252.26519 252.57408
 252.60396 252.37085 251.72374 250.66463 249.26352 247.41741 245.31929 243.14518
 240.92907 238.72596 236.53885 234.37074 232.22362 230.08351 228.10240 226.25229
 224.52818 222.99307 221.61595 220.38084 219.25573 218.20862 217.30551 216.43940
 215.67429 214.84717 213.93806 213.29495 212.73784 213.05742 213.81248 214.28535
 214.34651 214.92795 216.03185 217.81154 220.08186 223.07927 227.94778 232.49844
 236.33594 240.53471 244.47177 247.76505 250.25247 252.57588 255.11177 257.87833
 260.75491 263.71249 266.63641 269.34451 271.80338 273.96252 275.62216 277.12073
 278.70587 280.35132 281.89572 283.26605 284.45285 285.50830 286.47247 287.35178
 288.15149 288.87033 289.50082 290.34567
 366.78100 356.32832 345.75365 334.61297 323.00929 311.19662 299.05994 286.85626
 274.56159 262.45191 250.45423 239.74856 229.86388 220.96120 213.13653 206.13185
 199.95917 194.89050 191.46582 189.50114 188.53147 188.58879 189.41711 190.71844
 192.43676 194.52508 196.78140 199.13373 201.57205 204.04537 206.12670 207.96202
 209.58134 210.71967 210.94199 211.16331 211.09364 210.79196 210.41828 210.04161
 209.65193 209.35525 209.15658 209.01390 208.93522 209.25955 209.63887 210.02119
 210.80752 211.97884 213.22216 214.99849 216.91981 218.95613 221.04446 223.12078
 225.17410 227.25143 229.34175 231.44107 233.56340 235.72872 237.97804 240.34137
 242.95569 245.20001 247.19534 248.95366 250.36398 251.48031 252.29563 252.60495
 252.63527 252.40260 251.75592 250.69724 249.29657 247.45089 245.35321 243.17954
 240.96386 238.76118 236.57451 234.40683 232.26015 230.12048 228.13980 226.29012
 224.56645 223.03177 221.65509 220.42042 219.29574 218.24906 217.34639 216.48071
 215.71603 214.88936 213.98068 213.33800 212.78133 213.10248 213.86122 214.40308
 214.50113 214.98311 216.05251 217.80923 220.07999 223.10669 227.93449 232.49150
 236.34622 240.53831 244.41228 247.60466 250.01900 252.33488 254.90585 257.70526
 260.63623 263.64441 266.59677 269.32358 271.78784 273.93600 275.58951 277.09891
 278.68460 280.31985 281.86615 283.23541 284.42355 285.47906 286.44482 287.32449
 288.12622 288.84607 289.47809 290.31943
 366.78100 356.32876 345.75452 334.61428 323.01103 311.19879 299.06255 286.85931
 274.56507 262.45583 250.45859 239.75334 229.86910 220.96686 213.14262 206.13838
 199.96614 194.89790 191.47365 189.50941 188.54017 188.59793 189.42669 190.72845
 192.44721 194.53596 196.79272 199.14548 201.58424 204.05800 206.13976 207.97552
 209.59528 210.73403 210.95679 211.17855 211.10931 210.80807 210.43483 210.05859
 209.66934 209.37310 209.17486 209.03262 208.95438 209.27914 209.65890 210.04165
 210.82841 212.00017 213.24393 215.02069 216.94245 218.97921 221.06796 223.14472
 225.19848 227.27624 229.36700 231.46676 233.58952 235.75527 238.00503 240.36879
 242.98355 245.22831 247.22407 248.98283 250.39358 251.51034 252.32610 252.63586
 252.66662 252.43438 251.78814 250.72989 249.32965 247.48441 245.38717 243.21393
 240.99869 238.79645 236.61020 234.44296 232.29672 230.15748 228.17724 226.32800
 224.60476 223.07052 221.69427 220.46003 219.33579 218.28955 217.38731 216.52207
 215.75783 214.93158 214.02334 213.38110 212.82486 213.14867 213.91368 214.51740
 214.64714 215.04736 216.09027 217.82626 220.08746 223.13379 227.92125 232.48079
 236.34761 240.52400 244.32472 247.41290 249.76332 252.08818 254.70833 257.55133
 260.53659 263.58780 266.56018 269.29803 271.76535 273.89941 275.54749 277.06702
 278.65271 280.28876 281.83499 283.20428 284.39310 285.44785 286.41409 287.29416
 288.09592 288.81650 289.44531 290.28860
 366.78100 356.32921 345.75543 334.61564 323.01285 311.20107 299.06528 286.86249
 274.56871 262.45992 250.46313 239.75835 229.87456 220.97277 213.14899 206.14520
 199.97341 194.90563 191.48184 189.51805 188.54927 188.60748 189.43669 190.73891
 192.45812 194.54733 196.80455 199.15776 201.59697 204.07119 206.15340 207.98961
 209.60983 210.74904 210.97225 211.19447 211.12568 210.82489 210.45211 210.07632
 209.68753 209.39175 209.19396 209.05217 208.97439 209.29960 209.67981 210.06303
 210.85024 212.02245 213.26667 215.04388 216.96609 219.00331 221.09252 223.16973
 225.22395 227.30216 229.39337 231.49359 233.61680 235.78301 238.03323 240.39744
 243.01265 245.25787 247.25408 249.01329 250.42450 251.54172 252.35793 252.66814
 252.69936 252.46757 251.82178 250.76400 249.36421 247.51942 245.42264 243.24985
 241.03506 238.83328 236.64749 234.48070 232.33492 230.19613 228.21634 226.36756
 224.64477 223.11098 221.73520 220.50141 219.37762 218.33184 217.43005 216.56526
 215.80148 214.97569 214.06790 213.42612 212.87033 213.19630 213.96646 214.62857
 214.79034 215.12306 216.12350 217.85542 220.10901 223.15575 227.90857 232.46965
 236.34178 240.49144 244.21091 247.19531 249.49553 251.84328 254.52084 257.41486
 260.45306 263.53943 266.52222 269.26764 271.73941 273.86472 275.51184 277.03500
 278.61649 280.24725 281.79071 283.16025 284.34976 285.40305 286.36914 287.24973
 288.05029 288.76944 289.40103 290.23590
 366.78100 356.32989 345.75678 334.61767 323.01556 311.20445 299.06934 286.86723
 274.57412 262.46601 250.46990 239.76579 229.88268 220.98157 213.15846 206.15535
 199.98424 194.91713 191.49402 189.53090 188.56279 188.62168 189.45157 190.75446
 192.47435 194.56424 196.82213 199.17602 201.61591 204.09080 206.17369 208.01058
 209.63147 210.77136 210.99525 211.21814 211.15003 210.84992 210.47781 210.10270
 209.71459 209.41948 209.22237 209.08126 209.00415 209.33004 209.71093 210.09482
 210.88271 212.05560 213.30049 215.07838 217.00127 219.03916 221.12905 223.20694
 225.26182 227.34071 229.43260 231.53349 233.65738 235.82427 238.07516 240.44005
 243.05594 245.30183 247.29872 249.05861 250.47050 251.58839 252.40528 252.71617
 252.74806 252.51695 251.87184 250.81473 249.41562 247.57151 245.47540 243.30329
 241.08918 238.88807 236.70296 234.53685 232.39174 230.25363 228.27452 226.42641
 224.70430 223.17119 221.79608 220.56297 219.43986 218.39474 217.49363 216.62952
 215.86641 215.04130 214.13419 213.49308 212.93797 213.25655 214.00920 214.73682
 214.93748 215.17982 216.18669 217.90544 220.12509 223.19247 227.90251 232.46338
 236.33423 240.44646 244.07582 246.95721 249.21667 251.59404 254.33443 257.28427
 260.37579 263.49002 266.47760 269.23038 271.71301 273.84158 275.49747 277.01608
 278.58060 280.19067 281.73233 283.10187 284.29047 285.34460 286.30981 287.19028
 287.98898 288.71094 289.33957 290.17990
 366.78100 356.33058 345.75816 334.61974 323.01833 311.20791 299.07349 286.87207
 274.57965 262.47223 250.47681 239.77340 229.89098 220.99056 213.16814 206.16572
 199.99530 194.92888 191.50647 189.54405 188.57663 188.63621 189.46679 190.77037
 192.49095 194.58154 196.84012 199.19470 201.63528 204.11086 206.19444 208.03202
 209.65361 210.79419 211.01877 211.24235 211.17493 210.87551 210.50409 210.12968
 209.74226 209.44784 209.25142 209.11100 209.03458 209.36116 209.74274 210.12733
 210.91591 212.08949 213.33507 215.11365 217.03723 219.07581 221.16640 223.24498
 225.30056 227.38014 229.47272 231.57430 233.69888 235.86647 238.11805 240.48363
 243.10021 245.34679 247.34437 249.10495 250.51754 251.63612 252.45370 252.76528
 252.79786 252.56744 251.92302 250.86661 249.46819 247.62477 245.52935 243.35793
 241.14451 238.94409 236.75968 234.59426 232.44984 230.31242 228.33400 226.48658
 224.76516 223.23275 221.85833 220.62591 219.50349 218.45907 217.55865 216.69523
 215.93282 215.10840 214.20198 213.56156 213.00714 213.31909 214.05611 214.82486
 215.09900 215.24234 216.24760 217.99413 220.18539 223.18883 227.89793 232.46495
 236.32146 240.38248 243.91153 246.68925 248.91988 251.33833 254.14970 257.16467
 260.30972 263.44675 266.43375 269.19122 271.68555 273.82550 275.49957 277.01718
 278.55359 280.12177 281.65860 283.02713 284.21579 285.27023 286.23560 287.11490
 287.91681 288.63596 289.26840 290.10153
 366.78100 356.33219 345.76137 334.62456 323.02475 311.21593 299.08312 286.88331
 274.59249 262.48668 250.49287 239.79105 229.91024 221.01143 213.19062 206.18980
 200.02099 194.95618 191.53536 189.57455 188.60874 188.66992 189.50211 190.80730
 192.52948 194.62167 196.88186 199.23804 201.68023 204.15742 206.24260 208.08179
 209.70498 210.84716 211.07335 211.29854 211.23272 210.93491 210.56510 210.19228
 209.80647 209.51366 209.31885 209.18003 209.10522 209.43341 209.81659 210.20278
 210.99297 212.16815 213.41534 215.19553 217.12071 219.16090 221.25309 223.33327
 225.39046 227.47165 229.56583 231.66902 233.79521 235.96439 238.21758 240.58477
 243.20295 245.45114 247.45033 249.21251 250.62670 251.74689 252.56608 252.87926
 252.91345 252.68464 252.04182 250.98701 249.59020 247.74838 245.65457 243.48476
 241.27294 239.07413 236.89132 234.72750 232.58469 230.44888 228.47206 226.62625
 224.90644 223.37562 222.00281 220.77200 219.65118 218.60837 217.70956 216.84774
 216.08693 215.26412 214.35931 213.72049 213.16768 213.42859 214.04501 214.95517
 215.24930 215.32632 216.34993 218.07426 220.18352 223.15904 227.89285 232.46991
 236.30534 240.30298 243.72710 246.40640 248.62273 251.09149 253.97754 257.06323
 260.25986 263.41449 266.39444 269.15167 271.65222 273.80026 275.49554 277.02411
 278.53766 280.04633 281.57809 282.94531 284.13477 285.18845 286.15283 287.03540
 287.83539 288.55469 289.18857 290.01959
 366.78100 356.33409 345.76517 334.63026 323.03235 311.22543 299.09452 286.89661
 274.60769 262.50378 250.51187 239.81195 229.93304 221.03613 213.21721 206.21830
 200.05139 194.98847 191.56956 189.61065 188.64673 188.70982 189.54391 190.85099
 192.57508 194.66917 196.93125 199.28934 201.73343 204.21251 206.29960 208.14069
 209.76577 210.90986 211.13795 211.36503 211.30112 211.00521 210.63729 210.26638
 209.88247 209.59155 209.39864 209.26173 209.18881 209.51890 209.90399 210.29207
 211.08416 212.26125 213.51033 215.29242 217.21951 219.26159 221.35568 223.43777
 225.49685 227.57994 229.67603 231.78111 233.90920 236.08029 238.33537 240.70446
 243.32455 245.57463 247.57572 249.33981 250.75589 251.87798 252.69907 253.01415
 253.05024 252.82333 252.18241 251.12950 249.73459 247.89467 245.80276 243.63485
 241.42493 239.22802 237.04711 234.88519 232.74428 230.61037 228.63545 226.79154
 225.07363 223.54471 222.17380 220.94489 219.82597 218.78506 217.88815 217.02823
 216.26932 215.44841 214.54549 213.90858 213.35767 213.55447 214.01945 215.05592
 215.46037 215.42747 216.39784 218.11641 220.22511 223.16525 227.89940 232.48279
 236.28569 240.20712 243.52132 246.10382 248.31514 250.84036 253.80638 256.96872
 260.21774 263.38641 266.35715 269.11200 271.61844 273.77267 275.48810 277.03061
 278.51978 279.97229 281.49554 282.86389 284.05179 285.10590 286.07025 286.95233
 287.75226 288.47260 289.10532 289.93991
 366.78100 356.33483 345.76665 334.63248 323.03530 311.22913 299.09895 286.90178
 274.61360 262.51043 250.51925 239.82008 229.94190 221.04573 213.22755 206.22938
 200.06320 195.00103 191.58285 189.62468 188.66150 188.72533 189.56015 190.86798
 192.59280 194.68763 196.95045 199.30928 201.75410 204.23393 206.32175 208.16358
 209.78940 210.93423 211.16305 211.39088 211.32770 211.03253 210.66535 210.29518
 209.91200 209.62183 209.42965 209.29348 209.22130 209.55213 209.93795 210.32678
 211.11960 212.29743 213.54725 215.33008 217.25790 219.30073 221.39555 223.47838
 225.53820 227.62203 229.71885 231.82468 233.95350 236.12533 238.38115 240.75098
 243.37180 245.62263 247.62445 249.38928 250.80610 251.92893 252.75075 253.06658
 253.10340 252.87723 252.23705 251.18488 249.79070 247.95153 245.86035 243.69318
 241.48400 239.28783 237.10765 234.94648 232.80630 230.67313 228.69895 226.85578
 225.13860 223.61043 222.24025 221.01208 219.89390 218.85373 217.95755 217.09838
 216.34020 215.52003 214.61785 213.98168 213.43150 213.62502 214.08223 215.05186
 215.66716 215.55379 216.41753 218.16452 220.27776 223.28117 227.92776 232.48528
 236.25264 240.09135 243.29060 245.78082 247.99649 250.58505 253.63580 256.88040
 260.18106 263.36063 266.32016 269.07333 271.58969 273.75778 275.49469 277.04224
 278.49777 279.89777 281.41284 282.77814 283.96332 285.01825 285.98248 286.86261
 287.66409 288.38464 289.01761 289.85220
 366.78100 356.33593 345.76886 334.63579 323.03971 311.23464 299.10557 286.90950
 274.62243 262.52036 250.53029 239.83221 229.95514 221.06007 213.24300 206.24593
 200.08086 195.01979 191.60271 189.64564 188.68357 188.74850 189.58443 190.89336
 192.61929 194.71521 196.97914 199.33907 201.78500 204.26593 206.35486 208.19779
 209.82471 210.97064 211.20057 211.42950 211.36743 211.07336 210.70728 210.33821
 209.95614 209.66707 209.47600 209.34093 209.26986 209.60178 209.98871 210.37864
 211.17257 212.35150 213.60243 215.38636 217.31528 219.35921 221.45514 223.53907
 225.60000 227.68493 229.78286 231.88978 234.01971 236.19264 238.44957 240.82050
 243.44243 245.69436 247.69728 249.46321 250.88114 252.00507 252.82800 253.14493
 253.18286 252.95778 252.31871 251.26764 249.87457 248.03650 245.94643 243.78036
 241.57228 239.37721 237.19814 235.03807 232.89900 230.76693 228.79386 226.95178
 225.23571 223.70864 222.33957 221.11250 219.99543 218.95636 218.06128 217.20321
 216.44614 215.62707 214.72600 214.09093 213.54185 213.71538 214.12534 215.05038
 215.89911 215.62744 216.43796 218.28972 220.34729 223.34718 227.94925 232.47780
 236.20967 239.96570 243.05176 245.45769 247.68419 250.33696 253.47169 256.79865
 260.14679 263.33105 266.27786 269.03119 271.56259 273.75159 275.51401 277.06821
 278.49332 279.86038 281.31589 282.67691 283.86252 284.91638 285.88370 286.76328
 287.56500 288.28693 288.92090 289.75620
 366.78100 356.33801 345.77303 334.64204 323.04806 311.24507 299.11809 286.92410
 274.63911 262.53913 250.55114 239.85516 229.98017 221.08719 213.27220 206.27721
 200.11423 195.05524 191.64026 189.68527 188.72529 188.79230 189.63031 190.94133
 192.66934 194.76736 197.03337 199.39539 201.84340 204.32641 206.41743 208.26244
 209.89146 211.03947 211.27149 211.50250 211.44251 211.15053 210.78654 210.41956
 210.03957 209.75259 209.56360 209.43061 209.36163 209.69564 210.08466 210.47667
 211.27269 212.45370 213.70671 215.49273 217.42374 219.46976 221.56777 223.65378
 225.71680 227.80381 229.90383 232.01284 234.14486 236.31987 238.57888 240.95190
 243.57591 245.82993 247.83494 249.60296 251.02297 252.14898 252.97400 253.29301
 253.33303 253.11004 252.47306 251.42407 250.03308 248.19710 246.10911 243.94513
 241.73914 239.54616 237.36917 235.21118 233.07420 230.94421 228.97323 227.13324
 225.41926 223.89427 222.52728 221.30230 220.18731 219.15033 218.25734 217.40136
 216.64637 215.82938 214.93040 214.29741 213.75043 213.85660 214.10742 215.08406
 216.11649 215.71924 216.48749 218.44513 220.40828 223.36038 227.96321 232.46408
 236.17067 239.84006 242.81131 245.13380 247.37167 250.08775 253.30606 256.71591
 260.10855 263.29553 266.23203 268.98962 271.53781 273.75262 275.54324 277.10397
 278.50784 279.84854 281.22415 282.57916 283.76611 284.82101 285.78818 286.67047
 287.47192 288.19528 288.82996 289.66635
 366.78100 356.34045 345.77791 334.64936 323.05781 311.25727 299.13272 286.94117
 274.65862 262.56108 250.57553 239.88198 230.00944 221.11889 213.30634 206.31380
 200.15325 195.09670 191.68416 189.73161 188.77406 188.84351 189.68397 190.99742
 192.72787 194.82833 197.09678 199.46123 201.91169 204.39714 206.49059 208.33805
 209.96950 211.11995 211.35440 211.58786 211.53031 211.24076 210.87922 210.51467
 210.13712 209.85258 209.66603 209.53548 209.46894 209.80539 210.19684 210.59129
 211.38975 212.57320 213.82865 215.61711 217.55056 219.59901 221.69947 223.78792
 225.85337 227.94283 230.04528 232.15673 234.29119 236.46864 238.73009 241.10554
 243.73200 245.98845 247.99590 249.76636 251.18881 252.31726 253.14472 253.46617
 253.50862 253.28808 252.65353 251.60698 250.21843 248.38489 246.29934 244.13779
 241.93425 239.74370 237.56915 235.41361 233.27906 231.15151 229.18297 227.34542
 225.63387 224.11132 222.74678 221.52423 220.41168 219.37714 218.48659 217.63304
 216.88050 216.06595 215.16940 214.53886 213.99431 214.01611 214.06763 215.14072
 216.28342 215.85262 216.57225 218.57481 220.45432 223.38049 227.98906 232.45091
 236.13484 239.70569 242.55748 244.79587 247.04994 249.83382 253.13914 256.63379
 260.06808 263.25845 266.18942 268.95197 271.51913 273.76062 275.57718 277.14584
 278.53000 279.83948 281.14627 282.49545 283.68466 284.74048 285.70807 286.59143
 287.39581 288.11755 288.75174 289.59155
 366.78100 356.34217 345.78135 334.65452 323.06470 311.26587 299.14305 286.95322
 274.67240 262.57657 250.59275 239.90092 230.03010 221.14127 213.33045 206.33962
 200.18080 195.12597 191.71515 189.76432 188.80850 188.87967 189.72185 191.03702
 192.76920 194.87137 197.14155 199.50772 201.95990 204.44707 206.54225 208.39142
 210.02460 211.17677 211.41295 211.64812 211.59230 211.30447 210.94465 210.58182
 210.20600 209.92317 209.73835 209.60952 209.54470 209.88287 210.27604 210.67222
 211.47239 212.65757 213.91474 215.70492 217.64009 219.69027 221.79244 223.88262
 225.94979 228.04097 230.14514 232.25832 234.39449 236.57367 238.83684 241.21402
 243.84219 246.10037 248.10954 249.88172 251.30589 252.43607 253.26524 253.58842
 253.63259 253.41377 252.78094 251.73612 250.34929 248.51747 246.43364 244.27382
 242.07199 239.88317 237.71034 235.55652 233.42369 231.29787 229.33104 227.49522
 225.78539 224.26456 222.90174 221.68091 220.57009 219.53726 218.64844 217.79661
 217.04579 216.23296 215.33814 214.70931 214.16649 214.13811 214.07108 215.18486
 216.39523 216.00085 216.68599 218.67024 220.50589 223.43195 228.03049 232.43822
 236.08961 239.55710 242.29353 244.45758 246.73822 249.59277 252.98267 256.55795
 260.02856 263.21982 266.14569 268.91324 271.49881 273.76483 275.60748 277.18848
 278.55716 279.83481 281.08002 282.42365 283.61270 284.66980 285.63846 286.52258
 287.32797 288.05136 288.68881 289.52643
 366.78100 356.34297 345.78294 334.65692 323.06789 311.26986 299.14783 286.95880
 274.67878 262.58375 250.60072 239.90969 230.03966 221.15164 213.34161 206.35158
 200.19355 195.13952 191.72950 189.77947 188.82444 188.89641 189.73938 191.05536
 192.78833 194.89130 197.16227 199.52924 201.98222 204.47019 206.56616 208.41613
 210.05010 211.20308 211.44005 211.67602 211.62099 211.33396 210.97494 210.61291
 210.23788 209.95585 209.77182 209.64380 209.57977 209.91874 210.31271 210.70968
 211.51066 212.69663 213.95460 215.74557 217.68154 219.73252 221.83549 223.92646
 225.99443 228.08640 230.19138 232.30535 234.44232 236.62229 238.88626 241.26424
 243.89321 246.15218 248.16215 249.93512 251.36010 252.49107 253.32104 253.64501
 253.68998 253.47196 252.83993 251.79590 250.40987 248.57884 246.49582 244.33679
 242.13576 239.94773 237.77570 235.62268 233.49065 231.36562 229.39959 227.56456
 225.85554 224.33551 222.97348 221.75345 220.64342 219.61140 218.72337 217.87234
 217.12231 216.31028 215.41626 214.78823 214.24620 214.21143 214.12930 215.20929
 216.47188 216.14290 216.81041 218.73917 220.57420 223.50154 228.07812 232.42322
 236.03093 239.40224 242.03665 244.14012 246.45169 249.37132 252.83713 256.48425
 259.98236 263.17047 266.09174 268.86804 271.47183 273.76016 275.63049 277.23218
 278.59158 279.84943 281.03268 282.37210 283.56116 284.61722 285.58496 286.46799
 287.27286 287.99872 288.63425 289.47443
 366.78100 356.34367 345.78435 334.65902 323.07070 311.27337 299.15204 286.96372
 274.68439 262.59007 250.60774 239.91741 230.04809 221.16076 213.35144 206.36211
 200.20478 195.15146 191.74213 189.79281 188.83848 188.91116 189.75483 191.07150
 192.80518 194.90885 197.18053 199.54820 202.00187 204.49055 206.58722 208.43790
 210.07257 211.22624 211.46392 211.70059 211.64627 211.35994 211.00161 210.64029
 210.26596 209.98464 209.80131 209.67398 209.61066 209.95033 210.34501 210.74268
 211.54435 212.73103 213.98970 215.78138 217.71805 219.76973 221.87340 223.96507
 226.03375 228.12642 230.23210 232.34677 234.48444 236.66512 238.92979 241.30847
 243.93814 246.19781 248.20849 249.98216 251.40784 252.53951 253.37018 253.69486
 253.74053 253.52321 252.89188 251.84855 250.46323 248.63290 246.55058 244.39225
 242.19192 240.00460 237.83327 235.68095 233.54962 231.42530 229.45997 227.62564
 225.91732 224.39799 223.03667 221.81734 220.70801 219.67669 218.78936 217.93904
 217.18971 216.37838 215.48506 214.85773 214.31641 214.27849 214.18889 215.24701
 216.53429 216.27322 216.92754 218.79094 220.65627 223.57730 228.12514 232.40788
 235.96564 239.24957 241.79004 243.83615 246.17543 249.15733 252.69504 256.40604
 259.92670 263.11279 266.03674 268.82419 271.44595 273.75455 275.65259 277.27325
 278.62668 279.86911 281.01901 282.35199 283.53836 284.59222 285.55746 286.44186
 287.24561 287.97034 288.60873 289.44791
 366.78100 356.34463 345.78625 334.66188 323.07451 311.27813 299.15776 286.97039
 274.69201 262.59864 250.61727 239.92790 230.05952 221.17315 213.36478 206.37640
 200.22003 195.16766 191.75928 189.81091 188.85754 188.93116 189.77579 191.09342
 192.82804 194.93267 197.20530 199.57392 202.02855 204.51818 206.61580 208.46743
 210.10306 211.25769 211.49631 211.73394 211.68057 211.39519 211.03782 210.67745
 210.30407 210.02370 209.84133 209.71495 209.65258 209.99321 210.38883 210.78746
 211.59009 212.77771 214.03734 215.82997 217.76759 219.82022 221.92485 224.01748
 226.08710 228.18073 230.28736 232.40298 234.54161 236.72324 238.98886 241.36849
 243.99912 246.25974 248.27137 250.04600 251.47262 252.60525 253.43688 253.76250
 253.80913 253.59276 252.96238 251.92001 250.53564 248.70627 246.62489 244.46752
 242.26815 240.08177 237.91140 235.76003 233.62965 231.50628 229.54191 227.70853
 226.00116 224.48279 223.12241 221.90404 220.79567 219.76529 218.87892 218.02955
 217.28117 216.47080 215.57843 214.95206 214.41168 214.35736 214.22903 215.31348
 216.56456 216.39114 217.03581 218.84383 220.76176 223.66803 228.17709 232.39857
 235.89728 239.09264 241.53708 243.52927 245.90068 248.95061 252.56090 256.33051
 259.87064 263.06000 265.99146 268.78915 271.42239 273.74689 275.67078 277.30331
 278.64584 279.87225 281.02057 282.35092 283.53705 284.58875 285.55469 286.43765
 287.24185 287.96652 288.60504 289.43927
 366.78100 356.34508 345.78717 334.66325 323.07633 311.28041 299.16050 286.97358
 274.69566 262.60274 250.62183 239.93291 230.06499 221.17907 213.37116 206.38324
 200.22732 195.17540 191.76749 189.81957 188.86665 188.94073 189.78582 191.10390
 192.83898 194.94407 197.21715 199.58623 202.04131 204.53140 206.62948 208.48156
 210.11764 211.27273 211.51181 211.74989 211.69697 211.41206 211.05514 210.69522
 210.32230 210.04239 209.86047 209.73455 209.67263 210.01372 210.40980 210.80888
 211.61196 212.80005 214.06013 215.85321 217.79130 219.84438 221.94946 224.04254
 226.11263 228.20671 230.31379 232.42987 234.56896 236.75104 239.01712 241.39720
 244.02829 246.28937 248.30145 250.07653 251.50362 252.63670 253.46878 253.79486
 253.84195 253.62603 252.99611 251.95420 250.57028 248.74136 246.66044 244.50353
 242.30461 240.11869 237.94877 235.79786 233.66794 231.54502 229.58110 227.74819
 226.04127 224.52335 223.16343 221.94552 220.83760 219.80768 218.92176 218.07285
 217.32493 216.51501 215.62309 214.99718 214.45726 214.41023 214.29916 215.36749
 216.55109 216.50447 217.16302 218.92052 220.88689 223.77055 228.22488 232.38579
 235.81863 238.92004 241.27408 243.22946 245.64502 248.76596 252.44240 256.26031
 259.81497 263.00882 265.94803 268.75323 271.39566 273.73584 275.68295 277.31949
 278.64243 279.85590 281.01990 282.35352 283.53967 284.59332 285.55896 286.44092
 287.24478 287.96689 288.60333 289.43408
 366.78100 356.34455 345.78610 334.66166 323.07421 311.27776 299.15731 286.96986
 274.69142 262.59797 250.61652 239.92707 230.05862 221.17217 213.36373 206.37528
 200.21883 195.16638 191.75793 189.80949 188.85604 188.92959 189.77414 191.09169
 192.82625 194.93080 197.20335 199.57190 202.02645 204.51601 206.61356 208.46511
 210.10066 211.25521 211.49376 211.73132 211.67787 211.39242 211.03497 210.67452
 210.30108 210.02063 209.83818 209.71173 209.64928 209.98984 210.38539 210.78394
 211.58649 212.77404 214.03360 215.82615 217.76370 219.81625 221.92080 224.01335
 226.08291 228.17646 230.28301 232.39856 234.53711 236.71867 238.98422 241.36377
 243.99432 246.25487 248.26643 250.04098 251.46753 252.60008 253.43163 253.75718
 253.80374 253.58729 252.95684 251.91439 250.52994 248.70050 246.61905 244.46160
 242.26215 240.07570 237.90526 235.75381 233.62336 231.49991 229.53546 227.70202
 225.99457 224.47612 223.11567 221.89722 220.78877 219.75833 218.87188 218.02243
 217.27398 216.46353 215.57109 214.94464 214.40419 214.41206 214.43063 215.36331
 216.53261 216.64859 217.31099 219.00893 221.00017 223.85913 228.26276 232.36935
 235.72841 238.72997 241.00327 242.94398 245.41263 248.59987 252.33276 256.18710
 259.74966 262.94742 265.89612 268.71170 271.36621 273.72455 275.69699 277.33798
 278.63312 279.82599 281.01770 282.35336 283.53992 284.59402 285.55954 286.44327
 287.24442 287.96704 288.60104 289.42773
 366.78100 356.34413 345.78527 334.66040 323.07254 311.27567 299.15481 286.96694
 274.68808 262.59421 250.61235 239.92248 230.05362 221.16675 213.35789 206.36902
 200.21216 195.15929 191.75043 189.80156 188.84769 188.92083 189.76496 191.08210
 192.81623 194.92037 197.19250 199.56064 202.01477 204.50391 206.60104 208.45218
 210.08731 211.24145 211.47958 211.71672 211.66285 211.37698 211.01912 210.65825
 210.28439 210.00352 209.82066 209.69379 209.63093 209.97106 210.36620 210.76433
 211.56647 212.75360 214.01274 215.80487 217.74201 219.79414 221.89828 223.99041
 226.05954 228.15268 230.25881 232.37395 234.51208 236.69322 238.95835 241.33749
 243.96762 246.22776 248.23889 250.01303 251.43916 252.57130 253.40243 253.72757
 253.77370 253.55683 252.92597 251.88310 250.49824 248.66837 246.58651 244.42864
 242.22878 240.04191 237.87105 235.71918 233.58832 231.46445 229.49959 227.66572
 225.95786 224.43899 223.07813 221.85926 220.75039 219.71953 218.83266 217.98280
 217.23393 216.42307 215.53020 214.90334 214.36247 214.41785 214.54869 215.36000
 216.52142 216.81126 217.49500 219.08316 221.08333 223.94664 228.29185 232.35065
 235.62273 238.51672 240.72005 242.66499 245.19376 248.44453 252.22638 256.10715
 259.67389 262.87808 265.84076 268.67053 271.33975 273.71646 275.71344 277.36017
 278.63321 279.80936 281.01483 282.35269 283.53998 284.59286 285.55817 286.43845
 287.24097 287.96109 288.59436 289.41812
 366.78100 356.34391 345.78481 334.65972 323.07162 311.27453 299.15344 286.96534
 274.68625 262.59215 250.61006 239.91997 230.05087 221.16378 213.35468 206.36559
 200.20850 195.15540 191.74631 189.79721 188.84312 188.91603 189.75993 191.07684
 192.81074 194.91465 197.18656 199.55446 202.00837 204.49727 206.59418 208.44509
 210.07999 211.23390 211.47180 211.70871 211.65462 211.36852 211.01043 210.64933
 210.27524 209.99415 209.81105 209.68396 209.62086 209.96077 210.35568 210.75358
 211.55549 212.74239 214.00130 215.79321 217.73011 219.78202 221.88592 223.97783
 226.04674 228.13964 230.24555 232.36045 234.49836 236.67927 238.94417 241.32308
 243.95298 246.21289 248.22380 249.99770 251.42361 252.55551 253.38642 253.71133
 253.75723 253.54014 252.90904 251.86595 250.48086 248.65076 246.56867 244.41057
 242.21048 240.02339 237.85229 235.70020 233.56910 231.44501 229.47992 227.64582
 225.93773 224.41863 223.05754 221.83845 220.72935 219.69826 218.81116 217.96107
 217.21198 216.40088 215.50779 214.88069 214.33960 214.43187 214.64987 215.35672
 216.52600 216.98985 217.68364 219.15358 221.14006 224.01073 228.32196 232.34200
 235.51164 238.29582 240.43803 242.39525 244.98386 248.29489 252.12083 256.02081
 259.59009 262.80405 265.78674 268.63211 271.31464 273.70947 275.72949 277.38702
 278.64545 279.80634 281.01361 282.35117 283.53662 284.58939 285.55453 286.43463
 287.23569 287.95514 288.58701 289.40823
 366.78100 356.34407 345.78513 334.66020 323.07226 311.27533 299.15440 286.96646
 274.68753 262.59359 250.61166 239.92172 230.05279 221.16586 213.35692 206.36799
 200.21105 195.15812 191.74919 189.80025 188.84632 188.91938 189.76345 191.08052
 192.81458 194.91865 197.19071 199.55878 202.01285 204.50191 206.59898 208.45004
 210.08511 211.23917 211.47724 211.71431 211.66037 211.37444 211.01650 210.65557
 210.28164 210.00070 209.81777 209.69083 209.62790 209.96797 210.36303 210.76110
 211.56316 212.75023 214.00930 215.80136 217.73843 219.79049 221.89456 223.98662
 226.05569 228.14876 230.25482 232.36989 234.50795 236.68902 238.95409 241.33315
 243.96322 246.22328 248.23435 250.00842 251.43448 252.56655 253.39761 253.72268
 253.76875 253.55181 252.92088 251.87794 250.49301 248.66307 246.58114 244.42321
 242.22327 240.03634 237.86540 235.71347 233.58254 231.45860 229.49367 227.65973
 225.95180 224.43287 223.07193 221.85300 220.74406 219.71313 218.82620 217.97626
 217.22733 216.41639 215.52346 214.89652 214.35559 214.46313 214.71719 215.39732
 216.48422 217.17459 217.89287 219.18964 221.20306 224.11792 228.37405 232.33749
 235.39484 238.06392 240.14326 242.11604 244.76955 248.14651 252.01642 255.93103
 259.50296 262.73196 265.73828 268.59842 271.29172 273.70294 275.74887 277.41711
 278.65091 279.79172 281.00903 282.34689 283.53351 284.58679 285.55121 286.43143
 287.23062 287.95016 288.58145 289.40137
 366.78100 356.34486 345.78671 334.66257 323.07542 311.27928 299.15913 286.97199
 274.69385 262.60070 250.61956 239.93041 230.06227 221.17612 213.36798 206.37984
 200.22369 195.17155 191.76340 189.81526 188.86211 188.93597 189.78083 191.09868
 192.83354 194.93839 197.21125 199.58010 202.03496 204.52482 206.62267 208.47453
 210.11038 211.26524 211.50409 211.74195 211.68881 211.40366 211.04652 210.68637
 210.31323 210.03308 209.85094 209.72480 209.66265 210.00351 210.39936 210.79822
 211.60107 212.78893 214.04879 215.84164 217.77950 219.83235 221.93721 224.03006
 226.09992 228.19378 230.30063 232.41649 234.55534 236.73720 239.00305 241.38291
 244.01377 246.27462 248.28648 250.06133 251.48819 252.62104 253.45290 253.77875
 253.82561 253.60947 252.97932 251.93718 250.55303 248.72389 246.64274 244.48560
 242.28646 240.10031 237.93017 235.77902 233.64888 231.52573 229.56159 227.72845
 226.02130 224.50316 223.14301 221.92487 220.81672 219.78658 218.90044 218.05129
 217.30315 216.49300 215.60086 214.97471 214.43457 214.52287 214.73149 215.50528
 216.40155 217.29053 218.14795 219.34254 221.29314 224.20247 228.40947 232.29393
 235.24879 237.80545 239.82756 241.82965 244.56175 248.01144 251.92332 255.85051
 259.42825 262.67487 265.70181 268.57083 271.27011 273.69595 275.76471 277.43268
 278.63165 279.75580 281.00168 282.34308 283.53006 284.58197 285.54575 286.42569
 287.22546 287.94589 288.57544 289.39001
 366.78100 356.34552 345.78803 334.66455 323.07807 311.28258 299.16310 286.97662
 274.69913 262.60665 250.62617 239.93768 230.07020 221.18472 213.37723 206.38975
 200.23427 195.18278 191.77530 189.82782 188.87533 188.94985 189.79537 191.11388
 192.84940 194.95492 197.22843 199.59795 202.05347 204.54398 206.64250 208.49502
 210.13153 211.28705 211.52657 211.76508 211.71260 211.42812 211.07164 210.71215
 210.33967 210.06019 209.87870 209.75322 209.69174 210.03325 210.42977 210.82929
 211.63280 212.82132 214.08184 215.87535 217.81387 219.86739 221.97290 224.06642
 226.13694 228.23145 230.33897 232.45549 234.59500 236.77752 239.04404 241.42455
 244.05607 246.31759 248.33010 250.10562 251.53314 252.66665 253.49917 253.82569
 253.87320 253.65772 253.02824 251.98675 250.60327 248.77479 246.69430 244.53782
 242.33934 240.15385 237.98437 235.83389 233.70440 231.58192 229.61844 227.78595
 226.07947 224.56199 223.20250 221.98502 220.87754 219.84805 218.96257 218.11409
 217.36660 216.55712 215.66564 215.04015 214.50067 214.57327 214.74481 215.61720
 216.34753 217.35025 218.37032 219.55518 221.41293 224.23654 228.42165 232.21423
 235.09138 237.54739 239.52388 241.56966 244.38524 247.90372 251.84885 255.78444
 259.36786 262.62997 265.67224 268.54349 271.24554 273.68350 275.76974 277.43094
 278.60434 279.72452 280.99173 282.33505 283.52164 284.57410 285.53873 286.41702
 287.21725 287.93430 288.56604 289.37952
 366.78100 356.34554 345.78807 334.66461 323.07815 311.28268 299.16322 286.97675
 274.69929 262.60683 250.62636 239.93790 230.07044 221.18497 213.37751 206.39005
 200.23458 195.18312 191.77566 189.82819 188.87573 188.95026 189.79580 191.11434
 192.84987 194.95541 197.22895 199.59848 202.05402 204.54456 206.64309 208.49563
 210.13216 211.28770 211.52724 211.76577 211.71331 211.42885 211.07238 210.71292
 210.34046 210.06099 209.87953 209.75407 209.69260 210.03414 210.43067 210.83021
 211.63375 212.82228 214.08282 215.87636 217.81489 219.86843 221.97397 224.06750
 226.13804 228.23257 230.34011 232.45665 234.59618 236.77872 239.04526 241.42579
 244.05733 246.31887 248.33140 250.10694 251.53448 252.66801 253.50055 253.82708
 253.87462 253.65916 253.02969 251.98823 250.60477 248.77630 246.69584 244.53938
 242.34091 240.15545 237.98598 235.83552 233.70606 231.58359 229.62013 227.78767
 226.08120 224.56374 223.20428 221.98681 220.87935 219.84988 218.96442 218.11596
 217.36849 216.55903 215.66757 215.04210 214.50264 214.58923 214.79384 215.68817
 216.33928 217.40520 218.55629 219.78093 221.54677 224.23511 228.41745 232.11539
 234.93564 237.30128 239.24249 241.33864 244.23546 247.81429 251.78394 255.72209
 259.30786 262.58087 265.63522 268.51053 271.21735 273.66788 275.76984 277.43323
 278.59628 279.71460 280.97940 282.32269 283.50873 284.56171 285.52551 286.40353
 287.20197 287.92282 288.54953 289.36584
 366.78100 356.34503 345.78706 334.66309 323.07613 311.28016 299.16019 286.97322
 274.69525 262.60228 250.62132 239.93235 230.06438 221.17841 213.37044 206.38247
 200.22651 195.17454 191.76657 189.81860 188.86563 188.93966 189.78470 191.10273
 192.83776 194.94279 197.21582 199.58485 202.03989 204.52992 206.62795 208.47998
 210.11601 211.27104 211.51008 211.74811 211.69514 211.41017 211.05320 210.69323
 210.32027 210.04030 209.85833 209.73236 209.67039 210.01142 210.40746 210.80649
 211.60952 212.79755 214.05758 215.85061 217.78865 219.84168 221.94671 224.03974
 226.10977 228.20380 230.31083 232.42687 234.56590 236.74793 239.01396 241.39399
 244.02502 246.28606 248.29809 250.07312 251.50015 252.63318 253.46521 253.79125
 253.83828 253.62231 252.99234 251.95037 250.56640 248.73744 246.65647 244.49950
 242.30053 240.11456 237.94459 235.79363 233.66366 231.54069 229.57672 227.74375
 226.03678 224.51882 223.15885 221.94088 220.83291 219.80294 218.91697 218.06801
 217.32004 216.51007 215.61810 214.99213 214.45216 214.57706 214.87212 215.72302
 216.35774 217.47614 218.72397 220.00060 221.67480 224.22339 228.40837 232.01439
 234.78461 237.06549 238.97603 241.12439 244.09808 247.73103 251.71938 255.65480
 259.23956 262.52179 265.58939 268.47382 271.19000 273.65518 275.77698 277.45200
 278.61035 279.72232 280.96729 282.30768 283.49454 284.54721 285.51007 286.38785
 287.18716 287.90710 288.53497 289.34933
 366.78100 356.34431 345.78562 334.66094 323.07325 311.27656 299.15587 286.96819
 274.68950 262.59581 250.61412 239.92444 230.05575 221.16906 213.36037 206.37169
 200.21500 195.16231 191.75362 189.80493 188.85125 188.92456 189.76887 191.08618
 192.82050 194.92481 197.19712 199.56543 202.01975 204.50906 206.60637 208.45768
 210.09299 211.24731 211.48562 211.72293 211.66924 211.38356 211.02587 210.66518
 210.29149 210.01081 209.82812 209.70143 209.63874 209.97906 210.37437 210.77268
 211.57499 212.76230 214.02162 215.81393 217.75124 219.80355 221.90787 224.00018
 226.06949 228.16280 230.26912 232.38443 234.52274 236.70405 238.96936 241.34868
 243.97899 246.23930 248.25061 250.02493 251.45124 252.58355 253.41486 253.74018
 253.78649 253.56980 252.93911 251.89643 250.51174 248.68205 246.60036 244.44267
 242.24299 240.05630 237.88561 235.73392 233.60324 231.47955 229.51486 227.68117
 225.97349 224.45480 223.09411 221.87542 220.76674 219.73605 218.84936 217.99967
 217.25098 216.44030 215.54761 214.92092 214.38023 214.55182 214.95723 215.74878
 216.38626 217.55080 218.89323 220.19803 221.78722 224.23418 228.39870 231.91663
 234.63222 236.83287 238.71642 240.91922 243.96765 247.65144 251.65446 255.58366
 259.16577 262.45667 265.54083 268.43814 271.16690 273.64682 275.79184 277.48343
 278.63678 279.73611 280.95865 282.29684 283.48175 284.53607 285.49701 286.37512
 287.17413 287.89072 288.52219 289.33426
 366.78100 356.34369 345.78439 334.65908 323.07078 311.27347 299.15217 286.96386
 274.68456 262.59025 250.60795 239.91764 230.04833 221.16103 213.35172 206.36242
 200.20511 195.15181 191.74250 189.79320 188.83889 188.91158 189.75528 191.07197
 192.80567 194.90936 197.18106 199.54875 202.00245 204.49114 206.58784 208.43853
 210.07322 211.22692 211.46461 211.70131 211.64700 211.36070 211.00239 210.64109
 210.26678 209.98547 209.80217 209.67486 209.61156 209.95125 210.34595 210.74364
 211.54534 212.73203 213.99073 215.78242 217.71911 219.77081 221.87450 223.96620
 226.03489 228.12759 230.23328 232.34798 234.48567 236.66637 238.93106 241.30975
 243.93945 246.19914 248.20984 249.98353 251.40923 252.54092 253.37162 253.69631
 253.74200 253.52470 252.89339 251.85009 250.46478 248.63448 246.55217 244.39387
 242.19356 240.00626 237.83495 235.68264 233.55134 231.42703 229.46173 227.62742
 225.91912 224.39981 223.03851 221.81920 220.70989 219.67859 218.79128 217.94098
 217.19167 216.38037 215.48706 214.85976 214.31845 214.53018 215.03043 215.77519
 216.44479 217.62476 219.02814 220.37563 221.88615 224.25177 228.38756 231.82568
 234.48027 236.60799 238.47119 240.72990 243.84978 247.57941 251.59354 255.51428
 259.09232 262.39243 265.49304 268.40414 271.14499 273.63870 275.80609 277.51202
 278.65857 279.74799 280.95319 282.28983 283.47565 284.52695 285.48999 286.36734
 287.16687 287.88327 288.51028 289.32263
 366.78100 356.34324 345.78348 334.65772 323.06896 311.27120 299.14943 286.96067
 274.68091 262.58615 250.60339 239.91263 230.04287 221.15511 213.34535 206.35559
 200.19782 195.14406 191.73430 189.78454 188.82978 188.90202 189.74526 191.06150
 192.79474 194.89798 197.16921 199.53645 201.98969 204.47793 206.57417 208.42441
 210.05865 211.21189 211.44913 211.68537 211.63061 211.34384 210.98508 210.62332
 210.24856 209.96680 209.78304 209.65528 209.59152 209.93076 210.32500 210.72223
 211.52347 212.70971 213.96795 215.75919 217.69543 219.74667 221.84991 223.94115
 226.00939 228.10162 230.20686 232.32110 234.45834 236.63858 238.90282 241.28106
 243.91030 246.16954 248.17978 249.95302 251.37825 252.50949 253.33973 253.66397
 253.70921 253.49145 252.85969 251.81593 250.43017 248.59941 246.51664 244.35788
 242.15712 239.96936 237.79760 235.64484 233.51308 231.38832 229.42256 227.58780
 225.87904 224.35927 222.99751 221.77775 220.66799 219.63623 218.74847 217.89771
 217.14795 216.33619 215.44243 214.81466 214.27290 214.51517 215.08757 215.81679
 216.50729 217.70467 219.14529 220.50693 221.95544 224.27658 228.38278 231.75156
 234.33882 236.39848 238.24438 240.55843 243.74506 247.51443 251.53610 255.44719
 259.02063 262.33133 265.44748 268.37140 271.12256 273.62961 275.81546 277.53232
 278.67130 279.75342 280.95312 282.28784 283.47287 284.52667 285.48761 286.36411
 287.16159 287.87888 288.50644 289.31516
 366.78100 356.34307 345.78314 334.65720 323.06827 311.27034 299.14841 286.95947
 274.67954 262.58461 250.60168 239.91075 230.04081 221.15288 213.34295 206.35302
 200.19509 195.14115 191.73122 189.78129 188.82636 188.89842 189.74149 191.05756
 192.79063 194.89370 197.16476 199.53183 201.98490 204.47297 206.56903 208.41910
 210.05317 211.20624 211.44331 211.67937 211.62444 211.33751 210.97858 210.61665
 210.24171 209.95978 209.77585 209.64792 209.58398 209.92305 210.31712 210.71419
 211.51526 212.70132 213.95939 215.75046 217.68653 219.73760 221.84066 223.93173
 225.99980 228.09187 230.19693 232.31100 234.44807 236.62814 238.89221 241.27027
 243.89934 246.15841 248.16848 249.94154 251.36661 252.49768 253.32775 253.65182
 253.69688 253.47895 252.84702 251.80309 250.41716 248.58622 246.50329 244.34436
 242.14343 239.95549 237.78356 235.63063 233.49870 231.37377 229.40783 227.57290
 225.86397 224.34404 222.98210 221.76217 220.65224 219.62031 218.73238 217.88144
 217.13151 216.31958 215.42565 214.79772 214.25578 214.51297 215.12061 215.88849
 216.55840 217.77333 219.26466 220.59196 222.00018 224.32875 228.39154 231.68964
 234.20070 236.19380 238.02719 240.39838 243.64879 247.45447 251.48186 255.38293
 258.95340 262.27573 265.40472 268.33951 271.09830 273.61664 275.81702 277.54501
 278.68454 279.76291 280.95471 282.28964 283.47525 284.52640 285.48868 286.36517
 287.16129 287.87946 288.50928 289.31610
 366.78100 356.34287 345.78274 334.65662 323.06749 311.26936 299.14723 286.95810
 274.67797 262.58285 250.59972 239.90859 230.03846 221.15033 213.34020 206.35008
 200.19195 195.13782 191.72769 189.77756 188.82244 188.89431 189.73718 191.05305
 192.78592 194.88879 197.15967 199.52654 201.97941 204.46728 206.56315 208.41302
 210.04690 211.19977 211.43664 211.67251 211.61738 211.33025 210.97113 210.60900
 210.23387 209.95174 209.76761 209.63949 209.57536 209.91423 210.30810 210.70497
 211.50584 212.69172 213.94959 215.74046 217.67633 219.72720 221.83007 223.92095
 225.98882 228.08069 230.18556 232.29943 234.43631 236.61618 238.88005 241.25792
 243.88679 246.14566 248.15554 249.92841 251.35328 252.48415 253.31402 253.63789
 253.68277 253.46464 252.83251 251.78838 250.40225 248.57113 246.48800 244.32887
 242.12774 239.93961 237.76748 235.61436 233.48223 231.35710 229.39097 227.55584
 225.84671 224.32659 222.96446 221.74433 220.63420 219.60207 218.71395 217.86282
 217.11269 216.30056 215.40643 214.77830 214.23618 214.50847 215.15181 215.96640
 216.61125 217.83682 219.36281 220.65015 222.05719 224.40799 228.39539 231.62088
 234.05823 235.98938 237.81827 240.25095 243.56239 247.40022 251.43163 255.32231
 258.89218 262.22488 265.36279 268.30594 271.07275 273.59946 275.81149 277.55222
 278.69879 279.78030 280.96301 282.29633 283.48285 284.53397 285.49472 286.37332
 287.16962 287.88937 288.51678 289.32739
 366.78100 356.34241 345.78182 334.65523 323.06563 311.26704 299.14445 286.95486
 274.67427 262.57868 250.59508 239.90349 230.03290 221.14431 213.33372 206.34313
 200.18454 195.12994 191.71935 189.76876 188.81317 188.88458 189.72699 191.04240
 192.77480 194.87721 197.14762 199.51403 201.96644 204.45385 206.54925 208.39866
 210.03207 211.18448 211.42089 211.65630 211.60071 211.31311 210.95352 210.59093
 210.21534 209.93275 209.74816 209.61957 209.55497 209.89338 210.28679 210.68320
 211.48361 212.66902 213.92642 215.71683 217.65224 219.70265 221.80506 223.89547
 225.96288 228.05428 230.15869 232.27210 234.40851 236.58792 238.85133 241.22874
 243.85714 246.11555 248.12496 249.89737 251.32178 252.45219 253.28159 253.60500
 253.64941 253.43082 252.79823 251.75364 250.36705 248.53545 246.45186 244.29227
 242.09068 239.90209 237.72950 235.57591 233.44331 231.31772 229.35113 227.51554
 225.80595 224.28536 222.92276 221.70217 220.59158 219.55899 218.67040 217.81881
 217.06822 216.25562 215.36103 214.73244 214.18985 214.48967 215.19803 216.03984
 216.67241 217.89804 219.42982 220.69945 222.12399 224.48715 228.39120 231.54892
 233.91533 235.79083 237.62503 240.12346 243.49130 247.35550 251.38704 255.26668
 258.83621 262.17593 265.32053 268.27127 271.04568 273.57803 275.79810 277.54898
 278.71228 279.80145 280.97714 282.30780 283.49402 284.54541 285.50925 286.38513
 287.18268 287.90204 288.52951 289.34567
 366.78100 356.34168 345.78037 334.65305 323.06273 311.26342 299.14010 286.94978
 274.66847 262.57215 250.58783 239.89552 230.02420 221.13488 213.32357 206.33225
 200.17293 195.11762 191.70630 189.75498 188.79866 188.86935 189.71103 191.02571
 192.75740 194.85908 197.12876 199.49445 201.94613 204.43281 206.52750 208.37618
 210.00886 211.16055 211.39623 211.63091 211.57460 211.28628 210.92596 210.56265
 210.18633 209.90301 209.71770 209.58838 209.52306 209.86075 210.25343 210.64911
 211.44880 212.63348 213.89016 215.67985 217.61453 219.66421 221.76590 223.85558
 225.92226 228.01295 230.11663 232.22931 234.36499 236.54368 238.80636 241.18304
 243.81073 246.06841 248.07709 249.84878 251.27246 252.40214 253.23083 253.55351
 253.59719 253.37788 252.74456 251.69924 250.31193 248.47961 246.39529 244.23498
 242.03266 239.84334 237.67003 235.51571 233.38239 231.25608 229.28876 227.45244
 225.74213 224.22081 222.85749 221.63618 220.52486 219.49154 218.60223 217.74991
 216.99859 216.18528 215.28996 214.66064 214.11732 214.45670 215.25850 216.10457
 216.75568 217.96616 219.46300 220.72870 222.19299 224.55112 228.36455 231.45723
 233.76613 235.59695 237.45114 240.02037 243.43738 247.32111 251.35185 255.22079
 258.79068 262.13580 265.28482 268.24329 271.02368 273.55984 275.78476 277.54730
 278.71658 279.81631 280.98135 282.31720 283.50308 284.55551 285.51593 286.39432
 287.19302 287.91187 288.54205 289.35385
 366.78100 356.34093 345.77887 334.65080 323.05973 311.25966 299.13560 286.94453
 274.66246 262.56539 250.58033 239.88726 230.01519 221.12512 213.31306 206.32099
 200.16092 195.10485 191.69279 189.74072 188.78365 188.85358 189.69452 191.00845
 192.73938 194.84031 197.10925 199.47418 201.92511 204.41104 206.50498 208.35291
 209.98484 211.13577 211.37071 211.60464 211.54757 211.25850 210.89744 210.53337
 210.15630 209.87223 209.68617 209.55610 209.49003 209.82696 210.21890 210.61383
 211.41276 212.59669 213.85263 215.64156 217.57549 219.62442 221.72536 223.81429
 225.88022 227.97015 230.07309 232.18502 234.31995 236.49788 238.75982 241.13575
 243.76268 246.01961 248.02755 249.79848 251.22141 252.35034 253.17828 253.50021
 253.54314 253.32307 252.68901 251.64294 250.25487 248.42180 246.33674 244.17567
 241.97260 239.78253 237.60847 235.45340 233.31933 231.19226 229.22420 227.38713
 225.67606 224.15399 222.78993 221.56786 220.45579 219.42172 218.53166 217.67859
 216.92652 216.11245 215.21639 214.58632 214.04225 214.42297 215.32248 216.16841
 216.83481 218.02505 219.48888 220.73672 222.22298 224.56609 228.31387 231.36917
 233.62067 235.40289 237.28813 239.92940 243.39294 247.29341 251.32494 255.18758
 258.76062 262.11035 265.25952 268.22263 271.01141 273.55127 275.78094 277.54242
 278.71555 279.82309 280.99396 282.35590 283.54324 284.59891 285.56525 286.44907
 287.25427 287.98291 288.64163 289.50394
 366.78100 356.34096 345.77893 334.65089 323.05985 311.25982 299.13578 286.94474
 274.66271 262.56567 250.58063 239.88760 230.01556 221.12553 213.31349 206.32145
 200.16142 195.10538 191.69334 189.74131 188.78427 188.85423 189.69520 191.00916
 192.74012 194.84109 197.11005 199.47501 201.92598 204.41194 206.50590 208.35387
 209.98583 211.13680 211.37176 211.60572 211.54869 211.25965 210.89861 210.53458
 210.15754 209.87350 209.68747 209.55743 209.49139 209.82836 210.22032 210.61528
 211.41425 212.59821 213.85417 215.64314 217.57710 219.62607 221.72703 223.81599
 225.88196 227.97192 230.07488 232.18685 234.32181 236.49977 238.76174 241.13770
 243.76466 246.02163 248.02959 249.80055 251.22352 252.35248 253.18044 253.50241
 253.54537 253.32533 252.69130 251.64526 250.25723 248.42419 246.33915 244.17812
 241.97508 239.78504 237.61101 235.45597 233.32193 231.19490 229.22686 227.38982
 225.67879 224.15675 222.79271 221.57068 220.45864 219.42460 218.53457 217.68153
 216.92950 216.11546 215.21942 214.58939 214.04535 214.42717 215.32930 216.28458
 216.92896 218.06473 219.49211 220.72624 222.23891 224.59305 228.26772 231.28383
 233.47745 235.21239 237.12955 239.84738 243.35417 247.26875 251.30072 255.15860
 258.73651 262.09113 265.24307 268.21478 271.00897 273.55276 275.78473 277.54825
 278.78015 279.87363 281.04636 282.38776 283.57422 284.62955 285.59680 286.47855
 287.28134 288.01047 288.69342 289.56378
 366.78100 356.34196 345.78092 334.65388 323.06384 311.26480 299.14176 286.95172
 274.67069 262.57465 250.59061 239.89857 230.02753 221.13849 213.32745 206.33641
 200.17737 195.12233 191.71129 189.76025 188.80421 188.87517 189.71713 191.03210
 192.76406 194.86602 197.13598 199.50194 201.95390 204.44086 206.53582 208.38478
 210.01774 211.16970 211.40566 211.64062 211.58458 211.29654 210.93650 210.57347
 210.19743 209.91439 209.72935 209.60031 209.53527 209.87323 210.26619 210.66215
 211.46211 212.64707 213.90403 215.69399 217.62895 219.67891 221.78088 223.87084
 225.93780 228.02876 230.13272 232.24568 234.38164 236.56060 238.82356 241.20052
 243.82848 246.08644 248.09540 249.86736 251.29132 252.42129 253.25025 253.57321
 253.61717 253.39813 252.76509 251.72005 250.33301 248.50097 246.41693 244.25689
 242.05485 239.86581 237.69277 235.53873 233.40569 231.27966 229.31262 227.47658
 225.76654 224.24550 222.88246 221.66142 220.55038 219.51734 218.62830 217.77626
 217.02522 216.21218 215.31714 214.68810 214.14507 214.47835 215.26576 216.43285
 217.08847 218.15590 219.51402 220.71150 222.22273 224.56938 228.19243 231.16115
 233.29402 235.00194 236.96440 239.76999 243.32198 247.25031 251.28110 255.13472
 258.71811 262.07751 265.23230 268.21475 271.01566 273.56705 275.80881 277.59439
 278.87122 279.95023 281.10339 282.40768 283.59357 284.64929 285.61566 286.49982
 287.30728 288.04999 288.72787 289.59180
 366.78100 356.34283 345.78266 334.65648 323.06731 311.26914 299.14697 286.95780
 274.67762 262.58245 250.59928 239.90811 230.03794 221.14977 213.33959 206.34942
 200.19125 195.13708 191.72691 189.77673 188.82156 188.89339 189.73622 191.05205
 192.78487 194.88770 197.15853 199.52536 201.97819 204.46602 206.56184 208.41167
 210.04550 211.19833 211.43516 211.67098 211.61581 211.32864 210.96947 210.60730
 210.23212 209.94995 209.76578 209.63761 209.57344 209.91227 210.30609 210.70292
 211.50375 212.68958 213.94741 215.73823 217.67406 219.72489 221.82772 223.91855
 225.98637 228.07820 230.18303 232.29686 234.43369 236.61352 238.87734 241.25517
 243.88400 246.14283 248.15266 249.92548 251.35031 252.48114 253.31097 253.63480
 253.67962 253.46145 252.82928 251.78511 250.39894 248.56776 246.48459 244.32542
 242.12425 239.93608 237.76391 235.61073 233.47856 231.35339 229.38722 227.55205
 225.84287 224.32270 222.96053 221.74036 220.63019 219.59801 218.70984 217.85867
 217.10850 216.29633 215.40216 214.77398 214.23181 214.52411 215.21466 216.49532
 217.32419 218.34499 219.58356 220.63008 222.10361 224.53094 228.10707 231.01128
 233.08368 234.77829 236.80063 239.70378 243.30161 247.24214 251.27322 255.12422
 258.71564 262.07980 265.23553 268.22464 271.03021 273.58832 275.83704 277.64023
 278.94705 280.02277 281.15109 282.42111 283.60782 284.66418 285.62924 286.51755
 287.32526 288.07208 288.74539 289.60342
 366.78100 356.34294 345.78288 334.65682 323.06776 311.26970 299.14764 286.95858
 274.67852 262.58346 250.60040 239.90934 230.03929 221.15123 213.34117 206.35111
 200.19305 195.13899 191.72893 189.77887 188.82381 188.89575 189.73869 191.05463
 192.78757 194.89051 197.16145 199.52839 201.98133 204.46927 206.56521 208.41515
 210.04909 211.20203 211.43897 211.67491 211.61986 211.33280 210.97374 210.61168
 210.23662 209.95456 209.77050 209.64244 209.57838 209.91732 210.31126 210.70820
 211.50914 212.69508 213.95302 215.74396 217.67990 219.73084 221.83378 223.92472
 225.99266 228.08460 230.18954 232.30348 234.44043 236.62037 238.88431 241.26225
 243.89119 246.15013 248.16007 249.93301 251.35795 252.48889 253.31883 253.64277
 253.68771 253.46965 252.83759 251.79353 250.40747 248.57641 246.49335 244.33429
 242.13323 239.94517 237.77311 235.62005 233.48800 231.36294 229.39688 227.56182
 225.85276 224.33270 222.97064 221.75058 220.64052 219.60846 218.72040 217.86934
 217.11928 216.30722 215.41316 214.78510 214.24304 214.53177 215.21391 216.50696
 217.52003 218.55078 219.69270 220.58473 222.01768 224.53496 228.04994 230.86432
 232.87331 234.56766 236.65482 239.64879 243.28450 247.23192 251.25700 255.10135
 258.69604 262.06049 265.21579 268.21518 271.02957 273.59860 275.85895 277.68784
 279.03217 280.11310 281.20694 282.43524 283.62137 284.67746 285.64374 286.52765
 287.33661 288.07693 288.74976 289.60718
 366.78100 356.34284 345.78267 334.65651 323.06735 311.26918 299.14702 286.95785
 274.67769 262.58253 250.59936 239.90820 230.03804 221.14987 213.33971 206.34955
 200.19138 195.13722 191.72705 189.77689 188.82173 188.89356 189.73640 191.05224
 192.78507 194.88791 197.15875 199.52558 201.97842 204.46625 206.56209 208.41193
 210.04576 211.19860 211.43544 211.67127 211.61611 211.32895 210.96978 210.60762
 210.23245 209.95029 209.76613 209.63796 209.57380 209.91264 210.30647 210.70331
 211.50415 212.68998 213.94782 215.73865 217.67449 219.72533 221.82816 223.91900
 225.98684 228.07867 230.18351 232.29734 234.43418 236.61402 238.87785 241.25569
 243.88453 246.14336 248.15320 249.92604 251.35087 252.48171 253.31154 253.63538
 253.68022 253.46205 252.82989 251.78573 250.39956 248.56840 246.48524 244.32607
 242.12491 239.93674 237.76458 235.61142 233.47925 231.35409 229.38793 227.55276
 225.84360 224.32344 222.96127 221.74111 220.63094 219.59878 218.71062 217.85945
 217.10929 216.29713 215.40296 214.77480 214.23264 214.52499 215.21574 216.59656
 217.61905 218.66772 219.80855 220.62863 222.02690 224.59193 228.03708 230.73027
 232.67671 234.39140 236.54089 239.60475 243.26591 247.21121 251.21873 255.04501
 258.63062 261.98529 265.13879 268.15930 270.99567 273.58035 275.85989 277.72174
 279.10272 280.19647 281.26971 282.44705 283.63586 284.69046 285.65659 286.54007
 287.34448 288.07547 288.73969 289.59467
 366.78100 356.34280 345.78261 334.65641 323.06722 311.26902 299.14683 286.95763
 274.67744 262.58224 250.59904 239.90785 230.03765 221.14946 213.33926 206.34907
 200.19087 195.13668 191.72648 189.77628 188.82109 188.89289 189.73570 191.05150
 192.78431 194.88711 197.15792 199.52472 201.97752 204.46533 206.56113 208.41094
 210.04474 211.19755 211.43435 211.67016 211.61496 211.32777 210.96857 210.60637
 210.23118 209.94898 209.76479 209.63659 209.57240 209.91120 210.30501 210.70181
 211.50261 212.68842 213.94622 215.73703 217.67283 219.72364 221.82644 223.91725
 225.98505 228.07685 230.18166 232.29546 234.43227 236.61207 238.87588 241.25368
 243.88249 246.14129 248.15109 249.92390 251.34870 252.47951 253.30931 253.63312
 253.67792 253.45973 252.82753 251.78333 250.39714 248.56594 246.48275 244.32355
 242.12236 239.93416 237.76197 235.60877 233.47657 231.35138 229.38518 227.54999
 225.84079 224.32060 222.95840 221.73821 220.62801 219.59582 218.70762 217.85642
 217.10623 216.29403 215.39984 214.77164 214.22945 214.52002 215.20651 216.71848
 217.70648 218.74902 219.92085 220.69856 222.05743 224.62659 228.00471 230.57593
 232.47174 234.22758 236.44444 239.57346 243.25713 247.19540 251.18172 254.98824
 258.56149 261.90668 265.06525 268.10385 270.94855 273.53259 275.81778 277.69797
 279.10043 280.22729 281.30698 282.46194 283.64468 284.69846 285.66141 286.54337
 287.34506 288.06714 288.70535 289.52661
 366.78100 356.34285 345.78270 334.65656 323.06741 311.26926 299.14711 286.95796
 274.67782 262.58267 250.59952 239.90837 230.03822 221.15007 213.33993 206.34978
 200.19163 195.13748 191.72733 189.77719 188.82204 188.89389 189.73674 191.05259
 192.78545 194.88830 197.15915 199.52600 201.97885 204.46671 206.56256 208.41241
 210.04626 211.19911 211.43597 211.67182 211.61667 211.32952 210.97037 210.60822
 210.23308 209.95093 209.76678 209.63863 209.57448 209.91334 210.30719 210.70404
 211.50489 212.69074 213.94860 215.73945 217.67530 219.72615 221.82900 223.91986
 225.98771 228.07956 230.18441 232.29826 234.43512 236.61497 238.87882 241.25667
 243.88552 246.14437 248.15423 249.92708 251.35193 252.48278 253.31263 253.63649
 253.68134 253.46319 252.83104 251.78689 250.40075 248.56960 246.48645 244.32730
 242.12615 239.93801 237.76586 235.61271 233.48056 231.35541 229.38927 227.55412
 225.84497 224.32482 222.96267 221.74252 220.63238 219.60023 218.71208 217.86093
 217.11078 216.29864 215.40449 214.77634 214.23419 214.52184 215.20142 216.77919
 217.81976 218.86301 220.05913 220.74863 222.04213 224.60928 227.92627 230.39764
 232.26036 234.05255 236.34512 239.55185 243.26222 247.19633 251.16905 254.96313
 258.53146 261.87079 265.02536 268.07104 270.91620 273.48972 275.76627 277.64801
 279.04688 280.20612 281.30997 282.48163 283.65262 284.70529 285.66962 286.54880
 287.34991 288.07242 288.70526 289.52579
 366.78100 356.34327 345.78354 334.65781 323.06908 311.27135 299.14962 286.96089
 274.68116 262.58643 250.60370 239.91297 230.04323 221.15550 213.34577 206.35604
 200.19831 195.14458 191.73485 189.78512 188.83039 188.90266 189.74593 191.06220
 192.79547 194.89874 197.17001 199.53728 201.99055 204.47882 206.57509 208.42536
 210.05963 211.21290 211.45016 211.68643 211.63170 211.34497 210.98624 210.62451
 210.24978 209.96805 209.78432 209.65659 209.59286 209.93213 210.32640 210.72367
 211.52494 212.71121 213.96948 215.76075 217.69702 219.74829 221.85156 223.94283
 226.01109 228.10336 230.20863 232.32290 234.46017 236.64044 238.90471 241.28298
 243.91225 246.17152 248.18179 249.95506 251.38033 252.51160 253.34187 253.66614
 253.71141 253.49368 252.86195 251.81822 250.43249 248.60176 246.51903 244.36029
 242.15956 239.97183 237.80010 235.64737 233.51564 231.39091 229.42518 227.59045
 225.88172 224.36199 223.00026 221.78053 220.67080 219.63907 218.75134 217.90061
 217.15088 216.33915 215.44542 214.81769 214.27596 214.54378 215.17654 216.81430
 217.95819 219.01155 220.20396 220.77185 221.98526 224.55626 227.83099 230.21965
 232.05911 233.88531 236.25487 239.54134 243.27721 247.20827 251.17009 254.95374
 258.51968 261.85327 264.99918 268.04630 270.88849 273.45068 275.71652 277.59821
 278.99466 280.17474 281.29636 282.48111 283.65237 284.70712 285.67151 286.55042
 287.35349 288.07474 288.71127 289.53247
 366.78100 356.34412 345.78525 334.66037 323.07250 311.27562 299.15475 286.96687
 274.68800 262.59412 250.61225 239.92237 230.05350 221.16662 213.35775 206.36887
 200.21200 195.15912 191.75025 189.80137 188.84750 188.92062 189.76475 191.08187
 192.81600 194.92012 197.19225 199.56037 202.01450 204.50362 206.60075 208.45187
 210.08700 211.24112 211.47925 211.71637 211.66250 211.37662 211.01875 210.65787
 210.28400 210.00312 209.82025 209.69337 209.63050 209.97062 210.36575 210.76387
 211.56600 212.75312 214.01225 215.80437 217.74150 219.79362 221.89775 223.98987
 226.05900 228.15212 230.25825 232.37337 234.51150 236.69262 238.95775 241.33687
 243.96700 246.22712 248.23825 250.01237 251.43850 252.57062 253.40175 253.72687
 253.77300 253.55612 252.92525 251.88237 250.49750 248.66762 246.58575 244.42787
 242.22800 240.04112 237.87025 235.71837 233.58750 231.46362 229.49875 227.66487
 225.95700 224.43812 223.07725 221.85837 220.74950 219.71862 218.83175 217.98187
 217.23300 216.42212 215.52925 214.90237 214.36150 214.58765 215.12195 216.85359
 218.12466 219.18625 220.34010 220.77489 221.89963 224.48090 227.73264 230.04570
 231.86079 233.72037 236.16740 239.53183 243.29271 247.22078 251.17172 254.94415
 258.50467 261.83105 264.96808 268.01410 270.85281 273.40567 275.66089 277.54074
 278.94455 280.14664 281.28247 282.47833 283.65045 284.70505 285.67038 286.55151
 287.35480 288.07785 288.71472 289.53717
 366.78100 356.34488 345.78675 334.66263 323.07550 311.27938 299.15926 286.97213
 274.69401 262.60088 250.61976 239.93064 230.06251 221.17639 213.36826 206.38014
 200.22402 195.17189 191.76377 189.81564 188.86252 188.93640 189.78127 191.09915
 192.83402 194.93890 197.21178 199.58065 202.03553 204.52540 206.62328 208.47516
 210.11103 211.26591 211.50478 211.74266 211.68954 211.40441 211.04729 210.68716
 210.31404 210.03392 209.85179 209.72567 209.66354 210.00442 210.40030 210.79917
 211.60205 212.78992 214.04980 215.84268 217.78055 219.83343 221.93830 224.03118
 226.10106 228.19493 230.30181 232.41768 234.55656 236.73844 239.00431 241.38419
 244.01506 246.27594 248.28782 250.06269 251.48957 252.62244 253.45432 253.78020
 253.82707 253.61095 252.98082 251.93870 250.55458 248.72545 246.64433 244.48720
 242.28808 240.10196 237.93183 235.78071 233.65058 231.52746 229.56334 227.73021
 226.02309 224.50496 223.14484 221.92672 220.81859 219.78847 218.90234 218.05322
 217.30510 216.49497 215.60285 214.97672 214.43660 214.62561 215.07219 216.87393
 218.29269 219.37700 220.47310 220.78123 221.81000 224.39742 227.63762 229.87904
 231.66733 233.56055 236.08554 239.52559 243.31126 247.23682 251.17575 254.93463
 258.48685 261.80426 264.93344 267.97653 270.80994 273.35345 275.59720 277.47266
 278.88657 280.11203 281.26157 282.47095 283.64456 284.70123 285.66614 286.54749
 287.35110 288.07376 288.70920 289.52747
 366.78100 356.34528 345.78756 334.66385 323.07713 311.28141 299.16169 286.97498
 274.69726 262.60454 250.62382 239.93510 230.06739 221.18167 213.37395 206.38623
 200.23051 195.17880 191.77108 189.82336 188.87064 188.94493 189.79021 191.10849
 192.84377 194.94905 197.22234 199.59162 202.04690 204.53718 206.63547 208.48775
 210.12403 211.27931 211.51859 211.75688 211.70416 211.41944 211.06272 210.70301
 210.33029 210.05057 209.86885 209.74313 209.68142 210.02270 210.41898 210.81826
 211.62154 212.80983 214.07011 215.86339 217.80167 219.85496 221.96024 224.05352
 226.12380 228.21808 230.32537 232.44165 234.58093 236.76321 239.02950 241.40978
 244.04106 246.30234 248.31462 250.08991 251.51719 252.65047 253.48275 253.80904
 253.85632 253.64060 253.01088 251.96916 250.58545 248.75673 246.67601 244.51929
 242.32057 240.13486 237.96514 235.81442 233.68470 231.56199 229.59827 227.76555
 226.05883 224.54111 223.18140 221.96368 220.85596 219.82624 218.94053 218.09181
 217.34409 216.53437 215.64265 215.01694 214.47722 214.64519 215.04204 216.87239
 218.44875 219.56839 220.60400 220.80031 221.72707 224.31357 227.54160 229.71617
 231.48190 233.41223 236.01508 239.52811 243.33720 247.25916 251.18280 254.92526
 258.46597 261.77408 264.89590 267.93341 270.75952 273.29190 275.52032 277.38971
 278.81720 280.06592 281.24139 282.45837 283.63367 284.68863 285.65637 286.53806
 287.34155 288.06375 288.69678 289.52261
 366.78100 356.34562 345.78823 334.66485 323.07846 311.28308 299.16370 286.97731
 274.69993 262.60754 250.62716 239.93878 230.07139 221.18601 213.37862 206.39124
 200.23586 195.18447 191.77709 189.82970 188.87732 188.95194 189.79755 191.11617
 192.85179 194.95740 197.23102 199.60063 202.05625 204.54687 206.64548 208.49810
 210.13471 211.29033 211.52995 211.76856 211.71618 211.43179 211.07541 210.71603
 210.34364 210.06426 209.88287 209.75749 209.69611 210.03772 210.43434 210.83395
 211.63757 212.82619 214.08680 215.88042 217.81903 219.87265 221.97827 224.07188
 226.14250 228.23711 230.34473 232.46135 234.60096 236.78358 239.05020 241.43081
 244.06243 246.32404 248.33666 250.11228 251.53989 252.67351 253.50612 253.83274
 253.88036 253.66497 253.03559 251.99420 250.61082 248.78244 246.70205 244.54567
 242.34728 240.16190 237.99252 235.84213 233.71275 231.59036 229.62698 227.79460
 226.08821 224.57083 223.21144 221.99406 220.88668 219.85729 218.97191 218.12352
 217.37614 216.56676 215.67537 215.04999 214.51060 214.66035 215.01416 216.86044
 218.60194 219.76147 220.72694 220.82803 221.65747 224.22261 227.43962 229.55615
 231.30313 233.27367 235.95441 239.53870 243.37076 247.28737 251.19211 254.91502
 258.44125 261.73984 264.85617 267.88580 270.70135 273.21985 275.43311 277.29416
 278.73846 280.01016 281.15112 282.46506 283.64413 284.69620 285.65787 286.53830
 287.33655 288.05954 288.69193 289.51013
 366.78100 356.34600 345.78901 334.66601 323.08002 311.28502 299.16603 286.98003
 274.70303 262.61104 250.63104 239.94305 230.07605 221.19106 213.38406 206.39706
 200.24207 195.19107 191.78408 189.83708 188.88508 188.96009 189.80609 191.12510
 192.86110 194.96711 197.24111 199.61111 202.06712 204.55812 206.65713 208.51013
 210.14714 211.30314 211.54314 211.78215 211.73015 211.44616 211.09016 210.73117
 210.35917 210.08017 209.89918 209.77418 209.71319 210.05519 210.45219 210.85220
 211.65620 212.84521 214.10621 215.90022 217.83922 219.89322 221.99923 224.09323
 226.16424 228.25924 230.36725 232.48425 234.62425 236.80726 239.07426 241.45527
 244.08727 246.34928 248.36228 250.13828 251.56629 252.70029 253.53330 253.86030
 253.90830 253.69331 253.06431 252.02332 250.64032 248.81233 246.73233 244.57633
 242.37834 240.19334 238.02435 235.87435 233.74536 231.62336 229.66036 227.82837
 226.12237 224.60538 223.24638 222.02939 220.92239 219.89339 219.00840 218.16040
 217.41341 216.60441 215.71341 215.08842 214.54942 214.67807 214.98201 216.84247
 218.75240 219.95329 220.85022 220.85803 221.59088 224.13339 227.32649 229.38956
 231.12852 233.14484 235.90337 239.55713 243.41226 247.32172 251.20369 254.90431
 258.41449 261.70358 264.81583 267.83453 270.63544 273.13965 275.33578 277.18954
 278.65225 279.94540 281.11679 282.44855 283.63586 284.69025 285.65439 286.53616
 287.33514 288.05685 288.68893 289.50592
 366.78100 356.34642 345.78984 334.66726 323.08168 311.28710 299.16852 286.98294
 274.70636 262.61478 250.63520 239.94763 230.08105 221.19647 213.38989 206.40331
 200.24873 195.19815 191.79157 189.84499 188.89341 188.96883 189.81525 191.13467
 192.87109 194.97751 197.25193 199.62235 202.07877 204.57019 206.66961 208.52304
 210.16046 211.31688 211.55730 211.79672 211.74514 211.46156 211.10598 210.74740
 210.37582 210.09724 209.91666 209.79208 209.73150 210.07392 210.47134 210.87176
 211.67618 212.86560 214.12702 215.92145 217.86087 219.91529 222.02171 224.11613
 226.18755 228.28297 230.39139 232.50881 234.64923 236.83265 239.10007 241.48149
 244.11391 246.37633 248.38975 250.16617 251.59459 252.72901 253.56243 253.88985
 253.93828 253.72370 253.09512 252.05454 250.67196 248.84438 246.76480 244.60922
 242.41164 240.22706 238.05848 235.90890 233.78032 231.65874 229.69616 227.86458
 226.15900 224.64242 223.28384 222.06726 220.96069 219.93211 219.04753 218.19995
 217.45337 216.64479 215.75421 215.12963 214.59105 214.69759 214.94928 216.81760
 218.90123 220.14227 220.95886 220.89879 221.54121 224.02115 227.20123 229.22995
 230.96385 233.02602 235.86240 239.58459 243.46295 247.36334 251.21884 254.89426
 258.38635 261.66547 264.77460 267.77866 270.56296 273.05148 275.22955 277.07800
 278.55936 279.87411 281.09448 282.43423 283.62405 284.68250 285.64978 286.53329
 287.33337 288.05197 288.68597 289.50162
 366.78100 356.34679 345.79059 334.66838 323.08318 311.28897 299.17077 286.98556
 274.70936 262.61815 250.63894 239.95174 230.08553 221.20133 213.39512 206.40892
 200.25471 195.20451 191.79830 189.85210 188.90089 188.97668 189.82348 191.14327
 192.88007 194.98686 197.26166 199.63245 202.08925 204.58104 206.68083 208.53463
 210.17242 211.32922 211.57001 211.80981 211.75860 211.47540 211.12019 210.76198
 210.39078 210.11257 209.93237 209.80816 209.74796 210.09075 210.48855 210.88934
 211.69414 212.88393 214.14572 215.94052 217.88031 219.93511 222.04190 224.13670
 226.20849 228.30429 230.41308 232.53087 234.67167 236.85546 239.12326 241.50505
 244.13785 246.40064 248.41444 250.19123 251.62002 252.75482 253.58861 253.91641
 253.96520 253.75100 253.12279 252.08259 250.70038 248.87318 246.79397 244.63876
 242.44156 240.25735 238.08915 235.93994 233.81174 231.69053 229.72833 227.89712
 226.19191 224.67571 223.31750 222.10130 220.99509 219.96689 219.08268 218.23548
 217.48927 216.68107 215.79086 215.16665 214.62845 214.71509 214.91977 216.78969
 219.03731 220.33051 221.07454 220.92159 221.47520 223.93184 227.07466 229.05894
 230.79970 232.91434 235.82930 239.61929 243.52127 247.41109 251.23703 254.88474
 258.35709 261.62689 264.73279 267.71960 270.48520 272.95612 275.11707 276.95975
 278.45987 279.79880 281.07706 282.42416 283.61459 284.67496 285.64438 286.52689
 287.32858 288.04825 288.68060 289.49460
 366.78100 356.34711 345.79121 334.66932 323.08443 311.29053 299.17264 286.98775
 274.71186 262.62096 250.64207 239.95518 230.08928 221.20539 213.39950 206.41360
 200.25971 195.20982 191.80393 189.85803 188.90714 188.98325 189.83035 191.15046
 192.88757 194.99467 197.26978 199.64089 202.09800 204.59010 206.69021 208.54432
 210.18242 211.33953 211.58064 211.82074 211.76985 211.48696 211.13207 210.77417
 210.40328 210.12539 209.94549 209.82160 209.76171 210.10481 210.50292 210.90403
 211.70914 212.89924 214.16135 215.95646 217.89656 219.95167 222.05878 224.15388
 226.22599 228.32210 230.43121 232.54931 234.69042 236.87453 239.14263 241.52474
 244.15785 246.42095 248.43506 250.21217 251.64127 252.77638 253.61049 253.93860
 253.98770 253.77381 253.14592 252.10602 250.72413 248.89724 246.81834 244.66345
 242.46656 240.28267 238.11477 235.96588 233.83799 231.71709 229.75520 227.92431
 226.21941 224.70352 223.34563 222.12974 221.02384 219.99595 219.11206 218.26516
 217.51927 216.71138 215.82148 215.19759 214.65970 214.72922 214.89346 216.76146
 219.16393 220.49249 221.18790 221.01208 221.46133 223.76924 226.91518 228.90128
 230.64522 232.80919 235.80457 239.66270 243.58926 247.46735 251.26082 254.87849
 258.32910 261.58932 264.69189 267.65762 270.40265 272.85507 274.99640 276.83304
 278.35291 279.72339 281.06238 282.41513 283.60846 284.66846 285.63873 286.52155
 287.32202 288.04196 288.67026 289.48834
 366.78100 356.34735 345.79170 334.67005 323.08539 311.29174 299.17409 286.98944
 274.71379 262.62314 250.64449 239.95784 230.09218 221.20853 213.40288 206.41723
 200.26358 195.21393 191.80828 189.86262 188.91197 188.98832 189.83567 191.15602
 192.89337 195.00072 197.27607 199.64741 202.10476 204.59711 206.69746 208.55181
 210.19016 211.34751 211.58886 211.82920 211.77855 211.49590 211.14125 210.78360
 210.41295 210.13530 209.95564 209.83199 209.77234 210.11569 210.51404 210.91539
 211.72074 212.91109 214.17343 215.96878 217.90913 219.96448 222.07183 224.16718
 226.23953 228.33587 230.44522 232.56357 234.70492 236.88927 239.15762 241.53997
 244.17332 246.43666 248.45101 250.22836 251.65771 252.79306 253.62741 253.95576
 254.00511 253.79145 253.16380 252.12415 250.74250 248.91585 246.83720 244.68255
 242.48589 240.30224 238.13459 235.98594 233.85829 231.73764 229.77599 227.94534
 226.24068 224.72503 223.36738 222.15173 221.04608 220.01843 219.13478 218.28812
 217.54247 216.73482 215.84517 215.22152 214.68387 214.73976 214.87183 216.73193
 219.28064 220.64195 221.27962 221.11299 221.45857 223.59210 226.74956 228.75145
 230.50323 232.71861 235.79379 239.71852 243.66937 247.53438 251.29178 254.87634
 258.30286 261.55222 264.65063 267.59290 270.31519 272.74829 274.86963 276.69904
 278.24152 279.65112 281.04974 282.40753 283.59991 284.66174 285.63193 286.51346
 287.31458 288.03445 288.66330 289.47885
 366.78100 356.34753 345.79206 334.67059 323.08611 311.29264 299.17517 286.99070
 274.71523 262.62476 250.64628 239.95981 230.09434 221.21087 213.40540 206.41993
 200.26645 195.21698 191.81151 189.86604 188.91557 188.99210 189.83963 191.16015
 192.89768 195.00521 197.28074 199.65227 202.10980 204.60232 206.70285 208.55738
 210.19591 211.35344 211.59497 211.83550 211.78502 211.50255 211.14808 210.79061
 210.42014 210.14267 209.96319 209.83972 209.78025 210.12378 210.52231 210.92384
 211.72936 212.91989 214.18242 215.97795 217.91848 219.97401 222.08154 224.17706
 226.24959 228.34612 230.45565 232.57418 234.71571 236.90023 239.16876 241.55129
 244.18482 246.44835 248.46288 250.24040 251.66993 252.80546 253.63999 253.96852
 254.01805 253.80458 253.17710 252.13763 250.75616 248.92969 246.85122 244.69675
 242.50027 240.31680 238.14933 236.00086 233.87339 231.75292 229.79145 227.96097
 226.25650 224.74103 223.38356 222.16809 221.06262 220.03514 219.15167 218.30520
 217.55973 216.75226 215.86279 215.23931 214.70184 214.74730 214.85468 216.70473
 219.37543 220.78651 221.34909 221.19774 221.45830 223.42682 226.58960 228.60893
 230.37399 232.64287 235.79581 239.78484 243.75914 247.60902 251.32736 254.87563
 258.27579 261.51404 264.60760 267.52637 270.22470 272.63840 274.74063 276.56454
 278.12537 279.54175 281.04971 282.41559 283.60464 284.66263 285.63150 286.51346
 287.31104 288.02890 288.65573 289.46606
 366.78100 356.34764 345.79227 334.67091 323.08655 311.29318 299.17582 286.99146
 274.71609 262.62573 250.64737 239.96100 230.09564 221.21228 213.40691 206.42155
 200.26819 195.21882 191.81346 189.86810 188.91773 188.99437 189.84201 191.16264
 192.90028 195.00792 197.28355 199.65519 202.11283 204.60546 206.70610 208.56074
 210.19937 211.35701 211.59864 211.83928 211.78892 211.50655 211.15219 210.79483
 210.42446 210.14710 209.96774 209.84437 209.78501 210.12865 210.52728 210.92892
 211.73456 212.92519 214.18783 215.98347 217.92410 219.97974 222.08738 224.18301
 226.25565 228.35229 230.46192 232.58056 234.72220 236.90683 239.17547 241.55811
 244.19174 246.45538 248.47002 250.24765 251.67729 252.81293 253.64756 253.97620
 254.02584 253.81247 253.18511 252.14575 250.76438 248.93802 246.85966 244.70529
 242.50893 240.32557 238.15820 236.00984 233.88248 231.76211 229.80075 227.97039
 226.26602 224.75066 223.39330 222.17793 221.07257 220.04521 219.16184 218.31548
 217.57012 216.76275 215.87339 215.25003 214.71266 214.75072 214.84064 216.68311
 219.44495 220.91695 221.40952 221.26373 221.46487 223.28256 226.43483 228.46811
 230.25206 232.57683 235.80624 239.85715 243.85388 247.68716 251.36397 254.87453
 258.24783 261.47559 264.56409 267.45932 270.13333 272.52838 274.60913 276.42572
 278.01398 279.50189 281.02997 282.40085 283.59250 284.65237 285.62030 286.50134
 287.29932 288.01422 288.63922 289.44797
 366.78100 356.34763 345.79225 334.67088 323.08651 311.29314 299.17576 286.99139
 274.71602 262.62565 250.64727 239.96090 230.09553 221.21216 213.40678 206.42141
 200.26804 195.21866 191.81329 189.86792 188.91755 188.99417 189.84180 191.16243
 192.90006 195.00768 197.28331 199.65494 202.11256 204.60519 206.70582 208.56045
 210.19907 211.35670 211.59833 211.83896 211.78858 211.50621 211.15184 210.79447
 210.42409 210.14672 209.96735 209.84397 209.78460 210.12823 210.52686 210.92848
 211.73411 212.92474 214.18737 215.98299 217.92362 219.97925 222.08687 224.18250
 226.25513 228.35176 230.46138 232.58001 234.72164 236.90627 239.17489 241.55752
 244.19115 246.45478 248.46940 250.24703 251.67666 252.81228 253.64691 253.97554
 254.02517 253.81179 253.18442 252.14505 250.76368 248.93730 246.85893 244.70456
 242.50818 240.32481 238.15744 236.00907 233.88169 231.76132 229.79995 227.96958
 226.26520 224.74983 223.39246 222.17709 221.07171 220.04434 219.16097 218.31459
 217.56922 216.76185 215.87248 215.24910 214.71173 214.74893 214.83681 216.67323
 219.49669 221.01863 221.46535 221.31049 221.47563 223.15927 226.28323 228.32565
 230.13438 232.51898 235.82414 239.93428 243.95193 247.76762 251.40196 254.87505
 258.22217 261.43915 264.52121 267.39160 270.04218 272.41696 274.47568 276.28772
 277.91360 279.47406 281.00946 282.38031 283.57309 284.63217 285.60056 286.48083
 287.27759 287.99136 288.61359 289.42273
 366.78100 356.34753 345.79206 334.67059 323.08612 311.29265 299.17518 286.99071
 274.71524 262.62477 250.64630 239.95983 230.09436 221.21089 213.40542 206.41995
 200.26648 195.21701 191.81154 189.86607 188.91560 188.99213 189.83966 191.16019
 192.89772 195.00525 197.28078 199.65231 202.10984 204.60237 206.70290 208.55743
 210.19596 211.35349 211.59502 211.83555 211.78508 211.50261 211.14814 210.79067
 210.42020 210.14273 209.96326 209.83979 209.78032 210.12385 210.52239 210.92392
 211.72945 212.91998 214.18251 215.97804 217.91857 219.97410 222.08163 224.17716
 226.24969 228.34622 230.45575 232.57428 234.71581 236.90034 239.16887 241.55140
 244.18493 246.44846 248.46299 250.24052 251.67005 252.80558 253.64011 253.96864
 254.01817 253.80470 253.17723 252.13776 250.75629 248.92982 246.85135 244.69688
 242.50041 240.31694 238.14947 236.00100 233.87353 231.75306 229.79159 227.96112
 226.25665 224.74118 223.38371 222.16824 221.06277 220.03530 219.15183 218.30536
 217.55989 216.75242 215.86295 215.23948 214.70201 214.74713 214.85370 216.67133
 219.52884 221.08388 221.51180 221.33804 221.48286 223.05116 226.13324 228.18362
 230.02448 232.47240 235.85255 240.01926 244.05663 247.85358 251.44559 254.88065
 258.19876 261.40451 264.47864 267.32358 269.95032 272.30417 274.34238 276.15634
 277.82617 279.44510 280.98523 282.35565 283.54755 284.60580 285.57306 286.45322
 287.24512 287.95795 288.57755 289.39105
 366.78100 356.34726 345.79151 334.66977 323.08502 311.29128 299.17353 286.98879
 274.71304 262.62230 250.64355 239.95681 230.09107 221.20732 213.40158 206.41583
 200.26209 195.21234 191.80660 189.86085 188.91011 188.98636 189.83362 191.15388
 192.89113 194.99839 197.27364 199.64490 202.10215 204.59441 206.69466 208.54892
 210.18717 211.34443 211.58569 211.82594 211.77520 211.49245 211.13771 210.77996
 210.40922 210.13147 209.95173 209.82798 209.76824 210.11150 210.50975 210.91101
 211.71626 212.90652 214.16877 215.96403 217.90428 219.95954 222.06679 224.16205
 226.23431 228.33056 230.43982 232.55807 234.69933 236.88358 239.15184 241.53409
 244.16735 246.43060 248.44486 250.22212 251.65137 252.78663 253.62088 253.94914
 253.99839 253.78465 253.15690 252.11716 250.73541 248.90867 246.82993 244.67518
 242.47844 240.29469 238.12695 235.97820 233.85046 231.72971 229.76797 227.93722
 226.23248 224.71674 223.35899 222.14325 221.03750 220.00976 219.12601 218.27927
 217.53352 216.72578 215.83603 215.21229 214.67455 214.73730 214.88559 216.67932
 219.53619 221.11488 221.54854 221.35410 221.48601 222.95688 225.99132 228.05156
 229.92935 232.44043 235.89215 240.11079 244.16539 247.94371 251.49431 254.89153
 258.18127 261.37323 264.43719 267.25644 269.85999 272.19144 274.21112 276.03555
 277.75031 279.41162 280.95480 282.32394 283.51410 284.57111 285.53665 286.41342
 287.20642 287.91302 288.53494 289.33856
 366.78100 356.34675 345.79050 334.66825 323.08300 311.28875 299.17050 286.98525
 274.70901 262.61776 250.63851 239.95126 230.08501 221.20076 213.39451 206.40826
 200.25401 195.20376 191.79751 189.85126 188.90001 188.97576 189.82252 191.14227
 192.87902 194.98577 197.26052 199.63127 202.08802 204.57977 206.67952 208.53327
 210.17102 211.32777 211.56852 211.80827 211.75702 211.47378 211.11853 210.76028
 210.38903 210.11078 209.93053 209.80628 209.74603 210.08878 210.48653 210.88728
 211.69203 212.88178 214.14353 215.93829 217.87804 219.93279 222.03954 224.13429
 226.20604 228.30179 230.41054 232.52829 234.66904 236.85279 239.12054 241.50229
 244.13504 246.39779 248.41155 250.18830 251.61705 252.75180 253.58555 253.91330
 253.96205 253.74780 253.11955 252.07930 250.69705 248.86980 246.79055 244.63530
 242.43806 240.25381 238.08556 235.93631 233.80806 231.68681 229.72456 227.89331
 226.18806 224.67181 223.31356 222.09731 220.99106 219.96281 219.07857 218.23132
 217.48507 216.67682 215.78657 215.16232 214.62407 214.71281 214.92249 216.70261
 219.52251 221.11708 221.57228 221.36194 221.48166 222.87317 225.86073 227.93593
 229.85519 232.42805 235.94589 240.20972 244.27934 248.03801 251.54646 254.90359
 258.16330 261.34024 264.39294 267.18979 269.76984 272.08047 274.09042 275.93442
 277.68799 279.37204 280.91574 282.28394 283.47269 284.52737 285.49036 286.36664
 287.15842 287.86530 288.48526 289.28940
 366.78100 356.34607 345.78914 334.66622 323.08029 311.28536 299.16643 286.98051
 274.70358 262.61165 250.63172 239.94380 230.07687 221.19194 213.38501 206.39809
 200.24316 195.19223 191.78530 189.83838 188.88645 188.96152 189.80759 191.12667
 192.86274 194.96881 197.24288 199.61296 202.06903 204.56010 206.65917 208.51225
 210.14932 211.30539 211.54546 211.78454 211.73261 211.44868 211.09275 210.73383
 210.36190 210.08297 209.90204 209.77711 209.71619 210.05826 210.45533 210.85540
 211.65948 212.84855 214.10962 215.90369 217.84277 219.89684 222.00291 224.09698
 226.16806 228.26313 230.37120 232.48827 234.62835 236.81142 239.07849 241.45956
 244.09164 246.35371 248.36678 250.14285 251.57093 252.70500 253.53807 253.86514
 253.91322 253.69829 253.06936 252.02843 250.64551 248.81758 246.73765 244.58172
 242.38380 240.19887 238.02994 235.88001 233.75108 231.62916 229.66623 227.83430
 226.12837 224.61145 223.25252 222.03559 220.92866 219.89974 219.01481 218.16688
 217.41995 216.61103 215.72010 215.09517 214.55624 214.67918 214.96965 216.74554
 219.49188 221.09746 221.58061 221.35713 221.46269 222.79135 225.73727 227.82913
 229.79121 232.42758 236.01006 240.31429 244.39526 248.13477 251.60423 254.92282
 258.14999 261.30969 264.34668 267.11728 269.67313 271.96124 273.96606 275.83789
 277.62985 279.33179 280.87677 282.24435 283.43198 284.48492 285.44711 286.32370
 287.11670 287.82675 288.44974 289.25494
 366.78100 356.34553 345.78805 334.66458 323.07810 311.28263 299.16315 286.97668
 274.69920 262.60673 250.62626 239.93778 230.07031 221.18483 213.37736 206.38988
 200.23441 195.18293 191.77546 189.82799 188.87551 188.95004 189.79556 191.11409
 192.84961 194.95514 197.22866 199.59819 202.05372 204.54424 206.64277 208.49529
 210.13182 211.28734 211.52687 211.76539 211.71292 211.42845 211.07197 210.71250
 210.34002 210.06055 209.87907 209.75360 209.69212 210.03365 210.43018 210.82970
 211.63323 212.82175 214.08228 215.87580 217.81433 219.86785 221.97338 224.06691
 226.13743 228.23196 230.33948 232.45601 234.59553 236.77806 239.04458 241.42511
 244.05664 246.31816 248.33069 250.10621 251.53374 252.66726 253.49979 253.82632
 253.87384 253.65837 253.02889 251.98742 250.60394 248.77547 246.69499 244.53852
 242.34005 240.15457 237.98510 235.83462 233.70515 231.58267 229.61920 227.78672
 226.08025 224.56278 223.20330 221.98583 220.87835 219.84888 218.96340 218.11493
 217.36745 216.55798 215.66651 215.04103 214.50156 214.65480 215.01688 216.79691
 219.45802 221.07394 221.59241 221.35020 221.42683 222.70540 225.61095 227.71811
 229.72670 232.43146 236.07945 240.41876 244.50618 248.22699 251.65993 254.93903
 258.13696 261.27948 264.30258 267.05359 269.58417 271.84979 273.85886 275.75391
 277.57224 279.27835 280.82205 282.18765 283.37207 284.42343 285.38202 286.25644
 287.04871 287.76147 288.38058 289.17221
 366.78100 356.34520 345.78740 334.66360 323.07680 311.28100 299.16120 286.97440
 274.69660 262.60380 250.62299 239.93419 230.06639 221.18059 213.37279 206.38499
 200.22919 195.17739 191.76959 189.82179 188.86899 188.94319 189.78839 191.10659
 192.84179 194.94699 197.22019 199.58939 202.04459 204.53479 206.63298 208.48518
 210.12138 211.27658 211.51578 211.75398 211.70118 211.41638 211.05958 210.69978
 210.32698 210.04718 209.86538 209.73958 209.67778 210.01898 210.41518 210.81438
 211.61758 212.80577 214.06597 215.85917 217.79737 219.85057 221.95577 224.04897
 226.11917 228.21337 230.32057 232.43677 234.57597 236.75817 239.02437 241.40457
 244.03577 246.29697 248.30917 250.08437 251.51156 252.64476 253.47696 253.80316
 253.85036 253.63456 253.00476 251.96296 250.57916 248.75036 246.66956 244.51276
 242.31396 240.12816 237.95836 235.80756 233.67776 231.55496 229.59116 227.75836
 226.05155 224.53375 223.17395 221.95615 220.84835 219.81855 218.93275 218.08395
 217.33615 216.52635 215.63455 215.00875 214.46895 214.64017 215.04472 216.84567
 219.44279 221.07472 221.61180 221.33754 221.37022 222.60234 225.47197 227.59048
 229.64798 232.43466 236.15445 240.52368 244.61908 248.32343 251.72218 254.96358
 258.13074 261.24878 264.24939 266.97430 269.48227 271.73453 273.73969 275.68896
 277.53244 279.21887 280.75568 282.11804 283.29987 284.34659 285.30255 286.17496
 286.96747 287.68329 288.29501 289.08304
 366.78100 356.34450 345.78599 334.66149 323.07398 311.27748 299.15698 286.96947
 274.69097 262.59747 250.61596 239.92646 230.05795 221.17145 213.36295 206.37444
 200.21794 195.16544 191.75693 189.80843 188.85492 188.92842 189.77292 191.09041
 192.82491 194.92941 197.20190 199.57040 202.02489 204.51439 206.61189 208.46338
 210.09888 211.25337 211.49187 211.72937 211.67586 211.39036 211.03286 210.67235
 210.29885 210.01834 209.83584 209.70934 209.64683 209.98733 210.38283 210.78132
 211.58382 212.77131 214.03081 215.82331 217.76080 219.81330 221.91780 224.01029
 226.07979 228.17328 230.27978 232.39528 234.53377 236.71527 238.98076 241.36026
 243.99076 246.25125 248.26275 250.03725 251.46374 252.59624 253.42773 253.75323
 253.79973 253.58322 252.95272 251.91022 250.52571 248.69621 246.61470 244.45720
 242.25770 240.07119 237.90069 235.74919 233.61868 231.49518 229.53067 227.69717
 225.98967 224.47116 223.11066 221.89215 220.78365 219.75315 218.86664 218.01714
 217.26864 216.45813 215.56563 214.93912 214.39862 214.60141 215.08052 216.91319
 219.42635 221.07381 221.63843 221.31563 221.29094 222.49365 225.31923 227.43591
 229.54745 232.42516 236.22508 240.62767 244.72293 248.41510 251.79225 255.00876
 258.14548 261.24448 264.23172 266.93970 269.40875 271.61267 273.65173 275.59451
 277.44019 279.12915 280.64764 282.00394 283.17963 284.22470 285.17517 286.04715
 286.84607 287.56409 288.17218 288.96191
 366.78100 356.34357 345.78413 334.65870 323.07026 311.27283 299.15140 286.96296
 274.68353 262.58909 250.60666 239.91623 230.04679 221.15936 213.34992 206.36049
 200.20306 195.14962 191.74019 189.79075 188.83632 188.90889 189.75245 191.06902
 192.80258 194.90615 197.17772 199.54528 201.99885 204.48741 206.58398 208.43455
 210.06911 211.22268 211.46025 211.69681 211.64238 211.35594 210.99751 210.63608
 210.26164 209.98021 209.79677 209.66934 209.60591 209.94547 210.34004 210.73760
 211.53917 212.72574 213.98430 215.77587 217.71243 219.76400 221.86757 223.95913
 226.02770 228.12026 230.22583 232.34040 234.47796 236.65853 238.92309 241.30166
 243.93123 246.19079 248.20136 249.97492 251.40049 252.53206 253.36262 253.68719
 253.73275 253.51532 252.88389 251.84045 250.45502 248.62458 246.54215 244.38372
 242.18328 239.99585 237.82441 235.67198 233.54055 231.41611 229.45068 227.61624
 225.90781 224.38838 223.02694 221.80751 220.69807 219.66664 218.77921 217.92877
 217.17934 216.36790 215.47447 214.84704 214.30560 214.55310 215.13786 216.96280
 219.37535 221.06454 221.67940 221.32816 221.23526 222.38690 225.17972 227.30272
 229.46335 232.43845 236.31271 240.73058 244.82849 248.51050 251.86566 255.04044
 258.14078 261.21082 264.16898 266.85852 269.33713 271.56079 273.56644 275.53879
 277.38858 279.05392 280.55014 281.87857 283.03775 284.07190 285.01666 285.88910
 286.69119 287.40060 288.00842 288.80038
 366.78100 356.34388 345.78476 334.65965 323.07153 311.27441 299.15329 286.96518
 274.68606 262.59194 250.60982 239.91971 230.05059 221.16347 213.35435 206.36524
 200.20812 195.15500 191.74588 189.79676 188.84265 188.91553 189.75941 191.07629
 192.81018 194.91406 197.18594 199.55382 202.00771 204.49659 206.59347 208.44435
 210.07924 211.23312 211.47100 211.70788 211.65376 211.36765 211.00953 210.64841
 210.27429 209.99318 209.81006 209.68294 209.61982 209.95971 210.35459 210.75247
 211.55435 212.74123 214.00012 215.79200 217.72888 219.78076 221.88465 223.97653
 226.04541 228.13829 230.24418 232.35906 234.49694 236.67782 238.94271 241.32159
 243.95147 246.21135 248.22223 249.99612 251.42200 252.55388 253.38476 253.70965
 253.75553 253.53841 252.90729 251.86418 250.47906 248.64894 246.56682 244.40871
 242.20859 240.02147 237.85035 235.69823 233.56712 231.44300 229.47788 227.64376
 225.93565 224.41653 223.05541 221.83629 220.72718 219.69606 218.80894 217.95882
 217.20971 216.39859 215.50547 214.87835 214.33723 214.58629 215.17474 216.96046
 219.33876 221.07359 221.72993 221.32524 221.16475 222.30295 225.03134 227.13344
 229.35510 232.43393 236.38962 240.83765 244.95053 248.63554 251.98361 255.14082
 258.22577 261.27377 264.20621 266.85495 269.23480 271.23923 273.39807 275.41959
 277.31934 278.90002 280.33545 281.62952 282.76831 283.80875 284.76517 285.63306
 286.41296 287.09570 287.70053 288.49219
 366.78100 356.34534 345.78768 334.66402 323.07736 311.28170 299.16204 286.97538
 274.69772 262.60506 250.62440 239.93574 230.06808 221.18242 213.37476 206.38710
 200.23144 195.17978 191.77212 189.82446 188.87180 188.94614 189.79148 191.10982
 192.84516 194.95050 197.22384 199.59318 202.04852 204.53886 206.63720 208.48954
 210.12588 211.28122 211.52056 211.75890 211.70624 211.42157 211.06491 210.70525
 210.33259 210.05293 209.87127 209.74561 209.68395 210.02529 210.42163 210.82097
 211.62431 212.81265 214.07299 215.86633 217.80467 219.85801 221.96335 224.05669
 226.12703 228.22137 230.32871 232.44505 234.58439 236.76673 239.03307 241.41341
 244.04475 246.30609 248.31843 250.09377 251.52111 252.65445 253.48679 253.81313
 253.86047 253.64481 253.01515 251.97349 250.58983 248.76117 246.68051 244.52385
 242.32519 240.13953 237.96987 235.81921 233.68955 231.56689 229.60323 227.77057
 226.06391 224.54625 223.18659 221.96893 220.86127 219.83161 218.94595 218.09729
 217.34963 216.53997 215.64831 215.02265 214.48299 214.69348 215.19080 216.90614
 219.33485 221.09869 221.76135 221.30545 221.05370 222.11301 224.84065 226.95566
 229.23123 232.42818 236.46780 240.92299 245.03737 248.74818 252.13332 255.30717
 258.37265 261.38315 264.30612 266.96219 269.28775 271.23935 273.42465 275.40836
 277.14990 278.70685 280.05219 281.25635 282.31036 283.30576 284.25201 285.11172
 285.87729 286.55789 287.16296 287.96884
 366.78100 356.34632 345.78964 334.66697 323.08129 311.28661 299.16793 286.98225
 274.70557 262.61390 250.63422 239.94654 230.07986 221.19518 213.38850 206.40183
 200.24715 195.19647 191.78979 189.84311 188.89144 188.96676 189.81308 191.13240
 192.86872 194.97504 197.24937 199.61969 202.07601 204.56733 206.66665 208.51997
 210.15730 211.31362 211.55394 211.79326 211.74158 211.45791 211.10223 210.74355
 210.37187 210.09319 209.91251 209.78784 209.72716 210.06948 210.46680 210.86712
 211.67144 212.86077 214.12209 215.91641 217.85573 219.91005 222.01638 224.11070
 226.18202 228.27734 230.38566 232.50298 234.64331 236.82663 239.09395 241.47527
 244.10759 246.36991 248.38324 250.15956 251.58788 252.72220 253.55552 253.88285
 253.93117 253.71649 253.08781 252.04713 250.66445 248.83678 246.75710 244.60142
 242.40374 240.21906 238.05038 235.90071 233.77203 231.65035 229.68767 227.85599
 226.15032 224.63364 223.27496 222.05828 220.95160 219.92292 219.03825 218.19057
 217.44389 216.63521 215.74453 215.11985 214.58118 214.77718 215.24022 216.85480
 219.32097 221.14699 221.84393 221.33415 220.95268 221.88518 224.58173 226.71309
 229.04620 232.35585 236.48750 240.95267 245.08260 248.84222 252.26868 255.45375
 258.50824 261.51151 264.39996 267.05936 269.43735 271.46094 273.51370 275.39206
 277.12079 278.56250 279.84225 280.97375 281.89191 282.67599 283.57806 284.43356
 285.17758 285.86057 286.47144 287.30045
 366.78100 356.34752 345.79204 334.67056 323.08608 311.29260 299.17512 286.99064
 274.71516 262.62468 250.64620 239.95972 230.09424 221.21076 213.40528 206.41980
 200.26632 195.21684 191.81136 189.86588 188.91540 188.99192 189.83944 191.15996
 192.89748 195.00500 197.28052 199.65204 202.10956 204.60208 206.70260 208.55712
 210.19564 211.35316 211.59468 211.83520 211.78472 211.50224 211.14776 210.79028
 210.41980 210.14232 209.96284 209.83936 209.77988 210.12340 210.52192 210.92344
 211.72896 212.91948 214.18200 215.97752 217.91804 219.97356 222.08108 224.17660
 226.24912 228.34564 230.45516 232.57368 234.71520 236.89972 239.16824 241.55076
 244.18428 246.44780 248.46232 250.23984 251.66936 252.80488 253.63940 253.96792
 254.01744 253.80396 253.17648 252.13700 250.75552 248.92904 246.85056 244.69608
 242.49960 240.31612 238.14864 236.00016 233.87268 231.75220 229.79072 227.96024
 226.25576 224.74028 223.38280 222.16732 221.06184 220.03436 219.15088 218.30440
 217.55892 216.75144 215.86196 215.23848 214.70100 214.86871 215.26492 216.79015
 219.33855 221.26668 222.02295 221.48405 220.93163 221.68988 224.33949 226.39273
 228.79411 232.20702 236.44083 240.97018 245.14162 248.88107 252.28493 255.45467
 258.52408 261.55362 264.42325 267.09381 269.47400 271.50211 273.59692 275.45963
 277.18887 278.47910 279.71417 280.81366 281.69519 282.45132 283.31122 284.14441
 284.79932 285.50153 286.14728 287.00339
 366.78100 356.34668 345.79036 334.66804 323.08273 311.28841 299.17009 286.98477
 274.70845 262.61713 250.63781 239.95050 230.08418 221.19986 213.39354 206.40722
 200.25290 195.20258 191.79627 189.84995 188.89863 188.97431 189.82099 191.14067
 192.87735 194.98404 197.25872 199.62940 202.08608 204.57776 206.67744 208.53112
 210.16881 211.32549 211.56617 211.80585 211.75453 211.47121 211.11589 210.75758
 210.38626 210.10794 209.92762 209.80330 209.74298 210.08566 210.48335 210.88403
 211.68871 212.87839 214.14007 215.93475 217.87443 219.92912 222.03580 224.13048
 226.20216 228.29784 230.40652 232.52420 234.66489 236.84857 239.11625 241.49793
 244.13061 246.39329 248.40697 250.18365 251.61234 252.74702 253.58070 253.90838
 253.95706 253.74274 253.11442 252.07411 250.69179 248.86447 246.78515 244.62983
 242.43251 240.24819 238.07988 235.93056 233.80224 231.68092 229.71860 227.88728
 226.18196 224.66565 223.30733 222.09101 220.98469 219.95637 219.07205 218.22473
 217.47842 216.67010 215.77978 215.15546 214.61714 214.86209 215.44965 216.63287
 219.14008 221.21561 222.05952 221.55118 220.89299 221.48186 224.17480 226.34462
 228.65309 232.09074 236.40947 240.93274 245.14877 248.88515 252.26170 255.44469
 258.53067 261.56116 264.43604 267.10086 269.43454 271.55869 273.59332 275.52063
 277.10150 278.48422 279.69971 280.75195 281.62399 282.56064 283.52527 284.42212
 285.27823 286.04135 286.70801 287.55759
 366.78100 356.34202 345.78104 334.65406 323.06409 311.26511 299.14213 286.95215
 274.67117 262.57519 250.59121 239.89924 230.02826 221.13928 213.32830 206.33732
 200.17834 195.12336 191.71238 189.76141 188.80543 188.87645 189.71847 191.03349
 192.76551 194.86753 197.13756 199.50358 201.95560 204.44262 206.53764 208.38666
 210.01968 211.17171 211.40773 211.64275 211.58677 211.29879 210.93881 210.57583
 210.19986 209.91688 209.73190 209.60292 209.53794 209.87596 210.26898 210.66501
 211.46503 212.65005 213.90707 215.69709 217.63211 219.68213 221.78415 223.87418
 225.94120 228.03222 230.13624 232.24926 234.38528 236.56430 238.82733 241.20435
 243.83237 246.09039 248.09941 249.87143 251.29545 252.42548 253.25450 253.57752
 253.62154 253.40256 252.76958 251.72460 250.33763 248.50565 246.42167 244.26169
 242.05971 239.87073 237.69775 235.54377 233.41080 231.28482 229.31784 227.48186
 225.77188 224.25090 222.88792 221.66695 220.55597 219.52299 218.63401 217.78203
 217.03105 216.21807 215.32310 214.69412 214.15114 214.65550 215.84006 216.67488
 218.58107 220.79637 221.92783 221.70961 221.16367 221.63463 224.11983 226.56549
 228.77283 232.20892 236.45021 240.90724 245.09845 248.85539 252.31767 255.58842
 258.69809 261.64102 264.50888 267.18048 269.47009 271.57001 273.61743 275.47961
 277.09048 278.49069 279.67773 280.67587 281.72388 282.79626 283.82693 284.76065
 285.60043 286.34827 287.00156 287.83408
 366.78100 356.34034 345.77768 334.64902 323.05735 311.25669 299.13203 286.94037
 274.65771 262.56005 250.57438 239.88072 230.00806 221.11740 213.30474 206.31208
 200.15141 195.09475 191.68209 189.72943 188.77177 188.84111 189.68144 190.99478
 192.72512 194.82546 197.09380 199.45814 201.90847 204.39381 206.48715 208.33449
 209.96583 211.11617 211.35050 211.58384 211.52618 211.23652 210.87486 210.51020
 210.13253 209.84787 209.66121 209.53055 209.46389 209.80023 210.19156 210.58590
 211.38424 212.56758 213.82292 215.61126 217.54459 219.59293 221.69327 223.78161
 225.84695 227.93629 230.03862 232.14996 234.28430 236.46164 238.72298 241.09832
 243.72465 245.98099 247.98833 249.75867 251.18101 252.30935 253.13668 253.45802
 253.50036 253.27970 252.64504 251.59838 250.20971 248.37605 246.29039 244.12873
 241.92507 239.73441 237.55974 235.40408 233.26942 231.14176 229.17310 227.33544
 225.62377 224.10111 222.73645 221.51379 220.40113 219.36647 218.47580 217.62214
 216.86948 216.05482 215.15816 214.52750 213.98283 214.58852 216.00558 216.84608
 218.15857 220.40816 221.94838 221.95059 221.38951 221.72156 224.13936 226.54492
 228.74585 232.22223 236.49884 240.89925 245.04378 248.84319 252.36372 255.61612
 258.68140 261.64017 264.53601 267.17487 269.49042 271.63559 273.72177 275.56958
 277.22296 278.60254 279.75656 280.75876 281.85986 282.95209 283.98590 284.92242
 285.76477 286.51486 287.17010 288.00519
 366.78100 356.34336 345.78371 334.65807 323.06942 311.27178 299.15014 286.96149
 274.68185 262.58720 250.60456 239.91392 230.04427 221.15663 213.34698 206.35734
 200.19969 195.14605 191.73641 189.78676 188.83212 188.90447 189.74783 191.06419
 192.79754 194.90090 197.17225 199.53961 201.99297 204.48132 206.57768 208.42803
 210.06239 211.21575 211.45310 211.68946 211.63481 211.34817 210.98952 210.62788
 210.25324 209.97159 209.78795 209.66030 209.59666 209.93602 210.33037 210.72773
 211.52908 212.71544 213.97380 215.76515 217.70151 219.75286 221.85622 223.94758
 226.01593 228.10829 230.21364 232.32800 234.46536 236.64571 238.91007 241.28842
 243.91778 246.17713 248.18749 249.96085 251.38620 252.51756 253.34791 253.67227
 253.71763 253.49998 252.86834 251.82469 250.43905 248.60841 246.52576 244.36712
 242.16647 239.97883 237.80719 235.65454 233.52290 231.39825 229.43261 227.59796
 225.88932 224.36968 223.00803 221.78839 220.67874 219.64710 218.75946 217.90881
 217.15917 216.34752 215.45388 214.82624 214.28459 214.75900 215.89058 217.03130
 218.07808 220.03786 221.84630 222.03651 221.40820 221.63159 224.14812 226.43408
 228.70789 232.25105 236.59100 240.92867 244.97578 248.73531 252.23436 255.45792
 258.54996 261.56897 264.44772 267.09973 269.48914 271.70209 273.79953 275.72211
 277.37946 278.79120 279.98325 281.02960 282.00635 283.01230 283.97787 284.89621
 285.72217 286.45767 287.10022 287.91904
 366.78100 356.34460 345.78620 334.66180 323.07441 311.27801 299.15761 286.97021
 274.69181 262.59841 250.61701 239.92762 230.05922 221.17282 213.36442 206.37602
 200.21962 195.16723 191.75883 189.81043 188.85703 188.93063 189.77523 191.09283
 192.82744 194.93204 197.20464 199.57324 202.02784 204.51744 206.61504 208.46665
 210.10225 211.25685 211.49545 211.73305 211.67965 211.39426 211.03686 210.67646
 210.30306 210.02266 209.84026 209.71386 209.65147 209.99207 210.38767 210.78627
 211.58887 212.77647 214.03607 215.82868 217.76628 219.81888 221.92348 224.01608
 226.08568 228.17929 230.28589 232.40149 234.54009 236.72169 238.98729 241.36689
 243.99750 246.25810 248.26970 250.04430 251.47090 252.60350 253.43510 253.76071
 253.80731 253.59091 252.96051 251.91811 250.53371 248.70431 246.62292 244.46552
 242.26612 240.07972 237.90932 235.75792 233.62753 231.50413 229.53973 227.70633
 225.99893 224.48053 223.12013 221.90174 220.79334 219.76294 218.87654 218.02714
 217.27874 216.46834 215.57595 214.94955 214.40915 214.84761 215.88950 217.01955
 218.19977 219.99313 221.64133 221.83981 221.31854 221.58543 224.14464 226.34286
 228.71254 232.33821 236.73271 241.03307 244.99672 248.71663 252.19560 255.40889
 258.52661 261.55939 264.41809 267.06812 269.48959 271.73120 273.82227 275.73169
 277.38007 278.82016 280.06250 281.15265 282.10938 282.99420 283.82489 284.66037
 285.45108 286.15521 286.77032 287.55420
 366.78100 356.34379 345.78458 334.65938 323.07117 311.27396 299.15275 286.96454
 274.68533 262.59113 250.60892 239.91871 230.04950 221.16229 213.35309 206.36388
 200.20667 195.15346 191.74425 189.79505 188.84084 188.91363 189.75742 191.07421
 192.80800 194.91180 197.18359 199.55138 202.00517 204.49396 206.59076 208.44155
 210.07634 211.23013 211.46792 211.70472 211.65051 211.36430 211.00609 210.64488
 210.27067 209.98947 209.80626 209.67905 209.61584 209.95563 210.35043 210.74822
 211.55001 212.73680 213.99559 215.78738 217.72418 219.77597 221.87976 223.97155
 226.04034 228.13314 230.23893 232.35372 234.49151 236.67230 238.93710 241.31589
 243.94568 246.20547 248.21626 249.99005 251.41585 252.54764 253.37843 253.70322
 253.74901 253.53181 252.90060 251.85739 250.47218 248.64197 246.55977 244.40156
 242.20135 240.01414 237.84293 235.69072 233.55952 231.43531 229.47010 227.63589
 225.92768 224.40848 223.04727 221.82806 220.71885 219.68764 218.80043 217.95023
 217.20102 216.38981 215.49660 214.86939 214.32819 214.83824 216.04407 216.95535
 218.12805 219.84492 221.36111 221.57065 221.16112 221.49298 224.07472 226.43687
 228.82181 232.48021 236.86066 241.12645 245.06032 248.79247 252.29031 255.54039
 258.65280 261.64270 264.46368 267.08542 269.47815 271.70135 273.78802 275.68057
 277.31851 278.76379 280.04321 281.15247 282.10251 282.92795 283.75116 284.60434
 285.37448 286.06027 286.65939 287.42288
 366.78100 356.34414 345.78527 334.66041 323.07254 311.27568 299.15481 286.96695
 274.68808 262.59422 250.61235 239.92249 230.05363 221.16676 213.35790 206.36903
 200.21217 195.15930 191.75044 189.80157 188.84771 188.92085 189.76498 191.08212
 192.81625 194.92039 197.19252 199.56066 202.01479 204.50393 206.60106 208.45220
 210.08734 211.24147 211.47961 211.71674 211.66288 211.37701 211.01915 210.65828
 210.28442 210.00356 209.82069 209.69383 209.63096 209.97110 210.36623 210.76437
 211.56650 212.75364 214.01277 215.80491 217.74205 219.79418 221.89832 223.99045
 226.05959 228.15272 230.25886 232.37399 234.51213 236.69326 238.95840 241.33754
 243.96767 246.22781 248.23894 250.01308 251.43921 252.57135 253.40248 253.72762
 253.77376 253.55689 252.92603 251.88316 250.49830 248.66843 246.58657 244.42870
 242.22884 240.04197 237.87111 235.71925 233.58838 231.46452 229.49965 227.66579
 225.95792 224.43906 223.07819 221.85933 220.75046 219.71960 218.83274 217.98287
 217.23401 216.42314 215.53028 214.90341 214.36255 214.89262 216.13757 216.94766
 218.09244 219.58311 221.05441 221.41632 221.16261 221.60306 224.02826 226.54593
 228.94569 232.61266 236.94928 241.16695 245.10075 248.86731 252.42932 255.74936
 258.82770 261.75211 264.55197 267.15088 269.50198 271.66769 273.71396 275.59824
 277.25824 278.72501 279.99939 281.09476 282.02652 283.01352 283.96964 284.83582
 285.61487 286.30859 286.91464 287.68695
 366.78100 356.34436 345.78572 334.66108 323.07344 311.27679 299.15615 286.96851
 274.68987 262.59623 250.61459 239.92495 230.05631 221.16967 213.36102 206.37238
 200.21574 195.16310 191.75446 189.80582 188.85218 188.92554 189.76990 191.08725
 192.82161 194.92597 197.19833 199.56669 202.02105 204.51041 206.60777 208.45913
 210.09448 211.24884 211.48720 211.72456 211.67092 211.38528 211.02764 210.66700
 210.29336 210.01271 209.83007 209.70343 209.64079 209.98115 210.37651 210.77487
 211.57723 212.76458 214.02394 215.81630 217.75366 219.80602 221.91038 224.00274
 226.07210 228.16546 230.27181 232.38717 234.52553 236.70689 238.97225 241.35161
 243.98197 246.24233 248.25369 250.02804 251.45440 252.58676 253.41812 253.74348
 253.78984 253.57320 252.94256 251.89992 250.51527 248.68563 246.60399 244.44635
 242.24671 240.06007 237.88943 235.73779 233.60715 231.48350 229.51886 227.68522
 225.97758 224.45894 223.09830 221.87966 220.77102 219.74038 218.85373 218.00409
 217.25545 216.44481 215.55217 214.92553 214.38489 214.94186 216.22778 216.95561
 218.09465 219.51617 220.93755 221.36380 221.14485 221.66280 224.01883 226.52289
 229.00183 232.70468 237.01967 241.19426 245.14531 248.96901 252.61816 255.96515
 259.00568 261.88043 264.62817 267.17651 269.49438 271.64935 273.67062 275.56943
 277.27243 278.71484 279.96136 281.27505 282.50616 283.59537 284.58911 285.48938
 286.29907 287.02011 287.64999 288.45270
 366.78100 356.34432 345.78564 334.66096 323.07327 311.27659 299.15591 286.96823
 274.68955 262.59587 250.61418 239.92450 230.05582 221.16914 213.36046 206.37178
 200.21510 195.16241 191.75373 189.80505 188.85137 188.92469 189.76901 191.08632
 192.82064 194.92496 197.19728 199.56560 202.01992 204.50923 206.60655 208.45787
 210.09319 211.24751 211.48583 211.72315 211.66946 211.38378 211.02610 210.66542
 210.29174 210.01106 209.82837 209.70169 209.63901 209.97933 210.37465 210.77297
 211.57529 212.76260 214.02192 215.81424 217.75156 219.80388 221.90820 224.00051
 226.06983 228.16315 230.26947 232.38479 234.52311 236.70442 238.96974 241.34906
 243.97938 246.23970 248.25102 250.02534 251.45165 252.58397 253.41529 253.74061
 253.78693 253.57025 252.93956 251.89688 250.51220 248.68252 246.60084 244.44316
 242.24348 240.05679 237.88611 235.73443 233.60375 231.48007 229.51539 227.68170
 225.97402 224.45534 223.09466 221.87598 220.76730 219.73662 218.84993 218.00025
 217.25157 216.44089 215.54821 214.92153 214.38084 214.96782 216.30577 216.96622
 218.00981 219.40292 220.90598 221.34106 221.07945 221.63341 223.96231 226.42899
 228.98634 232.75241 237.09726 241.25793 245.23038 249.09595 252.82033 256.19180
 259.21329 262.04831 264.72839 267.19434 269.45392 271.61548 273.72568 275.64133
 277.37552 278.80469 280.16885 281.48346 282.63852 283.66043 284.59277 285.43744
 286.19708 286.87357 287.46454 288.21765
 366.78100 356.34347 345.78394 334.65841 323.06988 311.27235 299.15083 286.96230
 274.68277 262.58824 250.60571 239.91518 230.04565 221.15812 213.34859 206.35906
 200.20154 195.14801 191.73848 189.78895 188.83442 188.90689 189.75036 191.06683
 192.80030 194.90377 197.17525 199.54272 201.99619 204.48466 206.58113 208.43160
 210.06607 211.21954 211.45701 211.69348 211.63895 211.35243 210.99390 210.63237
 210.25784 209.97631 209.79278 209.66525 209.60172 209.94119 210.33566 210.73314
 211.53461 212.72108 213.97955 215.77102 217.70749 219.75896 221.86243 223.95390
 226.02237 228.11485 230.22032 232.33479 234.47226 236.65273 238.91720 241.29567
 243.92514 246.18461 248.19508 249.96855 251.39403 252.52550 253.35597 253.68044
 253.72591 253.50838 252.87685 251.83332 250.44779 248.61726 246.53474 244.37621
 242.17568 239.98815 237.81662 235.66409 233.53256 231.40803 229.44250 227.60797
 225.89945 224.37992 223.01839 221.79886 220.68933 219.65780 218.77027 217.91974
 217.17021 216.35868 215.46515 214.83763 214.29610 214.95406 216.41716 216.97458
 217.86807 219.46205 221.15594 221.51099 220.90712 221.41516 223.79466 226.17082
 228.77924 232.69498 237.17667 241.32214 245.26498 249.13521 252.84995 256.25409
 259.34885 262.23001 264.90497 267.32550 269.49969 271.43335 273.39868 275.34250
 276.83215 278.36969 279.96515 281.40781 282.65628 283.76083 284.76862 285.68158
 286.50269 287.23389 287.87265 288.68668
 366.78100 356.34232 345.78164 334.65496 323.06528 311.26660 299.14392 286.95424
 274.67356 262.57788 250.59420 239.90252 230.03184 221.14316 213.33248 206.34180
 200.18312 195.12843 191.71775 189.76707 188.81139 188.88271 189.72503 191.04035
 192.77267 194.87499 197.14531 199.51163 201.96395 204.45127 206.54659 208.39591
 210.02923 211.18155 211.41787 211.65319 211.59751 211.30983 210.95015 210.58747
 210.21179 209.92911 209.74443 209.61575 209.55107 209.88939 210.28271 210.67903
 211.47935 212.66466 213.92198 215.71230 217.64762 219.69794 221.80026 223.89058
 225.95790 228.04922 230.15354 232.26686 234.40318 236.58250 238.84582 241.22314
 243.85146 246.10978 248.11910 249.89142 251.31574 252.44606 253.27538 253.59870
 253.64302 253.42434 252.79166 251.74698 250.36030 248.52862 246.44494 244.28526
 242.08358 239.89490 237.72221 235.56853 233.43585 231.31017 229.34349 227.50781
 225.79813 224.27745 222.91477 221.69409 220.58341 219.55073 218.66205 217.81037
 217.05969 216.24701 215.35233 214.72365 214.18097 214.93153 216.52815 217.00540
 217.64217 219.39420 221.37973 221.81953 220.69304 221.01128 223.63901 226.05775
 228.83322 232.77618 237.16646 241.35782 245.34891 249.27817 253.01471 256.46429
 259.57635 262.38785 264.96271 267.32690 269.39206 271.32404 273.20856 275.07773
 277.33243 279.45447 281.29074 282.90314 284.29849 285.53305 286.65939 287.67978
 288.59750 289.41476 290.12866 291.03848
 366.78100 356.34518 345.78736 334.66354 323.07672 311.28090 299.16108 286.97426
 274.69644 262.60362 250.62280 239.93398 230.06616 221.18035 213.37253 206.38471
 200.22889 195.17707 191.76925 189.82143 188.86861 188.94279 189.78797 191.10615
 192.84133 194.94651 197.21969 199.58887 202.04405 204.53423 206.63241 208.48459
 210.12077 211.27595 211.51513 211.75331 211.70049 211.41568 211.05886 210.69904
 210.32622 210.04640 209.86458 209.73876 209.67694 210.01812 210.41430 210.81348
 211.61666 212.80484 214.06502 215.85820 217.79638 219.84956 221.95474 224.04792
 226.11810 228.21228 230.31946 232.43564 234.57482 236.75701 239.02319 241.40337
 244.03455 246.29573 248.30791 250.08309 251.51027 252.64345 253.47563 253.80181
 253.84899 253.63317 253.00335 251.96153 250.57771 248.74889 246.66807 244.51125
 242.31243 240.12661 237.95679 235.80597 233.67615 231.55333 229.58952 227.75670
 226.04988 224.53206 223.17224 221.95442 220.84660 219.81678 218.93096 218.08214
 217.33432 216.52450 215.63268 215.00686 214.46704 215.06845 216.44238 217.14511
 217.66219 218.97820 220.75533 221.29147 220.83980 221.49149 223.70476 226.17050
 228.89940 232.88786 237.35231 241.53812 245.51291 249.42990 253.17213 256.57883
 259.63202 262.49667 265.20175 267.63309 269.77344 271.77737 273.73840 275.65042
 277.67075 279.60822 281.31305 282.81003 284.10553 285.25174 286.29745 287.24481
 288.09686 288.85559 289.51843 290.36313
 366.78100 356.34659 345.79017 334.66776 323.08234 311.28793 299.16952 286.98410
 274.70769 262.61627 250.63686 239.94945 230.08303 221.19862 213.39220 206.40579
 200.25138 195.20096 191.79455 189.84813 188.89672 188.97231 189.81889 191.13848
 192.87507 194.98165 197.25624 199.62682 202.08341 204.57500 206.67458 208.52817
 210.16575 211.32234 211.56293 211.80251 211.75110 211.46768 211.11227 210.75386
 210.38244 210.10403 209.92361 209.79920 209.73879 210.08137 210.47896 210.87954
 211.68413 212.87372 214.13530 215.92989 217.86947 219.92406 222.03065 224.12523
 226.19682 228.29240 230.40099 232.51858 234.65916 236.84275 239.11034 241.49192
 244.12451 246.38709 248.40068 250.17727 251.60585 252.74044 253.57402 253.90161
 253.95020 253.73578 253.10737 252.06695 250.68454 248.85713 246.77771 244.62230
 242.42488 240.24047 238.07206 235.92264 233.79423 231.67281 229.71040 227.87899
 226.17357 224.65716 223.29874 222.08233 220.97592 219.94750 219.06309 218.21567
 217.46926 216.66085 215.77043 215.14602 214.60760 215.13506 216.37756 217.20255
 217.75238 218.80280 220.17557 220.64507 220.69614 221.59697 223.75648 226.31181
 229.11105 233.02202 237.46399 241.63582 245.55550 249.43631 253.16533 256.49530
 259.50113 262.36804 265.02524 267.46024 269.69693 271.80774 273.81351 275.68649
 277.39041 278.92804 280.31995 281.55371 282.64224 283.60532 284.48398 285.28000
 285.99591 286.63345 287.19037 287.90012
 366.78100 356.34453 345.78606 334.66159 323.07411 311.27764 299.15717 286.96970
 274.69123 262.59776 250.61629 239.92682 230.05834 221.17187 213.36340 206.37493
 200.21846 195.16599 191.75752 189.80905 188.85557 188.92910 189.77363 191.09116
 192.82569 194.93022 197.20275 199.57128 202.02580 204.51533 206.61286 208.46439
 210.09992 211.25445 211.49298 211.73050 211.67703 211.39156 211.03409 210.67362
 210.30015 210.01968 209.83721 209.71073 209.64826 209.98879 210.38432 210.78285
 211.58538 212.77291 214.03244 215.82496 217.76249 219.81502 221.91955 224.01208
 226.08161 228.17514 230.28167 232.39719 234.53572 236.71725 238.98278 241.36231
 243.99284 246.25337 248.26489 250.03942 251.46595 252.59848 253.43001 253.75554
 253.80207 253.58560 252.95512 251.91265 250.52818 248.69871 246.61724 244.45977
 242.26030 240.07383 237.90335 235.75188 233.62141 231.49794 229.53347 227.70000
 225.99253 224.47405 223.11358 221.89511 220.78664 219.75617 218.86970 218.02023
 217.27176 216.46128 215.56881 214.94234 214.40187 215.05663 216.52943 217.10637
 217.67622 219.02104 220.48521 220.71257 220.41048 221.23131 223.45595 226.05862
 228.94122 233.01926 237.53799 241.70337 245.64999 249.56573 253.33598 256.72141
 259.74332 262.48068 265.02502 267.34943 269.48273 271.53006 273.51224 275.40155
 277.08060 278.57034 280.19269 281.65833 282.92670 284.04889 285.07269 286.00021
 286.83441 287.57727 288.22620 289.05322
 366.78100 356.34446 345.78591 334.66137 323.07382 311.27728 299.15674 286.96919
 274.69065 262.59710 250.61556 239.92602 230.05747 221.17093 213.36239 206.37384
 200.21730 195.16475 191.75621 189.80767 188.85412 188.92758 189.77203 191.08949
 192.82395 194.92840 197.20086 199.56931 202.02377 204.51323 206.61068 208.46214
 210.09759 211.25205 211.49051 211.72796 211.67442 211.38887 211.03133 210.67079
 210.29724 210.01670 209.83416 209.70761 209.64507 209.98552 210.38098 210.77944
 211.58189 212.76935 214.02880 215.82126 217.75872 219.81117 221.91563 224.00808
 226.07754 228.17100 230.27745 232.39291 234.53136 236.71282 238.97828 241.35773
 243.98819 246.24864 248.26010 250.03456 251.46101 252.59347 253.42493 253.75038
 253.79684 253.58029 252.94975 251.90721 250.52266 248.69312 246.61157 244.45403
 242.25449 240.06794 237.89740 235.74585 233.61531 231.49177 229.52722 227.69368
 225.98613 224.46759 223.10705 221.88850 220.77996 219.74942 218.86287 218.01333
 217.26478 216.45424 215.56170 214.93515 214.39461 215.07347 216.55939 217.08815
 217.58005 218.94705 220.58659 220.77238 220.16939 220.90140 223.41899 226.10559
 229.09505 233.15778 237.60954 241.82066 245.82129 249.79675 253.61844 257.05014
 260.11133 262.88971 265.43701 267.70978 269.75391 271.69852 273.59454 275.33694
 277.43539 279.48978 281.26749 282.82846 284.17932 285.37451 286.46494 287.45279
 288.34125 289.13245 289.82361 290.70441
 366.78100 356.34678 345.79057 334.66835 323.08314 311.28892 299.17070 286.98549
 274.70927 262.61806 250.63884 239.95162 230.08541 221.20119 213.39498 206.40876
 200.25454 195.20433 191.79811 189.85190 188.90068 188.97646 189.82325 191.14303
 192.87981 194.98660 197.26138 199.63217 202.08895 204.58073 206.68052 208.53430
 210.17209 211.32887 211.56965 211.80944 211.75822 211.47501 211.11979 210.76157
 210.39036 210.11214 209.93193 209.80771 209.74749 210.09028 210.48806 210.88885
 211.69363 212.88341 214.14520 215.93998 217.87977 219.93455 222.04133 224.13612
 226.20790 228.30369 230.41247 232.53025 234.67104 236.85482 239.12261 241.50439
 244.13717 246.39996 248.41374 250.19053 251.61931 252.75409 253.58788 253.91566
 253.96444 253.75023 253.12201 252.08180 250.69958 248.87236 246.79315 244.63793
 242.44072 240.25650 238.08828 235.93907 233.81085 231.68964 229.72742 227.89620
 226.19099 224.67477 223.31656 222.10034 220.99412 219.96591 219.08169 218.23448
 217.48826 216.68004 215.78983 215.16561 214.62740 215.18341 216.46156 217.17757
 217.70029 218.72067 220.07558 220.36250 220.13953 221.07222 223.42885 226.18283
 229.13992 233.23854 237.73755 241.93733 245.91881 249.87082 253.67589 257.12610
 260.23630 263.11600 265.77087 268.10870 270.18970 272.14938 274.02850 275.77173
 277.69135 279.63266 281.35718 282.87143 284.18192 285.34134 286.39914 287.35742
 288.21933 288.98682 289.65732 290.51175
 366.78100 356.34638 345.78977 334.66715 323.08153 311.28692 299.16830 286.98268
 274.70607 262.61445 250.63483 239.94722 230.08060 221.19598 213.38937 206.40275
 200.24813 195.19752 191.79090 189.84428 188.89267 188.96805 189.81444 191.13382
 192.87020 194.97659 197.25097 199.62135 202.07774 204.56912 206.66850 208.52189
 210.15927 211.31565 211.55604 211.79542 211.74380 211.46019 211.10457 210.74595
 210.37434 210.09572 209.91510 209.79049 209.72987 210.07225 210.46964 210.87002
 211.67440 212.86379 214.12517 215.91955 217.85894 219.91332 222.01970 224.11409
 226.18547 228.28085 230.38924 232.50662 234.64700 236.83039 239.09777 241.47916
 244.11154 246.37392 248.38731 250.16369 251.59207 252.72646 253.55984 253.88722
 253.93561 253.72099 253.09237 252.05176 250.66914 248.84152 246.76191 244.60629
 242.40867 240.22406 238.05544 235.90582 233.77721 231.65559 229.69297 227.86136
 226.15574 224.63912 223.28051 222.06389 220.95727 219.92866 219.04404 218.19642
 217.44981 216.64119 215.75057 215.12596 214.58734 215.15950 216.47379 217.15472
 217.74362 218.72382 219.77382 219.97279 219.96329 221.03769 223.32874 226.14360
 229.13046 233.28300 237.83830 242.02521 245.99010 249.94072 253.73395 257.13599
 260.19867 263.05865 265.72946 268.12589 270.29565 272.32703 274.26111 276.03665
 277.66119 279.29318 280.74277 282.09564 283.26645 284.30234 285.24741 286.10358
 286.87360 287.55930 288.15833 288.92172
 366.78100 356.34441 345.78582 334.66124 323.07365 311.27706 299.15647 286.96889
 274.69030 262.59671 250.61512 239.92554 230.05695 221.17036 213.36177 206.37318
 200.21660 195.16401 191.75542 189.80683 188.85325 188.92666 189.77107 191.08848
 192.82289 194.92731 197.19972 199.56813 202.02254 204.51196 206.60937 208.46078
 210.09619 211.25061 211.48902 211.72643 211.67284 211.38725 211.02967 210.66908
 210.29549 210.01490 209.83232 209.70573 209.64314 209.98355 210.37897 210.77738
 211.57979 212.76720 214.02661 215.81903 217.75644 219.80885 221.91326 224.00568
 226.07509 228.16850 230.27491 232.39032 234.52874 236.71015 238.97556 241.35497
 243.98539 246.24580 248.25721 250.03162 251.45804 252.59045 253.42186 253.74727
 253.79368 253.57710 252.94651 251.90392 250.51933 248.68975 246.60816 244.45057
 242.25098 240.06439 237.89381 235.74222 233.61163 231.48804 229.52346 227.68987
 225.98228 224.46369 223.10311 221.88452 220.77593 219.74534 218.85875 218.00917
 217.26058 216.44999 215.55740 214.93082 214.39023 215.05852 216.57431 217.12296
 217.59790 218.71724 219.77498 219.83742 219.75237 220.82976 223.18102 226.05005
 229.15335 233.33961 237.88451 242.10231 246.10248 250.08685 253.94090 257.36368
 260.37405 263.16455 265.79736 268.16327 270.31870 272.36328 274.33282 276.17020
 277.74747 279.11874 280.26599 281.65509 282.89511 283.99225 284.99319 285.89999
 286.71558 287.44183 288.07626 288.88480
 366.78100 356.34439 345.78577 334.66116 323.07355 311.27694 299.15632 286.96871
 274.69010 262.59648 250.61487 239.92526 230.05665 221.17003 213.36142 206.37281
 200.21619 195.16358 191.75497 189.80636 188.85274 188.92613 189.77052 191.08790
 192.82229 194.92668 197.19906 199.56745 202.02184 204.51123 206.60861 208.46000
 210.09539 211.24977 211.48816 211.72555 211.67194 211.38632 211.02871 210.66810
 210.29448 210.01387 209.83126 209.70465 209.64203 209.98242 210.37781 210.77619
 211.57858 212.76597 214.02536 215.81774 217.75513 219.80752 221.91190 224.00429
 226.07368 228.16707 230.27345 232.38884 234.52723 236.70861 238.97400 241.35339
 243.98377 246.24416 248.25555 250.02994 251.45632 252.58871 253.42010 253.74548
 253.79187 253.57526 252.94465 251.90203 250.51742 248.68781 246.60619 244.44858
 242.24897 240.06236 237.89174 235.74013 233.60952 231.48590 229.52129 227.68768
 225.98007 224.46145 223.10084 221.88223 220.77361 219.74300 218.85639 218.00678
 217.25816 216.44755 215.55494 214.92832 214.38771 215.04745 216.56395 217.18314
 217.55748 218.57999 219.58263 219.65842 219.61397 220.69072 223.12598 226.00153
 229.22298 233.42363 237.97504 242.22461 246.24730 250.24046 254.11842 257.54666
 260.51746 263.26443 265.87369 268.22495 270.36740 272.42743 274.44080 276.32074
 277.92929 279.20435 280.08755 281.16391 282.40463 283.50974 284.51797 285.43137
 286.25287 286.98441 287.62347 288.43790
 366.78100 356.34617 345.78934 334.66651 323.08067 311.28584 299.16701 286.98118
 274.70435 262.61252 250.63269 239.94486 230.07802 221.19319 213.38636 206.39953
 200.24470 195.19387 191.78704 189.84021 188.88837 188.96354 189.80971 191.12888
 192.86505 194.97122 197.24539 199.61556 202.07172 204.56289 206.66206 208.51523
 210.15240 211.30857 211.54874 211.78791 211.73607 211.45224 211.09641 210.73758
 210.36575 210.08692 209.90609 209.78126 209.72042 210.06259 210.45976 210.85993
 211.66410 212.85327 214.11444 215.90860 217.84777 219.90194 222.00811 224.10228
 226.17345 228.26862 230.37679 232.49395 234.63412 236.81729 239.08446 241.46563
 244.09780 246.35997 248.37314 250.14930 251.57747 252.71164 253.54481 253.87198
 253.92015 253.70532 253.07649 252.03565 250.65282 248.82499 246.74516 244.58933
 242.39150 240.20667 238.03784 235.88800 233.75917 231.63734 229.67451 227.84268
 226.13685 224.62002 223.26118 222.04435 220.93752 219.90869 219.02386 218.17603
 217.42920 216.62037 215.72953 215.10470 214.56587 215.13075 216.45450 217.24890
 217.67583 218.54301 219.44278 219.49030 219.43217 220.50090 222.96791 225.92371
 229.23743 233.51125 238.07086 242.32982 246.37082 250.38065 254.28889 257.73874
 260.68604 263.37445 265.93018 268.23907 270.36234 272.44064 274.48621 276.38211
 277.99570 279.21786 279.98364 280.88412 282.15381 283.28842 284.32358 285.26138
 286.10483 286.85590 287.51205 288.34821
 366.78100 356.34750 345.79200 334.67050 323.08600 311.29250 299.17501 286.99051
 274.71501 262.62451 250.64601 239.95951 230.09401 221.21051 213.40501 206.41951
 200.26602 195.21652 191.81102 189.86552 188.91502 188.99152 189.83902 191.15952
 192.89702 195.00452 197.28003 199.65153 202.10903 204.60153 206.70203 208.55653
 210.19503 211.35253 211.59403 211.83453 211.78403 211.50154 211.14704 210.78954
 210.41904 210.14154 209.96204 209.83854 209.77904 210.12254 210.52104 210.92255
 211.72805 212.91855 214.18105 215.97655 217.91705 219.97255 222.08005 224.17555
 226.24805 228.34456 230.45406 232.57256 234.71406 236.89856 239.16706 241.54956
 244.18306 246.44656 248.46106 250.23856 251.66807 252.80357 253.63807 253.96657
 254.01607 253.80257 253.17507 252.13557 250.75407 248.92757 246.84908 244.69458
 242.49808 240.31458 238.14708 235.99858 233.87108 231.75058 229.78908 227.95858
 226.25409 224.73859 223.38109 222.16559 221.06009 220.03259 219.14909 218.30259
 217.55709 216.74959 215.86009 215.23660 214.69910 215.19920 216.38435 217.22769
 217.76459 218.61362 219.46519 219.43849 219.26514 220.27777 222.72849 225.81952
 229.22247 233.59387 238.16415 242.42447 246.48502 250.51479 254.46477 257.96152
 260.94247 263.61182 266.11478 268.36337 270.46027 272.54718 274.59366 276.47748
 278.04785 279.18344 279.86438 281.11334 282.33881 283.42300 284.41217 285.30829
 286.11426 286.83197 287.45895 288.25797
 366.78100 356.34694 345.79088 334.66882 323.08375 311.28969 299.17163 286.98657
 274.71051 262.61945 250.64038 239.95332 230.08726 221.20320 213.39714 206.41108
 200.25701 195.20695 191.80089 189.85483 188.90377 188.97971 189.82664 191.14658
 192.88352 194.99046 197.26540 199.63634 202.09327 204.58521 206.68515 208.53909
 210.17703 211.33397 211.57490 211.81484 211.76378 211.48072 211.12566 210.76760
 210.39654 210.11847 209.93841 209.81435 209.75429 210.09723 210.49517 210.89610
 211.70104 212.89098 214.15292 215.94786 217.88780 219.94273 222.04967 224.14461
 226.21655 228.31249 230.42143 232.53936 234.68030 236.86424 239.13218 241.51412
 244.14706 246.40999 248.42393 250.20087 251.62981 252.76475 253.59869 253.92662
 253.97556 253.76150 253.13344 252.09338 250.71132 248.88425 246.80519 244.65013
 242.45307 240.26901 238.10095 235.95189 233.82382 231.70276 229.74070 227.90964
 226.20458 224.68852 223.33045 222.11439 221.00833 219.98027 219.09621 218.24915
 217.50308 216.69502 215.80496 215.18090 214.64284 215.17032 216.40253 217.15240
 217.80980 218.64441 219.40274 219.29408 219.06425 220.06921 222.61514 225.78680
 229.30070 233.67896 238.23897 242.50229 246.57089 250.60983 254.57047 258.06552
 261.07309 263.77261 266.30048 268.57434 270.67407 272.76736 274.82547 276.71606
 278.32385 279.52316 280.24887 281.12494 282.29514 283.33527 284.28421 285.14389
 285.91708 286.60562 287.20709 287.97363
 366.78100 356.34564 345.78828 334.66493 323.07857 311.28321 299.16385 286.97750
 274.70014 262.60778 250.62742 239.93907 230.07171 221.18635 213.37899 206.39164
 200.23628 195.18492 191.77756 189.83021 188.87785 188.95249 189.79813 191.11678
 192.85242 194.95806 197.23170 199.60135 202.05699 204.54763 206.64627 208.49892
 210.13556 211.29120 211.53084 211.76949 211.71713 211.43277 211.07641 210.71706
 210.34470 210.06534 209.88398 209.75863 209.69727 210.03891 210.43555 210.83519
 211.63884 212.82748 214.08812 215.88176 217.82041 219.87405 221.97969 224.07333
 226.14398 228.23862 230.34626 232.46290 234.60255 236.78519 239.05183 241.43247
 244.06412 246.32576 248.33840 250.11404 251.54169 252.67533 253.50797 253.83461
 253.88226 253.66690 253.03754 251.99618 250.61283 248.78447 246.70411 244.54775
 242.34940 240.16404 237.99468 235.84432 233.71497 231.59261 229.62925 227.79689
 226.09054 224.57318 223.21382 221.99646 220.88911 219.85975 218.97439 218.12603
 217.37867 216.56932 215.67796 215.05260 214.51324 215.10271 216.46440 217.07538
 217.88239 218.68881 219.33575 219.06642 218.73250 219.75694 222.47850 225.70676
 229.34944 233.74117 238.30531 242.58795 246.67496 250.70543 254.58643 258.05011
 261.08130 263.83884 266.43091 268.75870 270.89725 272.98630 275.03299 276.92456
 278.52597 279.73050 280.53802 281.04623 281.85748 282.86722 283.78845 284.62305
 285.37366 286.04208 286.62601 287.37015
 366.78100 356.34485 345.78670 334.66255 323.07540 311.27926 299.15911 286.97196
 274.69381 262.60066 250.61951 239.93036 230.06221 221.17606 213.36792 206.37977
 200.22362 195.17147 191.76332 189.81517 188.86202 188.93587 189.78072 191.09858
 192.83343 194.93828 197.21113 199.57998 202.03483 204.52468 206.62253 208.47438
 210.11024 211.26509 211.50394 211.74179 211.68864 211.40349 211.04634 210.68619
 210.31305 210.03290 209.85075 209.72460 209.66245 210.00330 210.39915 210.79800
 211.60085 212.78871 214.04856 215.84141 217.77926 219.83211 221.93696 224.02981
 226.09966 228.19351 230.30037 232.41622 234.55507 236.73692 239.00277 241.38262
 244.01347 246.27432 248.28617 250.06103 251.48788 252.62073 253.45258 253.77843
 253.82528 253.60913 252.97898 251.93683 250.55269 248.72354 246.64239 244.48524
 242.28609 240.09994 237.92979 235.77864 233.64849 231.52535 229.56120 227.72805
 226.02090 224.50275 223.14260 221.92445 220.81630 219.78615 218.90001 218.05086
 217.30271 216.49256 215.60041 214.97426 214.43411 215.06055 216.50613 217.03658
 217.88835 218.77475 219.34015 218.85040 218.39508 219.44638 222.28117 225.57999
 229.36609 233.79774 238.38274 242.68965 246.80852 250.85448 254.69923 258.13028
 261.15891 263.94278 266.56512 268.91522 271.07236 273.18036 275.23398 277.12854
 278.71683 279.89685 280.64749 281.02072 281.36255 282.29868 283.27679 284.16290
 284.95987 285.66956 286.28955 287.07962
 366.78100 356.34595 345.78889 334.66584 323.07978 311.28473 299.16567 286.97962
 274.70256 262.61051 250.63045 239.94240 230.07534 221.19029 213.38323 206.39618
 200.24113 195.19007 191.78302 189.83596 188.88391 188.95885 189.80480 191.12374
 192.85969 194.96563 197.23958 199.60952 202.06547 204.55641 206.65536 208.50831
 210.14525 211.30120 211.54114 211.78009 211.72803 211.44398 211.08792 210.72887
 210.35681 210.07776 209.89670 209.77165 209.71059 210.05254 210.44949 210.84943
 211.65338 212.84232 214.10327 215.89721 217.83616 219.89010 221.99605 224.08999
 226.16094 228.25588 230.36383 232.48077 234.62072 236.80367 239.07061 241.45156
 244.08350 246.34545 248.35839 250.13434 251.56228 252.69623 253.52917 253.85612
 253.90406 253.68901 253.05995 252.01890 250.63585 248.80779 246.72774 244.57168
 242.37363 240.18857 238.01952 235.86946 233.74041 231.61835 229.65530 227.82324
 226.11719 224.60013 223.24108 222.02403 220.91697 219.88792 219.00286 218.15481
 217.40775 216.59870 215.70764 215.08259 214.54353 215.10573 216.42491 217.14757
 217.79614 218.69748 219.28647 218.73814 218.17621 219.14545 222.13896 225.47214
 229.39880 233.86519 238.48016 242.80489 246.93842 250.97961 254.80412 258.21530
 261.22238 263.99359 266.59958 268.96802 271.16010 273.32654 275.42068 277.33658
 278.95374 280.12903 280.86017 281.21399 281.48050 281.90079 282.84195 283.73688
 284.54175 285.25851 285.88467 286.68262
 366.78100 356.34678 345.79057 334.66835 323.08314 311.28892 299.17071 286.98549
 274.70927 262.61806 250.63884 239.95163 230.08541 221.20120 213.39498 206.40876
 200.25455 195.20433 191.79812 189.85190 188.90069 188.97647 189.82325 191.14304
 192.87982 194.98661 197.26139 199.63218 202.08896 204.58074 206.68053 208.53431
 210.17210 211.32888 211.56966 211.80945 211.75823 211.47502 211.11980 210.76159
 210.39037 210.11215 209.93194 209.80772 209.74751 210.09029 210.48808 210.88886
 211.69364 212.88343 214.14521 215.94000 217.87978 219.93457 222.04135 224.13613
 226.20792 228.30370 230.41249 232.53027 234.67106 236.85484 239.12262 241.50441
 244.13719 246.39998 248.41376 250.19055 251.61933 252.75411 253.58790 253.91568
 253.96447 253.75025 253.12204 252.08182 250.69960 248.87239 246.79317 244.63796
 242.44074 240.25653 238.08831 235.93909 233.81088 231.68966 229.72745 227.89623
 226.19102 224.67480 223.31658 222.10037 220.99415 219.96594 219.08172 218.23450
 217.48829 216.68007 215.78986 215.16564 214.62743 215.13902 216.34833 217.25163
 217.85846 218.77667 219.28793 218.64113 217.97168 218.84479 222.00348 225.37555
 229.43666 233.93980 238.58624 242.91560 247.05418 251.07527 254.87135 258.25754
 261.24512 264.00027 266.59177 268.98474 271.24319 273.45575 275.59283 277.53125
 279.13602 280.29556 280.97876 281.25131 281.42221 281.79446 282.51376 283.35175
 284.14294 284.84747 285.46295 286.24731
 366.78100 356.34674 345.79048 334.66823 323.08297 311.28871 299.17045 286.98520
 274.70894 262.61768 250.63842 239.95117 230.08491 221.20065 213.39439 206.40814
 200.25388 195.20362 191.79736 189.85111 188.89985 188.97559 189.82233 191.14208
 192.87882 194.98556 197.26030 199.63105 202.08779 204.57953 206.67927 208.53302
 210.17076 211.32750 211.56824 211.80799 211.75673 211.47347 211.11821 210.75996
 210.38870 210.11044 209.93018 209.80593 209.74567 210.08841 210.48615 210.88690
 211.69164 212.88138 214.14312 215.93787 217.87761 219.93235 222.03909 224.13383
 226.20558 228.30132 230.41006 232.52780 234.66855 236.85229 239.12003 241.50177
 244.13452 246.39726 248.41100 250.18774 251.61649 252.75123 253.58497 253.91271
 253.96146 253.74720 253.11894 252.07868 250.69643 248.86917 246.78991 244.63465
 242.43740 240.25314 238.08488 235.93562 233.80737 231.68611 229.72385 227.89259
 226.18734 224.67108 223.31282 222.09656 220.99031 219.96205 219.07779 218.23053
 217.48428 216.67602 215.78576 215.16150 214.62325 215.13326 216.33873 217.27094
 217.93088 218.84093 219.20535 218.49576 217.80840 218.59818 221.82356 225.31821
 229.47568 234.02200 238.68950 243.02902 247.18153 251.19110 254.95410 258.30356
 261.28589 264.05157 266.64584 269.04446 271.33493 273.59528 275.76544 277.71036
 279.32816 280.41742 280.96646 281.12115 281.24319 281.59100 282.27704 283.05481
 283.82666 284.51730 285.12067 285.88956
 366.78100 356.34641 345.78982 334.66723 323.08163 311.28704 299.16845 286.98286
 274.70627 262.61468 250.63508 239.94749 230.08090 221.19631 213.38972 206.40313
 200.24854 195.19794 191.79135 189.84476 188.89317 188.96858 189.81499 191.13439
 192.87080 194.97721 197.25162 199.62203 202.07844 204.56984 206.66925 208.52266
 210.16007 211.31648 211.55689 211.79630 211.74470 211.46111 211.10552 210.74693
 210.37534 210.09675 209.91615 209.79156 209.73097 210.07338 210.47079 210.87120
 211.67560 212.86501 214.12642 215.92083 217.86024 219.91465 222.02106 224.11546
 226.18687 228.28228 230.39069 232.50810 234.64851 236.83191 239.09932 241.48073
 244.11314 246.37555 248.38896 250.16537 251.59377 252.72818 253.56159 253.88900
 253.93741 253.72282 253.09422 252.05363 250.67104 248.84345 246.76386 244.60827
 242.41067 240.22608 238.05749 235.90790 233.77931 231.65772 229.69513 227.86353
 226.15794 224.64135 223.28276 222.06617 220.95958 219.93098 219.04639 218.19880
 217.45221 216.64362 215.75303 215.12844 214.58984 215.11646 216.36066 217.26398
 217.99846 218.86946 219.11636 218.33527 217.61548 218.39005 221.66309 225.28159
 229.51375 234.10283 238.79022 243.14720 247.31964 251.33067 255.07599 258.39328
 261.35706 264.12112 266.72305 269.13019 271.44214 273.73734 275.93228 277.87457
 279.45419 280.48215 280.90500 280.94592 281.06213 281.39084 282.10394 282.91803
 283.67953 284.36530 284.96439 285.72784
 366.78100 356.34596 345.78892 334.66588 323.07984 311.28480 299.16576 286.97972
 274.70268 262.61064 250.63060 239.94256 230.07553 221.19049 213.38345 206.39641
 200.24137 195.19033 191.78329 189.83625 188.88421 188.95917 189.80513 191.12409
 192.86005 194.96601 197.23997 199.60993 202.06589 204.55685 206.65581 208.50877
 210.14573 211.30169 211.54165 211.78062 211.72858 211.44454 211.08850 210.72946
 210.35742 210.07838 209.89734 209.77230 209.71126 210.05322 210.45018 210.85014
 211.65410 212.84306 214.10402 215.89798 217.83694 219.89090 221.99686 224.09082
 226.16178 228.25675 230.36471 232.48167 234.62163 236.80459 239.07155 241.45251
 244.08447 246.34643 248.35939 250.13535 251.56331 252.69727 253.53023 253.85719
 253.90515 253.69011 253.06107 252.02003 250.63699 248.80895 246.72891 244.57287
 242.37484 240.18980 238.02076 235.87072 233.74168 231.61964 229.65660 227.82456
 226.11852 224.60148 223.24244 222.02540 220.91836 219.88932 219.00428 218.15624
 217.40920 216.60016 215.70912 215.08408 214.54504 215.09494 216.39395 217.27829
 218.02142 218.82074 219.02605 218.21333 217.44795 218.19051 221.47926 225.26280
 229.56668 234.19164 238.89049 243.26804 247.45700 251.46510 255.18587 258.48044
 261.43103 264.18613 266.78543 269.19855 271.54242 273.88174 276.09241 278.01767
 279.56461 280.52698 280.81918 280.72937 280.81033 281.18344 281.94766 282.77258
 283.55978 284.27231 284.89474 285.68799
 366.78100 356.34570 345.78840 334.66510 323.07880 311.28350 299.16421 286.97791
 274.70061 262.60831 250.62801 239.93971 230.07241 221.18711 213.37981 206.39251
 200.23721 195.18592 191.77862 189.83132 188.87902 188.95372 189.79942 191.11812
 192.85382 194.95952 197.23322 199.60292 202.05862 204.54933 206.64803 208.50073
 210.13743 211.29313 211.53283 211.77153 211.71923 211.43493 211.07863 210.71933
 210.34704 210.06774 209.88644 209.76114 209.69984 210.04154 210.43824 210.83794
 211.64164 212.83034 214.09104 215.88475 217.82345 219.87715 221.98285 224.07655
 226.14725 228.24195 230.34965 232.46635 234.60605 236.78875 239.05546 241.43616
 244.06786 246.32956 248.34226 250.11796 251.54566 252.67936 253.51206 253.83876
 253.88646 253.67116 253.04187 252.00057 250.61727 248.78897 246.70867 244.55237
 242.35407 240.16877 237.99947 235.84917 233.71987 231.59758 229.63428 227.80198
 226.09568 224.57838 223.21908 222.00178 220.89448 219.86518 218.97988 218.13158
 217.38429 216.57499 215.68369 215.05839 214.51909 215.08269 216.41409 217.32552
 218.05820 218.72644 218.85890 218.02762 217.25774 218.04103 221.38127 225.26608
 229.60872 234.26376 238.97754 243.37456 247.57909 251.58879 255.30804 258.60263
 261.54446 264.27438 266.86395 269.28751 271.64450 274.00537 276.24670 278.18536
 279.72150 280.61871 280.76984 280.54730 280.54254 280.85593 281.55829 282.38211
 283.19385 283.93475 284.58200 285.40683
 354.97500 345.04800 334.58700 324.11500 313.32600 302.53700 291.65000 280.76700
 269.93100 259.19300 248.62200 238.61700 229.08700 220.35500 212.54000 205.53500
 199.46400 194.49300 191.14300 189.19000 188.08900 188.01400 188.72400 189.90600
 191.46900 193.38200 195.40300 197.55600 199.80700 202.06000 204.28800 206.47900
 208.55200 210.37800 212.02500 213.65900 214.99800 216.11800 217.17200 218.25900
 219.49400 220.64500 221.67900 222.61400 223.54500 224.98200 226.57100 228.19000
 229.79700 231.81100 233.86500 235.97200 238.24200 240.55300 242.89900 245.25300
 247.48800 249.53500 251.36600 252.84800 254.09800 255.16700 256.02700 256.25300
 256.09500 255.54300 253.93500 252.56600 251.38400 250.24500 249.05200 247.70100
 246.01600 243.99600 241.78400 239.39300 236.81300 234.22300 231.65800 229.14400
 226.74000 224.47300 222.33500 220.32500 218.44000 216.67700 214.96200 213.47200
 212.20000 211.10800 210.26000 209.63900 209.24400 209.03100 209.05800 209.33300
 209.78400 210.62600 211.33100 212.39100 213.62500 214.84668 217.72949 219.47640
 220.32566 220.86828 220.88710 220.27371 219.43733 218.84250 219.04934 220.86203
 222.60583 225.72206 229.03064 232.61777 236.12270 239.51333 242.70767 245.68587
 248.41061 250.90679 253.19353 254.91714 256.48655 257.94920 259.39966 260.69384
 261.81714 262.77997 263.71679 264.54570 265.26305 265.89772 266.47676 267.00133
 267.47312 267.89325 268.26027 268.72800
